Sample_index,EXG Channel 0,EXG Channel 1,EXG Channel 2,EXG Channel 3,EXG Channel 4,EXG Channel 5,EXG Channel 6,EXG Channel 7,EXG Channel 8,EXG Channel 9,EXG Channel 10,EXG Channel 11,EXG Channel 12,EXG Channel 13,EXG Channel 14,EXG Channel 15,Accel Channel 0,Accel Channel 1,Accel Channel 2,Not Used,Digital Channel 0 (D11),Digital Channel 1 (D12),Digital Channel 2 (D13),Digital Channel 3 (D17),Not Used,Digital Channel 4 (D18),Analog Channel 0,Analog Channel 1,Analog Channel 2,Timestamp,Marker Channel
90.000000,9383.999930,-7701.114738,-2126.366154,-2348.766011,-2735.048859,-13305.613495,-1954.794163,1308.381713,-2610.706104,-14485.830305,-3241.137056,-3461.927588,768.609437,13657.608766,513.061942,-5276.442203,0.004000,-0.016000,1.002000,192.000000,0.000000,0.000000,0.000000,0.000000,0.000000,0.000000,0.000000,0.000000,0.000000,1770024284.741285,101.000000
92.000000,9352.931005,-7732.563643,-2153.367061,-2374.559924,-2751.365632,-13337.196510,-1975.603637,1273.714158,-2666.607817,-14542.044943,-3298.491633,-3525.875929,712.752427,13606.758548,475.734529,-5301.185584,0.004000,-0.016000,1.002000,192.000000,0.000000,0.000000,0.000000,0.000000,0.000000,0.000000,0.000000,0.000000,0.000000,1770024284.741358,0.000000
94.000000,9396.628666,-7681.735776,-2116.732552,-2336.427848,-2713.725294,-13295.801079,-1947.462791,1308.493472,-2638.019936,-14510.953666,-3275.201115,-3493.443548,747.576445,13636.754589,505.060018,-5287.774538,0.008000,-0.012000,1.010000,192.000000,0.000000,32.000000,127.500000,80.000000,15.500000,72.000000,0.000000,0.000000,0.000000,1770024284.741417,0.000000
96.000000,9371.594712,-7707.239116,-2152.718860,-2366.356834,-2749.912769,-13335.274259,-1973.949608,1287.371074,-2637.148218,-14506.528021,-3275.067005,-3492.348312,740.468590,13639.213281,500.857890,-5288.780366,0.008000,-0.012000,1.010000,192.000000,0.000000,0.000000,0.000000,0.000000,0.000000,0.000000,0.000000,0.000000,0.000000,1770024284.741460,0.000000
98.000000,9409.995009,-7670.358738,-2117.626621,-2339.914720,-2722.286012,-13294.392919,-1950.077945,1323.782065,-2645.552474,-14519.022646,-3279.202077,-3505.334676,733.450143,13627.366856,480.383692,-5294.390654,0.008000,-0.012000,1.010000,192.000000,0.000000,0.000000,0.000000,0.000000,0.000000,0.000000,0.000000,0.000000,0.000000,1770024284.741513,0.000000
100.000000,9397.500384,-7691.279971,-2125.136808,-2344.563883,-2727.069286,-13290.123736,-1952.179009,1315.802493,-2608.761502,-14473.380384,-3239.550083,-3460.184152,760.629864,13664.023717,513.777198,-5263.411136,0.008000,-0.012000,1.010000,192.000000,0.000000,0.000000,0.000000,0.000000,0.000000,0.000000,0.000000,0.000000,0.000000,1770024284.741568,0.000000
102.000000,9373.427555,-7717.587974,-2147.868532,-2364.233418,-2728.544501,-13309.122718,-1971.915599,1287.192260,-2657.063622,-14530.980829,-3292.881345,-3515.728237,726.297584,13619.454338,484.652875,-5281.404290,0.008000,-0.012000,1.010000,192.000000,0.000000,0.000000,0.000000,0.000000,0.000000,0.000000,0.000000,0.000000,0.000000,1770024284.741611,0.000000
104.000000,9412.900735,-7665.910741,-2111.077560,-2331.823389,-2688.601934,-13267.503770,-1945.294672,1313.656725,-2627.671078,-14497.095585,-3271.244856,-3488.079129,754.170210,13654.054839,519.633355,-5269.759032,0.006000,-0.011000,1.009000,192.000000,0.000000,16.000000,127.500000,88.000000,15.500000,64.000000,0.000000,0.000000,0.000000,1770024284.741630,0.000000
106.000000,9393.030035,-7701.315904,-2145.007508,-2363.227590,-2732.120780,-13315.023579,-1969.121631,1293.786024,-2623.580709,-14496.380329,-3268.920275,-3487.207411,755.041928,13649.673897,509.753884,-5280.800793,0.006000,-0.011000,1.009000,192.000000,0.000000,0.000000,0.000000,0.000000,0.000000,0.000000,0.000000,0.000000,0.000000,1770024284.741659,0.000000
108.000000,9419.360390,-7669.107040,-2114.720895,-2341.591101,-2717.167463,-13300.584352,-1945.562893,1326.866606,-2632.141427,-14513.457061,-3276.117537,-3501.043141,740.356832,13627.813891,481.791852,-5299.509203,0.006000,-0.011000,1.009000,192.000000,0.000000,0.000000,0.000000,0.000000,0.000000,0.000000,0.000000,0.000000,0.000000,1770024284.741679,0.000000
110.000000,9404.004741,-7677.444241,-2122.879281,-2350.218874,-2737.038164,-13314.978876,-1947.283977,1319.468179,-2610.840215,-14477.649567,-3239.483027,-3464.900370,767.268332,13658.502836,505.283535,-5292.490756,0.006000,-0.011000,1.009000,192.000000,0.000000,0.000000,0.000000,0.000000,0.000000,0.000000,0.000000,0.000000,0.000000,1770024284.741699,0.000000
112.000000,9381.049500,-7705.965067,-2149.209636,-2366.356834,-2762.317987,-13340.124588,-1962.751384,1300.133920,-2653.800267,-14523.224774,-3285.751138,-3508.776845,715.948727,13611.608876,465.072747,-5314.127244,0.006000,-0.011000,1.009000,192.000000,0.000000,0.000000,0.000000,0.000000,0.000000,0.000000,0.000000,0.000000,0.000000,1770024284.741714,0.000000
114.000000,9426.691762,-7662.289758,-2112.105741,-2333.767990,-2725.325850,-13305.591143,-1938.164465,1329.057077,-2629.414514,-14495.843887,-3261.164220,-3472.701129,743.933111,13639.257984,492.163061,-5300.470328,0.005000,-0.008500,1.008500,192.000000,0.000000,16.000000,127.500000,104.000000,15.500000,64.000000,0.000000,0.000000,0.000000,1770024284.741728,0.000000
116.000000,9386.905657,-7704.132224,-2149.120229,-2365.887447,-2760.865123,-13339.699905,-1969.099280,1296.959972,-2624.810055,-14498.570800,-3261.678310,-3481.150088,750.281006,13639.213281,496.432244,-5299.933887,0.005000,-0.008500,1.008500,192.000000,0.000000,0.000000,0.000000,0.000000,0.000000,0.000000,0.000000,0.000000,0.000000,1770024284.741741,0.000000
118.000000,9412.476052,-7673.800906,-2123.214558,-2345.703822,-2728.008059,-13313.190736,-1952.916617,1316.920080,-2641.864436,-14519.112053,-3280.476127,-3506.228746,727.549282,13618.649676,471.532401,-5308.673419,0.005000,-0.008500,1.008500,192.000000,0.000000,0.000000,0.000000,0.000000,0.000000,0.000000,0.000000,0.000000,0.000000,1770024284.741754,0.000000
120.000000,9410.486747,-7675.790212,-2124.980345,-2347.313147,-2725.459960,-13309.659160,-1952.581340,1313.880243,-2610.951973,-14480.868218,-3249.183684,-3468.051966,759.109945,13656.692345,518.761637,-5281.337235,0.005000,-0.008500,1.008500,192.000000,0.000000,0.000000,0.000000,0.000000,0.000000,0.000000,0.000000,0.000000,0.000000,1770024284.741768,0.000000
122.000000,9386.637436,-7701.070035,-2149.164933,-2361.685319,-2744.414239,-13330.222765,-1969.725128,1295.305943,-2648.927587,-14517.547431,-3289.595638,-3510.296763,725.403515,13608.971370,484.585820,-5295.530593,0.005000,-0.008500,1.008500,192.000000,0.000000,0.000000,0.000000,0.000000,0.000000,0.000000,0.000000,0.000000,0.000000,1770024284.741781,0.000000
124.000000,9426.244727,-7661.440392,-2113.558604,-2325.117865,-2706.885661,-13275.975081,-1944.937044,1326.017240,-2625.234738,-14495.620369,-3262.728842,-3479.406652,744.380146,13640.263813,502.802492,-5272.061261,0.001500,-0.009250,1.003250,192.000000,127.500000,120.000000,127.500000,88.000000,15.500000,24.000000,0.000000,0.000000,0.000000,1770024284.741794,0.000000
126.000000,9403.110671,-7686.451994,-2143.711107,-2353.616339,-2720.363762,-13298.729157,-1973.010835,1299.195146,-2620.652630,-14490.188895,-3261.074813,-3476.635036,751.778573,13651.238519,508.725704,-5257.107944,0.001500,-0.009250,1.003250,192.000000,0.000000,0.000000,0.000000,0.000000,0.000000,0.000000,0.000000,0.000000,0.000000,1770024284.741808,0.000000
128.000000,9438.448779,-7654.243130,-2115.078523,-2337.925415,-2690.837108,-13275.572750,-1952.246064,1324.251452,-2627.045229,-14506.840945,-3274.016473,-3498.316228,747.285872,13635.011153,495.493471,-5271.167191,0.001500,-0.009250,1.003250,192.000000,0.000000,0.000000,0.000000,0.000000,0.000000,0.000000,0.000000,0.000000,0.000000,1770024284.741821,0.000000
130.000000,9437.487654,-7650.912720,-2118.185415,-2345.301490,-2708.763207,-13295.152878,-1949.921483,1323.469141,-2589.494299,-14465.937253,-3234.722106,-3464.676853,779.181812,13667.041202,524.796608,-5267.970892,0.001500,-0.009250,1.003250,192.000000,0.000000,0.000000,0.000000,0.000000,0.000000,0.000000,0.000000,0.000000,0.000000,1770024284.741835,0.000000
132.000000,9409.860898,-7680.975816,-2144.649880,-2366.714462,-2740.323870,-13338.470559,-1967.244085,1302.927888,-2632.543758,-14510.372521,-3273.949417,-3501.512528,736.132352,13617.509737,480.942485,-5306.482948,0.001500,-0.009250,1.003250,192.000000,0.000000,0.000000,0.000000,0.000000,0.000000,0.000000,0.000000,0.000000,0.000000,1770024284.741848,0.000000
134.000000,9437.375896,-7657.730002,-2109.132959,-2332.002203,-2708.740855,-13300.941980,-1941.025488,1333.080391,-2612.762465,-14493.273436,-3249.943644,-3469.594237,751.510352,13638.319211,499.159157,-5298.436320,0.001750,-0.008625,1.004625,192.000000,0.000000,8.000000,127.500000,96.000000,15.500000,56.000000,0.000000,0.000000,0.000000,1770024284.741861,0.000000
136.000000,9411.000837,-7689.424776,-2145.856875,-2365.552171,-2739.720373,-13339.521091,-1971.893248,1301.944411,-2612.181319,-14495.039224,-3253.631682,-3471.203562,751.420945,13638.810949,500.634372,-5295.731759,0.001750,-0.008625,1.004625,192.000000,0.000000,0.000000,0.000000,0.000000,0.000000,0.000000,0.000000,0.000000,0.000000,1770024284.741876,0.000000
138.000000,9434.917204,-7659.629900,-2116.531386,-2345.390897,-2720.162597,-13315.135338,-1951.731974,1322.262147,-2632.387296,-14515.848698,-3274.441156,-3500.909031,737.808733,13613.955809,481.702445,-5310.707427,0.001750,-0.008625,1.004625,192.000000,0.000000,0.000000,0.000000,0.000000,0.000000,0.000000,0.000000,0.000000,0.000000,1770024284.741892,0.000000
140.000000,9433.218471,-7653.058488,-2120.331183,-2345.815581,-2722.375419,-13317.817547,-1949.340337,1321.055153,-2600.021970,-14478.521285,-3240.086524,-3461.279388,766.664835,13649.740952,519.812169,-5292.669570,0.001750,-0.008625,1.004625,192.000000,0.000000,0.000000,0.000000,0.000000,0.000000,0.000000,0.000000,0.000000,0.000000,1770024284.741904,0.000000
142.000000,9406.955171,-7685.870848,-2148.293215,-2366.088613,-2750.605673,-13342.560928,-1968.339320,1298.301077,-2640.992718,-14520.319047,-3279.716167,-3504.552365,723.123637,13612.547649,480.629561,-5309.947468,0.001750,-0.008625,1.004625,192.000000,0.000000,0.000000,0.000000,0.000000,0.000000,0.000000,0.000000,0.000000,0.000000,1770024284.741918,0.000000
144.000000,9436.392419,-7660.188694,-2117.604270,-2334.349136,-2713.412370,-13294.884657,-1945.227616,1323.223272,-2625.435904,-14494.525134,-3260.739536,-3481.284199,745.676547,13640.621440,506.423474,-5286.902820,0.001750,-0.008625,1.004625,192.000000,0.000000,0.000000,127.500000,104.000000,15.500000,64.000000,0.000000,0.000000,0.000000,1770024284.741930,0.000000
146.000000,9403.557706,-7694.655084,-2156.272788,-2366.222723,-2746.962338,-13323.271373,-1977.570591,1287.393425,-2629.727439,-14498.101413,-3268.741461,-3488.257943,733.986584,13633.066551,502.914250,-5276.241037,0.001750,-0.008625,1.004625,192.000000,0.000000,0.000000,0.000000,0.000000,0.000000,0.000000,0.000000,0.000000,0.000000,1770024284.741944,0.000000
148.000000,9429.731599,-7666.938921,-2127.014354,-2342.373412,-2717.234518,-13296.359872,-1959.800954,1311.421551,-2650.916892,-14526.465777,-3291.696702,-3509.469749,717.669811,13614.246382,481.657741,-5282.454822,0.001750,-0.008625,1.004625,192.000000,0.000000,0.000000,0.000000,0.000000,0.000000,0.000000,0.000000,0.000000,0.000000,1770024284.741958,0.000000
150.000000,9428.055218,-7672.482153,-2126.209691,-2341.099363,-2714.999344,-13285.988663,-1958.906884,1309.208728,-2613.164796,-14486.992596,-3252.156467,-3461.860533,758.461745,13655.328888,519.588652,-5263.031156,0.001750,-0.008625,1.004625,192.000000,0.000000,0.000000,0.000000,0.000000,0.000000,0.000000,0.000000,0.000000,0.000000,1770024284.741971,0.000000
152.000000,9411.604334,-7692.554020,-2148.650843,-2361.662967,-2729.192701,-13316.588201,-1975.916562,1289.494489,-2649.307567,-14528.656248,-3291.897868,-3506.809891,721.357849,13614.827527,489.793776,-5286.858116,0.001750,-0.008625,1.004625,192.000000,0.000000,0.000000,0.000000,0.000000,0.000000,0.000000,0.000000,0.000000,0.000000,1770024284.741984,0.000000
154.000000,9449.758762,-7649.750429,-2115.145578,-2336.025517,-2697.922611,-13285.072241,-1948.379212,1318.082371,-2616.070523,-14497.967303,-3264.338167,-3483.474670,754.237265,13640.330868,512.369038,-5280.085537,0.001875,-0.008313,1.005313,192.000000,0.000000,8.000000,127.500000,96.000000,15.500000,56.000000,0.000000,0.000000,0.000000,1770024284.741997,0.000000
156.000000,9418.041637,-7682.182811,-2150.662500,-2370.760127,-2734.132437,-13329.127530,-1974.553105,1288.913344,-2622.105494,-14495.620369,-3267.266246,-3493.309437,749.521047,13633.021847,506.848157,-5286.567543,0.001875,-0.008313,1.005313,192.000000,0.000000,0.000000,0.000000,0.000000,0.000000,0.000000,0.000000,0.000000,0.000000,1770024284.742010,0.000000
158.000000,9459.101791,-7655.159552,-2121.895805,-2341.456990,-2716.183986,-13304.182983,-1952.670747,1321.993926,-2634.868340,-14523.224774,-3280.274961,-3510.587336,726.476398,13610.044254,481.434224,-5303.286648,0.001875,-0.008313,1.005313,192.000000,0.000000,0.000000,0.000000,0.000000,0.000000,0.000000,0.000000,0.000000,0.000000,1770024284.742023,0.000000
160.000000,9451.949233,-7655.137200,-2122.812226,-2337.299566,-2716.720428,-13312.184907,-1953.855390,1323.044458,-2592.869412,-14475.101468,-3238.343088,-3448.002451,767.424794,13655.485351,516.370000,-5284.622942,0.001875,-0.008313,1.005313,192.000000,0.000000,0.000000,0.000000,0.000000,0.000000,0.000000,0.000000,0.000000,0.000000,1770024284.742036,0.000000
162.000000,9423.026076,-7684.373282,-2144.649880,-2363.562866,-2746.649414,-13344.907861,-1972.183820,1297.675228,-2631.135599,-14519.246163,-3276.676330,-3491.744815,725.023535,13609.440757,481.277762,-5309.567488,0.001875,-0.008313,1.005313,192.000000,0.000000,0.000000,0.000000,0.000000,0.000000,0.000000,0.000000,0.000000,0.000000,1770024284.742049,0.000000
164.000000,9452.195102,-7650.108057,-2116.643145,-2340.495865,-2717.458036,-13307.066358,-1952.357823,1314.126112,-2619.892671,-14501.543582,-3261.790068,-3478.669045,744.089573,13627.612725,503.495396,-5299.151575,-0.000063,-0.008156,1.003656,192.000000,127.500000,120.000000,127.500000,96.000000,15.500000,40.000000,0.000000,0.000000,0.000000,1770024284.742062,0.000000
166.000000,9415.381779,-7697.605514,-2155.199904,-2371.542438,-2745.889455,-13341.577451,-1981.191573,1284.465347,-2632.096724,-14510.238410,-3272.161278,-3493.130623,744.916587,13623.030618,500.008523,-5295.351779,-0.000063,-0.008156,1.003656,192.000000,0.000000,0.000000,0.000000,0.000000,0.000000,0.000000,0.000000,0.000000,0.000000,1770024284.742076,0.000000
168.000000,9453.849131,-7654.310185,-2125.874415,-2339.914720,-2716.474559,-13308.787442,-1957.029338,1319.222309,-2645.239549,-14526.778701,-3283.135984,-3504.820586,724.218872,13608.747853,483.959971,-5302.929020,-0.000063,-0.008156,1.003656,192.000000,0.000000,0.000000,0.000000,0.000000,0.000000,0.000000,0.000000,0.000000,0.000000,1770024284.742089,0.000000
170.000000,9458.163018,-7647.604662,-2127.550796,-2335.265557,-2718.553271,-13304.920591,-1951.016718,1323.379734,-2605.118168,-14476.330814,-3241.897016,-3451.243454,756.606550,13656.669993,518.202843,-5273.961159,-0.000063,-0.008156,1.003656,192.000000,0.000000,0.000000,0.000000,0.000000,0.000000,0.000000,0.000000,0.000000,0.000000,1770024284.742102,0.000000
172.000000,9434.492521,-7675.790212,-2151.042479,-2357.907874,-2739.385097,-13323.852518,-1969.725128,1303.889013,-2644.546645,-14517.212155,-3279.939685,-3495.186984,716.686334,13620.594277,478.372035,-5292.513107,-0.000063,-0.008156,1.003656,192.000000,0.000000,0.000000,0.000000,0.000000,0.000000,0.000000,0.000000,0.000000,0.000000,1770024284.742115,0.000000
174.000000,9471.216437,-7636.428790,-2112.776293,-2325.274327,-2706.908012,-13281.339500,-1943.662994,1330.331126,-2618.685677,-14490.323006,-3253.497571,-3466.822620,749.521047,13641.895490,501.126111,-5278.923247,-0.000063,-0.008156,1.003656,192.000000,0.000000,0.000000,0.000000,0.000000,0.000000,0.000000,0.000000,0.000000,0.000000,1770024284.742128,0.000000
176.000000,9428.524605,-7683.412157,-2151.042479,-2358.913703,-2732.657222,-13315.224745,-1974.083719,1294.233059,-2625.704125,-14498.012006,-3262.550028,-3474.936303,741.764991,13637.447493,507.049323,-5271.994206,-0.000063,-0.008156,1.003656,192.000000,0.000000,0.000000,127.500000,88.000000,15.500000,32.000000,0.000000,0.000000,0.000000,1770024284.742141,0.000000
178.000000,9451.591605,-7653.326708,-2128.735438,-2337.120752,-2711.646582,-13291.442489,-1956.917579,1311.801530,-2651.252169,-14522.889498,-3289.930915,-3512.598993,719.145026,13612.324132,483.401177,-5284.958218,-0.000063,-0.008156,1.003656,192.000000,0.000000,0.000000,0.000000,0.000000,0.000000,0.000000,0.000000,0.000000,0.000000,1770024284.742155,0.000000
180.000000,9449.423486,-7665.798982,-2132.982270,-2341.546397,-2711.266602,-13298.863268,-1954.749460,1312.986173,-2615.444674,-14483.550427,-3256.425650,-3467.940207,755.511314,13651.931423,519.678059,-5265.892180,-0.000063,-0.008156,1.003656,192.000000,0.000000,0.000000,0.000000,0.000000,0.000000,0.000000,0.000000,0.000000,0.000000,1770024284.742168,0.000000
182.000000,9431.989125,-7688.195430,-2149.723726,-2367.228552,-2737.664013,-13332.256774,-1972.474393,1297.295248,-2655.543704,-14534.937088,-3293.931877,-3506.921650,718.541529,13602.757585,482.149480,-5301.386750,-0.000063,-0.008156,1.003656,192.000000,0.000000,0.000000,0.000000,0.000000,0.000000,0.000000,0.000000,0.000000,0.000000,1770024284.742181,0.000000
184.000000,9472.423431,-7638.775723,-2111.725761,-2334.818522,-2698.682570,-13292.560076,-1948.848599,1328.721801,-2622.865453,-14495.955646,-3257.789106,-3476.232705,749.208122,13635.055856,509.195090,-5292.043721,-0.000063,-0.008156,1.003656,192.000000,0.000000,0.000000,0.000000,0.000000,0.000000,0.000000,0.000000,0.000000,0.000000,1770024284.742194,0.000000
186.000000,9437.398247,-7686.228476,-2146.773296,-2368.726119,-2738.178103,-13337.352972,-1976.475355,1294.680094,-2624.094799,-14502.147079,-3261.812420,-3481.530068,744.626015,13632.574812,506.132901,-5295.307075,-0.004000,-0.010000,1.006000,192.000000,127.500000,112.000000,127.500000,88.000000,15.500000,56.000000,0.000000,0.000000,0.000000,1770024284.742207,0.000000
188.000000,9460.286434,-7655.673642,-2122.655764,-2344.899159,-2724.297669,-13319.762149,-1954.727108,1318.931737,-2647.854703,-14527.873937,-3283.225391,-3507.189871,721.246090,13606.445623,482.931791,-5310.685076,-0.004000,-0.010000,1.006000,192.000000,0.000000,0.000000,0.000000,0.000000,0.000000,0.000000,0.000000,0.000000,0.000000,1770024284.742220,0.000000
190.000000,9457.514817,-7655.763049,-2129.920081,-2343.401592,-2729.282108,-13320.633867,-1954.391832,1317.992964,-2614.684715,-14485.338567,-3246.300309,-3461.391146,750.191599,13645.829397,514.917137,-5290.456747,-0.004000,-0.010000,1.006000,192.000000,0.000000,0.000000,0.000000,0.000000,0.000000,0.000000,0.000000,0.000000,0.000000,1770024284.742234,0.000000
192.000000,9442.941480,-7665.664871,-2152.584750,-2361.595912,-2746.023565,-13338.805835,-1971.267399,1297.898745,-2655.856628,-14526.398722,-3289.997970,-3507.703961,708.751465,13607.183231,476.606247,-5305.320657,-0.004000,-0.010000,1.006000,192.000000,0.000000,0.000000,0.000000,0.000000,0.000000,0.000000,0.000000,0.000000,0.000000,1770024284.742247,0.000000
194.000000,9474.323329,-7642.776685,-2117.447807,-2329.319993,-2709.076131,-13294.616436,-1947.753364,1323.960879,-2631.046192,-14496.849715,-3262.661786,-3486.648618,741.675585,13636.553423,504.098893,-5285.807584,-0.004000,-0.010000,1.006000,192.000000,0.000000,0.000000,0.000000,0.000000,0.000000,0.000000,0.000000,0.000000,0.000000,1770024284.742260,0.000000
196.000000,9431.899718,-7697.605514,-2152.629453,-2368.547305,-2739.139228,-13330.669800,-1979.358730,1283.325408,-2635.717706,-14507.824422,-3269.859048,-3486.223934,733.561901,13633.982972,502.310753,-5283.237133,-0.004000,-0.010000,1.006000,192.000000,0.000000,0.000000,127.500000,80.000000,15.500000,56.000000,0.000000,0.000000,0.000000,1770024284.742273,0.000000
198.000000,9463.661547,-7663.586159,-2119.750037,-2351.403517,-2709.187890,-13305.367625,-1958.616311,1309.476949,-2656.527180,-14541.843777,-3290.467356,-3517.225804,716.351058,13600.611818,485.010503,-5298.950410,-0.004000,-0.010000,1.006000,192.000000,0.000000,0.000000,0.000000,0.000000,0.000000,0.000000,0.000000,0.000000,0.000000,1770024284.742286,0.000000
200.000000,9475.083289,-7645.168322,-2117.514863,-2343.692165,-2710.663105,-13293.252980,-1954.816515,1319.624641,-2609.722627,-14488.400756,-3243.238120,-3463.067527,761.590989,13651.238519,521.622660,-5273.245904,-0.004000,-0.010000,1.006000,192.000000,0.000000,0.000000,0.000000,0.000000,0.000000,0.000000,0.000000,0.000000,0.000000,1770024284.742299,0.000000
202.000000,9450.474018,-7675.521991,-2146.750944,-2364.032252,-2732.009021,-13330.245117,-1972.161469,1300.513899,-2644.568997,-14524.699989,-3277.123365,-3501.579583,720.396724,13611.653580,486.195145,-5293.496584,-0.004000,-0.010000,1.006000,192.000000,0.000000,0.000000,0.000000,0.000000,0.000000,0.000000,0.000000,0.000000,0.000000,1770024284.742313,0.000000
204.000000,9483.062861,-7639.759200,-2119.459464,-2335.690240,-2705.432797,-13287.307416,-1946.412259,1321.770408,-2626.374677,-14502.214134,-3258.996100,-3477.707920,740.982680,13636.464016,502.355457,-5285.584067,-0.004000,-0.010000,1.006000,192.000000,0.000000,0.000000,0.000000,0.000000,0.000000,0.000000,0.000000,0.000000,0.000000,1770024284.742326,0.000000
206.000000,9439.566367,-7678.919456,-2154.283482,-2367.720290,-2739.832132,-13331.519166,-1975.938913,1290.232097,-2635.427133,-14507.578553,-3269.322606,-3485.642789,732.980756,13632.105426,501.237869,-5289.942657,-0.002000,-0.016000,1.008000,192.000000,127.500000,120.000000,127.500000,64.000000,15.500000,64.000000,0.000000,0.000000,0.000000,1770024284.742340,0.000000
208.000000,9473.116335,-7650.465685,-2125.673249,-2345.569711,-2715.424027,-13309.078015,-1957.565779,1314.930775,-2658.360023,-14529.215041,-3289.752101,-3508.307458,712.327744,13609.440757,484.250544,-5304.873622,-0.002000,-0.016000,1.008000,192.000000,0.000000,0.000000,0.000000,0.000000,0.000000,0.000000,0.000000,0.000000,0.000000,1770024284.742353,0.000000
210.000000,9473.809239,-7655.338365,-2126.164988,-2344.027441,-2719.156768,-13308.407463,-1955.196494,1313.924946,-2616.674020,-14489.495991,-3250.994176,-3462.598141,750.415117,13650.053877,517.152311,-5285.807584,-0.002000,-0.016000,1.008000,192.000000,0.000000,0.000000,0.000000,0.000000,0.000000,0.000000,0.000000,0.000000,0.000000,1770024285.222264,0.000000
212.000000,9445.154303,-7683.188639,-2146.907407,-2362.557037,-2739.519207,-13331.742684,-1972.832021,1291.394388,-2652.459163,-14534.467701,-3288.388644,-3511.771978,717.714514,13609.239591,482.082424,-5304.359532,-0.002000,-0.016000,1.008000,192.000000,0.000000,0.000000,0.000000,0.000000,0.000000,0.000000,0.000000,0.000000,0.000000,1770024285.222439,0.000000
214.000000,9480.179486,-7640.228586,-2115.950241,-2330.258766,-2712.473597,-13295.018768,-1944.400602,1320.161083,-2632.074372,-14506.304503,-3266.640397,-3483.362911,733.941881,13635.927574,501.819015,-5292.691921,-0.002000,-0.016000,1.008000,192.000000,0.000000,0.000000,0.000000,0.000000,0.000000,0.000000,0.000000,0.000000,0.000000,1770024285.222496,0.000000
216.000000,9440.751009,-7684.552095,-2161.011357,-2367.899104,-2755.768926,-13339.722257,-1973.793146,1282.923077,-2637.461142,-14507.712663,-3273.837659,-3490.269600,724.844721,13631.010190,491.313695,-5292.311942,-0.002000,-0.016000,1.006000,192.000000,127.500000,120.000000,127.500000,64.000000,15.500000,56.000000,0.000000,0.000000,0.000000,1770024285.222514,0.000000
218.000000,9461.180504,-7664.591988,-2137.877302,-2352.811677,-2726.599899,-13317.884602,-1961.365576,1300.916231,-2665.378471,-14538.289850,-3300.190365,-3515.437664,697.128558,13600.410652,470.772442,-5306.885279,-0.002000,-0.016000,1.006000,192.000000,0.000000,0.000000,0.000000,0.000000,0.000000,0.000000,0.000000,0.000000,0.000000,1770024285.222558,0.000000
220.000000,9462.029870,-7664.189656,-2135.642127,-2348.788363,-2722.241309,-13312.989570,-1958.705718,1305.051304,-2631.113247,-14499.710739,-3262.974711,-3472.611722,741.697936,13642.342525,514.090122,-5283.706520,-0.002000,-0.016000,1.006000,192.000000,0.000000,0.000000,0.000000,0.000000,0.000000,0.000000,0.000000,0.000000,0.000000,1770024285.222577,0.000000
222.000000,9450.675184,-7679.478249,-2153.992910,-2369.195505,-2742.827266,-13335.453073,-1974.866030,1290.522670,-2662.897427,-14536.099379,-3297.284639,-3511.436702,701.353038,13603.718710,479.757843,-5303.152538,-0.002000,-0.016000,1.006000,192.000000,0.000000,0.000000,0.000000,0.000000,0.000000,0.000000,0.000000,0.000000,0.000000,1770024285.222596,0.000000
224.000000,9496.272742,-7628.739790,-2111.077560,-2331.577519,-2705.991591,-13287.106250,-1946.926349,1328.498283,-2624.340668,-14504.359901,-3264.539333,-3481.887696,732.287852,13635.078208,504.478872,-5287.640427,-0.002000,-0.016000,1.006000,192.000000,0.000000,0.000000,0.000000,0.000000,0.000000,0.000000,0.000000,0.000000,0.000000,1770024285.222616,0.000000
226.000000,9457.604224,-7665.910741,-2152.093011,-2364.412232,-2733.730106,-13318.555155,-1979.403434,1293.741321,-2627.581671,-14499.263704,-3261.253626,-3486.894487,734.344212,13638.274507,503.227175,-5282.253657,-0.002000,-0.016000,1.006000,192.000000,0.000000,0.000000,127.500000,56.000000,15.500000,56.000000,0.000000,0.000000,0.000000,1770024285.222634,0.000000
228.000000,9483.621655,-7642.575519,-2129.316584,-2340.585272,-2710.171367,-13289.386128,-1958.146925,1317.501225,-2652.995605,-14523.358884,-3288.254534,-3503.501833,713.467683,13616.816833,480.473099,-5291.261410,-0.002000,-0.016000,1.006000,192.000000,0.000000,0.000000,0.000000,0.000000,0.000000,0.000000,0.000000,0.000000,0.000000,1770024285.222653,0.000000
230.000000,9480.939446,-7647.671717,-2134.681002,-2341.948729,-2719.939079,-13300.606704,-1959.868009,1313.679077,-2625.257090,-14487.707852,-3258.414955,-3458.664234,745.140105,13652.043182,513.508977,-5274.944636,-0.002000,-0.016000,1.006000,192.000000,0.000000,0.000000,0.000000,0.000000,0.000000,0.000000,0.000000,0.000000,0.000000,1770024285.222672,0.000000
232.000000,9461.091097,-7665.821334,-2150.126058,-2359.539552,-2741.776734,-13334.737818,-1974.553105,1298.122263,-2659.365852,-14529.527966,-3292.300200,-3504.150033,705.264593,13610.290123,477.075634,-5302.705503,-0.002000,-0.016000,1.006000,192.000000,0.000000,0.000000,0.000000,0.000000,0.000000,0.000000,0.000000,0.000000,0.000000,1770024285.222690,0.000000
234.000000,9498.284399,-7636.831121,-2116.240813,-2328.850607,-2714.306440,-13294.102346,-1949.094468,1326.732496,-2630.956785,-14507.220925,-3260.113688,-3480.166612,731.706706,13633.602993,498.063922,-5296.044683,-0.002000,-0.016000,1.006000,192.000000,0.000000,0.000000,0.000000,0.000000,0.000000,0.000000,0.000000,0.000000,0.000000,1770024285.222711,0.000000
236.000000,9457.134838,-7678.003034,-2157.233913,-2363.652273,-2739.139228,-13325.484195,-1979.023454,1284.711216,-2634.890692,-14510.126652,-3268.584999,-3487.877964,732.600776,13631.300763,497.058093,-5292.535459,-0.002000,-0.018000,1.012000,192.000000,127.500000,120.000000,127.500000,56.000000,15.500000,80.000000,0.000000,0.000000,0.000000,1770024285.222729,0.000000
238.000000,9482.548771,-7645.034211,-2137.027936,-2342.842799,-2712.741818,-13300.830221,-1961.499686,1303.687847,-2664.596160,-14532.612506,-3301.419711,-3514.074208,705.443407,13605.551553,479.869602,-5302.839613,-0.002000,-0.018000,1.012000,192.000000,0.000000,0.000000,0.000000,0.000000,0.000000,0.000000,0.000000,0.000000,0.000000,1770024285.222746,0.000000
240.000000,9483.018158,-7644.251900,-2136.737363,-2345.480304,-2716.943946,-13297.700977,-1960.024471,1308.135844,-2631.113247,-14487.037300,-3265.612217,-3465.615626,745.229512,13648.422199,514.715971,-5281.069014,-0.002000,-0.018000,1.012000,192.000000,0.000000,0.000000,0.000000,0.000000,0.000000,0.000000,0.000000,0.000000,0.000000,1770024285.222764,0.000000
242.000000,9476.759669,-7659.249921,-2146.974462,-2364.881619,-2732.612518,-13319.046893,-1971.647378,1301.050341,-2657.108326,-14526.063445,-3288.388644,-3503.747702,708.706761,13610.245420,479.713139,-5298.123395,-0.002000,-0.018000,1.012000,192.000000,0.000000,0.000000,0.000000,0.000000,0.000000,0.000000,0.000000,0.000000,0.000000,1770024285.222781,0.000000
244.000000,9503.246487,-7628.918604,-2114.989116,-2336.696069,-2708.226765,-13286.145125,-1946.680480,1322.396257,-2625.994697,-14502.482355,-3257.498533,-3481.842993,739.909797,13635.793464,503.875375,-5284.399424,-0.002000,-0.018000,1.012000,192.000000,0.000000,0.000000,0.000000,0.000000,0.000000,0.000000,0.000000,0.000000,0.000000,1770024285.222800,0.000000
246.000000,9452.172750,-7682.428680,-2156.786878,-2371.117755,-2739.407449,-13328.546384,-1977.995274,1273.736510,-2638.914006,-14513.121785,-3274.552914,-3494.136452,726.945785,13631.256060,497.750997,-5286.232267,-0.002000,-0.018000,1.011000,192.000000,127.500000,120.000000,127.500000,56.000000,15.500000,72.000000,0.000000,0.000000,0.000000,1770024285.222814,0.000000
248.000000,9467.349585,-7658.691127,-2140.067773,-2352.051717,-2719.201472,-13300.696111,-1965.478297,1285.962914,-2672.843954,-14546.045905,-3311.835624,-3526.546481,696.972096,13603.472841,478.684959,-5295.754110,-0.002000,-0.018000,1.011000,192.000000,0.000000,0.000000,0.000000,0.000000,0.000000,0.000000,0.000000,0.000000,0.000000,1770024285.222826,0.000000
250.000000,9477.385518,-7653.326708,-2137.452619,-2349.548322,-2715.535786,-13302.126622,-1962.371404,1294.255411,-2640.076296,-14500.046015,-3280.610237,-3484.167574,735.037116,13640.017943,511.564375,-5278.945598,-0.002000,-0.018000,1.011000,192.000000,0.000000,0.000000,0.000000,0.000000,0.000000,0.000000,0.000000,0.000000,0.000000,1770024285.222843,0.000000
252.000000,9456.643099,-7677.019558,-2158.798535,-2370.313093,-2740.837960,-13334.536652,-1979.269323,1284.644161,-2667.568942,-14535.406475,-3307.588793,-3523.283127,702.224756,13604.858649,472.605285,-5307.153500,-0.002000,-0.018000,1.011000,192.000000,0.000000,0.000000,0.000000,0.000000,0.000000,0.000000,0.000000,0.000000,0.000000,1770024285.222856,0.000000
254.000000,9506.867469,-7627.286926,-2116.911366,-2337.321918,-2703.287030,-13294.772899,-1949.295634,1321.904519,-2635.494189,-14508.204402,-3270.171973,-3486.045120,733.807770,13631.189004,494.532346,-5301.744378,-0.002000,-0.018000,1.011000,192.000000,0.000000,0.000000,0.000000,0.000000,0.000000,0.000000,0.000000,0.000000,0.000000,1770024285.222868,0.000000
0.000000,9464.354451,-7676.058433,-2156.250436,-2373.397633,-2740.010946,-13336.190681,-1975.693044,1285.962914,-2633.907215,-14510.394872,-3269.613179,-3484.592257,728.488055,13629.847900,497.281611,-5302.817262,-0.002000,-0.018000,1.011000,192.000000,0.000000,0.000000,127.500000,56.000000,15.500000,72.000000,0.000000,0.000000,0.000000,1770024285.222881,0.000000
2.000000,9486.505030,-7646.777647,-2134.166912,-2351.939959,-2719.626155,-13311.067320,-1958.683367,1306.437112,-2662.137468,-14541.955536,-3300.458586,-3514.856519,701.867128,13599.069548,471.465346,-5319.625773,-0.002000,-0.018000,1.011000,192.000000,0.000000,0.000000,0.000000,0.000000,0.000000,0.000000,0.000000,0.000000,0.000000,1770024285.222894,0.000000
4.000000,9490.595399,-7640.452104,-2137.206750,-2350.375336,-2720.564928,-13310.530878,-1960.538561,1306.504167,-2627.693430,-14492.334663,-3264.695795,-3467.940207,738.769858,13645.896452,508.971573,-5292.468404,-0.002000,-0.018000,1.011000,192.000000,0.000000,0.000000,0.000000,0.000000,0.000000,0.000000,0.000000,0.000000,0.000000,1770024285.222907,0.000000
6.000000,9466.343756,-7671.543380,-2158.977349,-2372.660026,-2753.466696,-13340.839844,-1976.453003,1286.700521,-2664.551457,-14535.026495,-3300.615048,-3515.437664,704.661096,13604.255152,468.090232,-5315.110721,-0.002000,-0.018000,1.011000,192.000000,0.000000,0.000000,0.000000,0.000000,0.000000,0.000000,0.000000,0.000000,0.000000,1770024285.222919,0.000000
8.000000,9506.286324,-7625.968173,-2119.414761,-2337.076049,-2720.184948,-13298.148012,-1948.110991,1320.071676,-2639.495151,-14511.244239,-3270.797821,-3491.230725,727.348116,13631.703094,488.832651,-5300.649142,-0.002000,-0.018000,1.011000,192.000000,0.000000,0.000000,0.000000,0.000000,0.000000,0.000000,0.000000,0.000000,0.000000,1770024285.222932,0.000000
10.000000,9481.878219,-7658.892293,-2155.602235,-2366.446241,-2746.805876,-13335.698943,-1975.402471,1290.299152,-2629.146293,-14505.678654,-3271.691891,-3485.307513,728.130427,13636.575775,489.302038,-5299.062168,0.000000,-0.014000,1.009500,192.000000,0.000000,8.000000,127.500000,88.000000,15.500000,64.000000,0.000000,0.000000,0.000000,1770024285.222945,0.000000
12.000000,9498.798489,-7637.635784,-2135.597424,-2345.167380,-2720.654335,-13304.250038,-1956.895227,1311.019219,-2650.715727,-14530.287925,-3295.787072,-3508.687438,709.712590,13613.642885,469.163116,-5305.879451,0.000000,-0.014000,1.009500,192.000000,0.000000,0.000000,0.000000,0.000000,0.000000,0.000000,0.000000,0.000000,0.000000,1770024285.222958,0.000000
14.000000,9505.749882,-7637.792246,-2134.099857,-2348.050755,-2716.027524,-13299.377358,-1960.896189,1307.688809,-2620.652630,-14493.161677,-3262.974711,-3469.013091,744.961291,13651.193816,503.115416,-5281.270180,0.000000,-0.014000,1.009500,192.000000,0.000000,0.000000,0.000000,0.000000,0.000000,0.000000,0.000000,0.000000,0.000000,1770024285.222970,0.000000
16.000000,9478.950140,-7657.551188,-2152.472991,-2368.569656,-2731.316117,-13322.332599,-1976.140079,1289.226268,-2653.912026,-14534.333591,-3296.994066,-3519.818606,715.613450,13608.434928,470.861849,-5302.169061,0.000000,-0.014000,1.009500,192.000000,0.000000,0.000000,0.000000,0.000000,0.000000,0.000000,0.000000,0.000000,0.000000,1770024285.222983,0.000000
18.000000,9517.372789,-7625.610545,-2116.218462,-2335.645537,-2696.134471,-13286.323939,-1951.888436,1319.289365,-2628.542796,-14505.857468,-3269.121441,-3492.013036,741.630881,13638.833301,498.957991,-5289.585029,0.000000,-0.014000,1.009500,192.000000,0.000000,0.000000,0.000000,0.000000,0.000000,0.000000,0.000000,0.000000,0.000000,1770024285.222995,0.000000
20.000000,9486.840306,-7658.512313,-2153.948206,-2366.870924,-2737.149923,-13326.825300,-1979.135213,1288.801585,-2622.731343,-14505.499840,-3270.306083,-3483.675836,743.173151,13645.985859,497.303962,-5294.860041,0.003000,-0.014000,1.006750,192.000000,0.000000,24.000000,127.500000,72.000000,15.500000,48.000000,0.000000,0.000000,0.000000,1770024285.223008,0.000000
22.000000,9512.365998,-7629.499749,-2130.300061,-2347.089630,-2719.112065,-13302.528954,-1954.436535,1312.717952,-2648.748773,-14526.644591,-3289.685045,-3508.463920,713.534738,13620.147243,469.230171,-5309.656895,0.003000,-0.014000,1.006750,192.000000,0.000000,0.000000,0.000000,0.000000,0.000000,0.000000,0.000000,0.000000,0.000000,1770024285.223021,0.000000
24.000000,9516.098740,-7629.097417,-2127.684906,-2347.804886,-2718.486216,-13304.026521,-1954.145962,1311.980344,-2611.823691,-14487.707852,-3253.117592,-3462.553437,750.124544,13650.210339,499.896765,-5290.210878,0.003000,-0.014000,1.006750,192.000000,0.000000,0.000000,0.000000,0.000000,0.000000,0.000000,0.000000,0.000000,0.000000,1770024285.223033,0.000000
26.000000,9484.135745,-7653.036136,-2148.628491,-2371.028348,-2731.249062,-13330.558041,-1976.900038,1286.879335,-2650.268692,-14533.193652,-3292.143737,-3511.526109,717.356887,13610.848917,471.264180,-5308.047570,0.003000,-0.014000,1.006750,192.000000,0.000000,0.000000,0.000000,0.000000,0.000000,0.000000,0.000000,0.000000,0.000000,1770024285.223047,0.000000
28.000000,9523.139539,-7615.194632,-2121.046438,-2337.366621,-2711.937155,-13293.476497,-1952.782506,1312.315620,-2627.246395,-14502.750576,-3272.563609,-3488.347350,739.440410,13634.966449,490.799605,-5297.184622,0.003000,-0.014000,1.006750,192.000000,0.000000,0.000000,0.000000,0.000000,0.000000,0.000000,0.000000,0.000000,0.000000,1770024285.223060,0.000000
30.000000,9483.107565,-7669.777592,-2159.893770,-2366.133316,-2745.688289,-13334.581355,-1979.425785,1280.084405,-2633.683697,-14511.512460,-3279.000912,-3491.431891,735.461800,13635.234670,487.558602,-5299.062168,0.003500,-0.014000,1.005375,192.000000,0.000000,16.000000,127.500000,72.000000,15.500000,48.000000,0.000000,0.000000,0.000000,1770024285.223073,0.000000
32.000000,9504.408777,-7638.976889,-2137.542026,-2347.380203,-2724.543539,-13307.535745,-1959.465678,1302.078521,-2659.209390,-14538.803940,-3301.620877,-3515.594127,702.805901,13610.357178,465.005692,-5312.853195,0.003500,-0.014000,1.005375,192.000000,0.000000,0.000000,0.000000,0.000000,0.000000,0.000000,0.000000,0.000000,0.000000,1770024285.223086,0.000000
34.000000,9513.729455,-7629.969136,-2132.401125,-2352.409345,-2725.415257,-13303.132451,-1955.509419,1306.861795,-2619.490340,-14496.894419,-3259.689004,-3472.745833,744.782477,13647.483426,497.303962,-5293.273067,0.003500,-0.014000,1.005375,192.000000,0.000000,0.000000,0.000000,0.000000,0.000000,0.000000,0.000000,0.000000,0.000000,1770024285.223099,0.000000
36.000000,9492.584704,-7658.579368,-2152.271825,-2376.012787,-2744.525998,-13326.110044,-1975.111899,1287.795757,-2653.017956,-14538.826291,-3293.328380,-3515.527071,708.326782,13606.915010,464.536305,-5308.315791,0.003500,-0.014000,1.005375,192.000000,0.000000,0.000000,0.000000,0.000000,0.000000,0.000000,0.000000,0.000000,0.000000,1770024285.223112,0.000000
38.000000,9535.790627,-7604.130519,-2117.894842,-2337.947767,-2710.305477,-13283.597026,-1949.675614,1321.233966,-2622.798398,-14505.008102,-3264.069946,-3483.765243,734.746544,13637.179272,486.105738,-5291.686093,0.003500,-0.014000,1.005375,192.000000,0.000000,0.000000,0.000000,0.000000,0.000000,0.000000,0.000000,0.000000,0.000000,1770024285.223124,0.000000
40.000000,9494.886934,-7658.355851,-2159.893770,-2370.000168,-2741.709678,-13322.913745,-1978.174088,1281.201992,-2631.672040,-14501.185954,-3271.960112,-3493.979990,726.856378,13636.285202,486.910401,-5284.578238,0.000750,-0.016000,1.003687,192.000000,127.500000,120.000000,127.500000,56.000000,15.500000,40.000000,0.000000,0.000000,0.000000,1770024285.223136,0.000000
42.000000,9516.188147,-7629.253880,-2135.798590,-2348.542493,-2714.976992,-13296.561038,-1956.939931,1305.498338,-2656.326015,-14531.718437,-3296.882307,-3515.839996,702.403570,13611.318304,462.122317,-5301.207936,0.000750,-0.016000,1.003687,192.000000,0.000000,0.000000,0.000000,0.000000,0.000000,0.000000,0.000000,0.000000,0.000000,1770024285.223149,0.000000
44.000000,9533.890728,-7614.166452,-2131.909386,-2347.290796,-2710.663105,-13296.181058,-1954.391832,1316.450693,-2614.774122,-14490.390061,-3252.849371,-3464.408632,752.918512,13655.507702,498.578012,-5289.294456,0.000750,-0.016000,1.003687,192.000000,0.000000,0.000000,0.000000,0.000000,0.000000,0.000000,0.000000,0.000000,0.000000,1770024285.223162,0.000000
46.000000,9517.261030,-7631.399647,-2152.182418,-2364.456935,-2735.361783,-13313.101329,-1969.903942,1301.072693,-2638.802247,-14518.977942,-3280.096147,-3497.891545,713.378276,13624.192908,462.479945,-5309.031047,0.000750,-0.016000,1.003687,192.000000,0.000000,0.000000,0.000000,0.000000,0.000000,0.000000,0.000000,0.000000,0.000000,1770024285.223174,0.000000
48.000000,9550.475723,-7597.335589,-2118.475988,-2330.817560,-2710.640754,-13285.385166,-1942.008965,1328.498283,-2617.858662,-14495.486259,-3255.397469,-3473.416385,735.148875,13647.170502,479.199049,-5301.565564,0.000750,-0.016000,1.003687,192.000000,0.000000,0.000000,0.000000,0.000000,0.000000,0.000000,0.000000,0.000000,0.000000,1770024285.223187,0.000000
50.000000,9507.448615,-7648.342269,-2157.300968,-2372.660026,-2748.258740,-13337.129454,-1976.430652,1285.493527,-2622.977212,-14503.510535,-3265.098127,-3480.725405,730.946747,13637.827472,476.628599,-5310.685076,0.000750,-0.016000,1.003687,192.000000,0.000000,0.000000,0.000000,0.000000,0.000000,0.000000,0.000000,0.000000,0.000000,1770024285.223200,0.000000
52.000000,9524.346533,-7626.638726,-2134.502189,-2362.244113,-2727.695135,-13320.030370,-1962.281997,1305.364228,-2650.313395,-14536.412303,-3292.188441,-3517.181101,703.588212,13605.350388,455.640311,-5329.505244,-0.002000,-0.018000,1.000000,192.000000,127.500000,120.000000,127.500000,56.000000,15.500000,32.000000,0.000000,0.000000,0.000000,1770024285.223212,0.000000
54.000000,9539.501016,-7612.512423,-2128.556624,-2357.505543,-2721.928385,-13313.369550,-1958.616311,1314.550795,-2610.996677,-14492.938160,-3252.000004,-3470.644769,743.843704,13648.712772,494.822919,-5308.740474,-0.002000,-0.018000,1.000000,192.000000,0.000000,0.000000,0.000000,0.000000,0.000000,0.000000,0.000000,0.000000,0.000000,1770024285.223225,0.000000
56.000000,9509.616734,-7643.268423,-2157.502134,-2375.811622,-2746.314138,-13333.799044,-1977.727053,1295.730626,-2642.534988,-14530.645553,-3284.544144,-3508.754493,707.343305,13608.479632,461.183543,-5320.050457,-0.002000,-0.018000,1.000000,192.000000,0.000000,0.000000,0.000000,0.000000,0.000000,0.000000,0.000000,0.000000,0.000000,1770024285.223237,0.000000
58.000000,9544.574862,-7602.029455,-2125.159159,-2339.043002,-2722.822454,-13288.603817,-1947.127515,1324.810246,-2625.726476,-14503.801108,-3259.957225,-3476.813850,729.650346,13638.207452,476.248619,-5300.447977,-0.002000,-0.018000,1.000000,192.000000,0.000000,0.000000,0.000000,0.000000,0.000000,0.000000,0.000000,0.000000,0.000000,1770024285.223252,0.000000
60.000000,9509.281458,-7646.978813,-2163.715919,-2371.900066,-2753.489048,-13328.009943,-1978.151736,1289.785062,-2630.509750,-14511.959495,-3269.032034,-3482.625304,720.240262,13633.714751,471.532401,-5294.457709,-0.002000,-0.018000,1.000000,192.000000,0.000000,0.000000,0.000000,0.000000,0.000000,0.000000,0.000000,0.000000,0.000000,1770024285.223270,0.000000
62.000000,9531.566147,-7625.476435,-2137.810247,-2353.884560,-2724.454132,-13307.893373,-1964.852448,1308.404065,-2652.079183,-14540.949707,-3293.574249,-3512.151958,698.715532,13606.535030,458.858962,-5305.924154,-0.002000,-0.016000,1.004000,192.000000,127.500000,120.000000,127.500000,64.000000,15.500000,48.000000,0.000000,0.000000,0.000000,1770024285.223287,0.000000
64.000000,9533.153121,-7620.112016,-2133.384601,-2346.977871,-2720.408466,-13298.818564,-1959.443326,1308.225251,-2614.684715,-14496.201515,-3254.458696,-3468.901332,737.205236,13649.517435,495.225250,-5291.015540,-0.002000,-0.016000,1.004000,192.000000,0.000000,0.000000,0.000000,0.000000,0.000000,0.000000,0.000000,0.000000,0.000000,1770024285.223306,0.000000
66.000000,9511.628391,-7642.061429,-2155.535180,-2368.480249,-2740.994423,-13321.885565,-1977.905867,1290.589725,-2647.340613,-14528.052751,-3288.589810,-3504.530013,706.136311,13619.543745,463.977511,-5310.863890,-0.002000,-0.016000,1.004000,192.000000,0.000000,0.000000,0.000000,0.000000,0.000000,0.000000,0.000000,0.000000,0.000000,1770024285.223324,0.000000
68.000000,9549.447542,-7599.011969,-2119.951203,-2336.696069,-2712.540652,-13278.701994,-1949.876779,1323.089161,-2626.754657,-14501.096547,-3264.606388,-3472.991702,728.398648,13643.281298,478.617904,-5298.101043,-0.002000,-0.016000,1.004000,192.000000,0.000000,0.000000,0.000000,0.000000,0.000000,0.000000,0.000000,0.000000,0.000000,1770024285.223341,0.000000
70.000000,9514.601173,-7636.831121,-2157.993872,-2373.755261,-2750.382155,-13328.769902,-1978.934047,1288.801585,-2625.570014,-14504.494012,-3267.847391,-3482.178269,721.626070,13638.989763,472.202953,-5298.302209,-0.002000,-0.016000,1.004000,192.000000,0.000000,0.000000,0.000000,0.000000,0.000000,0.000000,0.000000,0.000000,0.000000,1770024285.223359,0.000000
72.000000,9549.559301,-7605.918658,-2133.317546,-2354.376299,-2729.349164,-13315.984704,-1961.119707,1312.963821,-2644.189017,-14523.045960,-3290.914391,-3516.063513,701.174224,13607.406748,449.717098,-5321.458616,-0.002000,-0.016000,1.004000,192.000000,0.000000,0.000000,127.500000,56.000000,15.500000,80.000000,0.000000,0.000000,0.000000,1770024285.223377,0.000000
74.000000,9544.396048,-7617.250993,-2131.708220,-2356.052680,-2727.941004,-13317.661085,-1957.543428,1318.037667,-2607.465101,-14488.803087,-3247.440248,-3464.185114,746.078878,13646.119970,489.369093,-5308.963991,-0.002000,-0.016000,1.004000,192.000000,0.000000,0.000000,0.000000,0.000000,0.000000,0.000000,0.000000,0.000000,0.000000,1770024285.701729,0.000000
76.000000,9513.371827,-7647.448200,-2160.273750,-2378.583238,-2755.232484,-13352.798027,-1977.548239,1292.288457,-2649.799305,-14536.032323,-3285.684083,-3500.372589,700.861299,13604.031635,452.220494,-5335.473160,-0.002000,-0.016000,1.004000,192.000000,0.000000,0.000000,0.000000,0.000000,0.000000,0.000000,0.000000,0.000000,0.000000,1770024285.701791,0.000000
78.000000,9543.367868,-7606.253935,-2128.087238,-2345.882636,-2727.516321,-13309.703864,-1952.514285,1315.780141,-2632.834331,-14511.937143,-3268.584999,-3478.959617,720.150855,13629.669086,468.961950,-5323.693791,-0.002000,-0.016000,1.004000,192.000000,0.000000,0.000000,0.000000,0.000000,0.000000,0.000000,0.000000,0.000000,0.000000,1770024285.701840,0.000000
80.000000,9513.572993,-7645.414191,-2161.391337,-2376.415119,-2758.585245,-13338.135283,-1978.375253,1283.280704,-2635.427133,-14513.881745,-3273.502382,-3484.391091,719.659116,13630.585507,467.129107,-5312.093236,-0.002000,-0.016000,1.004000,192.000000,0.000000,0.000000,0.000000,0.000000,0.000000,0.000000,0.000000,0.000000,0.000000,1770024285.701888,0.000000
82.000000,9537.824635,-7619.106188,-2136.513846,-2358.041985,-2731.763152,-13310.709692,-1962.214942,1303.620792,-2654.448468,-14537.552242,-3296.435272,-3512.420179,694.938087,13607.764376,446.878427,-5318.687000,-0.004000,-0.012000,1.012000,192.000000,127.500000,112.000000,127.500000,80.000000,15.500000,80.000000,0.000000,0.000000,0.000000,1770024285.701937,0.000000
84.000000,9548.195845,-7608.489109,-2131.060020,-2357.349081,-2722.800103,-13308.988608,-1961.522038,1310.885109,-2614.774122,-14492.021739,-3257.364423,-3466.330882,739.462762,13654.121894,486.843346,-5300.179756,-0.004000,-0.012000,1.012000,192.000000,0.000000,0.000000,0.000000,0.000000,0.000000,0.000000,0.000000,0.000000,0.000000,1770024285.701980,0.000000
86.000000,9531.812016,-7630.393819,-2154.395241,-2375.766918,-2739.586263,-13324.590126,-1978.844640,1295.529460,-2642.400878,-14525.102320,-3286.220525,-3501.579583,709.176148,13611.005379,455.461497,-5320.296326,-0.004000,-0.012000,1.012000,192.000000,0.000000,0.000000,0.000000,0.000000,0.000000,0.000000,0.000000,0.000000,0.000000,1770024285.702002,0.000000
88.000000,9566.300758,-7587.344359,-2122.052267,-2338.506560,-2707.623268,-13278.567884,-1951.173180,1327.403048,-2621.569052,-14500.314236,-3260.784240,-3473.170516,736.624090,13639.168577,473.521706,-5298.749244,-0.004000,-0.012000,1.012000,192.000000,0.000000,0.000000,0.000000,0.000000,0.000000,0.000000,0.000000,0.000000,0.000000,1770024285.702018,0.000000
90.000000,9535.030667,-7623.084798,-2154.328186,-2364.658101,-2734.154789,-13310.262657,-1976.296541,1295.238888,-2619.736209,-14495.530962,-3261.030109,-3473.751661,729.985622,13646.321135,472.940561,-5293.027197,-0.004000,-0.012000,1.012000,192.000000,0.000000,0.000000,0.000000,0.000000,0.000000,0.000000,0.000000,0.000000,0.000000,1770024285.702046,0.000000
92.000000,9557.449467,-7600.464833,-2131.551758,-2347.067278,-2715.960469,-13288.447355,-1961.566742,1311.868586,-2641.059773,-14520.095530,-3284.745310,-3501.601935,711.098398,13624.081150,449.359471,-5304.538346,-0.006000,-0.016000,1.006000,192.000000,127.500000,104.000000,127.500000,64.000000,15.500000,56.000000,0.000000,0.000000,0.000000,1770024285.702060,0.000000
94.000000,9556.913025,-7603.325856,-2131.976441,-2350.375336,-2715.245213,-13296.046948,-1959.555085,1309.611059,-2608.739151,-14479.057727,-3251.150638,-3458.418364,749.275178,13662.928481,482.104776,-5289.897953,-0.006000,-0.016000,1.006000,192.000000,0.000000,0.000000,0.000000,0.000000,0.000000,0.000000,0.000000,0.000000,0.000000,1770024285.702072,0.000000
96.000000,9534.650688,-7625.342324,-2153.009433,-2377.108023,-2743.967205,-13339.364629,-1974.553105,1289.338027,-2647.452372,-14525.996390,-3289.260362,-3507.145167,709.712590,13617.465033,449.001843,-5321.659782,-0.006000,-0.016000,1.006000,192.000000,0.000000,0.000000,0.000000,0.000000,0.000000,0.000000,0.000000,0.000000,0.000000,1770024285.702085,0.000000
98.000000,9572.626301,-7587.478469,-2121.694639,-2347.469610,-2718.732085,-13312.028445,-1946.792239,1322.105685,-2621.725514,-14499.621332,-3261.767717,-3479.406652,732.913701,13636.441664,465.050395,-5322.777369,-0.006000,-0.016000,1.006000,192.000000,0.000000,0.000000,0.000000,0.000000,0.000000,0.000000,0.000000,0.000000,0.000000,1770024285.702099,0.000000
100.000000,9537.154083,-7631.176130,-2157.613892,-2381.377206,-2751.633853,-13351.658088,-1978.017626,1288.712178,-2626.821712,-14504.963399,-3263.622911,-3483.206449,723.660078,13630.049065,462.591703,-5325.169006,-0.006000,-0.016000,1.006000,192.000000,0.000000,0.000000,0.000000,0.000000,0.000000,0.000000,0.000000,0.000000,0.000000,1770024285.702111,0.000000
102.000000,9555.549569,-7608.734978,-2134.435133,-2360.590084,-2724.655297,-13323.383131,-1962.907846,1304.872490,-2646.357137,-14534.244184,-3290.221487,-3512.733103,700.146043,13599.248361,442.564540,-5333.036820,-0.006000,-0.016000,1.006000,192.000000,0.000000,0.000000,127.500000,80.000000,15.500000,40.000000,0.000000,0.000000,0.000000,1770024285.702125,0.000000
104.000000,9560.265787,-7605.203403,-2134.457485,-2359.204276,-2723.090675,-13319.337466,-1960.650320,1302.078521,-2609.633220,-14491.373538,-3256.917388,-3467.627283,739.999204,13643.527167,481.970666,-5305.208898,-0.006000,-0.016000,1.006000,192.000000,0.000000,0.000000,0.000000,0.000000,0.000000,0.000000,0.000000,0.000000,0.000000,1770024285.702137,0.000000
106.000000,9529.778007,-7638.775723,-2162.441869,-2384.014712,-2753.399641,-13352.842731,-1978.732881,1280.553792,-2649.262863,-14537.574594,-3295.898830,-3516.734066,696.100378,13597.236704,445.582026,-5324.319640,-0.006000,-0.016000,1.006000,192.000000,0.000000,0.000000,0.000000,0.000000,0.000000,0.000000,0.000000,0.000000,0.000000,1770024285.702150,0.000000
108.000000,9569.832333,-7596.732092,-2127.640203,-2349.816543,-2717.212166,-13307.222820,-1954.972977,1310.952164,-2633.348421,-14517.167451,-3272.585961,-3493.376493,713.422980,13622.494176,464.715119,-5315.088369,-0.006000,-0.016000,1.006000,192.000000,0.000000,0.000000,0.000000,0.000000,0.000000,0.000000,0.000000,0.000000,0.000000,1770024285.702163,0.000000
110.000000,9538.003449,-7633.657173,-2160.430212,-2377.063319,-2741.575568,-13328.032294,-1982.376216,1281.313751,-2626.352325,-14509.366692,-3273.100051,-3491.811871,720.776703,13630.116121,470.236000,-5307.041741,-0.006000,-0.016000,1.006000,192.000000,0.000000,0.000000,0.000000,0.000000,0.000000,0.000000,0.000000,0.000000,0.000000,1770024285.702175,0.000000
112.000000,9564.467915,-7601.045978,-2135.329203,-2355.404479,-2719.670858,-13302.305436,-1963.265474,1307.442940,-2650.916892,-14535.339419,-3294.513022,-3515.460016,700.436616,13608.949019,450.477058,-5315.825977,-0.006000,-0.016000,1.006000,192.000000,0.000000,0.000000,127.500000,64.000000,15.500000,72.000000,0.000000,0.000000,0.000000,1770024285.702188,0.000000
114.000000,9571.016976,-7604.354036,-2133.406953,-2353.929264,-2721.101370,-13303.803003,-1958.593960,1309.655763,-2606.392217,-14484.265683,-3250.681251,-3464.855667,739.127486,13653.384287,480.450747,-5296.983456,-0.006000,-0.016000,1.006000,192.000000,0.000000,0.000000,0.000000,0.000000,0.000000,0.000000,0.000000,0.000000,0.000000,1770024285.702200,0.000000
116.000000,9537.623470,-7671.297511,-2161.860724,-2383.008883,-2748.258740,-13341.041010,-1979.694006,1280.240867,-2649.888712,-14534.110073,-3292.858993,-3515.124740,700.101340,13605.439795,444.307976,-5321.682134,-0.006000,-0.016000,1.006000,192.000000,0.000000,0.000000,0.000000,0.000000,0.000000,0.000000,0.000000,0.000000,0.000000,1770024285.702213,0.000000
118.000000,9578.504810,-7648.118752,-2124.600366,-2346.061450,-2715.513434,-13300.450242,-1950.614387,1315.020182,-2635.494189,-14508.092643,-3272.809478,-3492.393016,715.233471,13628.126815,462.971683,-5318.083503,-0.006000,-0.016000,1.006000,192.000000,0.000000,0.000000,0.000000,0.000000,0.000000,0.000000,0.000000,0.000000,0.000000,1770024285.702226,0.000000
120.000000,9539.188092,-7708.736683,-2165.906389,-2384.707616,-2752.930254,-13351.434571,-1981.772719,1280.285571,-2634.287195,-14510.774852,-3274.731728,-3489.643751,719.636764,13626.115158,463.105793,-5320.296326,-0.006000,-0.016000,1.006000,192.000000,0.000000,0.000000,0.000000,0.000000,0.000000,0.000000,0.000000,0.000000,0.000000,1770024285.702238,0.000000
122.000000,9562.344499,-7690.341197,-2142.191189,-2365.909799,-2731.897263,-13328.255812,-1961.678500,1302.033818,-2657.533009,-14543.251937,-3296.435272,-3518.611612,692.300581,13594.375681,438.585930,-5334.266166,-0.006000,-0.016000,1.006000,192.000000,0.000000,0.000000,127.500000,64.000000,15.500000,88.000000,0.000000,0.000000,0.000000,1770024285.702253,0.000000
124.000000,9568.111249,-7683.836840,-2138.637261,-2362.557037,-2730.891434,-13325.215974,-1958.258683,1304.693676,-2619.669154,-14500.560105,-3256.872685,-3472.432908,725.023535,13634.944097,470.571276,-5314.775445,-0.006000,-0.016000,1.006000,192.000000,0.000000,0.000000,0.000000,0.000000,0.000000,0.000000,0.000000,0.000000,0.000000,1770024285.702266,0.000000
126.000000,9556.510694,-7701.673532,-2158.776183,-2382.695959,-2749.108106,-13349.065286,-1979.358730,1291.304981,-2652.995605,-14536.658172,-3290.176784,-3511.771978,695.586287,13600.768280,438.407116,-5331.829826,-0.006000,-0.016000,1.006000,192.000000,0.000000,0.000000,0.000000,0.000000,0.000000,0.000000,0.000000,0.000000,0.000000,1770024285.702280,0.000000
128.000000,9589.814793,-7660.658081,-2115.033819,-2348.654252,-2713.188852,-13308.027483,-1949.720317,1323.536196,-2625.815883,-14510.841907,-3259.063156,-3482.044158,720.620241,13620.437815,462.345834,-5319.558718,-0.006000,-0.016000,1.006000,192.000000,0.000000,0.000000,0.000000,0.000000,0.000000,0.000000,0.000000,0.000000,0.000000,1770024285.702292,0.000000
130.000000,9558.634109,-7696.175003,-2150.908369,-2378.359721,-2744.034260,-13341.912728,-1978.107033,1289.270972,-2621.792569,-14508.137346,-3255.531580,-3480.904219,725.694087,13626.249269,466.905590,-5315.870680,-0.006000,-0.016000,1.006000,192.000000,0.000000,0.000000,0.000000,0.000000,0.000000,0.000000,0.000000,0.000000,0.000000,1770024285.702305,0.000000
132.000000,9575.755546,-7678.248904,-2135.552720,-2362.311168,-2724.275318,-13320.320942,-1966.752346,1301.475024,-2648.279387,-14537.842815,-3285.617028,-3513.403656,695.630991,13599.382472,445.380860,-5326.286593,-0.006000,-0.016000,1.006000,192.000000,0.000000,0.000000,127.500000,80.000000,15.500000,40.000000,0.000000,0.000000,0.000000,1770024285.702317,0.000000
134.000000,9580.114136,-7671.051642,-2136.022107,-2358.645482,-2723.582414,-13315.627076,-1964.383061,1305.855966,-2619.982078,-14496.760308,-3254.436344,-3472.298798,736.937015,13640.755551,480.495451,-5303.487814,-0.006000,-0.016000,1.006000,192.000000,0.000000,0.000000,0.000000,0.000000,0.000000,0.000000,0.000000,0.000000,0.000000,1770024285.702330,0.000000
136.000000,9564.467915,-7693.649255,-2159.692605,-2381.086633,-2742.491989,-13337.643544,-1980.386910,1293.786024,-2648.458201,-14536.099379,-3285.147641,-3508.843900,699.073160,13602.377606,443.458610,-5320.877471,-0.006000,-0.016000,1.006000,192.000000,0.000000,0.000000,0.000000,0.000000,0.000000,0.000000,0.000000,0.000000,0.000000,1770024285.702343,0.000000
138.000000,9605.282200,-7648.208159,-2118.654802,-2348.609549,-2707.131530,-13302.081919,-1951.039070,1327.559510,-2619.155064,-14510.417224,-3252.670557,-3480.770109,721.894291,13627.344504,465.184506,-5309.142805,-0.006000,-0.016000,1.006000,192.000000,0.000000,0.000000,0.000000,0.000000,0.000000,0.000000,0.000000,0.000000,0.000000,1770024285.702355,0.000000
140.000000,9572.671005,-7688.463651,-2152.137715,-2378.896162,-2741.441457,-13345.310193,-1977.458832,1296.825862,-2617.948069,-14505.186916,-3252.424687,-3479.808984,725.291756,13626.584545,464.938636,-5315.378942,-0.006000,-0.016000,1.006000,192.000000,0.000000,0.000000,0.000000,0.000000,0.000000,0.000000,0.000000,0.000000,0.000000,1770024285.702368,0.000000
142.000000,9584.495078,-7671.029290,-2129.987136,-2364.613398,-2725.638774,-13326.758245,-1963.667806,1309.655763,-2647.005337,-14542.983716,-3281.884287,-3508.374513,698.290849,13596.588504,443.458610,-5335.584919,-0.002000,-0.014000,1.004000,192.000000,0.000000,8.000000,127.500000,80.000000,15.500000,40.000000,0.000000,0.000000,0.000000,1770024285.702380,0.000000
144.000000,9589.613627,-7676.460764,-2128.266052,-2363.316996,-2729.706792,-13325.663009,-1961.924370,1308.113493,-2612.516595,-14507.556201,-3250.077754,-3471.985873,736.713497,13632.798330,477.790889,-5318.396427,-0.002000,-0.014000,1.004000,192.000000,0.000000,0.000000,0.000000,0.000000,0.000000,0.000000,0.000000,0.000000,0.000000,1770024285.702393,0.000000
146.000000,9564.289101,-7702.545250,-2155.535180,-2387.590991,-2750.292748,-13353.692097,-1981.862126,1287.058149,-2647.787648,-14541.933184,-3288.835679,-3520.153883,695.362770,13591.134678,442.542188,-5336.702506,-0.002000,-0.014000,1.004000,192.000000,0.000000,0.000000,0.000000,0.000000,0.000000,0.000000,0.000000,0.000000,0.000000,1770024285.702406,0.000000
148.000000,9601.124776,-7658.624072,-2124.376848,-2355.896217,-2719.492044,-13316.118814,-1954.972977,1318.238833,-2627.045229,-14525.929335,-3264.494629,-3489.509641,721.782532,13618.023827,463.105793,-5323.827901,-0.002000,-0.014000,1.004000,192.000000,0.000000,0.000000,0.000000,0.000000,0.000000,0.000000,0.000000,0.000000,0.000000,1770024285.702418,0.000000
150.000000,9574.548551,-7688.843630,-2158.373852,-2383.433567,-2748.437553,-13350.361687,-1979.246972,1291.483795,-2626.665250,-14522.017780,-3266.103955,-3485.598086,714.115884,13616.168632,461.340006,-5324.185529,-0.002000,-0.014000,1.004000,192.000000,0.000000,0.000000,0.000000,0.000000,0.000000,0.000000,0.000000,0.000000,0.000000,1770024285.702431,0.000000
152.000000,9600.454223,-7661.775668,-2133.138732,-2359.494848,-2724.297669,-13323.338428,-1961.790259,1314.282574,-2641.529160,-14535.294716,-3285.169993,-3505.178214,695.876860,13596.610856,443.771534,-5332.858006,0.000000,-0.012000,1.005000,192.000000,0.000000,8.000000,127.500000,88.000000,15.500000,56.000000,0.000000,0.000000,0.000000,1770024285.702445,0.000000
154.000000,9602.890563,-7658.065278,-2134.658651,-2358.891351,-2723.314193,-13317.839899,-1960.270340,1312.360324,-2605.319334,-14499.017835,-3249.250740,-3461.949940,734.165398,13638.028638,483.848212,-5306.929983,0.000000,-0.012000,1.005000,192.000000,0.000000,0.000000,0.000000,0.000000,0.000000,0.000000,0.000000,0.000000,0.000000,1770024285.702464,0.000000
156.000000,9572.916874,-7691.369378,-2159.424384,-2383.545325,-2752.438516,-13349.825245,-1980.386910,1289.360379,-2643.764334,-14539.966230,-3286.980484,-3510.475577,694.133424,13597.192001,444.956177,-5324.297288,0.000000,-0.012000,1.005000,192.000000,0.000000,0.000000,0.000000,0.000000,0.000000,0.000000,0.000000,0.000000,0.000000,1770024285.702482,0.000000
158.000000,9609.998418,-7647.939938,-2119.548871,-2350.062412,-2710.573698,-13301.433718,-1951.687271,1324.027935,-2624.944165,-14518.262687,-3262.415917,-3487.140356,719.189730,13618.426158,463.798697,-5313.479044,0.000000,-0.012000,1.005000,192.000000,0.000000,0.000000,0.000000,0.000000,0.000000,0.000000,0.000000,0.000000,0.000000,1770024285.702500,0.000000
160.000000,9585.031520,-7679.701767,-2153.478820,-2380.393729,-2741.955548,-13335.408370,-1981.124518,1292.891955,-2616.651668,-14510.953666,-3258.772583,-3479.250190,727.169302,13623.164728,471.554753,-5306.550003,0.000000,-0.012000,1.005000,192.000000,0.000000,0.000000,0.000000,0.000000,0.000000,0.000000,0.000000,0.000000,0.000000,1770024285.702519,0.000000
162.000000,9607.338561,-7656.031270,-2133.518712,-2361.908837,-2722.822454,-13322.176137,-1964.695986,1313.254394,-2637.639956,-14541.486149,-3283.225391,-3505.692304,698.156738,13598.756623,445.582026,-5325.012544,0.002000,-0.013000,1.005500,192.000000,0.000000,16.000000,127.500000,72.000000,15.500000,56.000000,0.000000,0.000000,0.000000,1770024285.702537,0.000000
164.000000,9609.797252,-7654.980738,-2132.177607,-2355.873866,-2720.989611,-13319.136300,-1958.281035,1316.383638,-2603.933526,-14496.290922,-3244.489818,-3457.233722,735.685317,13634.966449,475.488660,-5310.416855,0.002000,-0.013000,1.005500,192.000000,0.000000,0.000000,0.000000,0.000000,0.000000,0.000000,0.000000,0.000000,0.000000,1770024285.702556,0.000000
166.000000,9584.584485,-7683.881543,-2156.809229,-2380.907819,-2746.694117,-13342.069190,-1978.174088,1288.622771,-2638.735192,-14538.558070,-3283.337150,-3505.915821,698.246145,13596.923780,442.206912,-5323.112646,0.002000,-0.013000,1.005500,192.000000,0.000000,0.000000,0.000000,0.000000,0.000000,0.000000,0.000000,0.000000,0.000000,1770024285.702573,0.000000
168.000000,9612.099482,-7651.918549,-2124.265090,-2356.142087,-2722.420123,-13314.621248,-1954.548294,1309.946336,-2623.111322,-14523.940030,-3266.349824,-3492.571830,718.519177,13612.547649,460.468288,-5317.010619,0.002000,-0.013000,1.005500,192.000000,0.000000,0.000000,0.000000,0.000000,0.000000,0.000000,0.000000,0.000000,0.000000,1770024285.702593,0.000000
170.000000,9579.041252,-7688.374244,-2159.312625,-2383.835898,-2747.521132,-13348.059457,-1981.571553,1280.777309,-2626.709953,-14523.023608,-3271.468374,-3492.169498,717.043962,13614.425196,462.949331,-5316.787102,0.002000,-0.013000,1.005500,192.000000,0.000000,0.000000,0.000000,0.000000,0.000000,0.000000,0.000000,0.000000,0.000000,1770024285.702611,0.000000
172.000000,9601.102424,-7659.540493,-2140.179532,-2364.769860,-2728.835074,-13324.210146,-1966.931160,1298.882222,-2648.033517,-14541.910832,-3292.948400,-3514.364781,692.188822,13592.676949,440.955215,-5328.678230,0.002000,-0.013500,1.005750,192.000000,0.000000,8.000000,127.500000,72.000000,15.500000,56.000000,0.000000,0.000000,0.000000,1770024285.702641,0.000000
174.000000,9612.412406,-7649.638671,-2133.451657,-2360.008938,-2725.325850,-13318.577506,-1959.912713,1304.000772,-2611.309601,-14501.297712,-3255.442173,-3472.008225,729.896215,13631.792501,474.214610,-5307.868756,0.002000,-0.013500,1.005750,192.000000,0.000000,0.000000,0.000000,0.000000,0.000000,0.000000,0.000000,0.000000,0.000000,1770024285.702658,0.000000
176.000000,9597.950828,-7677.824220,-2155.535180,-2383.120642,-2750.248045,-13350.205225,-1976.832983,1284.711216,-2634.533064,-14539.675658,-3282.979522,-3510.207356,701.442444,13594.867420,441.514008,-5330.086390,0.002000,-0.013500,1.005750,192.000000,0.000000,0.000000,0.000000,0.000000,0.000000,0.000000,0.000000,0.000000,0.000000,1770024285.702677,0.000000
178.000000,9623.387113,-7648.342269,-2120.107665,-2352.588159,-2716.563966,-13309.793271,-1948.468619,1311.980344,-2613.857700,-14518.597963,-3260.471315,-3486.246286,722.877767,13617.129757,460.781212,-5321.816244,0.002000,-0.013500,1.005750,192.000000,0.000000,0.000000,0.000000,0.000000,0.000000,0.000000,0.000000,0.000000,0.000000,1770024285.702696,0.000000
180.000000,9595.536839,-7674.002072,-2157.524485,-2381.086633,-2744.123667,-13339.699905,-1976.207134,1284.845327,-2617.970421,-14517.458024,-3264.293464,-3486.268638,723.570672,13620.728388,463.731642,-5318.351724,0.002000,-0.013500,1.005750,192.000000,0.000000,0.000000,0.000000,0.000000,0.000000,0.000000,0.000000,0.000000,0.000000,1770024285.702714,0.000000
182.000000,9621.867194,-7651.672679,-2130.814151,-2362.199409,-2720.855501,-13319.560983,-1960.583265,1303.576088,-2637.908177,-14537.753408,-3284.991179,-3511.704923,703.476453,13597.348463,441.715174,-5327.515939,0.002000,-0.013500,1.005750,192.000000,0.000000,0.000000,127.500000,80.000000,15.500000,80.000000,0.000000,0.000000,0.000000,1770024285.702734,0.000000
184.000000,9623.565927,-7646.442371,-2129.718915,-2357.952578,-2718.910899,-13307.893373,-1956.179971,1305.543042,-2597.250354,-14499.353111,-3246.702641,-3470.398899,738.434582,13636.888699,474.639294,-5305.722988,0.002000,-0.013500,1.005750,192.000000,0.000000,0.000000,0.000000,0.000000,0.000000,0.000000,0.000000,0.000000,0.000000,1770024285.702752,0.000000
186.000000,9601.795328,-7676.013729,-2154.328186,-2382.226572,-2741.061478,-13339.409332,-1975.223658,1285.202954,-2629.235700,-14529.907945,-3280.342016,-3504.217089,707.522119,13596.454393,441.782229,-5319.178738,0.002000,-0.013500,1.005750,192.000000,0.000000,0.000000,0.000000,0.000000,0.000000,0.000000,0.000000,0.000000,0.000000,1770024285.702776,0.000000
188.000000,9633.557157,-7635.378258,-2118.855967,-2351.068241,-2716.228690,-13307.491041,-1944.735878,1316.808321,-2617.009296,-14521.146062,-3259.197266,-3485.285161,718.474474,13611.206545,452.823991,-5321.168044,0.002000,-0.013500,1.005750,192.000000,0.000000,0.000000,0.000000,0.000000,0.000000,0.000000,0.000000,0.000000,0.000000,1770024285.702795,0.000000
190.000000,9603.248191,-7667.318901,-2154.372889,-2384.394692,-2748.772830,-13348.975879,-1974.374291,1288.041626,-2613.120093,-14517.055692,-3256.716222,-3486.894487,723.324802,13612.391187,453.382785,-5326.644221,0.002000,-0.013500,1.005750,192.000000,0.000000,0.000000,0.000000,0.000000,0.000000,0.000000,0.000000,0.000000,0.000000,1770024285.702813,0.000000
192.000000,9620.302572,-7649.973947,-2132.490532,-2367.161497,-2726.063457,-13323.338428,-1961.745556,1306.437112,-2636.500017,-14542.648440,-3280.990217,-3515.147092,702.090645,13587.714861,432.193331,-5342.111628,0.002000,-0.013500,1.005750,192.000000,0.000000,0.000000,0.000000,0.000000,0.000000,0.000000,0.000000,0.000000,0.000000,1770024285.702832,0.000000
194.000000,9621.978953,-7651.247996,-2130.948261,-2369.128450,-2723.336544,-13325.238326,-1962.483163,1302.369094,-2601.787758,-14503.935218,-3247.909635,-3467.269655,733.696012,13627.389208,470.213648,-5320.676305,0.002000,-0.013500,1.005750,192.000000,0.000000,0.000000,127.500000,96.000000,15.500000,64.000000,0.000000,0.000000,0.000000,1770024286.183528,0.000000
196.000000,9596.721482,-7678.025386,-2154.842276,-2391.681360,-2748.862237,-13352.418047,-1981.325684,1279.592667,-2638.019936,-14544.123655,-3286.041711,-3511.101426,698.871994,13587.737213,436.283700,-5339.809399,0.002000,-0.013500,1.005750,192.000000,0.000000,0.000000,0.000000,0.000000,0.000000,0.000000,0.000000,0.000000,0.000000,1770024286.183594,0.000000
198.000000,9635.725276,-7636.384086,-2117.626621,-2359.584255,-2717.413332,-13314.531841,-1952.156657,1311.667420,-2617.702200,-14523.872974,-3260.761888,-3488.995551,720.933166,13611.094786,456.847305,-5326.688925,0.002000,-0.013500,1.005750,192.000000,0.000000,0.000000,0.000000,0.000000,0.000000,0.000000,0.000000,0.000000,0.000000,1770024286.183652,0.000000
200.000000,9598.688435,-7679.075918,-2156.228084,-2388.082729,-2745.710641,-13347.791236,-1977.458832,1281.224344,-2613.835348,-14525.392893,-3260.247798,-3491.230725,722.363677,13603.159917,453.315729,-5324.677268,0.002000,-0.013500,1.005750,192.000000,0.000000,0.000000,0.000000,0.000000,0.000000,0.000000,0.000000,0.000000,0.000000,1770024286.183708,0.000000
202.000000,9618.447377,-7656.925339,-2135.016279,-2368.524953,-2727.851597,-13328.233460,-1962.751384,1299.262202,-2640.076296,-14553.779608,-3286.600505,-3520.556214,697.665000,13577.343652,431.522778,-5335.160236,0.002000,-0.013500,1.005750,192.000000,0.000000,0.000000,0.000000,0.000000,0.000000,0.000000,0.000000,0.000000,0.000000,1770024286.183760,0.000000
204.000000,9625.912860,-7649.705726,-2129.428343,-2364.926322,-2717.234518,-13319.493928,-1960.695024,1300.580955,-2601.474834,-14508.360864,-3249.653071,-3472.164687,733.271329,13620.951905,467.732604,-5315.714218,0.002000,-0.010000,1.006000,192.000000,0.000000,8.000000,127.500000,88.000000,15.500000,56.000000,0.000000,0.000000,0.000000,1770024286.183813,0.000000
206.000000,9607.025636,-7670.157572,-2153.814096,-2387.278067,-2737.462847,-13341.711562,-1978.732881,1279.615018,-2638.422267,-14545.196539,-3287.114595,-3513.984801,700.369561,13583.825658,441.648119,-5331.449846,0.002000,-0.010000,1.006000,192.000000,0.000000,0.000000,0.000000,0.000000,0.000000,0.000000,0.000000,0.000000,0.000000,1770024286.183832,0.000000
208.000000,9634.160654,-7640.049772,-2123.929813,-2354.041023,-2714.932289,-13303.668893,-1951.664919,1303.173757,-2616.875186,-14520.453157,-3266.282769,-3490.224897,721.156683,13607.339693,457.607264,-5316.295363,0.002000,-0.010000,1.006000,192.000000,0.000000,0.000000,0.000000,0.000000,0.000000,0.000000,0.000000,0.000000,0.000000,1770024286.183851,0.000000
210.000000,9592.251133,-7684.283875,-2163.492401,-2388.105081,-2753.936083,-13346.427780,-1979.336378,1269.444975,-2626.151160,-14534.132425,-3274.441156,-3500.730217,711.724247,13602.265847,448.040718,-5312.473215,0.002000,-0.010000,1.006000,192.000000,0.000000,0.000000,0.000000,0.000000,0.000000,0.000000,0.000000,0.000000,0.000000,1770024286.183869,0.000000
212.000000,9626.985744,-7648.901063,-2137.922005,-2367.362662,-2726.242271,-13320.835033,-1962.438460,1299.239850,-2648.502904,-14557.311184,-3294.714188,-3524.512473,691.585325,13575.935492,423.565557,-5329.326430,0.002000,-0.010000,1.006000,192.000000,0.000000,0.000000,0.000000,0.000000,0.000000,0.000000,0.000000,0.000000,0.000000,1770024286.183888,0.000000
214.000000,9641.268509,-7635.534720,-2128.780142,-2364.591046,-2718.575623,-13319.560983,-1959.890361,1308.538176,-2598.055017,-14505.119861,-3244.847446,-3466.353234,733.472494,13619.923725,463.485773,-5313.166119,0.002000,-0.012000,1.006000,192.000000,0.000000,8.000000,127.500000,80.000000,15.500000,56.000000,0.000000,0.000000,0.000000,1770024286.183907,0.000000
216.000000,9613.597049,-7669.688185,-2150.260168,-2388.641523,-2740.659146,-13345.623117,-1976.721224,1288.399254,-2630.442694,-14542.894309,-3277.011606,-3506.608725,701.241279,13583.602140,434.249691,-5336.657803,0.002000,-0.012000,1.006000,192.000000,0.000000,0.000000,0.000000,0.000000,0.000000,0.000000,0.000000,0.000000,0.000000,1770024286.183926,0.000000
218.000000,9645.805913,-7630.930261,-2114.296212,-2355.225665,-2704.583431,-13306.351102,-1944.981747,1318.395295,-2615.534081,-14526.532832,-3258.370251,-3486.670969,721.804884,13601.818812,456.757898,-5331.248681,0.002000,-0.012000,1.006000,192.000000,0.000000,0.000000,0.000000,0.000000,0.000000,0.000000,0.000000,0.000000,0.000000,1770024286.183953,0.000000
220.000000,9616.480424,-7664.256712,-2151.802439,-2383.612380,-2741.597920,-13345.489007,-1973.234352,1290.410911,-2612.807168,-14519.804957,-3258.392603,-3481.306551,724.040058,13606.400920,456.601436,-5329.192320,0.002000,-0.012000,1.006000,192.000000,0.000000,0.000000,0.000000,0.000000,0.000000,0.000000,0.000000,0.000000,0.000000,1770024286.183971,0.000000
222.000000,9626.091674,-7653.639633,-2140.224235,-2368.055566,-2731.919614,-13329.865137,-1963.399585,1298.926926,-2640.523331,-14548.526949,-3286.779319,-3513.314249,694.066369,13578.148315,431.433371,-5341.977518,0.002000,-0.012000,1.006000,192.000000,0.000000,0.000000,0.000000,0.000000,0.000000,0.000000,0.000000,0.000000,0.000000,1770024286.183990,0.000000
224.000000,9627.164558,-7652.030307,-2142.928796,-2364.971026,-2734.132437,-13323.785463,-1962.729032,1296.065902,-2614.572956,-14517.100396,-3260.806592,-3477.350292,726.118770,13611.452414,455.819125,-5321.726837,0.002000,-0.014000,1.008000,192.000000,0.000000,8.000000,127.500000,72.000000,15.500000,64.000000,0.000000,0.000000,0.000000,1770024286.184009,0.000000
226.000000,9608.523203,-7676.885447,-2158.820886,-2391.122567,-2756.573588,-13351.680440,-1981.526849,1279.525611,-2642.579692,-14554.494864,-3292.300200,-3521.539691,690.691255,13572.783896,419.765761,-5337.797742,0.002000,-0.014000,1.008000,192.000000,0.000000,0.000000,0.000000,0.000000,0.000000,0.000000,0.000000,0.000000,0.000000,1770024286.184028,0.000000
228.000000,9645.113009,-7636.294679,-2119.861796,-2359.204276,-2713.702943,-13305.524088,-1953.028375,1314.371981,-2622.552529,-14533.752445,-3268.115612,-3496.796310,711.232509,13593.928646,445.090287,-5327.493587,0.002000,-0.014000,1.008000,192.000000,0.000000,0.000000,0.000000,0.000000,0.000000,0.000000,0.000000,0.000000,0.000000,1770024286.184047,0.000000
230.000000,9615.921630,-7668.347081,-2154.395241,-2384.707616,-2740.882664,-13332.949678,-1980.386910,1285.135899,-2616.964593,-14526.175204,-3264.807554,-3488.503812,718.943860,13601.639998,452.309901,-5320.430436,0.002000,-0.014000,1.008000,192.000000,0.000000,0.000000,0.000000,0.000000,0.000000,0.000000,0.000000,0.000000,0.000000,1770024286.184065,0.000000
232.000000,9638.586299,-7643.380182,-2139.531331,-2362.020595,-2733.730106,-13312.050797,-1966.819402,1299.999809,-2639.741020,-14547.141140,-3291.227316,-3514.677705,693.462872,13584.183286,425.554863,-5329.192320,0.002000,-0.014000,1.008000,192.000000,0.000000,0.000000,0.000000,0.000000,0.000000,0.000000,0.000000,0.000000,0.000000,1770024286.184082,0.000000
234.000000,9634.987668,-7645.145970,-2147.086221,-2363.205238,-2743.386059,-13320.678570,-1967.668768,1294.478928,-2610.929622,-14504.695178,-3263.779374,-3473.751661,721.111980,13625.802234,449.672395,-5313.277878,-0.004000,-0.016000,1.008000,192.000000,127.500000,112.000000,127.500000,64.000000,15.500000,64.000000,0.000000,0.000000,0.000000,1770024286.184100,0.000000
236.000000,9618.067398,-7668.816467,-2162.955959,-2388.328599,-2762.183876,-13353.043896,-1984.119652,1280.710254,-2643.853741,-14544.056600,-3299.922144,-3515.482368,686.846755,13585.233818,414.043714,-5343.475085,-0.004000,-0.016000,1.008000,192.000000,0.000000,0.000000,0.000000,0.000000,0.000000,0.000000,0.000000,0.000000,0.000000,1770024286.184119,0.000000
238.000000,9659.708698,-7618.837967,-2118.475988,-2356.522066,-2719.067361,-13312.341370,-1951.396698,1319.579937,-2611.488415,-14520.922544,-3263.935836,-3490.314304,711.478378,13606.378568,439.703517,-5337.954204,-0.004000,-0.016000,1.008000,192.000000,0.000000,0.000000,0.000000,0.000000,0.000000,0.000000,0.000000,0.000000,0.000000,1770024286.184136,0.000000
240.000000,9627.321020,-7661.999185,-2150.863665,-2388.797985,-2745.800048,-13351.300460,-1977.280018,1292.556678,-2607.465101,-14520.095530,-3253.810496,-3486.939190,722.922471,13602.399957,444.576197,-5341.575186,-0.004000,-0.016000,1.008000,192.000000,0.000000,0.000000,0.000000,0.000000,0.000000,0.000000,0.000000,0.000000,0.000000,1770024286.184154,0.000000
242.000000,9642.363744,-7644.654232,-2128.936604,-2370.491906,-2720.833149,-13327.205280,-1961.946721,1307.197071,-2633.504883,-14551.924414,-3279.671464,-3510.654391,696.390950,13577.030728,424.213758,-5355.366213,-0.004000,-0.016000,1.008000,192.000000,0.000000,0.000000,0.000000,0.000000,0.000000,0.000000,0.000000,0.000000,0.000000,1770024286.184172,0.000000
244.000000,9636.641697,-7649.728078,-2130.881206,-2369.597837,-2727.873949,-13325.864175,-1959.108050,1305.386580,-2605.676962,-14515.491070,-3250.793010,-3474.824545,735.975890,13613.419367,457.517857,-5336.143713,-0.002000,-0.014000,1.010000,192.000000,127.500000,120.000000,127.500000,72.000000,15.500000,72.000000,0.000000,0.000000,0.000000,1770024286.184191,0.000000
246.000000,9614.133491,-7673.487982,-2153.970558,-2394.363570,-2750.985652,-13351.032239,-1980.588076,1282.230172,-2643.563168,-14561.446257,-3290.422653,-3519.908013,690.445386,13570.079335,422.850302,-5352.259320,-0.002000,-0.014000,1.010000,192.000000,0.000000,0.000000,0.000000,0.000000,0.000000,0.000000,0.000000,0.000000,0.000000,1770024286.184209,0.000000
248.000000,9653.629023,-7630.192653,-2122.655764,-2361.014767,-2722.934213,-13309.905030,-1956.649358,1311.063923,-2619.088008,-14537.328725,-3266.282769,-3497.690379,712.595965,13589.570056,441.849284,-5334.981422,-0.002000,-0.014000,1.010000,192.000000,0.000000,0.000000,0.000000,0.000000,0.000000,0.000000,0.000000,0.000000,0.000000,1770024286.184227,0.000000
250.000000,9619.363799,-7667.497714,-2158.373852,-2388.842689,-2752.460867,-13347.791236,-1980.386910,1282.498393,-2619.400933,-14532.433693,-3264.584036,-3489.219068,709.869052,13596.990835,437.825970,-5331.449846,-0.002000,-0.014000,1.010000,192.000000,0.000000,0.000000,0.000000,0.000000,0.000000,0.000000,0.000000,0.000000,0.000000,1770024286.184251,0.000000
252.000000,9639.435666,-7643.760162,-2138.570206,-2367.764994,-2732.523111,-13323.763111,-1964.181896,1304.581917,-2645.932453,-14557.400591,-3290.154432,-3516.912880,691.048883,13573.901483,415.742447,-5342.424553,-0.002000,-0.014000,1.010000,192.000000,0.000000,0.000000,0.000000,0.000000,0.000000,0.000000,0.000000,0.000000,0.000000,1770024286.184269,0.000000
254.000000,9646.521169,-7637.769894,-2133.406953,-2360.835953,-2725.169387,-13308.630980,-1962.639625,1310.192205,-2607.420398,-14510.908963,-3250.278920,-3470.398899,725.761142,13617.576792,447.951311,-5321.257451,-0.002000,-0.014000,1.010000,192.000000,0.000000,0.000000,127.500000,64.000000,15.500000,64.000000,0.000000,0.000000,0.000000,1770024286.184288,0.000000
0.000000,9637.066381,-7651.873845,-2152.316529,-2383.746491,-2740.882664,-13328.255812,-1980.744538,1295.171832,-2633.102552,-14547.364658,-3281.638417,-3509.156824,703.431750,13585.658501,418.134084,-5338.848274,-0.002000,-0.014000,1.010000,192.000000,0.000000,0.000000,0.000000,0.000000,0.000000,0.000000,0.000000,0.000000,0.000000,1770024286.184306,0.000000
2.000000,9669.744631,-7616.736903,-2109.624697,-2356.253845,-2705.723370,-13291.040157,-1952.089602,1322.820940,-2605.431092,-14521.682503,-3251.038879,-3483.206449,724.643555,13607.876135,437.714212,-5328.633526,-0.002000,-0.014000,1.010000,192.000000,0.000000,0.000000,0.000000,0.000000,0.000000,0.000000,0.000000,0.000000,0.000000,1770024286.184324,0.000000
4.000000,9628.818587,-7666.581293,-2143.621700,-2395.637619,-2740.413277,-13345.578414,-1978.978751,1283.168946,-2608.761502,-14529.215041,-3253.676385,-3489.867269,728.465704,13600.008321,449.247712,-5330.511073,-0.002000,-0.014000,1.010000,192.000000,0.000000,0.000000,0.000000,0.000000,0.000000,0.000000,0.000000,0.000000,0.000000,1770024286.184342,0.000000
6.000000,9645.492988,-7644.922453,-2123.460427,-2378.136203,-2724.163559,-13328.680495,-1965.567704,1295.060074,-2636.097686,-14565.156646,-3283.784185,-3531.910900,702.537680,13566.458352,422.917357,-5353.890998,-0.002000,-0.014000,1.010000,192.000000,0.000000,0.000000,0.000000,0.000000,0.000000,0.000000,0.000000,0.000000,0.000000,1770024286.184358,0.000000
8.000000,9652.399677,-7640.452104,-2121.962860,-2370.737776,-2717.033352,-13326.355913,-1961.477335,1299.955106,-2602.927697,-14524.051788,-3250.815362,-3488.012074,740.222721,13607.026769,454.768593,-5339.831750,-0.002000,-0.014000,1.010000,192.000000,0.000000,0.000000,127.500000,48.000000,15.500000,64.000000,0.000000,0.000000,0.000000,1770024286.184376,0.000000
10.000000,9635.814683,-7661.261578,-2151.489514,-2386.763976,-2742.179065,-13348.886472,-1979.917524,1286.052321,-2631.672040,-14550.158626,-3282.867763,-3515.504720,705.845738,13577.924797,422.202101,-5357.489628,-0.002000,-0.014000,1.010000,192.000000,0.000000,0.000000,0.000000,0.000000,0.000000,0.000000,0.000000,0.000000,0.000000,1770024286.184394,0.000000
12.000000,9659.999270,-7630.974964,-2125.561491,-2357.684357,-2714.351143,-13306.149936,-1956.381137,1309.588708,-2618.462159,-14528.656248,-3264.673443,-3491.342484,724.375334,13597.571981,435.791962,-5343.810361,-0.002000,-0.014000,1.010000,192.000000,0.000000,0.000000,0.000000,0.000000,0.000000,0.000000,0.000000,0.000000,0.000000,1770024286.184427,0.000000
14.000000,9631.478445,-7662.781496,-2160.117288,-2388.440357,-2749.644548,-13340.795140,-1983.203230,1281.201992,-2621.412590,-14533.037190,-3268.763813,-3494.359969,710.472549,13597.594332,439.547055,-5333.059172,-0.002000,-0.014000,1.010000,192.000000,0.000000,0.000000,0.000000,0.000000,0.000000,0.000000,0.000000,0.000000,0.000000,1770024286.184445,0.000000
16.000000,9649.717468,-7645.168322,-2138.033764,-2372.257694,-2730.131475,-13315.783538,-1968.540486,1296.602344,-2643.607872,-14560.887463,-3290.847336,-3524.646583,688.076101,13570.906350,411.987354,-5341.910463,-0.002000,-0.014000,1.010000,192.000000,0.000000,0.000000,0.000000,0.000000,0.000000,0.000000,0.000000,0.000000,0.000000,1770024286.184464,0.000000
18.000000,9660.535712,-7641.212063,-2131.618813,-2368.636712,-2725.772885,-13314.889469,-1963.779564,1302.212632,-2604.738188,-14522.084835,-3249.742478,-3483.787594,731.282023,13608.434928,447.079593,-5322.419741,-0.002000,-0.014000,1.010000,192.000000,0.000000,0.000000,127.500000,48.000000,15.500000,80.000000,0.000000,0.000000,0.000000,1770024286.184481,0.000000
20.000000,9633.758322,-7669.688185,-2162.643035,-2395.145881,-2753.734917,-13352.775675,-1987.159489,1278.363321,-2639.629261,-14557.534702,-3284.678255,-3521.070304,695.161604,13576.673100,410.333325,-5345.106762,-0.002000,-0.014000,1.010000,192.000000,0.000000,0.000000,0.000000,0.000000,0.000000,0.000000,0.000000,0.000000,0.000000,1770024286.184499,0.000000
22.000000,9660.289843,-7637.144045,-2128.355459,-2361.864133,-2722.844806,-13309.793271,-1959.532733,1303.330219,-2630.800322,-14541.776722,-3272.407147,-3502.428949,708.952631,13585.747908,425.599566,-5335.383753,-0.002000,-0.014000,1.010000,192.000000,0.000000,0.000000,0.000000,0.000000,0.000000,0.000000,0.000000,0.000000,0.000000,1770024286.184517,0.000000
24.000000,9637.759285,-7663.519104,-2154.104668,-2389.602648,-2750.002176,-13339.409332,-1983.471451,1278.251562,-2628.632203,-14538.401608,-3271.222505,-3501.803100,707.767988,13591.894638,429.220549,-5328.544119,-0.002000,-0.014000,1.010000,192.000000,0.000000,0.000000,0.000000,0.000000,0.000000,0.000000,0.000000,0.000000,0.000000,1770024286.184535,0.000000
26.000000,9672.449192,-7629.879729,-2123.549834,-2370.357796,-2717.323925,-13311.760224,-1966.081794,1302.480853,-2636.835293,-14554.852492,-3283.270095,-3525.987688,703.856433,13574.594387,413.484921,-5342.357497,-0.002000,-0.014000,1.010000,192.000000,0.000000,0.000000,0.000000,0.000000,0.000000,0.000000,0.000000,0.000000,0.000000,1770024286.184556,0.000000
28.000000,9671.666881,-7628.628031,-2127.819017,-2367.541476,-2715.468730,-13290.615474,-1965.612407,1301.385617,-2597.049188,-14509.165527,-3242.835789,-3478.378472,740.088611,13622.717693,450.857037,-5319.581070,-0.002000,-0.014000,1.010000,192.000000,0.000000,0.000000,127.500000,48.000000,15.500000,56.000000,0.000000,0.000000,0.000000,1770024286.184575,0.000000
30.000000,9656.691212,-7645.727115,-2153.791744,-2388.663875,-2739.161580,-13329.976896,-1983.314989,1286.633466,-2631.046192,-14549.063390,-3280.632589,-3519.282164,702.291811,13584.138582,411.450912,-5342.290442,-0.002000,-0.014000,1.010000,192.000000,0.000000,0.000000,0.000000,0.000000,0.000000,0.000000,0.000000,0.000000,0.000000,1770024286.184593,0.000000
32.000000,9690.665864,-7601.962400,-2116.129055,-2354.465706,-2706.930364,-13297.388053,-1953.274244,1320.138731,-2605.811072,-14521.660152,-3253.855199,-3486.223934,727.169302,13610.267772,434.652023,-5341.552835,-0.002000,-0.014000,1.010000,192.000000,0.000000,0.000000,0.000000,0.000000,0.000000,0.000000,0.000000,0.000000,0.000000,1770024286.184640,0.000000
34.000000,9659.105201,-7644.475418,-2155.311663,-2390.295552,-2738.178103,-13346.718353,-1982.666788,1290.165042,-2606.503976,-14521.481338,-3254.212827,-3486.916839,726.074067,13609.708978,435.389630,-5346.671384,-0.002000,-0.014000,1.010000,192.000000,0.000000,0.000000,0.000000,0.000000,0.000000,0.000000,0.000000,0.000000,0.000000,1770024286.184659,0.000000
36.000000,9680.182896,-7621.050789,-2134.971575,-2370.134279,-2725.728181,-13326.557079,-1965.768870,1308.426417,-2629.503921,-14548.102265,-3278.598580,-3515.951755,700.503671,13579.243550,412.859072,-5362.742288,-0.002000,-0.014000,1.010000,192.000000,0.000000,0.000000,0.000000,0.000000,0.000000,0.000000,0.000000,0.000000,0.000000,1770024286.184678,0.000000
38.000000,9675.421974,-7627.666906,-2135.418610,-2368.837877,-2731.159655,-13323.360780,-1964.986559,1306.928850,-2601.407778,-14515.111091,-3244.199245,-3473.394033,734.724192,13614.335789,444.173866,-5336.143713,-0.002000,-0.014000,1.010000,192.000000,0.000000,0.000000,127.500000,64.000000,15.500000,80.000000,0.000000,0.000000,0.000000,1770024286.184696,0.000000
40.000000,9657.764096,-7649.638671,-2155.445773,-2391.100215,-2754.651338,-13344.572585,-1984.566687,1287.058149,-2631.873206,-14552.594966,-3280.297313,-3516.488196,690.423034,13578.640053,408.031095,-5349.420649,-0.002000,-0.014000,1.010000,192.000000,0.000000,0.000000,0.000000,0.000000,0.000000,0.000000,0.000000,0.000000,0.000000,1770024286.184714,0.000000
42.000000,9687.447213,-7614.926412,-2115.793778,-2360.143049,-2720.989611,-13303.132451,-1957.632835,1313.321449,-2608.515633,-14528.410379,-3257.856161,-3492.460071,717.111017,13601.304722,429.332307,-5334.221463,-0.002000,-0.014000,1.010000,192.000000,0.000000,0.000000,0.000000,0.000000,0.000000,0.000000,0.000000,0.000000,0.000000,1770024286.184733,0.000000
44.000000,9657.093544,-7651.896197,-2149.030822,-2388.418006,-2746.649414,-13337.241213,-1986.243068,1281.157289,-2612.404837,-14529.505614,-3260.583074,-3494.471728,720.642593,13604.210449,431.343964,-5326.398352,-0.002000,-0.014000,1.010000,192.000000,0.000000,0.000000,0.000000,0.000000,0.000000,0.000000,0.000000,0.000000,0.000000,1770024286.184751,0.000000
46.000000,9687.022529,-7611.797167,-2129.137770,-2364.725156,-2719.402637,-13306.865192,-1968.071099,1308.247603,-2634.868340,-14550.091571,-3283.203040,-3520.869138,700.458968,13581.366966,411.070932,-5332.790951,-0.002000,-0.014000,1.010000,192.000000,0.000000,0.000000,0.000000,0.000000,0.000000,0.000000,0.000000,0.000000,0.000000,1770024286.184770,0.000000
48.000000,9693.526887,-7612.445368,-2129.562453,-2361.126526,-2714.038219,-13302.663064,-1966.148849,1311.198033,-2593.227040,-14499.666035,-3241.807609,-3467.113193,740.178018,13625.645772,450.342947,-5308.204032,0.000000,-0.015000,1.011000,192.000000,0.000000,8.000000,127.500000,64.000000,15.500000,80.000000,0.000000,0.000000,0.000000,1770024286.184789,0.000000
50.000000,9671.689233,-7637.144045,-2154.015261,-2383.701787,-2732.389001,-13330.960373,-1986.064254,1289.740359,-2627.022878,-14540.100341,-3279.559705,-3508.821548,706.940974,13587.826620,418.894043,-5328.097085,0.000000,-0.015000,1.011000,192.000000,0.000000,0.000000,0.000000,0.000000,0.000000,0.000000,0.000000,0.000000,0.000000,1770024286.184807,0.000000
52.000000,9707.139099,-7595.346283,-2118.341877,-2349.056584,-2703.622306,-13293.409442,-1958.124573,1321.569243,-2604.022933,-14518.195631,-3254.682214,-3483.742891,727.884558,13611.720635,432.439200,-5323.537329,0.000000,-0.015000,1.011000,192.000000,0.000000,0.000000,0.000000,0.000000,0.000000,0.000000,0.000000,0.000000,0.000000,1770024286.184826,0.000000
54.000000,9675.869009,-7632.383124,-2151.556570,-2381.824241,-2730.019716,-13331.183890,-1982.778547,1290.008579,-2597.004485,-14514.127614,-3249.027222,-3481.150088,736.981718,13616.593315,431.634537,-5325.504282,0.000000,-0.015000,1.011000,192.000000,0.000000,0.000000,0.000000,0.000000,0.000000,0.000000,0.000000,0.000000,0.000000,1770024286.184845,0.000000
56.000000,9704.568649,-7601.425958,-2126.299098,-2364.434584,-2715.289916,-13313.324846,-1960.940893,1314.304926,-2619.646802,-14542.804902,-3271.401318,-3512.531938,708.215023,13589.346539,409.394551,-5345.732611,0.000000,-0.015000,1.011000,192.000000,0.000000,0.000000,0.000000,0.000000,0.000000,0.000000,0.000000,0.000000,0.000000,1770024286.184863,0.000000
58.000000,9707.966114,-7600.688350,-2124.779180,-2363.384052,-2717.480387,-13318.376341,-1960.717375,1317.523577,-2579.972455,-14498.839021,-3231.346992,-3463.648673,748.917550,13619.767263,439.748220,-5329.795817,0.001000,-0.016500,1.008500,192.000000,0.000000,8.000000,127.500000,56.000000,15.500000,56.000000,0.000000,0.000000,0.000000,1770024286.664455,0.000000
60.000000,9674.572608,-7637.658136,-2150.461334,-2387.590991,-2742.626100,-13350.942832,-1984.834908,1288.198088,-2620.563223,-14539.921527,-3270.663711,-3502.451301,710.405494,13580.629358,406.935860,-5349.420649,0.001000,-0.016500,1.008500,192.000000,0.000000,0.000000,0.000000,0.000000,0.000000,0.000000,0.000000,0.000000,0.000000,1770024286.664534,0.000000
62.000000,9704.993332,-7607.863260,-2116.643145,-2360.835953,-2704.874004,-13312.453128,-1961.477335,1308.001734,-2610.661401,-14526.197556,-3260.426612,-3487.475632,729.091552,13597.817850,431.031040,-5337.797742,0.001000,-0.016500,1.008500,192.000000,0.000000,0.000000,0.000000,0.000000,0.000000,0.000000,0.000000,0.000000,0.000000,1770024286.664588,0.000000
64.000000,9666.593035,-7644.698935,-2150.193113,-2394.385921,-2737.351088,-13350.026411,-1987.628876,1275.055262,-2612.896575,-14534.400646,-3266.327472,-3499.523222,721.536663,13594.018053,439.167075,-5332.612137,0.001000,-0.016500,1.008500,192.000000,0.000000,0.000000,0.000000,0.000000,0.000000,0.000000,0.000000,0.000000,0.000000,1770024286.664640,0.000000
66.000000,9686.016701,-7626.035228,-2130.769447,-2374.604627,-2720.967260,-13325.595954,-1972.273227,1294.121300,-2633.840160,-14562.832065,-3289.707397,-3532.581452,701.353038,13569.565245,414.826025,-5342.133980,0.001000,-0.016500,1.008500,192.000000,0.000000,0.000000,0.000000,0.000000,0.000000,0.000000,0.000000,0.000000,0.000000,1770024286.664694,0.000000
68.000000,9697.885477,-7611.573650,-2124.957994,-2363.339348,-2715.178158,-13311.849631,-1966.819402,1304.894841,-2598.524403,-14514.999332,-3250.569493,-3479.339597,736.400573,13617.733254,444.822066,-5316.116550,0.002500,-0.015250,1.008250,192.000000,0.000000,16.000000,127.500000,72.000000,15.500000,64.000000,0.000000,0.000000,0.000000,1770024286.664746,0.000000
70.000000,9677.791259,-7642.240243,-2150.573093,-2383.545325,-2738.647489,-13334.737818,-1986.846565,1286.745225,-2628.363982,-14545.755332,-3280.721996,-3508.754493,706.181014,13588.161896,410.109807,-5330.242852,0.002500,-0.015250,1.008250,192.000000,0.000000,0.000000,0.000000,0.000000,0.000000,0.000000,0.000000,0.000000,0.000000,1770024286.664773,0.000000
72.000000,9714.492823,-7598.922562,-2116.084351,-2351.202351,-2703.689361,-13295.756375,-1957.275207,1314.640202,-2606.548680,-14524.476471,-3258.124382,-3484.905182,727.526930,13611.921801,425.085476,-5319.089332,0.002500,-0.015250,1.008250,192.000000,0.000000,0.000000,0.000000,0.000000,0.000000,0.000000,0.000000,0.000000,0.000000,1770024286.664791,0.000000
74.000000,9682.462774,-7633.076028,-2150.461334,-2382.606552,-2717.279222,-13332.592050,-1980.856297,1284.264181,-2599.753749,-14523.604753,-3259.353728,-3484.368740,734.277157,13612.972333,432.528607,-5318.776407,0.002500,-0.015250,1.008250,192.000000,0.000000,0.000000,0.000000,0.000000,0.000000,0.000000,0.000000,0.000000,0.000000,1770024286.664810,0.000000
76.000000,9705.306256,-7607.617391,-2127.059058,-2364.501639,-2699.710751,-13308.966256,-1964.919503,1306.995905,-2623.267785,-14550.493902,-3282.666598,-3513.582470,711.545433,13582.372794,415.474226,-5333.975593,0.002500,-0.015250,1.008250,192.000000,0.000000,0.000000,0.000000,0.000000,0.000000,0.000000,0.000000,0.000000,0.000000,1770024286.664828,0.000000
78.000000,9708.211983,-7605.941010,-2121.046438,-2363.182886,-2704.806948,-13315.291800,-1963.198419,1308.873452,-2585.627447,-14508.070291,-3243.416934,-3467.739042,747.911721,13621.823623,450.320596,-5321.503320,0.002500,-0.015250,1.008250,192.000000,0.000000,0.000000,0.000000,0.000000,0.000000,0.000000,0.000000,0.000000,0.000000,1770024286.664846,0.000000
80.000000,9685.927294,-7633.478359,-2143.576997,-2388.306247,-2739.027469,-13353.513283,-1982.197402,1289.382731,-2621.457293,-14550.672716,-3279.023263,-3509.603859,708.818520,13580.964635,414.803674,-5345.732611,0.002000,-0.016000,1.004000,192.000000,0.000000,8.000000,127.500000,64.000000,15.500000,48.000000,0.000000,0.000000,0.000000,1770024286.664864,0.000000
82.000000,9720.594850,-7598.520231,-2109.490586,-2359.405441,-2708.293820,-13326.713541,-1955.420012,1316.785969,-2597.697389,-14527.762178,-3253.810496,-3485.776900,732.913701,13600.969446,431.299261,-5342.223387,0.002000,-0.016000,1.004000,192.000000,0.000000,0.000000,0.000000,0.000000,0.000000,0.000000,0.000000,0.000000,0.000000,1770024286.664882,0.000000
84.000000,9683.468602,-7638.529854,-2146.661537,-2390.541421,-2742.514341,-13357.067210,-1979.805765,1285.471175,-2598.658514,-14533.640687,-3256.939740,-3489.710807,732.131390,13597.080242,431.656889,-5345.754963,0.002000,-0.016000,1.004000,192.000000,0.000000,0.000000,0.000000,0.000000,0.000000,0.000000,0.000000,0.000000,0.000000,1770024286.664899,0.000000
86.000000,9706.915582,-7607.550336,-2129.875377,-2372.503563,-2729.371515,-13333.731989,-1962.639625,1307.957030,-2626.329973,-14560.015745,-3282.644246,-3516.264679,707.030381,13572.649786,402.510214,-5358.920140,0.002000,-0.016000,1.004000,192.000000,0.000000,0.000000,0.000000,0.000000,0.000000,0.000000,0.000000,0.000000,0.000000,1770024286.664917,0.000000
88.000000,9710.022475,-7604.421092,-2125.874415,-2368.971988,-2722.777751,-13325.730065,-1957.521076,1308.940507,-2589.360188,-14514.976980,-3245.853275,-3470.510658,739.105134,13616.459205,433.445028,-5333.372096,0.002000,-0.016000,1.004000,192.000000,0.000000,0.000000,0.000000,0.000000,0.000000,0.000000,0.000000,0.000000,0.000000,1770024286.664934,0.000000
90.000000,9677.232465,-7644.676583,-2152.651805,-2397.112834,-2745.285957,-13349.579376,-1981.750367,1279.749129,-2626.777008,-14558.831103,-3282.510135,-3516.443493,700.213099,13576.784858,402.823139,-5345.889073,0.002000,-0.016000,1.004000,192.000000,0.000000,0.000000,127.500000,72.000000,15.500000,48.000000,0.000000,0.000000,0.000000,1770024286.664959,0.000000
92.000000,9716.973867,-7601.202440,-2116.777255,-2362.199409,-2708.293820,-13312.319018,-1959.622140,1307.040609,-2612.136616,-14539.116864,-3263.220580,-3501.087845,725.179997,13596.364986,424.973717,-5328.678230,0.002000,-0.016000,1.004000,192.000000,0.000000,0.000000,0.000000,0.000000,0.000000,0.000000,0.000000,0.000000,0.000000,1770024286.664977,0.000000
94.000000,9688.408338,-7637.904005,-2154.127020,-2395.257639,-2733.014850,-13347.724181,-1989.417015,1276.038739,-2605.766369,-14534.266536,-3262.594731,-3492.661237,726.163474,13596.633207,431.992165,-5326.331297,0.002000,-0.016000,1.004000,192.000000,0.000000,0.000000,0.000000,0.000000,0.000000,0.000000,0.000000,0.000000,0.000000,1770024286.664994,0.000000
96.000000,9716.124501,-7610.746635,-2127.863720,-2374.582276,-2710.506643,-13319.002190,-1970.149812,1301.340914,-2627.760485,-14558.987565,-3286.287580,-3519.505682,705.309296,13572.672137,412.188520,-5338.714163,0.002000,-0.016000,1.004000,192.000000,0.000000,0.000000,0.000000,0.000000,0.000000,0.000000,0.000000,0.000000,0.000000,1770024286.665012,0.000000
98.000000,9718.113806,-7610.187842,-2122.186377,-2372.436508,-2702.437663,-13315.828242,-1964.338358,1302.860833,-2586.342703,-14517.458024,-3243.171065,-3476.567981,745.698899,13615.006341,455.036814,-5316.608288,0.002000,-0.016000,1.004000,192.000000,0.000000,0.000000,0.000000,0.000000,0.000000,0.000000,0.000000,0.000000,0.000000,1770024286.665030,0.000000
100.000000,9684.720300,-7637.479322,-2148.181456,-2393.625962,-2730.623213,-13338.224690,-1982.778547,1279.637370,-2625.547662,-14554.181940,-3279.850278,-3526.591185,708.662058,13575.421402,417.061200,-5336.702506,0.004000,-0.014000,1.012000,192.000000,0.000000,16.000000,127.500000,72.000000,15.500000,80.000000,0.000000,0.000000,0.000000,1770024286.665047,0.000000
102.000000,9720.147815,-7599.190783,-2118.140712,-2364.233418,-2707.556213,-13308.474518,-1959.868009,1306.548870,-2610.393180,-14535.495881,-3262.460621,-3493.108272,719.994392,13598.980141,425.800732,-5327.918271,0.004000,-0.014000,1.012000,192.000000,0.000000,0.000000,0.000000,0.000000,0.000000,0.000000,0.000000,0.000000,0.000000,1770024286.665064,0.000000
104.000000,9689.861201,-7639.982717,-2154.551703,-2398.744511,-2747.789353,-13354.720277,-1984.454928,1276.150498,-2602.659476,-14535.875861,-3261.052461,-3489.129661,727.593986,13596.119117,423.632613,-5333.416800,0.004000,-0.014000,1.012000,192.000000,0.000000,0.000000,0.000000,0.000000,0.000000,0.000000,0.000000,0.000000,0.000000,1770024286.665081,0.000000
106.000000,9709.262515,-7615.641667,-2132.110552,-2382.383035,-2733.573643,-13343.142074,-1962.840791,1301.609135,-2629.101590,-14570.275196,-3285.169993,-3523.104313,693.217003,13561.049230,391.736673,-5353.466314,0.004000,-0.014000,1.012000,192.000000,0.000000,0.000000,0.000000,0.000000,0.000000,0.000000,0.000000,0.000000,0.000000,1770024286.665098,0.000000
108.000000,9720.281925,-7604.845775,-2126.589671,-2375.476345,-2724.834111,-13342.113893,-1958.996291,1307.711161,-2588.376711,-14523.470643,-3241.606443,-3472.723481,733.941881,13601.572943,424.996069,-5337.931852,0.004000,-0.014000,1.012000,192.000000,0.000000,0.000000,0.000000,0.000000,0.000000,0.000000,0.000000,0.000000,0.000000,1770024286.665117,0.000000
110.000000,9686.843716,-7644.877749,-2151.198942,-2396.643447,-2742.179065,-13361.872835,-1981.549201,1278.944466,-2626.665250,-14565.581330,-3278.352711,-3520.869138,700.324857,13563.574977,401.347923,-5356.908483,0.004000,-0.012000,1.006000,192.000000,0.000000,16.000000,127.500000,80.000000,15.500000,56.000000,0.000000,0.000000,0.000000,1770024286.665135,0.000000
112.000000,9727.993277,-7599.906039,-2110.049380,-2361.350043,-2701.007152,-13312.207259,-1949.809724,1312.159158,-2613.768293,-14543.766027,-3260.605426,-3500.529051,720.687296,13591.402899,426.627746,-5341.105800,0.004000,-0.012000,1.006000,192.000000,0.000000,0.000000,0.000000,0.000000,0.000000,0.000000,0.000000,0.000000,0.000000,1770024286.665154,0.000000
114.000000,9697.259628,-7633.120731,-2147.510904,-2394.631790,-2731.517283,-13342.739742,-1977.637646,1279.033873,-2602.726531,-14528.969172,-3257.520885,-3489.286123,725.850549,13611.742987,436.082534,-5330.935756,0.004000,-0.012000,1.006000,192.000000,0.000000,0.000000,0.000000,0.000000,0.000000,0.000000,0.000000,0.000000,0.000000,1770024286.665172,0.000000
116.000000,9710.380102,-7619.508519,-2131.060020,-2380.460784,-2718.329754,-13323.047855,-1966.104146,1296.311771,-2635.695354,-14570.811638,-3289.126252,-3531.575624,696.435654,13565.944262,406.824101,-5337.350707,0.004000,-0.012000,1.006000,192.000000,0.000000,0.000000,0.000000,0.000000,0.000000,0.000000,0.000000,0.000000,0.000000,1770024286.665191,0.000000
118.000000,9721.444216,-7609.003199,-2129.137770,-2374.403462,-2720.900204,-13325.730065,-1964.092489,1304.850138,-2598.367941,-14525.325838,-3249.161333,-3482.267676,733.852474,13607.764376,440.955215,-5315.736570,0.004000,-0.012000,1.006000,192.000000,0.000000,0.000000,0.000000,0.000000,0.000000,0.000000,0.000000,0.000000,0.000000,1770024286.665209,0.000000
120.000000,9689.101242,-7641.390877,-2155.177552,-2398.275125,-2745.464771,-13365.359708,-1982.957361,1278.586838,-2638.131695,-14567.078896,-3286.086415,-3513.716580,692.859375,13565.899559,405.326534,-5342.424553,0.004000,-0.008000,1.010000,192.000000,0.000000,16.000000,127.500000,96.000000,15.500000,72.000000,0.000000,0.000000,0.000000,1770024286.665227,0.000000
122.000000,9733.134178,-7595.368635,-2110.608174,-2362.691148,-2700.962448,-13319.851556,-1952.849561,1308.873452,-2619.602098,-14547.677582,-3267.243894,-3493.622362,718.273308,13588.698338,425.890139,-5336.322526,0.004000,-0.008000,1.010000,192.000000,0.000000,0.000000,0.000000,0.000000,0.000000,0.000000,0.000000,0.000000,0.000000,1770024286.665248,0.000000
124.000000,9702.869916,-7628.516272,-2141.408878,-2388.887392,-2725.079981,-13343.812626,-1978.218791,1282.967780,-2608.158005,-14531.070236,-3258.124382,-3487.922667,731.192616,13601.081205,435.948424,-5332.992117,0.004000,-0.008000,1.010000,192.000000,0.000000,0.000000,0.000000,0.000000,0.000000,0.000000,0.000000,0.000000,0.000000,1770024286.665266,0.000000
126.000000,9724.752274,-7607.170356,-2126.679078,-2370.648369,-2706.103349,-13316.990533,-1964.897152,1302.391446,-2631.672040,-14552.527911,-3281.817231,-3512.889566,704.638744,13580.338786,405.840624,-5341.955166,0.004000,-0.008000,1.010000,192.000000,0.000000,0.000000,0.000000,0.000000,0.000000,0.000000,0.000000,0.000000,0.000000,1770024286.665284,0.000000
128.000000,9728.037981,-7602.856469,-2124.712124,-2367.317959,-2714.440550,-13317.862251,-1958.124573,1306.794740,-2596.110415,-14517.547431,-3243.372231,-3469.638940,741.407364,13619.342580,438.273005,-5319.089332,0.004000,-0.008000,1.010000,192.000000,0.000000,0.000000,0.000000,0.000000,0.000000,0.000000,0.000000,0.000000,0.000000,1770024286.665302,0.000000
130.000000,9699.472451,-7632.561938,-2153.054136,-2395.771729,-2747.163504,-13359.168274,-1977.995274,1281.358454,-2633.862511,-14561.356850,-3280.833755,-3516.465845,697.597944,13573.923835,397.436368,-5342.111628,-0.002000,-0.012000,1.006000,192.000000,127.500000,120.000000,127.500000,80.000000,15.500000,56.000000,0.000000,0.000000,0.000000,1770024286.665320,0.000000
132.000000,9739.280908,-7592.373501,-2112.977459,-2364.971026,-2714.485254,-13326.534727,-1951.933140,1312.114455,-2615.556433,-14542.000239,-3260.516019,-3494.583487,722.184863,13590.084146,414.423694,-5344.972652,-0.002000,-0.012000,1.006000,192.000000,0.000000,0.000000,0.000000,0.000000,0.000000,0.000000,0.000000,0.000000,0.000000,1770024286.665338,0.000000
134.000000,9708.569611,-7629.164473,-2140.604215,-2395.771729,-2734.378306,-13356.486065,-1977.950570,1283.347760,-2607.196880,-14537.261669,-3257.520885,-3492.683589,724.576500,13592.989873,421.017459,-5346.626681,-0.002000,-0.012000,1.006000,192.000000,0.000000,0.000000,0.000000,0.000000,0.000000,0.000000,0.000000,0.000000,0.000000,1770024286.665356,0.000000
136.000000,9717.376198,-7616.021647,-2125.583842,-2381.958351,-2720.319059,-13334.067265,-1965.098317,1294.277763,-2632.230834,-14566.028364,-3281.973694,-3522.925499,701.911831,13572.180399,404.276002,-5356.148524,-0.002000,-0.012000,1.006000,192.000000,0.000000,0.000000,0.000000,0.000000,0.000000,0.000000,0.000000,0.000000,0.000000,1770024286.665374,0.000000
138.000000,9725.154606,-7606.700970,-2120.398238,-2373.174116,-2713.010038,-13319.359817,-1957.744593,1299.686885,-2601.743055,-14528.499785,-3251.105935,-3481.507716,731.751410,13612.167670,436.529569,-5330.466369,-0.002000,-0.012000,1.006000,192.000000,0.000000,0.000000,0.000000,0.000000,0.000000,0.000000,0.000000,0.000000,0.000000,1770024286.665392,0.000000
140.000000,9708.703722,-7627.331630,-2149.611968,-2390.764939,-2735.920577,-13340.795140,-1980.431614,1280.307922,-2630.397991,-14560.015745,-3284.141813,-3521.427932,704.057599,13571.398088,406.399418,-5338.781218,-0.002000,-0.012000,1.008000,192.000000,127.500000,120.000000,127.500000,80.000000,15.500000,64.000000,0.000000,0.000000,0.000000,1770024286.665428,0.000000
142.000000,9746.277004,-7587.903152,-2116.643145,-2356.253845,-2703.756416,-13300.271428,-1954.034204,1314.081408,-2605.274630,-14527.896288,-3260.717185,-3488.839089,723.391858,13600.343597,418.089380,-5321.525672,-0.002000,-0.012000,1.008000,192.000000,0.000000,0.000000,0.000000,0.000000,0.000000,0.000000,0.000000,0.000000,0.000000,1770024286.665446,0.000000
144.000000,9717.465605,-7621.386066,-2146.147447,-2388.887392,-2729.617385,-13338.582318,-1976.788280,1288.175736,-2604.268802,-14525.549355,-3258.459658,-3482.982931,722.698953,13601.662350,421.442142,-5321.413913,-0.002000,-0.012000,1.008000,192.000000,0.000000,0.000000,0.000000,0.000000,0.000000,0.000000,0.000000,0.000000,0.000000,1770024286.665465,0.000000
146.000000,9741.069048,-7597.760272,-2123.929813,-2372.704729,-2705.678666,-13320.432701,-1957.722242,1308.337010,-2621.054962,-14560.105152,-3278.352711,-3509.492100,703.051770,13572.336861,399.157452,-5341.597538,-0.002000,-0.012000,1.008000,192.000000,0.000000,0.000000,0.000000,0.000000,0.000000,0.000000,0.000000,0.000000,0.000000,1770024286.665483,0.000000
148.000000,9752.177865,-7587.701987,-2114.095046,-2365.351005,-2693.698131,-13311.648466,-1949.496800,1313.321449,-2583.906363,-14513.769986,-3238.141923,-3464.252170,745.676547,13614.246382,438.921206,-5329.505244,-0.002000,-0.012000,1.008000,192.000000,0.000000,0.000000,0.000000,0.000000,0.000000,0.000000,0.000000,0.000000,0.000000,1770024286.665502,0.000000
150.000000,9721.555975,-7620.424941,-2144.314604,-2390.519069,-2718.441512,-13333.776693,-1977.861163,1283.392463,-2613.544776,-14548.839873,-3274.172935,-3512.263717,716.731038,13581.590483,409.238089,-5341.798704,-0.002000,-0.012000,1.008000,192.000000,0.000000,0.000000,127.500000,64.000000,15.500000,96.000000,0.000000,0.000000,0.000000,1770024286.665520,0.000000
152.000000,9763.890179,-7569.507667,-2108.261241,-2354.957444,-2685.226820,-13287.620340,-1953.698928,1316.294231,-2595.953953,-14524.945858,-3256.313891,-3491.387187,739.552169,13606.155051,422.604432,-5326.554814,-0.002000,-0.012000,1.008000,192.000000,0.000000,0.000000,0.000000,0.000000,0.000000,0.000000,0.000000,0.000000,0.000000,1770024286.665538,0.000000
154.000000,9730.206100,-7609.852566,-2142.727630,-2388.865040,-2724.834111,-13333.866100,-1976.989445,1286.208783,-2591.483604,-14515.893402,-3251.709432,-3479.697225,737.361698,13612.681760,426.583043,-5324.632564,-0.002000,-0.012000,1.008000,192.000000,0.000000,0.000000,0.000000,0.000000,0.000000,0.000000,0.000000,0.000000,0.000000,1770024286.665560,0.000000
156.000000,9745.025306,-7594.273400,-2119.615927,-2377.197430,-2713.702943,-13322.936097,-1959.957416,1300.983286,-2620.496168,-14554.360754,-3279.380891,-3513.940098,705.733979,13575.868437,398.442197,-5352.013451,-0.002000,-0.012000,1.008000,192.000000,0.000000,0.000000,0.000000,0.000000,0.000000,0.000000,0.000000,0.000000,0.000000,1770024286.665578,0.000000
158.000000,9753.295452,-7594.921600,-2113.290383,-2371.721252,-2710.640754,-13316.297628,-1957.074041,1304.961897,-2585.292171,-14517.972114,-3240.421801,-3482.625304,742.994337,13609.351350,434.026174,-5336.836617,-0.002000,-0.012000,1.008000,192.000000,0.000000,0.000000,0.000000,0.000000,0.000000,0.000000,0.000000,0.000000,0.000000,1770024286.665597,0.000000
160.000000,9726.808635,-7624.202385,-2138.994889,-2393.357741,-2732.389001,-13344.192606,-1978.531716,1285.314713,-2614.058866,-14553.667850,-3273.100051,-3509.268583,717.222776,13583.713899,402.577269,-5354.069812,0.000000,-0.012000,1.008000,192.000000,0.000000,8.000000,127.500000,80.000000,15.500000,64.000000,0.000000,0.000000,0.000000,1770024286.665615,0.000000
162.000000,9767.175885,-7575.632045,-2102.494490,-2354.599816,-2695.978009,-13301.321960,-1948.021585,1319.155254,-2597.406816,-14530.690256,-3252.357632,-3485.061644,732.891349,13599.851859,424.839607,-5331.606308,0.000000,-0.012000,1.008000,192.000000,0.000000,0.000000,0.000000,0.000000,0.000000,0.000000,0.000000,0.000000,0.000000,1770024286.665633,0.000000
164.000000,9741.694896,-7602.722359,-2136.849122,-2383.612380,-2728.499797,-13335.073094,-1971.513268,1292.623734,-2586.365054,-14519.782605,-3247.172027,-3477.931437,739.932148,13605.842126,426.158360,-5325.437227,0.000000,-0.012000,1.008000,192.000000,0.000000,0.000000,0.000000,0.000000,0.000000,0.000000,0.000000,0.000000,0.000000,1770024286.665652,0.000000
166.000000,9757.341118,-7592.082929,-2119.526520,-2367.049738,-2710.081960,-13316.565849,-1957.074041,1308.113493,-2612.606002,-14544.414228,-3272.585961,-3510.073246,712.059523,13579.042385,398.375141,-5338.200073,0.000000,-0.012000,1.008000,192.000000,0.000000,0.000000,0.000000,0.000000,0.000000,0.000000,0.000000,0.000000,0.000000,1770024286.665670,0.000000
168.000000,9753.273100,-7585.153888,-2118.721857,-2362.624092,-2711.445416,-13311.089672,-1956.761117,1306.325353,-2584.196935,-14508.517326,-3241.271167,-3466.621455,744.447201,13621.957734,432.461552,-5314.820148,0.000000,-0.012000,1.008000,192.000000,0.000000,0.000000,0.000000,0.000000,0.000000,0.000000,0.000000,0.000000,0.000000,1770024286.665689,0.000000
170.000000,9738.520949,-7607.371522,-2141.788857,-2385.132299,-2730.734972,-13336.682419,-1976.520059,1286.477004,-2615.601136,-14543.788379,-3276.072833,-3503.524185,709.019686,13587.334882,398.531604,-5334.735553,0.002000,-0.012000,1.008000,192.000000,0.000000,16.000000,127.500000,80.000000,15.500000,64.000000,0.000000,0.000000,0.000000,1770024286.665707,0.000000
172.000000,9778.709385,-7560.052879,-2103.276801,-2354.555113,-2697.117948,-13299.131489,-1947.619253,1321.748057,-2591.125976,-14519.402625,-3250.502437,-3475.495097,733.360736,13611.899449,422.939709,-5327.873567,0.002000,-0.012000,1.008000,192.000000,0.000000,0.000000,0.000000,0.000000,0.000000,0.000000,0.000000,0.000000,0.000000,1770024286.665725,0.000000
174.000000,9746.746391,-7593.647551,-2137.720840,-2388.015674,-2725.482312,-13339.118760,-1973.323759,1291.953181,-2588.890802,-14514.015855,-3247.172027,-3471.516487,733.226625,13612.525298,427.477113,-5332.120399,0.002000,-0.012000,1.008000,192.000000,0.000000,0.000000,0.000000,0.000000,0.000000,0.000000,0.000000,0.000000,0.000000,1770024286.665744,0.000000
176.000000,9766.997071,-7579.476545,-2118.453636,-2369.843706,-2704.136396,-13309.972085,-1960.002120,1309.454597,-2613.433017,-14541.799073,-3271.244856,-3504.261792,710.181977,13585.055004,403.091360,-5342.446904,0.002000,-0.012000,1.008000,192.000000,0.000000,0.000000,0.000000,0.000000,0.000000,0.000000,0.000000,0.000000,0.000000,1770024286.665762,0.000000
178.000000,9774.864885,-7570.558199,-2115.369095,-2362.914665,-2700.850690,-13299.802041,-1956.515247,1311.332144,-2574.362168,-14502.571762,-3234.185664,-3457.680757,749.096364,13626.942173,437.177770,-5320.229270,0.002000,-0.012000,1.008000,192.000000,0.000000,0.000000,0.000000,0.000000,0.000000,0.000000,0.000000,0.000000,0.000000,1770024287.144030,0.000000
180.000000,9754.278929,-7585.466812,-2138.503151,-2384.506450,-2724.096504,-13328.076998,-1973.100242,1294.434225,-2604.335857,-14525.906983,-3264.874609,-3493.197679,714.451160,13593.481611,400.923240,-5336.568396,0.004000,-0.014000,1.007000,192.000000,0.000000,24.000000,127.500000,64.000000,15.500000,56.000000,0.000000,0.000000,0.000000,1770024287.144096,0.000000
182.000000,9794.556772,-7552.900321,-2100.013447,-2354.622168,-2687.618457,-13295.890486,-1944.490009,1328.297118,-2586.320351,-14507.399739,-3241.360574,-3474.288103,734.053640,13610.401882,418.156435,-5329.773465,0.004000,-0.014000,1.007000,192.000000,0.000000,0.000000,0.000000,0.000000,0.000000,0.000000,0.000000,0.000000,0.000000,1770024287.144139,0.000000
184.000000,9754.547149,-7603.392911,-2135.083334,-2387.658046,-2720.453169,-13339.923422,-1975.447175,1293.987190,-2585.918020,-14516.809823,-3240.690022,-3467.493173,738.300471,13609.239591,420.481017,-5337.730686,0.004000,-0.014000,1.007000,192.000000,0.000000,0.000000,0.000000,0.000000,0.000000,0.000000,0.000000,0.000000,0.000000,1770024287.144180,0.000000
186.000000,9776.384804,-7577.598998,-2117.559566,-2371.341273,-2705.142224,-13323.629001,-1963.533695,1309.767522,-2609.990848,-14546.112960,-3268.294426,-3498.070359,714.227642,13580.383489,397.726941,-5354.472143,0.004000,-0.014000,1.007000,192.000000,0.000000,0.000000,0.000000,0.000000,0.000000,0.000000,0.000000,0.000000,0.000000,1770024287.144228,0.000000
188.000000,9778.687033,-7574.335644,-2115.056171,-2368.524953,-2709.322001,-13320.656219,-1955.621178,1312.896766,-2571.501144,-14500.493050,-3230.855254,-3453.769201,752.873808,13619.767263,434.652023,-5334.489683,0.004000,-0.014000,1.007000,192.000000,0.000000,0.000000,0.000000,0.000000,0.000000,0.000000,0.000000,0.000000,0.000000,1770024287.144268,0.000000
190.000000,9749.316841,-7607.885612,-2142.839389,-2393.693017,-2738.334565,-13353.982670,-1972.228524,1291.304981,-2611.510767,-14546.761161,-3269.188496,-3503.568888,705.532814,13571.979233,394.798862,-5354.405088,0.004000,-0.014000,1.007000,192.000000,0.000000,0.000000,127.500000,96.000000,15.500000,72.000000,0.000000,0.000000,0.000000,1770024287.144284,0.000000
192.000000,9780.721042,-7565.998443,-2106.897784,-2356.186790,-2702.951753,-13307.245172,-1946.300500,1322.373905,-2598.434996,-14528.879765,-3248.066097,-3479.272542,722.967174,13593.906295,411.115636,-5339.027088,0.004000,-0.014000,1.007000,192.000000,0.000000,0.000000,0.000000,0.000000,0.000000,0.000000,0.000000,0.000000,0.000000,1770024287.144301,0.000000
194.000000,9752.513141,-7600.464833,-2141.744154,-2383.746491,-2733.417181,-13334.804873,-1977.078852,1288.622771,-2589.673113,-14516.116919,-3245.495647,-3469.594237,731.952576,13608.680798,415.384819,-5323.179701,0.004000,-0.014000,1.007000,192.000000,0.000000,0.000000,0.000000,0.000000,0.000000,0.000000,0.000000,0.000000,0.000000,1770024287.144319,0.000000
196.000000,9763.465496,-7590.406548,-2125.673249,-2369.575485,-2711.892451,-13312.386073,-1965.970035,1298.614001,-2617.143407,-14549.689239,-3280.543182,-3506.631077,704.102302,13581.054042,390.239106,-5330.466369,0.004000,-0.014000,1.007000,192.000000,0.000000,0.000000,0.000000,0.000000,0.000000,0.000000,0.000000,0.000000,0.000000,1770024287.144333,0.000000
198.000000,9766.058298,-7584.908019,-2120.062962,-2373.218819,-2710.283126,-13312.296666,-1963.511343,1296.669399,-2588.935505,-14514.932277,-3248.043746,-3470.555362,740.267425,13608.032597,428.147665,-5311.959125,0.004000,-0.014000,1.007000,192.000000,0.000000,0.000000,0.000000,0.000000,0.000000,0.000000,0.000000,0.000000,0.000000,1770024287.144346,0.000000
200.000000,9751.149684,-7608.422054,-2140.715973,-2399.638581,-2730.243233,-13342.292707,-1981.504498,1278.966818,-2611.399008,-14548.839873,-3275.648150,-3513.381304,708.840872,13569.788762,396.430540,-5342.044573,0.004000,-0.014000,1.007000,192.000000,0.000000,0.000000,127.500000,88.000000,15.500000,56.000000,0.000000,0.000000,0.000000,1770024287.144358,0.000000
202.000000,9792.031025,-7559.963472,-2101.667476,-2359.696014,-2691.664123,-13295.443451,-1949.966186,1318.305888,-2592.064749,-14528.052751,-3249.250740,-3486.760376,731.527893,13591.492306,413.171996,-5336.814265,0.004000,-0.014000,1.007000,192.000000,0.000000,0.000000,0.000000,0.000000,0.000000,0.000000,0.000000,0.000000,0.000000,1770024287.144371,0.000000
204.000000,9764.694841,-7597.961437,-2135.664479,-2387.322770,-2721.995440,-13329.172233,-1974.776623,1289.427434,-2580.844174,-14515.334608,-3239.728897,-3466.934379,742.457896,13603.875173,423.677316,-5329.415837,0.004000,-0.014000,1.007000,192.000000,0.000000,0.000000,0.000000,0.000000,0.000000,0.000000,0.000000,0.000000,0.000000,1770024287.144384,0.000000
206.000000,9764.516028,-7590.071272,-2122.499302,-2372.682377,-2713.769998,-13316.476442,-1960.538561,1298.546946,-2619.780912,-14552.103228,-3275.357577,-3502.607763,707.767988,13570.056983,393.658923,-5344.503265,0.004000,-0.014000,1.007000,192.000000,0.000000,0.000000,0.000000,0.000000,0.000000,0.000000,0.000000,0.000000,0.000000,1770024287.144396,0.000000
208.000000,9785.750185,-7564.590283,-2116.710200,-2366.200372,-2709.612573,-13308.072186,-1956.984634,1306.548870,-2584.308694,-14510.216059,-3241.628795,-3463.179286,740.669756,13608.658446,426.247767,-5324.856082,0.004000,-0.014000,1.007000,192.000000,0.000000,0.000000,0.000000,0.000000,0.000000,0.000000,0.000000,0.000000,0.000000,1770024287.144410,0.000000
210.000000,9774.686071,-7583.209286,-2134.815113,-2388.328599,-2726.264623,-13340.750437,-1976.855335,1291.416739,-2607.152177,-14536.591117,-3268.987330,-3501.803100,715.077009,13575.846085,402.241993,-5342.849236,0.000000,-0.013000,1.008500,192.000000,127.500000,112.000000,127.500000,80.000000,15.500000,72.000000,0.000000,0.000000,0.000000,1770024287.144422,0.000000
212.000000,9822.787025,-7536.136512,-2094.224345,-2349.280101,-2690.881811,-13302.394843,-1945.629948,1331.336955,-2572.551676,-14504.404605,-3236.554949,-3463.447507,741.608529,13607.652617,421.062162,-5337.015431,0.000000,-0.013000,1.008500,192.000000,0.000000,0.000000,0.000000,0.000000,0.000000,0.000000,0.000000,0.000000,0.000000,1770024287.144435,0.000000
214.000000,9782.509182,-7580.191801,-2130.545930,-2380.125508,-2723.895338,-13342.426818,-1966.774698,1302.100873,-2567.455479,-14500.649512,-3229.983536,-3448.851818,745.810657,13613.151147,422.939709,-5333.863835,0.000000,-0.013000,1.008500,192.000000,0.000000,0.000000,0.000000,0.000000,0.000000,0.000000,0.000000,0.000000,0.000000,1770024287.144448,0.000000
216.000000,9787.851249,-7567.764231,-2114.318563,-2370.246037,-2706.282163,-13324.947754,-1954.011852,1308.985211,-2606.146348,-14542.201405,-3266.059252,-3492.437719,714.048828,13573.096820,394.530641,-5349.241835,0.000000,-0.013000,1.008500,192.000000,0.000000,0.000000,0.000000,0.000000,0.000000,0.000000,0.000000,0.000000,0.000000,1770024287.144464,0.000000
218.000000,9796.702540,-7559.158809,-2110.764636,-2365.552171,-2693.027579,-13304.317093,-1953.207189,1307.554699,-2576.373825,-14500.716567,-3234.900920,-3456.965501,747.062355,13614.380492,433.355621,-5317.971744,0.000000,-0.013000,1.008500,192.000000,0.000000,0.000000,0.000000,0.000000,0.000000,0.000000,0.000000,0.000000,0.000000,1770024287.144487,0.000000
220.000000,9770.573350,-7583.097527,-2139.598386,-2390.787290,-2712.786521,-13318.577506,-1980.610428,1282.274876,-2607.576860,-14538.088684,-3275.044653,-3503.747702,716.261651,13581.746946,404.186595,-5325.280765,0.000000,-0.013000,1.008500,192.000000,0.000000,0.000000,0.000000,0.000000,0.000000,0.000000,0.000000,0.000000,0.000000,1770024287.144505,0.000000
222.000000,9806.246734,-7553.906149,-2103.947354,-2354.286892,-2688.534878,-13275.908026,-1952.067250,1317.165949,-2588.600229,-14516.049864,-3254.481048,-3472.790536,734.657137,13608.211411,422.358563,-5308.740474,-0.004000,-0.014000,1.012000,192.000000,127.500000,112.000000,127.500000,72.000000,15.500000,80.000000,0.000000,0.000000,0.000000,1770024287.144518,0.000000
224.000000,9773.613188,-7592.105280,-2141.207712,-2386.026369,-2730.578510,-13325.618306,-1974.642512,1287.952219,-2588.287304,-14512.965323,-3250.658900,-3460.340614,733.941881,13609.463109,417.932918,-5316.094198,-0.004000,-0.014000,1.012000,192.000000,0.000000,0.000000,0.000000,0.000000,0.000000,0.000000,0.000000,0.000000,0.000000,1770024287.144530,0.000000
226.000000,9786.711310,-7577.375481,-2121.940508,-2376.348064,-2715.044047,-13322.667876,-1961.432631,1298.859870,-2617.702200,-14546.917623,-3276.743385,-3499.299705,705.286945,13579.914103,391.468452,-5345.263224,-0.004000,-0.014000,1.012000,192.000000,0.000000,0.000000,0.000000,0.000000,0.000000,0.000000,0.000000,0.000000,0.000000,1770024287.144544,0.000000
228.000000,9791.226362,-7570.893475,-2114.787950,-2375.096366,-2710.752512,-13325.908879,-1958.951588,1298.368132,-2583.928714,-14512.920620,-3243.662804,-3466.174420,740.423887,13607.943190,427.499464,-5335.719029,-0.004000,-0.014000,1.012000,192.000000,0.000000,0.000000,0.000000,0.000000,0.000000,0.000000,0.000000,0.000000,0.000000,1770024287.144556,0.000000
230.000000,9764.761897,-7601.627124,-2143.040555,-2401.896107,-2737.865178,-13356.620175,-1982.644437,1274.630579,-2615.109398,-14549.085742,-3277.168069,-3504.395903,711.232509,13571.040460,397.972810,-5355.232102,-0.004000,-0.014000,1.012000,192.000000,0.000000,0.000000,0.000000,0.000000,0.000000,0.000000,0.000000,0.000000,0.000000,1770024287.144570,0.000000
232.000000,9806.112624,-7550.821608,-2104.930831,-2367.161497,-2697.967314,-13314.889469,-1954.168314,1310.371019,-2600.044322,-14528.723303,-3257.923217,-3487.095652,726.811674,13586.641978,412.903775,-5345.799666,-0.004000,-0.012000,1.002000,192.000000,127.500000,112.000000,127.500000,80.000000,15.500000,40.000000,0.000000,0.000000,0.000000,1770024287.144585,0.000000
