Sample_index,EXG Channel 0,EXG Channel 1,EXG Channel 2,EXG Channel 3,EXG Channel 4,EXG Channel 5,EXG Channel 6,EXG Channel 7,EXG Channel 8,EXG Channel 9,EXG Channel 10,EXG Channel 11,EXG Channel 12,EXG Channel 13,EXG Channel 14,EXG Channel 15,Accel Channel 0,Accel Channel 1,Accel Channel 2,Not Used,Digital Channel 0 (D11),Digital Channel 1 (D12),Digital Channel 2 (D13),Digital Channel 3 (D17),Not Used,Digital Channel 4 (D18),Analog Channel 0,Analog Channel 1,Analog Channel 2,Timestamp,Marker Channel
90.000000,631.146208,-9526.626411,-3529.116932,300.988591,72.687873,-3142.521160,154.182333,5241.349964,-7058.300919,-17926.031998,-1353.979272,-2271.943065,4999.437034,12607.434405,2643.272596,-2279.386196,0.002000,-0.010000,1.008000,192.000000,0.000000,0.000000,0.000000,0.000000,0.000000,0.000000,0.000000,0.000000,0.000000,1770022245.873482,101.000000
92.000000,612.907185,-9551.883883,-3554.530865,288.337503,52.101916,-3159.061451,144.124048,5225.055543,-7070.504972,-17937.006704,-1367.122098,-2285.287057,4991.882144,12595.923256,2627.648726,-2275.631103,0.002000,-0.010000,1.008000,192.000000,0.000000,0.000000,0.000000,0.000000,0.000000,0.000000,0.000000,0.000000,0.000000,1770022245.873553,0.000000
94.000000,629.894510,-9533.756618,-3523.976031,298.127568,73.805460,-3143.415230,155.925769,5235.627918,-7065.565236,-17941.789978,-1367.278560,-2290.562068,4982.963798,12596.862030,2625.324145,-2273.798260,0.003000,-0.010000,1.007000,192.000000,0.000000,16.000000,127.500000,88.000000,15.500000,56.000000,0.000000,0.000000,0.000000,1770022245.873608,0.000000
96.000000,619.523301,-9541.959708,-3534.973089,288.695131,70.855030,-3149.897236,149.577874,5226.933089,-7059.731431,-17928.311876,-1354.962749,-2275.027606,4995.972514,12609.647227,2642.087953,-2278.067443,0.003000,-0.010000,1.007000,192.000000,0.000000,0.000000,0.000000,0.000000,0.000000,0.000000,0.000000,0.000000,0.000000,1770022245.873663,0.000000
98.000000,626.251176,-9538.852815,-3537.252967,289.522146,73.336074,-3154.926378,143.364089,5230.911700,-7065.766402,-17944.762760,-1370.631322,-2297.222888,4990.764557,12593.285751,2626.687601,-2278.000388,0.003000,-0.010000,1.007000,192.000000,0.000000,0.000000,0.000000,0.000000,0.000000,0.000000,0.000000,0.000000,0.000000,1770022245.873718,0.000000
100.000000,632.241444,-9529.599193,-3524.445417,298.641658,81.315646,-3140.688317,155.299920,5243.339270,-7054.188198,-17922.813347,-1352.168781,-2268.992635,5012.401046,12622.745350,2644.032555,-2278.603885,0.003000,-0.010000,1.007000,192.000000,0.000000,0.000000,0.000000,0.000000,0.000000,0.000000,0.000000,0.000000,0.000000,1770022245.873766,0.000000
102.000000,603.854728,-9561.137505,-3549.054688,282.347236,61.176725,-3163.710614,146.180409,5224.250880,-7070.415565,-17944.271021,-1364.976330,-2289.109205,4981.846211,12611.323608,2632.700221,-2279.363844,0.003000,-0.010000,1.007000,192.000000,0.000000,0.000000,0.000000,0.000000,0.000000,0.000000,0.000000,0.000000,0.000000,1770022245.873790,0.000000
104.000000,617.042257,-9535.254185,-3533.117894,298.932230,70.542106,-3152.132410,155.992825,5233.996240,-7073.589513,-17949.009591,-1371.100708,-2295.054769,4981.153307,12590.402376,2627.246395,-2279.721472,0.002500,-0.011000,1.012500,192.000000,0.000000,8.000000,127.500000,80.000000,15.500000,104.000000,0.000000,0.000000,0.000000,1770022245.873813,0.000000
106.000000,611.856653,-9555.817790,-3540.605729,291.287934,58.114536,-3164.470573,149.332005,5228.073028,-7073.187181,-17930.614106,-1359.298987,-2274.871144,4992.083310,12603.902829,2639.629261,-2279.922638,0.002500,-0.011000,1.012500,192.000000,0.000000,0.000000,0.000000,0.000000,0.000000,0.000000,0.000000,0.000000,0.000000,1770022245.873829,0.000000
108.000000,619.836225,-9548.061734,-3539.309328,286.057626,61.221428,-3165.588160,147.655624,5235.158531,-7076.316425,-17952.943498,-1368.105575,-2296.820557,4974.358377,12590.312969,2621.703162,-2278.894458,0.002500,-0.011000,1.012500,192.000000,0.000000,0.000000,0.000000,0.000000,0.000000,0.000000,0.000000,0.000000,0.000000,1770022245.873846,0.000000
110.000000,631.749705,-9525.933507,-3532.067362,298.038161,72.821983,-3153.361756,158.362109,5243.987470,-7063.531228,-17925.048521,-1350.671214,-2269.864353,5003.639162,12607.456757,2636.969404,-2279.229734,0.002500,-0.011000,1.012500,192.000000,0.000000,0.000000,0.000000,0.000000,0.000000,0.000000,0.000000,0.000000,0.000000,1770022245.873863,0.000000
112.000000,597.909164,-9566.323109,-3551.871008,279.463861,49.777335,-3180.049739,148.348528,5221.009877,-7076.763460,-17945.880347,-1364.797516,-2289.422129,4974.827763,12595.811498,2626.106456,-2285.242353,0.002500,-0.011000,1.012500,192.000000,0.000000,0.000000,0.000000,0.000000,0.000000,0.000000,0.000000,0.000000,0.000000,1770022245.873880,0.000000
114.000000,613.488330,-9544.798380,-3538.236444,292.539631,66.742309,-3159.307320,153.444726,5229.525891,-7085.972379,-17955.826873,-1375.839278,-2301.804996,4970.111545,12588.055442,2623.804226,-2283.521269,0.004250,-0.008500,1.009250,192.000000,0.000000,24.000000,127.500000,104.000000,15.500000,56.000000,0.000000,0.000000,0.000000,1770022245.873894,0.000000
116.000000,611.789597,-9552.889711,-3546.126610,286.817585,60.461469,-3157.832105,146.493333,5225.055543,-7071.957835,-17936.850242,-1361.198886,-2278.626237,5002.700389,12615.145757,2637.528197,-2282.873068,0.004250,-0.008500,1.009250,192.000000,0.000000,0.000000,0.000000,0.000000,0.000000,0.000000,0.000000,0.000000,0.000000,1770022245.873909,0.000000
118.000000,606.894565,-9558.142371,-3540.337508,284.135376,63.747175,-3160.402556,144.168752,5225.502577,-7084.184239,-17960.833664,-1373.872325,-2303.123749,4963.607188,12588.189553,2621.680811,-2277.709815,0.004250,-0.008500,1.009250,192.000000,0.000000,0.000000,0.000000,0.000000,0.000000,0.000000,0.000000,0.000000,0.000000,1770022245.873927,0.000000
120.000000,632.375554,-9532.124940,-3524.646583,301.346219,79.147527,-3138.117866,159.457345,5241.774647,-7072.248408,-17932.603411,-1353.062851,-2274.044129,4989.423453,12613.178803,2640.880959,-2273.217115,0.004250,-0.008500,1.009250,192.000000,0.000000,0.000000,0.000000,0.000000,0.000000,0.000000,0.000000,0.000000,0.000000,1770022245.873944,0.000000
122.000000,605.262888,-9559.349365,-3556.721336,285.923515,59.768565,-3170.371434,147.633272,5221.769836,-7076.338777,-17946.595603,-1361.534162,-2286.717568,4978.180525,12602.181745,2628.207520,-2277.933333,0.004250,-0.008500,1.009250,192.000000,0.000000,0.000000,0.000000,0.000000,0.000000,0.000000,0.000000,0.000000,0.000000,1770022245.873959,0.000000
124.000000,629.939214,-9528.772179,-3535.107200,300.429797,73.805460,-3143.258768,156.909246,5236.387877,-7082.574914,-17950.305992,-1372.933551,-2291.657304,4978.582856,12602.829945,2623.491302,-2278.514478,0.005125,-0.009250,1.006625,192.000000,0.000000,24.000000,127.500000,88.000000,15.500000,48.000000,0.000000,0.000000,0.000000,1770022245.873977,0.000000
126.000000,612.907185,-9548.866397,-3547.423011,295.490062,63.501306,-3152.199465,148.817915,5226.508406,-7072.650739,-17922.411015,-1358.449621,-2271.406623,4993.938505,12624.689952,2634.398953,-2277.598057,0.005125,-0.009250,1.006625,192.000000,0.000000,0.000000,0.000000,0.000000,0.000000,0.000000,0.000000,0.000000,0.000000,1770022245.873994,0.000000
128.000000,614.449455,-9547.547644,-3552.496857,295.065379,60.126193,-3159.486134,148.952025,5228.184787,-7083.938370,-17953.614051,-1377.359197,-2297.669923,4970.536228,12597.331416,2617.724552,-2274.893495,0.005125,-0.009250,1.006625,192.000000,0.000000,0.000000,0.000000,0.000000,0.000000,0.000000,0.000000,0.000000,0.000000,1770022245.874011,0.000000
130.000000,630.095676,-9534.471874,-3531.016830,295.244193,70.765623,-3149.159628,157.244522,5236.834912,-7068.493315,-17927.060178,-1356.460316,-2271.652492,4992.753862,12616.084530,2634.823636,-2276.569876,0.005125,-0.009250,1.006625,192.000000,0.000000,0.000000,0.000000,0.000000,0.000000,0.000000,0.000000,0.000000,0.000000,1770022245.874029,0.000000
132.000000,606.559289,-9556.175417,-3553.435630,284.649466,49.196190,-3173.500678,148.437935,5224.876729,-7080.853829,-17945.656830,-1365.378662,-2290.919696,4969.686862,12601.645303,2627.313450,-2282.962475,0.005125,-0.009250,1.006625,192.000000,0.000000,0.000000,0.000000,0.000000,0.000000,0.000000,0.000000,0.000000,0.000000,1770022245.874044,0.000000
134.000000,626.899377,-9536.394124,-3530.569795,294.014847,64.462431,-3155.932207,154.003519,5234.018592,-7083.089004,-17948.160225,-1366.764470,-2293.803071,4971.743223,12599.097204,2619.646802,-2286.672865,0.005562,-0.009625,1.006312,192.000000,0.000000,24.000000,127.500000,88.000000,15.500000,56.000000,0.000000,0.000000,0.000000,1770022245.874061,0.000000
136.000000,612.683667,-9552.979118,-3543.802028,283.107195,57.801611,-3167.800983,143.900531,5218.484130,-7078.149268,-17938.750141,-1357.354386,-2284.303580,4987.724720,12614.274039,2636.969404,-2286.091719,0.005562,-0.009625,1.006312,192.000000,0.000000,0.000000,0.000000,0.000000,0.000000,0.000000,0.000000,0.000000,0.000000,1770022245.874078,0.000000
138.000000,616.528167,-9552.643842,-3543.489104,284.001265,56.482858,-3171.109041,146.538037,5223.110941,-7087.604056,-17963.426466,-1379.326150,-2307.638801,4969.351586,12591.072928,2620.473816,-2284.907077,0.005562,-0.009625,1.006312,192.000000,0.000000,0.000000,0.000000,0.000000,0.000000,0.000000,0.000000,0.000000,0.000000,1770022245.874094,0.000000
140.000000,632.509665,-9528.280440,-3533.117894,293.098425,70.407995,-3151.171285,153.020043,5235.180883,-7073.947140,-17934.190385,-1359.991891,-2280.101452,4989.110528,12617.917373,2635.807113,-2281.710777,0.005562,-0.009625,1.006312,192.000000,0.000000,0.000000,0.000000,0.000000,0.000000,0.000000,0.000000,0.000000,0.000000,1770022245.874152,0.000000
142.000000,619.456246,-9548.911100,-3555.067307,283.174251,59.522695,-3168.225666,143.408792,5223.848548,-7076.986978,-17940.739446,-1363.791688,-2288.237487,4981.265066,12612.932934,2628.207520,-2280.481432,0.005562,-0.009625,1.006312,192.000000,0.000000,0.000000,0.000000,0.000000,0.000000,0.000000,0.000000,0.000000,0.000000,1770022245.874168,0.000000
144.000000,640.980976,-9522.625449,-3531.665031,300.094521,78.544030,-3148.980814,154.539961,5240.500598,-7074.349472,-17942.840510,-1363.232894,-2293.557202,4985.578953,12603.545201,2634.287195,-2273.150059,0.004781,-0.010813,1.006156,192.000000,0.000000,16.000000,127.500000,80.000000,15.500000,56.000000,0.000000,0.000000,0.000000,1770022245.874186,0.000000
146.000000,630.788580,-9531.052057,-3541.455095,286.929344,64.082451,-3164.492925,151.880104,5234.800903,-7067.331024,-17922.254553,-1345.485609,-2269.305559,4997.537136,12622.946515,2643.004375,-2278.402719,0.004781,-0.010813,1.006156,192.000000,0.000000,0.000000,0.000000,0.000000,0.000000,0.000000,0.000000,0.000000,0.000000,1770022245.874204,0.000000
148.000000,624.507740,-9543.144350,-3548.942929,286.951695,56.214637,-3172.517201,148.192066,5228.564766,-7084.117184,-17952.384705,-1366.608008,-2300.843871,4954.398269,12596.906733,2620.652630,-2278.603885,0.004781,-0.010813,1.006156,192.000000,0.000000,0.000000,0.000000,0.000000,0.000000,0.000000,0.000000,0.000000,0.000000,1770022245.874219,0.000000
150.000000,642.098563,-9520.613792,-3533.810798,295.132434,70.586809,-3155.127544,154.070575,5237.058429,-7074.036547,-17931.977562,-1352.302891,-2276.122841,4983.746109,12617.380931,2632.275538,-2277.978036,0.004781,-0.010813,1.006156,192.000000,0.000000,0.000000,0.000000,0.000000,0.000000,0.000000,0.000000,0.000000,0.000000,1770022245.874237,0.000000
152.000000,626.497045,-9545.893615,-3550.149924,283.554230,65.870591,-3178.529820,142.738240,5221.680429,-7076.584646,-17940.828853,-1360.953016,-2290.964400,4982.673226,12610.407187,2633.594290,-2276.927504,0.004781,-0.010813,1.006156,192.000000,0.000000,0.000000,0.000000,0.000000,0.000000,0.000000,0.000000,0.000000,0.000000,1770022245.874254,0.000000
154.000000,648.669976,-9516.858699,-3525.339487,297.993457,79.795728,-3147.662061,154.294092,5239.740639,-7070.728489,-17943.198138,-1360.081298,-2291.880821,4991.122185,12610.563649,2635.874168,-2274.982902,0.004781,-0.010813,1.006156,192.000000,0.000000,0.000000,127.500000,88.000000,15.500000,48.000000,0.000000,0.000000,0.000000,1770022245.874271,0.000000
156.000000,636.756496,-9532.013182,-3536.738877,290.550326,70.653864,-3161.587198,148.303824,5229.056505,-7065.609940,-17923.528603,-1346.670252,-2272.658321,5000.398159,12625.785187,2646.804171,-2276.324007,0.004781,-0.010813,1.006156,192.000000,0.000000,0.000000,0.000000,0.000000,0.000000,0.000000,0.000000,0.000000,0.000000,1770022245.874289,0.000000
158.000000,632.420258,-9534.270708,-3543.198531,287.666951,69.491574,-3170.863172,146.023947,5229.056505,-7078.641007,-17953.971678,-1366.295083,-2301.223850,4973.844287,12599.655998,2626.799360,-2279.252086,0.004781,-0.010813,1.006156,192.000000,0.000000,0.000000,0.000000,0.000000,0.000000,0.000000,0.000000,0.000000,0.000000,1770022245.874304,0.000000
160.000000,651.106316,-9514.243545,-3530.502740,298.395788,82.969675,-3146.097439,155.679900,5240.634708,-7064.380594,-17925.987294,-1348.748964,-2272.501859,5000.040531,12627.170995,2642.691450,-2274.848792,0.004781,-0.010813,1.006156,192.000000,0.000000,0.000000,0.000000,0.000000,0.000000,0.000000,0.000000,0.000000,0.000000,1770022245.874321,0.000000
162.000000,631.839112,-9546.430057,-3548.294729,281.766091,64.954169,-3172.316035,143.766420,5221.769836,-7073.701271,-17936.470263,-1356.840295,-2290.562068,4989.982246,12615.011646,2637.371735,-2273.328873,0.004781,-0.010813,1.006156,192.000000,0.000000,0.000000,0.000000,0.000000,0.000000,0.000000,0.000000,0.000000,0.000000,1770022245.874339,0.000000
164.000000,648.334700,-9514.534118,-3531.910900,297.680533,75.571248,-3148.779648,154.852886,5237.930147,-7072.315463,-17950.417751,-1362.517639,-2297.222888,4985.310732,12609.043730,2631.493226,-2266.958626,0.004781,-0.010813,1.006156,192.000000,0.000000,0.000000,0.000000,0.000000,0.000000,0.000000,0.000000,0.000000,0.000000,1770022245.874353,0.000000
166.000000,641.226845,-9521.016123,-3541.209226,291.913783,66.138812,-3163.554151,150.673109,5235.136179,-7063.061841,-17923.729768,-1343.518656,-2269.886705,4998.386502,12621.717169,2642.602043,-2267.651530,-0.004000,-0.014000,1.004000,192.000000,127.500000,112.000000,127.500000,72.000000,15.500000,48.000000,0.000000,0.000000,0.000000,1770022245.874368,0.000000
168.000000,631.325022,-9532.773141,-3547.847694,289.835070,61.020262,-3168.091556,146.493333,5227.782455,-7076.852867,-17947.981411,-1365.266903,-2294.764196,4966.088231,12601.265323,2621.323183,-2270.601960,-0.004000,-0.014000,1.004000,192.000000,0.000000,0.000000,0.000000,0.000000,0.000000,0.000000,0.000000,0.000000,0.000000,1770022245.874385,0.000000
170.000000,649.027604,-9516.970458,-3526.322964,296.831166,82.254420,-3151.953596,157.333929,5239.874749,-7066.168733,-17929.876498,-1348.838371,-2275.295827,4989.579915,12621.404245,2645.619529,-2273.842963,-0.004000,-0.014000,1.004000,192.000000,0.000000,0.000000,0.000000,0.000000,0.000000,0.000000,0.000000,0.000000,0.000000,1770022245.874401,0.000000
172.000000,633.873121,-9542.205577,-3548.026508,283.286009,63.411899,-3178.239248,147.566217,5223.915604,-7073.097774,-17942.192309,-1356.437964,-2287.812804,4990.742205,12608.082605,2636.857645,-2275.586400,-0.004000,-0.014000,1.004000,192.000000,0.000000,0.000000,0.000000,0.000000,0.000000,0.000000,0.000000,0.000000,0.000000,1770022245.874417,0.000000
174.000000,654.280264,-9508.230926,-3525.339487,299.803948,85.987161,-3149.718422,154.003519,5237.505464,-7069.968530,-17942.415827,-1358.002586,-2292.819594,4986.070691,12613.245858,2631.806151,-2273.351225,-0.004000,-0.014000,1.004000,192.000000,0.000000,0.000000,0.000000,0.000000,0.000000,0.000000,0.000000,0.000000,0.000000,1770022245.874434,0.000000
176.000000,647.150057,-9518.780949,-3535.464827,293.768977,73.090204,-3152.221817,147.141534,5232.073990,-7053.204722,-17913.962056,-1339.383583,-2270.154926,5004.309714,12635.575251,2644.993680,-2268.076213,-0.004000,-0.014000,1.004000,192.000000,0.000000,0.000000,127.500000,80.000000,15.500000,48.000000,0.000000,0.000000,0.000000,1770022245.874451,0.000000
178.000000,638.388173,-9531.208519,-3545.187836,291.645562,69.201001,-3162.794192,143.229978,5228.944746,-7069.096812,-17944.494539,-1362.875266,-2294.697141,4976.861772,12611.077739,2624.720648,-2263.829382,-0.004000,-0.014000,1.004000,192.000000,0.000000,0.000000,0.000000,0.000000,0.000000,0.000000,0.000000,0.000000,0.000000,1770022245.874469,0.000000
180.000000,654.347319,-9507.202745,-3528.491083,297.099387,84.467242,-3151.461858,154.539961,5239.785342,-7059.999652,-17920.824041,-1347.161990,-2272.814783,4998.632371,12630.389646,2645.820695,-2268.076213,-0.004000,-0.014000,1.004000,192.000000,0.000000,0.000000,0.000000,0.000000,0.000000,0.000000,0.000000,0.000000,0.000000,1770022245.874485,0.000000
182.000000,633.135513,-9538.651650,-3550.507551,281.386111,64.641245,-3176.674625,144.593435,5222.418037,-7068.828591,-17940.962963,-1360.304816,-2289.355074,4987.903534,12627.349809,2636.343555,-2274.915847,-0.004000,-0.014000,1.004000,192.000000,0.000000,0.000000,0.000000,0.000000,0.000000,0.000000,0.000000,0.000000,0.000000,1770022245.874502,0.000000
184.000000,652.425069,-9513.729455,-3532.022659,296.518242,80.578039,-3150.344271,153.332967,5237.773685,-7069.722661,-17944.695705,-1361.668272,-2292.640781,4976.593551,12610.116614,2633.147256,-2270.534905,-0.004000,-0.014000,1.004000,192.000000,0.000000,0.000000,0.000000,0.000000,0.000000,0.000000,0.000000,0.000000,0.000000,1770022245.874520,0.000000
186.000000,642.456191,-9522.066655,-3544.673746,294.841861,70.050367,-3158.636768,147.700327,5233.236281,-7062.726565,-17919.751158,-1347.944301,-2268.858524,4994.698464,12628.936783,2641.193884,-2270.154926,-0.002000,-0.010000,1.006000,192.000000,127.500000,120.000000,127.500000,88.000000,15.500000,56.000000,0.000000,0.000000,0.000000,1770022245.874537,0.000000
188.000000,645.786601,-9515.450539,-3547.177142,293.858384,67.994007,-3170.058509,145.666319,5231.783418,-7071.600207,-17942.751103,-1366.295083,-2290.338551,4979.007540,12608.708454,2619.199767,-2270.087870,-0.002000,-0.010000,1.006000,192.000000,0.000000,0.000000,0.000000,0.000000,0.000000,0.000000,0.000000,0.000000,0.000000,1770022245.874553,0.000000
190.000000,645.719546,-9516.702237,-3531.955604,297.524070,82.701454,-3149.226683,151.745993,5233.392743,-7057.786829,-17919.438233,-1351.095897,-2270.020815,4995.816051,12626.053408,2638.578729,-2268.366786,-0.002000,-0.010000,1.006000,192.000000,0.000000,0.000000,0.000000,0.000000,0.000000,0.000000,0.000000,0.000000,0.000000,1770022245.874571,0.000000
192.000000,615.097656,-9556.868322,-3550.731069,277.854535,66.585847,-3177.211067,138.513760,5213.969077,-7080.049167,-17955.245728,-1368.150278,-2297.625220,4984.841345,12613.156451,2629.749790,-2271.518382,-0.002000,-0.010000,1.006000,192.000000,0.000000,0.000000,0.000000,0.000000,0.000000,0.000000,0.000000,0.000000,0.000000,1770022245.874587,0.000000
194.000000,649.340528,-9522.021952,-3528.848711,294.394826,81.226239,-3155.976910,152.193028,5233.951537,-7069.476792,-17950.820083,-1365.378662,-2297.222888,4994.519650,12618.409111,2628.945128,-2271.339568,-0.002000,-0.010000,1.006000,192.000000,0.000000,0.000000,0.000000,0.000000,0.000000,0.000000,0.000000,0.000000,0.000000,1770022245.874602,0.000000
196.000000,639.416354,-9524.502996,-3534.928386,290.215050,67.457565,-3166.728099,151.097793,5229.570595,-7055.775172,-17927.149585,-1347.698432,-2273.328873,4989.848136,12627.685085,2641.171532,-2275.966379,-0.004000,-0.008000,1.006000,192.000000,127.500000,112.000000,127.500000,96.000000,15.500000,56.000000,0.000000,0.000000,0.000000,1770022245.874620,0.000000
198.000000,631.906167,-9544.284289,-3545.947796,289.343332,64.015396,-3170.460841,146.023947,5223.557976,-7072.181353,-17952.719981,-1369.111403,-2300.553298,4970.200952,12605.601562,2621.345534,-2272.255990,-0.004000,-0.008000,1.006000,192.000000,0.000000,0.000000,0.000000,0.000000,0.000000,0.000000,0.000000,0.000000,0.000000,1770022245.874637,0.000000
200.000000,649.519342,-9521.016123,-3530.033354,294.394826,77.337036,-3155.775744,152.170676,5234.890310,-7062.771268,-17935.553841,-1354.225141,-2278.849754,4994.474947,12634.122388,2636.701183,-2270.266684,-0.004000,-0.008000,1.006000,192.000000,0.000000,0.000000,0.000000,0.000000,0.000000,0.000000,0.000000,0.000000,0.000000,1770022245.874652,0.000000
202.000000,619.053914,-9555.616624,-3556.475467,279.754434,60.729690,-3172.986588,137.083249,5212.404455,-7072.561332,-17950.507158,-1366.518601,-2292.618429,4978.985188,12612.329437,2630.621508,-2267.986806,-0.004000,-0.008000,1.006000,192.000000,0.000000,0.000000,0.000000,0.000000,0.000000,0.000000,0.000000,0.000000,0.000000,1770022245.874669,0.000000
204.000000,650.279301,-9523.765388,-3535.867159,297.725236,76.264152,-3159.016747,153.154153,5232.297508,-7075.824687,-17954.172844,-1373.268828,-2301.715589,4979.879258,12608.797861,2625.659421,-2267.383309,-0.004000,-0.008000,1.006000,192.000000,0.000000,0.000000,0.000000,0.000000,0.000000,0.000000,0.000000,0.000000,0.000000,1770022245.874687,0.000000
206.000000,642.657357,-9527.319315,-3543.399697,291.757320,67.368158,-3166.996320,150.695461,5229.190615,-7061.206646,-17928.870669,-1351.341766,-2273.306522,4985.266028,12630.523757,2637.327032,-2270.020815,-0.002000,-0.012000,1.004000,192.000000,127.500000,120.000000,127.500000,80.000000,15.500000,48.000000,0.000000,0.000000,0.000000,1770022245.874701,0.000000
208.000000,638.052897,-9541.177397,-3547.110086,289.320980,62.584884,-3170.840820,147.968548,5225.726095,-7072.807201,-17956.385667,-1368.060871,-2299.681580,4978.404043,12607.523812,2618.864491,-2268.925580,-0.002000,-0.012000,1.004000,192.000000,0.000000,0.000000,0.000000,0.000000,0.000000,0.000000,0.000000,0.000000,0.000000,1770022245.874719,0.000000
210.000000,653.810877,-9515.763463,-3532.581452,295.780634,75.079510,-3153.920550,154.249388,5234.264461,-7061.944254,-17932.670466,-1351.811153,-2278.581533,4988.842307,12626.880422,2632.297889,-2266.086908,-0.002000,-0.012000,1.004000,192.000000,0.000000,0.000000,0.000000,0.000000,0.000000,0.000000,0.000000,0.000000,0.000000,1770022246.353382,0.000000
212.000000,631.079153,-9548.642880,-3555.134363,284.247134,57.846315,-3171.287855,143.677013,5215.757217,-7073.120126,-17944.852167,-1365.780993,-2290.718531,4986.383615,12616.777434,2626.978174,-2263.427051,-0.002000,-0.012000,1.004000,192.000000,0.000000,0.000000,0.000000,0.000000,0.000000,0.000000,0.000000,0.000000,0.000000,1770022246.353462,0.000000
214.000000,639.550464,-9527.788702,-3537.498836,294.171309,69.826850,-3159.106154,151.969511,5227.357772,-7079.177449,-17951.736504,-1371.614798,-2301.067388,4966.490563,12611.658884,2623.536005,-2263.449402,-0.002000,-0.012000,1.004000,192.000000,0.000000,0.000000,0.000000,0.000000,0.000000,0.000000,0.000000,0.000000,0.000000,1770022246.353525,0.000000
216.000000,632.084981,-9543.010240,-3547.735935,285.208259,58.449812,-3174.819431,145.420449,5218.528833,-7074.818858,-17940.180652,-1359.455450,-2284.929429,4988.305865,12624.287620,2634.264843,-2272.144231,-0.002000,-0.012000,1.004000,192.000000,0.000000,0.000000,127.500000,72.000000,15.500000,56.000000,0.000000,0.000000,0.000000,1770022246.353582,0.000000
218.000000,625.871196,-9544.440752,-3553.502685,283.531878,53.867704,-3173.746547,139.072554,5213.790263,-7083.491335,-17965.393420,-1376.532182,-2310.678638,4965.305920,12608.663751,2618.663325,-2269.864353,-0.002000,-0.012000,1.004000,192.000000,0.000000,0.000000,0.000000,0.000000,0.000000,0.000000,0.000000,0.000000,0.000000,1770022246.353626,0.000000
220.000000,647.395926,-9524.614754,-3536.358897,291.064416,72.419652,-3151.014823,148.773211,5224.988487,-7075.109431,-17939.912431,-1364.059909,-2287.075196,4982.114432,12623.773530,2632.141427,-2265.908094,-0.002000,-0.012000,1.004000,192.000000,0.000000,0.000000,0.000000,0.000000,0.000000,0.000000,0.000000,0.000000,0.000000,1770022246.353696,0.000000
222.000000,631.705002,-9546.094781,-3556.319005,285.990570,59.366233,-3170.237323,140.503066,5212.158586,-7077.054033,-17943.108731,-1368.418499,-2301.603830,4977.487621,12619.057312,2627.760485,-2264.254065,-0.002000,-0.012000,1.004000,192.000000,0.000000,0.000000,0.000000,0.000000,0.000000,0.000000,0.000000,0.000000,0.000000,1770022246.353726,0.000000
224.000000,660.426993,-9518.915059,-3530.100409,300.340390,77.806422,-3149.919587,155.143458,5234.420924,-7070.996710,-17947.355562,-1369.893714,-2298.519289,4978.962836,12623.728826,2621.524348,-2260.476620,-0.002000,-0.012000,1.004000,192.000000,0.000000,0.000000,0.000000,0.000000,0.000000,0.000000,0.000000,0.000000,0.000000,1770022246.353746,0.000000
226.000000,644.870179,-9529.867414,-3539.979880,293.657219,67.144640,-3155.328710,148.594397,5226.039019,-7059.664376,-17924.646190,-1346.245569,-2274.133536,4993.603229,12642.906623,2633.370773,-2266.891571,-0.002000,-0.010000,1.004000,192.000000,127.500000,120.000000,127.500000,88.000000,15.500000,48.000000,0.000000,0.000000,0.000000,1770022246.353776,0.000000
228.000000,643.931406,-9535.477702,-3550.082868,292.517280,66.071757,-3168.203314,143.229978,5221.211043,-7076.182315,-17954.195196,-1369.983121,-2302.117920,4978.672263,12616.598620,2619.669154,-2265.662225,-0.002000,-0.010000,1.004000,192.000000,0.000000,0.000000,0.000000,0.000000,0.000000,0.000000,0.000000,0.000000,0.000000,1770022246.353794,0.000000
230.000000,647.395926,-9520.725551,-3537.096505,294.685399,67.099937,-3161.497791,151.947159,5228.631822,-7066.168733,-17929.697684,-1355.722708,-2278.648588,4983.164964,12632.691876,2631.247357,-2269.484373,-0.002000,-0.010000,1.004000,192.000000,0.000000,0.000000,0.000000,0.000000,0.000000,0.000000,0.000000,0.000000,0.000000,1770022246.353813,0.000000
232.000000,622.876063,-9556.533045,-3561.214037,276.200506,42.088335,-3187.783442,138.603167,5208.291734,-7085.726510,-17957.235033,-1372.374758,-2302.520252,4968.122240,12607.859088,2616.495206,-2275.921676,-0.002000,-0.010000,1.004000,192.000000,0.000000,0.000000,0.000000,0.000000,0.000000,0.000000,0.000000,0.000000,0.000000,1770022246.353842,0.000000
234.000000,641.472714,-9533.622507,-3542.147999,287.063454,65.669425,-3163.576503,145.018118,5219.713476,-7084.407757,-17964.342888,-1374.632284,-2308.488167,4960.142667,12608.306123,2616.964593,-2271.652492,-0.002000,-0.010000,1.004000,192.000000,0.000000,0.000000,0.000000,0.000000,0.000000,0.000000,0.000000,0.000000,0.000000,1770022246.353861,0.000000
236.000000,635.214226,-9540.775066,-3548.920578,280.067358,56.460506,-3169.119736,140.503066,5214.617278,-7072.717795,-17941.991143,-1360.170705,-2289.288019,4991.144537,12620.487824,2635.293023,-2273.172411,-0.002000,-0.010000,1.004000,192.000000,0.000000,0.000000,127.500000,80.000000,15.500000,48.000000,0.000000,0.000000,0.000000,1770022246.353880,0.000000
238.000000,636.644737,-9543.121999,-3548.965281,284.604762,63.836582,-3169.253846,142.179446,5219.244089,-7083.558391,-17966.511007,-1377.627418,-2314.612545,4962.176676,12597.778451,2618.842139,-2268.903228,-0.002000,-0.010000,1.004000,192.000000,0.000000,0.000000,0.000000,0.000000,0.000000,0.000000,0.000000,0.000000,0.000000,1770022246.353898,0.000000
240.000000,651.620406,-9522.021952,-3533.587281,297.479367,73.738405,-3141.448276,151.567179,5232.766894,-7064.224132,-17939.130120,-1353.196961,-2282.783661,4987.322389,12624.891117,2633.549587,-2261.750670,-0.002000,-0.010000,1.004000,192.000000,0.000000,0.000000,0.000000,0.000000,0.000000,0.000000,0.000000,0.000000,0.000000,1770022246.353916,0.000000
242.000000,632.219092,-9554.834313,-3555.201418,278.905067,54.627663,-3165.029367,140.257196,5216.427769,-7075.377652,-17949.613088,-1361.355348,-2296.284115,4977.152345,12626.589850,2622.686639,-2259.627254,-0.002000,-0.010000,1.004000,192.000000,0.000000,0.000000,0.000000,0.000000,0.000000,0.000000,0.000000,0.000000,0.000000,1770022246.353935,0.000000
244.000000,645.205455,-9533.823673,-3538.057630,287.331675,69.245704,-3154.054660,148.080307,5224.407342,-7079.445670,-17962.398286,-1367.725595,-2308.287002,4966.445859,12616.129233,2618.350401,-2263.225885,-0.002000,-0.010000,1.004000,192.000000,0.000000,0.000000,0.000000,0.000000,0.000000,0.000000,0.000000,0.000000,0.000000,1770022246.353954,0.000000
246.000000,633.850769,-9545.267766,-3553.681499,277.228686,60.081489,-3166.482230,141.486542,5213.633801,-7074.908265,-17939.487748,-1357.242627,-2289.064501,4990.675150,12627.170995,2632.968442,-2269.864353,-0.002000,-0.010000,1.004000,192.000000,0.000000,0.000000,127.500000,72.000000,15.500000,56.000000,0.000000,0.000000,0.000000,1770022246.353972,0.000000
248.000000,632.956699,-9553.292042,-3552.608615,276.245210,56.393451,-3174.819431,141.866522,5213.097359,-7085.324178,-17972.702440,-1378.230915,-2319.954612,4965.641196,12605.646265,2615.712895,-2272.635969,-0.002000,-0.010000,1.004000,192.000000,0.000000,0.000000,0.000000,0.000000,0.000000,0.000000,0.000000,0.000000,0.000000,1770022246.353990,0.000000
250.000000,646.770078,-9526.425246,-3535.554234,285.945867,67.882248,-3158.480305,152.505952,5228.050676,-7072.561332,-17944.427484,-1357.734365,-2289.422129,4975.945351,12619.034960,2632.543758,-2274.088833,-0.002000,-0.010000,1.004000,192.000000,0.000000,0.000000,0.000000,0.000000,0.000000,0.000000,0.000000,0.000000,0.000000,1770022246.354014,0.000000
252.000000,623.926595,-9559.237606,-3558.531828,270.478460,54.202980,-3184.497736,140.033679,5210.415150,-7079.400966,-17955.290431,-1364.953979,-2301.067388,4971.497353,12608.104957,2625.994697,-2278.045091,-0.002000,-0.010000,1.004000,192.000000,0.000000,0.000000,0.000000,0.000000,0.000000,0.000000,0.000000,0.000000,0.000000,1770022246.354033,0.000000
254.000000,646.680671,-9537.064676,-3537.700002,282.034312,70.184478,-3166.012843,149.019080,5224.876729,-7082.731376,-17969.595548,-1370.765432,-2313.651420,4971.631464,12608.529640,2621.211424,-2276.659283,-0.002000,-0.010000,1.004000,192.000000,0.000000,0.000000,0.000000,0.000000,0.000000,0.000000,0.000000,0.000000,0.000000,1770022246.354052,0.000000
0.000000,639.483409,-9544.463103,-3549.412316,277.049873,59.500344,-3173.031291,143.654662,5216.919508,-7073.477754,-17942.013495,-1356.437964,-2289.690350,4992.239772,12624.555841,2638.914006,-2275.541696,-0.002000,-0.014000,1.006000,192.000000,127.500000,120.000000,127.500000,56.000000,15.500000,64.000000,0.000000,0.000000,0.000000,1770022246.354070,0.000000
2.000000,637.807028,-9546.720630,-3551.289863,279.709730,59.746213,-3174.193582,142.380612,5217.254784,-7085.502992,-17971.473094,-1376.755700,-2315.528967,4953.481847,12603.500498,2617.009296,-2273.552391,-0.002000,-0.014000,1.006000,192.000000,0.000000,0.000000,0.000000,0.000000,0.000000,0.000000,0.000000,0.000000,0.000000,1770022246.354088,0.000000
4.000000,656.716604,-9523.474815,-3534.481351,293.031370,73.939571,-3146.343308,152.908284,5231.045810,-7065.744050,-17940.895908,-1354.292197,-2283.811841,4987.188278,12626.388684,2633.817808,-2264.790507,-0.002000,-0.014000,1.006000,192.000000,0.000000,0.000000,0.000000,0.000000,0.000000,0.000000,0.000000,0.000000,0.000000,1770022246.354106,0.000000
6.000000,632.040278,-9554.186112,-3559.269435,273.674759,51.990158,-3173.478326,138.402002,5213.387932,-7073.880085,-17948.674315,-1363.389357,-2294.160699,4980.549810,12620.510175,2624.608889,-2264.052899,-0.002000,-0.014000,1.006000,192.000000,0.000000,0.000000,0.000000,0.000000,0.000000,0.000000,0.000000,0.000000,0.000000,1770022246.354124,0.000000
8.000000,647.686499,-9534.628336,-3543.734973,287.845765,64.037748,-3158.435602,147.409755,5225.860205,-7079.244504,-17962.800618,-1373.492345,-2304.643667,4974.492487,12614.586963,2617.031648,-2264.365824,-0.002000,-0.014000,1.006000,192.000000,0.000000,0.000000,0.000000,0.000000,0.000000,0.000000,0.000000,0.000000,0.000000,1770022246.354143,0.000000
10.000000,642.880874,-9536.662345,-3552.385098,283.710692,47.229236,-3169.119736,143.788772,5222.373333,-7074.125954,-17938.236050,-1358.047290,-2282.135461,4978.538153,12633.653001,2627.671078,-2269.909056,-0.002000,-0.014000,1.005000,192.000000,127.500000,120.000000,127.500000,72.000000,15.500000,48.000000,0.000000,0.000000,0.000000,1770022246.354161,0.000000
12.000000,639.684575,-9546.139484,-3554.486162,282.503698,52.213675,-3171.757242,142.894702,5221.009877,-7083.603094,-17960.431333,-1373.693511,-2301.916754,4958.421583,12604.171050,2605.274630,-2272.971245,-0.002000,-0.014000,1.005000,192.000000,0.000000,0.000000,0.000000,0.000000,0.000000,0.000000,0.000000,0.000000,0.000000,1770022246.354179,0.000000
14.000000,664.137383,-9517.372789,-3533.810798,293.791329,72.754928,-3152.802962,153.958816,5237.617223,-7069.275626,-17935.643248,-1354.001624,-2280.190859,4976.884124,12627.841547,2630.822674,-2271.473679,-0.002000,-0.014000,1.005000,192.000000,0.000000,0.000000,0.000000,0.000000,0.000000,0.000000,0.000000,0.000000,0.000000,1770022246.354198,0.000000
16.000000,644.333737,-9545.133656,-3555.313177,278.145108,56.482858,-3177.971027,142.380612,5222.216871,-7072.538981,-17947.109693,-1356.348557,-2287.544583,4970.066842,12624.444082,2623.133674,-2277.933333,-0.002000,-0.014000,1.005000,192.000000,0.000000,0.000000,0.000000,0.000000,0.000000,0.000000,0.000000,0.000000,0.000000,1770022246.354216,0.000000
18.000000,663.533886,-9523.139539,-3536.872987,291.958486,66.809364,-3165.677567,152.215380,5236.589043,-7070.683786,-17956.743295,-1358.740194,-2293.020760,4986.987112,12612.731768,2620.920851,-2273.083004,-0.002000,-0.014000,1.005000,192.000000,0.000000,0.000000,0.000000,0.000000,0.000000,0.000000,0.000000,0.000000,0.000000,1770022246.354234,0.000000
20.000000,651.910979,-9533.533100,-3549.032336,285.699998,48.168009,-3172.338387,147.499162,5228.475359,-7066.526361,-17929.965905,-1346.200865,-2269.707891,4985.266028,12633.988277,2627.581671,-2275.094661,0.000000,-0.014000,1.003500,192.000000,0.000000,8.000000,127.500000,72.000000,15.500000,40.000000,0.000000,0.000000,0.000000,1770022246.354253,0.000000
22.000000,642.746764,-9538.562243,-3555.447287,282.257829,56.080527,-3172.740718,142.805295,5224.474397,-7082.776080,-17960.811312,-1368.910237,-2298.876917,4958.779211,12610.116614,2610.884918,-2273.373577,0.000000,-0.014000,1.003500,192.000000,0.000000,0.000000,0.000000,0.000000,0.000000,0.000000,0.000000,0.000000,0.000000,1770022246.354286,0.000000
24.000000,668.540677,-9505.369902,-3531.933252,295.959448,73.626646,-3145.963329,152.707118,5242.355793,-7067.129858,-17934.078626,-1349.195999,-2272.926542,4980.750976,12631.887213,2630.532101,-2268.992635,0.000000,-0.014000,1.003500,192.000000,0.000000,0.000000,0.000000,0.000000,0.000000,0.000000,0.000000,0.000000,0.000000,1770022246.354351,0.000000
26.000000,644.691365,-9539.433961,-3554.463810,278.882716,57.555742,-3164.358814,140.011327,5225.726095,-7063.374765,-17933.206908,-1348.838371,-2280.570839,4974.961874,12640.671449,2627.939299,-2268.880876,0.000000,-0.014000,1.003500,192.000000,0.000000,0.000000,0.000000,0.000000,0.000000,0.000000,0.000000,0.000000,0.000000,1770022246.354375,0.000000
28.000000,654.012043,-9524.994734,-3542.505627,291.444396,68.686911,-3154.881675,149.309653,5233.593909,-7079.557428,-17954.619879,-1363.188191,-2297.379350,4964.523609,12616.911544,2619.378581,-2271.071347,0.000000,-0.014000,1.003500,192.000000,0.000000,0.000000,0.000000,0.000000,0.000000,0.000000,0.000000,0.000000,0.000000,1770022246.354393,0.000000
30.000000,651.620406,-9530.023876,-3549.501723,286.459957,57.175762,-3167.756279,148.929673,5233.102171,-7075.020024,-17933.430425,-1350.112420,-2273.887667,4985.198973,12629.696742,2630.375639,-2271.920713,0.001000,-0.013000,1.003750,192.000000,0.000000,8.000000,127.500000,80.000000,15.500000,48.000000,0.000000,0.000000,0.000000,1770022246.354412,0.000000
32.000000,647.507685,-9535.209481,-3548.004156,285.498832,51.565474,-3176.741681,146.470981,5233.929185,-7079.043338,-17955.759818,-1361.847086,-2294.808900,4960.075612,12610.720111,2610.192014,-2271.138402,0.001000,-0.013000,1.003750,192.000000,0.000000,0.000000,0.000000,0.000000,0.000000,0.000000,0.000000,0.000000,0.000000,1770022246.354430,0.000000
34.000000,665.970226,-9509.996713,-3531.508569,297.233498,68.798669,-3156.915683,157.602150,5246.289700,-7065.989919,-17929.876498,-1341.819923,-2270.758423,4982.986150,12633.027152,2629.414514,-2271.697196,0.001000,-0.013000,1.003750,192.000000,0.000000,0.000000,0.000000,0.000000,0.000000,0.000000,0.000000,0.000000,0.000000,1770022246.354448,0.000000
36.000000,646.658319,-9539.903347,-3556.207246,283.554230,51.453716,-3183.536611,147.387403,5231.738714,-7070.728489,-17944.136911,-1349.106592,-2279.542658,4971.899685,12619.705512,2624.139503,-2275.340530,0.001000,-0.013000,1.003750,192.000000,0.000000,0.000000,0.000000,0.000000,0.000000,0.000000,0.000000,0.000000,0.000000,1770022246.354467,0.000000
38.000000,660.538752,-9523.161891,-3538.527016,289.857422,61.646111,-3169.566771,154.584665,5240.388839,-7078.126917,-17958.978469,-1358.583731,-2292.909001,4969.999787,12609.468414,2619.713857,-2276.525173,0.001000,-0.013000,1.003750,192.000000,0.000000,0.000000,0.000000,0.000000,0.000000,0.000000,0.000000,0.000000,0.000000,1770022246.354485,0.000000
40.000000,650.838095,-9529.934469,-3547.713583,282.123719,52.459544,-3180.519126,149.108487,5230.375258,-7072.784850,-17939.957135,-1344.546836,-2273.753556,4971.832630,12621.538356,2632.342593,-2279.900286,0.001000,-0.013000,1.003750,192.000000,0.000000,0.000000,0.000000,0.000000,0.000000,0.000000,0.000000,0.000000,0.000000,1770022246.354503,0.000000
42.000000,647.150057,-9540.104513,-3557.347185,276.982817,44.167047,-3185.794137,146.828609,5229.011801,-7088.051091,-17967.338022,-1365.825697,-2301.872051,4947.133952,12610.518946,2611.711933,-2280.369673,0.001000,-0.013000,1.003750,192.000000,0.000000,0.000000,127.500000,96.000000,15.500000,72.000000,0.000000,0.000000,0.000000,1770022246.354521,0.000000
44.000000,666.640778,-9518.937411,-3536.090676,295.713579,58.919198,-3166.526933,158.451516,5245.507389,-7072.024890,-17938.414864,-1344.993871,-2273.194763,4981.645045,12618.833794,2621.658459,-2278.559182,0.001000,-0.013000,1.003750,192.000000,0.000000,0.000000,0.000000,0.000000,0.000000,0.000000,0.000000,0.000000,0.000000,1770022246.354540,0.000000
46.000000,645.116048,-9545.625394,-3562.532790,281.296704,44.189399,-3190.488004,146.381574,5227.246014,-7079.691539,-17951.334173,-1352.682871,-2283.007179,4959.494467,12612.262382,2619.356229,-2279.386196,0.001000,-0.013000,1.003750,192.000000,0.000000,0.000000,0.000000,0.000000,0.000000,0.000000,0.000000,0.000000,0.000000,1770022246.354558,0.000000
48.000000,659.465868,-9520.166757,-3539.398734,292.584335,60.372062,-3170.505544,155.635197,5238.310127,-7077.031681,-17953.748161,-1360.416575,-2294.719493,4965.060051,12602.137041,2612.918927,-2280.839059,0.001000,-0.013000,1.003750,192.000000,0.000000,0.000000,0.000000,0.000000,0.000000,0.000000,0.000000,0.000000,0.000000,1770022246.354576,0.000000
50.000000,651.799220,-9532.571975,-3548.853522,286.750530,50.112611,-3173.433623,152.908284,5230.934051,-7071.264931,-17932.893983,-1344.300967,-2269.462022,4975.319502,12621.270135,2631.180302,-2278.514478,0.001000,-0.013000,1.003750,192.000000,0.000000,0.000000,0.000000,0.000000,0.000000,0.000000,0.000000,0.000000,0.000000,1770022246.354595,0.000000
52.000000,638.410525,-9547.905272,-3557.816572,278.994474,44.234102,-3185.883544,145.599263,5221.792188,-7086.687635,-17967.069801,-1369.759604,-2301.559127,4948.497408,12602.360559,2608.627392,-2277.531001,0.001000,-0.013000,1.003750,192.000000,0.000000,0.000000,127.500000,104.000000,15.500000,72.000000,0.000000,0.000000,0.000000,1770022246.354611,0.000000
54.000000,660.225828,-9519.317391,-3539.219921,293.277239,59.746213,-3164.336463,156.685729,5237.505464,-7077.858696,-17944.114559,-1352.280540,-2277.799222,4970.133897,12621.605411,2622.552529,-2276.413414,0.001000,-0.013000,1.003750,192.000000,0.000000,0.000000,0.000000,0.000000,0.000000,0.000000,0.000000,0.000000,0.000000,1770022246.354628,0.000000
56.000000,644.333737,-9539.053981,-3557.347185,284.470652,55.767602,-3187.917553,147.387403,5228.095380,-7077.076385,-17948.473149,-1356.773240,-2284.258876,4963.674243,12612.999989,2620.026782,-2280.056748,0.001000,-0.013000,1.003750,192.000000,0.000000,0.000000,0.000000,0.000000,0.000000,0.000000,0.000000,0.000000,0.000000,1770022246.354644,0.000000
58.000000,662.908037,-9516.389312,-3536.738877,299.133396,69.893905,-3157.116849,155.568141,5243.003993,-7071.533152,-17946.640306,-1355.990929,-2285.734091,4969.865676,12620.845451,2621.725514,-2270.221981,0.001000,-0.013000,1.003750,192.000000,0.000000,0.000000,0.000000,0.000000,0.000000,0.000000,0.000000,0.000000,0.000000,1770022246.354665,0.000000
60.000000,650.435764,-9529.778007,-3551.803953,285.588239,61.444946,-3171.064338,146.694499,5228.810636,-7068.493315,-17928.758911,-1345.575016,-2269.842001,4983.455537,12638.972716,2635.449485,-2271.808955,0.001000,-0.013000,1.003750,192.000000,0.000000,0.000000,0.000000,0.000000,0.000000,0.000000,0.000000,0.000000,0.000000,1770022246.354683,0.000000
62.000000,644.892531,-9542.272632,-3557.324834,281.989608,49.285597,-3176.719329,143.833476,5222.440388,-7084.295998,-17958.620841,-1372.039482,-2301.246202,4962.601359,12609.535469,2615.131750,-2272.993597,0.002000,-0.010000,1.014000,192.000000,0.000000,8.000000,127.500000,88.000000,15.500000,88.000000,0.000000,0.000000,0.000000,1770022246.354699,0.000000
64.000000,660.628159,-9518.020990,-3538.661127,291.086768,56.639320,-3161.207218,153.042394,5234.823255,-7074.193010,-17941.968792,-1353.755755,-2280.503783,4970.245656,12619.325533,2626.218215,-2273.753556,0.002000,-0.010000,1.014000,192.000000,0.000000,0.000000,0.000000,0.000000,0.000000,0.000000,0.000000,0.000000,0.000000,1770022246.354717,0.000000
66.000000,639.796333,-9541.579728,-3558.598883,277.049873,44.614082,-3187.291704,146.180409,5221.188691,-7082.530210,-17947.735542,-1360.349519,-2288.952743,4959.494467,12614.095225,2615.847005,-2278.201554,0.002000,-0.010000,1.014000,192.000000,0.000000,0.000000,0.000000,0.000000,0.000000,0.000000,0.000000,0.000000,0.000000,1770022246.354734,0.000000
68.000000,656.850714,-9524.502996,-3537.051801,290.639733,58.941550,-3167.979797,157.780964,5234.175054,-7078.886876,-17957.994992,-1361.802383,-2295.211231,4965.484734,12609.580172,2613.231851,-2277.978036,0.002000,-0.010000,1.014000,192.000000,0.000000,0.000000,0.000000,0.000000,0.000000,0.000000,0.000000,0.000000,0.000000,1770022246.354751,0.000000
70.000000,651.240426,-9538.070504,-3551.558083,278.882716,51.677233,-3181.547306,154.249388,5224.519101,-7072.628388,-17941.499405,-1350.470048,-2277.374539,4980.616865,12627.930954,2627.000526,-2280.995522,0.002000,-0.010000,1.014000,192.000000,0.000000,0.000000,0.000000,0.000000,0.000000,0.000000,0.000000,0.000000,0.000000,1770022246.354769,0.000000
72.000000,643.663185,-9537.377600,-3558.397717,283.241306,55.119402,-3178.306303,151.835400,5222.507444,-7087.447594,-17962.890025,-1374.744043,-2305.425978,4950.084382,12600.997102,2609.364999,-2274.513516,0.002000,-0.012000,1.016000,192.000000,0.000000,8.000000,127.500000,80.000000,15.500000,96.000000,0.000000,0.000000,0.000000,1770022246.354784,0.000000
74.000000,669.010063,-9510.041417,-3540.918653,293.388998,60.953207,-3161.229570,158.809144,5237.840740,-7068.783887,-17939.733617,-1353.755755,-2279.095623,4986.338912,12629.003838,2629.570976,-2265.908094,0.002000,-0.012000,1.016000,192.000000,0.000000,0.000000,0.000000,0.000000,0.000000,0.000000,0.000000,0.000000,0.000000,1770022246.833944,0.000000
76.000000,633.716659,-9547.480589,-3562.957473,274.747643,41.954224,-3190.957390,148.326176,5218.931165,-7078.953931,-17947.780245,-1360.841258,-2291.880821,4954.733545,12622.991219,2616.785779,-2272.881838,0.002000,-0.012000,1.016000,192.000000,0.000000,0.000000,0.000000,0.000000,0.000000,0.000000,0.000000,0.000000,0.000000,1770022246.834059,0.000000
78.000000,643.663185,-9530.448560,-3543.265586,286.035274,59.075661,-3169.946750,158.876200,5230.598775,-7087.961684,-17959.045524,-1368.396147,-2299.391007,4955.247635,12625.584021,2615.131750,-2273.217115,0.002000,-0.012000,1.016000,192.000000,0.000000,0.000000,0.000000,0.000000,0.000000,0.000000,0.000000,0.000000,0.000000,1770022246.834131,0.000000
80.000000,640.913921,-9536.684696,-3555.223770,286.236439,48.950320,-3172.807774,154.651720,5225.323764,-7082.798431,-17935.151510,-1356.862647,-2280.704949,4975.408909,12630.322591,2626.933471,-2276.167545,0.002000,-0.012000,1.016000,192.000000,0.000000,0.000000,0.000000,0.000000,0.000000,0.000000,0.000000,0.000000,0.000000,1770022246.834166,0.000000
82.000000,645.652490,-9537.869339,-3552.675671,284.649466,54.627663,-3172.070166,151.656586,5226.083723,-7086.687635,-17957.704420,-1372.777089,-2303.682542,4953.213627,12606.875611,2609.007372,-2275.474641,0.002000,-0.012000,1.016000,192.000000,0.000000,0.000000,127.500000,64.000000,15.500000,64.000000,0.000000,0.000000,0.000000,1770022246.834257,0.000000
84.000000,667.512496,-9507.403911,-3536.090676,298.708713,70.117422,-3142.990547,160.217304,5240.791171,-7066.101678,-17926.523736,-1350.201827,-2276.882801,4980.818031,12637.586908,2629.995660,-2265.215190,0.002000,-0.012000,1.016000,192.000000,0.000000,0.000000,0.000000,0.000000,0.000000,0.000000,0.000000,0.000000,0.000000,1770022246.834345,0.000000
86.000000,649.765211,-9533.398990,-3555.268473,285.320018,50.939626,-3168.225666,151.455420,5226.955441,-7067.643949,-17932.536356,-1352.414650,-2281.174336,4977.286455,12636.871652,2625.793532,-2262.667091,0.002000,-0.012000,1.016000,192.000000,0.000000,0.000000,0.000000,0.000000,0.000000,0.000000,0.000000,0.000000,0.000000,1770022246.834432,0.000000
88.000000,666.260799,-9509.884955,-3542.103296,292.941963,57.667501,-3148.042041,157.311577,5236.432581,-7072.673091,-17935.866765,-1362.092955,-2288.908039,4969.463345,12645.789998,2617.411627,-2260.297806,0.002000,-0.012000,1.016000,192.000000,0.000000,0.000000,0.000000,0.000000,0.000000,0.000000,0.000000,0.000000,0.000000,1770022246.834520,0.000000
90.000000,653.721470,-9522.267821,-3550.619310,283.844803,45.888131,-3170.751413,151.500124,5227.201310,-7065.945216,-17916.197230,-1348.212522,-2270.825478,4976.794717,12648.963946,2631.135599,-2268.210324,0.002000,-0.012000,1.016000,192.000000,0.000000,0.000000,0.000000,0.000000,0.000000,0.000000,0.000000,0.000000,0.000000,1770022246.834572,0.000000
92.000000,640.399830,-9539.702182,-3561.102278,275.284085,44.099992,-3181.904934,143.788772,5217.366543,-7085.704158,-17957.570309,-1374.453470,-2305.560089,4951.649004,12608.283771,2609.119130,-2276.815745,0.002000,-0.014000,1.010000,192.000000,0.000000,8.000000,127.500000,72.000000,15.500000,72.000000,0.000000,0.000000,0.000000,1770022246.834604,0.000000
94.000000,664.293845,-9512.678923,-3543.243235,288.963352,58.829791,-3161.833067,156.775136,5233.415095,-7071.242579,-17931.239954,-1355.990929,-2282.850716,4979.275761,12629.540280,2626.844064,-2274.312350,0.002000,-0.014000,1.010000,192.000000,0.000000,0.000000,0.000000,0.000000,0.000000,0.000000,0.000000,0.000000,0.000000,1770022246.834658,0.000000
96.000000,635.281281,-9549.380487,-3566.533752,270.523163,37.193303,-3187.984608,147.834438,5215.198423,-7078.372786,-17941.588812,-1361.936493,-2292.461967,4963.763650,12623.326495,2616.025819,-2278.827402,0.002000,-0.014000,1.010000,192.000000,0.000000,0.000000,0.000000,0.000000,0.000000,0.000000,0.000000,0.000000,0.000000,1770022246.834689,0.000000
98.000000,653.855581,-9521.731379,-3550.418145,280.760262,50.134963,-3170.192620,155.590493,5227.760104,-7088.587533,-17958.374972,-1373.045310,-2309.784569,4947.648042,12610.228373,2608.090950,-2282.247219,0.002000,-0.014000,1.010000,192.000000,0.000000,0.000000,0.000000,0.000000,0.000000,0.000000,0.000000,0.000000,0.000000,1770022246.834701,0.000000
100.000000,648.491162,-9525.754693,-3556.117839,280.536745,46.893960,-3170.639654,154.025871,5224.474397,-7070.192047,-17932.938687,-1352.816981,-2280.950818,4972.592589,12634.725885,2624.050096,-2277.620408,0.002000,-0.014000,1.010000,192.000000,0.000000,0.000000,0.000000,0.000000,0.000000,0.000000,0.000000,0.000000,0.000000,1770022246.834713,0.000000
102.000000,653.140325,-9529.398028,-3559.448249,283.844803,48.793858,-3168.918570,150.941330,5225.703743,-7083.044300,-17957.078571,-1371.190115,-2303.883708,4949.659699,12619.370236,2607.465101,-2270.490202,0.004000,-0.016000,1.012000,192.000000,0.000000,16.000000,127.500000,64.000000,15.500000,80.000000,0.000000,0.000000,0.000000,1770022246.834725,0.000000
104.000000,666.104337,-9510.130824,-3545.411354,291.824376,65.267094,-3154.591102,156.529266,5237.304299,-7068.895646,-17926.479033,-1352.861685,-2277.575705,4980.035720,12642.347830,2623.737171,-2263.896437,0.004000,-0.016000,1.012000,192.000000,0.000000,0.000000,0.000000,0.000000,0.000000,0.000000,0.000000,0.000000,0.000000,1770022246.834738,0.000000
106.000000,638.857560,-9548.531121,-3567.919560,275.529954,44.301158,-3182.240210,142.447667,5215.734865,-7076.472888,-17941.253536,-1361.444755,-2293.579554,4966.512914,12629.897908,2615.019991,-2268.523248,0.004000,-0.016000,1.012000,192.000000,0.000000,0.000000,0.000000,0.000000,0.000000,0.000000,0.000000,0.000000,0.000000,1770022246.834750,0.000000
108.000000,663.466831,-9517.462196,-3546.551293,294.260716,59.366233,-3157.318015,156.305749,5234.867958,-7080.227981,-17955.312783,-1367.211505,-2303.190804,4957.169885,12617.000951,2612.091912,-2264.991673,0.004000,-0.016000,1.012000,192.000000,0.000000,0.000000,0.000000,0.000000,0.000000,0.000000,0.000000,0.000000,0.000000,1770022246.834762,0.000000
110.000000,656.738956,-9520.233812,-3550.731069,285.029445,49.240893,-3165.811678,153.914112,5231.917528,-7065.319367,-17925.786129,-1347.810191,-2273.060652,4970.737394,12646.706420,2627.000526,-2266.198667,0.004000,-0.016000,1.012000,192.000000,0.000000,0.000000,0.000000,0.000000,0.000000,0.000000,0.000000,0.000000,0.000000,1770022246.834774,0.000000
112.000000,646.255987,-9536.662345,-3560.029395,275.731120,43.831771,-3171.801945,147.476810,5224.116769,-7080.853829,-17958.822007,-1368.753775,-2306.498862,4947.625690,12621.717169,2606.168700,-2270.601960,0.005000,-0.016000,1.012000,192.000000,0.000000,24.000000,127.500000,64.000000,15.500000,80.000000,0.000000,0.000000,0.000000,1770022246.834786,0.000000
114.000000,662.013967,-9513.327123,-3540.538673,291.489099,64.507134,-3148.332614,158.250351,5237.326650,-7070.616731,-17937.498443,-1353.599292,-2286.114071,4972.391423,12634.882347,2624.810055,-2267.763289,0.005000,-0.016000,1.012000,192.000000,0.000000,0.000000,0.000000,0.000000,0.000000,0.000000,0.000000,0.000000,0.000000,1770022246.834797,0.000000
116.000000,650.994557,-9534.605984,-3559.291787,280.670855,46.089297,-3175.244114,149.063784,5225.815502,-7069.320329,-17939.823024,-1355.655653,-2290.338551,4972.011444,12639.620917,2622.127846,-2266.511591,0.005000,-0.016000,1.012000,192.000000,0.000000,0.000000,0.000000,0.000000,0.000000,0.000000,0.000000,0.000000,0.000000,1770022246.834809,0.000000
118.000000,663.869162,-9518.870356,-3544.517284,281.676684,56.549913,-3156.848628,153.534133,5233.593909,-7075.645873,-17946.819120,-1362.562342,-2300.843871,4966.065880,12622.521832,2613.522424,-2268.076213,0.005000,-0.016000,1.012000,192.000000,0.000000,0.000000,0.000000,0.000000,0.000000,0.000000,0.000000,0.000000,0.000000,1770022246.834821,0.000000
120.000000,652.872104,-9531.677906,-3554.329700,276.312265,46.178704,-3170.371434,149.644929,5224.005011,-7063.777097,-17937.856071,-1348.704260,-2284.147118,4972.480830,12630.523757,2627.715782,-2270.870181,0.005000,-0.016000,1.012000,192.000000,0.000000,0.000000,0.000000,0.000000,0.000000,0.000000,0.000000,0.000000,0.000000,1770022246.834832,0.000000
122.000000,642.120915,-9541.333859,-3564.387985,270.120832,43.652957,-3177.412233,143.073516,5215.220775,-7080.295036,-17967.069801,-1373.291179,-2316.512444,4948.787981,12607.814384,2605.654610,-2273.351225,0.003500,-0.016000,1.012000,192.000000,0.000000,8.000000,127.500000,64.000000,15.500000,80.000000,0.000000,0.000000,0.000000,1770022246.834848,0.000000
124.000000,667.579552,-9510.890783,-3541.320985,284.202431,64.373024,-3150.970119,156.909246,5233.303336,-7069.096812,-17939.286582,-1356.125040,-2292.305504,4973.978397,12630.546109,2624.541834,-2267.964455,0.003500,-0.016000,1.012000,192.000000,0.000000,0.000000,0.000000,0.000000,0.000000,0.000000,0.000000,0.000000,0.000000,1770022246.834859,0.000000
126.000000,643.506723,-9536.371772,-3564.075060,274.747643,47.184533,-3177.613399,147.633272,5222.082761,-7072.315463,-17944.338077,-1359.567208,-2294.831251,4971.452650,12629.137949,2620.250299,-2267.517420,0.003500,-0.016000,1.012000,192.000000,0.000000,0.000000,0.000000,0.000000,0.000000,0.000000,0.000000,0.000000,0.000000,1770022246.834871,0.000000
128.000000,667.378386,-9511.829556,-3543.198531,290.483271,58.270998,-3153.093535,158.563275,5238.064258,-7074.684748,-17951.758856,-1363.948150,-2300.665057,4960.567350,12622.834757,2612.807168,-2262.510629,0.003500,-0.016000,1.012000,192.000000,0.000000,0.000000,0.000000,0.000000,0.000000,0.000000,0.000000,0.000000,0.000000,1770022246.834883,0.000000
130.000000,661.522229,-9519.339743,-3553.860313,283.777748,52.459544,-3157.966215,151.924807,5229.548243,-7059.373803,-17925.115576,-1344.144505,-2276.279304,4970.066842,12644.627708,2625.659421,-2264.835210,0.003500,-0.016000,1.012000,192.000000,0.000000,0.000000,0.000000,0.000000,0.000000,0.000000,0.000000,0.000000,0.000000,1770022246.834895,0.000000
132.000000,652.156848,-9521.485510,-3561.303444,279.821489,46.849256,-3165.297588,147.745031,5225.144950,-7073.969492,-17950.238937,-1367.502078,-2301.380313,4955.247635,12625.092283,2607.845081,-2264.455231,0.002750,-0.013000,1.010000,192.000000,0.000000,8.000000,127.500000,88.000000,15.500000,64.000000,0.000000,0.000000,0.000000,1770022246.834913,0.000000
134.000000,670.306464,-9509.326161,-3543.958490,290.863251,61.064966,-3150.612491,159.502048,5236.767857,-7069.566199,-17926.993123,-1354.292197,-2280.369673,4971.743223,12644.024210,2622.105494,-2267.673882,0.002750,-0.013000,1.010000,192.000000,0.000000,0.000000,0.000000,0.000000,0.000000,0.000000,0.000000,0.000000,0.000000,1770022246.834931,0.000000
136.000000,651.329833,-9528.146330,-3567.114898,276.401672,43.854123,-3179.356835,147.007423,5224.250880,-7075.131783,-17938.236050,-1360.304816,-2288.438653,4971.363243,12645.722943,2617.702200,-2267.606827,0.002750,-0.013000,1.010000,192.000000,0.000000,0.000000,0.000000,0.000000,0.000000,0.000000,0.000000,0.000000,0.000000,1770022246.834947,0.000000
138.000000,666.014930,-9506.040455,-3545.791333,290.840899,58.695681,-3153.138239,156.350452,5238.108961,-7076.025853,-17942.505234,-1365.244551,-2293.780719,4961.260255,12626.209870,2613.075389,-2266.355129,0.002750,-0.013000,1.010000,192.000000,0.000000,0.000000,0.000000,0.000000,0.000000,0.000000,0.000000,0.000000,0.000000,1770022246.834965,0.000000
140.000000,658.147115,-9517.842176,-3552.608615,284.627114,57.153411,-3160.916646,151.097793,5229.950575,-7063.240655,-17920.756986,-1349.195999,-2276.569876,4975.565371,12648.449856,2630.040363,-2263.918789,0.002750,-0.013000,1.010000,192.000000,0.000000,0.000000,0.000000,0.000000,0.000000,0.000000,0.000000,0.000000,0.000000,1770022246.834983,0.000000
142.000000,651.396889,-9532.795493,-3555.715508,279.888544,54.784126,-3167.398652,149.913150,5224.921432,-7070.862600,-17955.558652,-1368.910237,-2303.995467,4962.310787,12625.874594,2613.745941,-2269.216152,0.000375,-0.011500,1.009000,192.000000,127.500000,120.000000,127.500000,88.000000,15.500000,64.000000,0.000000,0.000000,0.000000,1770022246.835000,0.000000
144.000000,669.390043,-9507.046283,-3538.079982,290.818547,60.819097,-3150.321919,160.262008,5241.662889,-7060.223169,-17929.720036,-1351.274711,-2280.436728,4982.740281,12646.572309,2628.051058,-2265.282245,0.000375,-0.011500,1.009000,192.000000,0.000000,0.000000,0.000000,0.000000,0.000000,0.000000,0.000000,0.000000,0.000000,1770022246.835017,0.000000
146.000000,643.909054,-9534.673039,-3566.712566,272.311303,39.808457,-3179.714463,146.761554,5221.255746,-7069.543847,-17938.437216,-1359.589560,-2287.924562,4967.518743,12639.687972,2617.389276,-2270.289036,0.000375,-0.011500,1.009000,192.000000,0.000000,0.000000,0.000000,0.000000,0.000000,0.000000,0.000000,0.000000,0.000000,1770022246.835035,0.000000
148.000000,667.110165,-9512.209536,-3547.266549,286.214088,57.064004,-3158.279140,156.998653,5236.052601,-7073.187181,-17952.518815,-1369.245514,-2300.553298,4954.778249,12624.757007,2609.432055,-2266.399833,0.000375,-0.011500,1.009000,192.000000,0.000000,0.000000,0.000000,0.000000,0.000000,0.000000,0.000000,0.000000,0.000000,1770022246.835053,0.000000
150.000000,660.829325,-9519.384446,-3552.563912,282.704864,53.308911,-3164.559980,155.992825,5234.264461,-7059.373803,-17926.188460,-1348.458391,-2276.726338,4981.577990,12644.180673,2625.190035,-2264.946969,0.000375,-0.011500,1.009000,192.000000,0.000000,0.000000,0.000000,0.000000,0.000000,0.000000,0.000000,0.000000,0.000000,1770022246.835069,0.000000
152.000000,652.402717,-9528.503958,-3557.391889,278.882716,51.520771,-3176.451108,151.991862,5228.095380,-7069.767364,-17949.255460,-1364.171668,-2301.894403,4953.839475,12626.433388,2610.527290,-2263.672920,-0.001813,-0.013750,1.007500,192.000000,127.500000,112.000000,127.500000,64.000000,15.500000,56.000000,0.000000,0.000000,0.000000,1770022246.835086,0.000000
154.000000,669.345339,-9501.413644,-3539.644604,290.058588,61.981387,-3153.786439,160.194953,5239.874749,-7060.022004,-17928.669504,-1349.821848,-2282.202516,4974.671301,12646.147626,2625.257090,-2265.014024,-0.001813,-0.013750,1.007500,192.000000,0.000000,0.000000,0.000000,0.000000,0.000000,0.000000,0.000000,0.000000,0.000000,1770022246.835107,0.000000
156.000000,647.887665,-9532.527272,-3565.550276,275.038216,41.730707,-3186.174117,148.639101,5224.384990,-7066.258140,-17934.615068,-1356.907351,-2287.030493,4970.737394,12639.151530,2614.841177,-2266.466888,-0.001813,-0.013750,1.007500,192.000000,0.000000,0.000000,0.000000,0.000000,0.000000,0.000000,0.000000,0.000000,0.000000,1770022246.835123,0.000000
158.000000,665.612598,-9508.700312,-3548.697060,286.974047,54.448849,-3173.098346,155.501086,5238.958328,-7072.427222,-17949.903661,-1365.445717,-2302.095568,4956.409926,12622.946515,2607.643915,-2270.333740,-0.001813,-0.013750,1.007500,192.000000,0.000000,0.000000,0.000000,0.000000,0.000000,0.000000,0.000000,0.000000,0.000000,1770022246.835140,0.000000
160.000000,667.266627,-9513.371827,-3553.480334,289.075111,44.770544,-3169.499716,156.596322,5239.181845,-7056.691594,-17921.941629,-1343.473952,-2271.496030,4976.615903,12649.098056,2620.116189,-2270.534905,-0.001813,-0.013750,1.007500,192.000000,0.000000,0.000000,0.000000,0.000000,0.000000,0.000000,0.000000,0.000000,0.000000,1770022246.835157,0.000000
162.000000,652.000386,-9519.473853,-3564.589150,286.035274,37.819152,-3177.859268,149.466115,5229.794112,-7077.143440,-17947.601431,-1365.378662,-2298.943972,4944.652908,12626.925126,2602.100683,-2265.192838,-0.004906,-0.013875,1.006750,192.000000,127.500000,96.000000,127.500000,72.000000,15.500000,56.000000,0.000000,0.000000,0.000000,1770022246.835170,0.000000
164.000000,665.009101,-9500.787795,-3546.439534,291.511451,56.929893,-3159.553189,158.339758,5239.383011,-7067.576893,-17924.266210,-1353.979272,-2276.547525,4967.719909,12645.633536,2618.730380,-2263.359995,-0.004906,-0.013875,1.006750,192.000000,0.000000,0.000000,0.000000,0.000000,0.000000,0.000000,0.000000,0.000000,0.000000,1770022246.835184,0.000000
166.000000,646.591264,-9528.481606,-3565.438517,282.190774,42.490666,-3182.307265,146.918016,5221.367505,-7068.605074,-17936.224393,-1360.371871,-2289.735054,4968.837496,12640.760856,2613.254203,-2267.495068,-0.004906,-0.013875,1.006750,192.000000,0.000000,0.000000,0.000000,0.000000,0.000000,0.000000,0.000000,0.000000,0.000000,1770022246.835200,0.000000
168.000000,669.680616,-9503.492356,-3542.527979,294.975972,60.193248,-3160.179038,156.752784,5238.220720,-7068.314501,-17943.555766,-1362.204714,-2296.574688,4961.707289,12634.055332,2606.973363,-2262.063594,-0.004906,-0.013875,1.006750,192.000000,0.000000,0.000000,0.000000,0.000000,0.000000,0.000000,0.000000,0.000000,0.000000,1770022246.835216,0.000000
170.000000,661.566932,-9513.327123,-3550.731069,286.012922,54.247684,-3169.365605,152.751822,5231.403438,-7055.126972,-17919.371178,-1342.244606,-2273.910019,4975.341854,12657.211740,2621.457293,-2263.225885,-0.004906,-0.013875,1.006750,192.000000,0.000000,0.000000,0.000000,0.000000,0.000000,0.000000,0.000000,0.000000,0.000000,1770022246.835231,0.000000
172.000000,655.844886,-9520.434978,-3559.492953,281.386111,45.619910,-3182.731948,150.270778,5226.664868,-7071.309635,-17951.021248,-1365.155144,-2301.626182,4957.147534,12634.859995,2602.659476,-2264.254065,-0.007453,-0.011938,1.004375,192.000000,127.500000,88.000000,127.500000,88.000000,15.500000,40.000000,0.000000,0.000000,0.000000,1770022246.835243,0.000000
174.000000,669.144174,-9494.842231,-3543.779676,293.679570,57.153411,-3166.057547,159.524400,5240.969985,-7057.429201,-17925.450853,-1348.234874,-2278.469775,4977.018234,12649.008649,2617.612793,-2266.869219,-0.007453,-0.011938,1.004375,192.000000,0.000000,0.000000,0.000000,0.000000,0.000000,0.000000,0.000000,0.000000,0.000000,1770022246.835255,0.000000
176.000000,646.635967,-9523.564222,-3563.046880,278.122756,43.094163,-3189.213954,146.940368,5224.653211,-7064.514704,-17933.341018,-1354.448659,-2284.370635,4967.898723,12633.094207,2613.053037,-2271.808955,-0.007453,-0.011938,1.004375,192.000000,0.000000,0.000000,0.000000,0.000000,0.000000,0.000000,0.000000,0.000000,0.000000,1770022246.835269,0.000000
178.000000,668.026587,-9503.380597,-3546.216017,292.964315,61.489649,-3166.638692,156.864543,5238.377182,-7065.565236,-17944.539242,-1363.791688,-2294.518327,4964.769478,12629.763797,2608.046247,-2267.651530,-0.007453,-0.011938,1.004375,192.000000,0.000000,0.000000,0.000000,0.000000,0.000000,0.000000,0.000000,0.000000,0.000000,1770022246.835286,0.000000
180.000000,665.165563,-9508.275629,-3552.653319,284.269486,50.894922,-3175.199410,152.774173,5231.962232,-7051.371879,-17919.549992,-1344.323319,-2270.870181,4984.148441,12651.087362,2623.871282,-2268.679710,-0.007453,-0.011938,1.004375,192.000000,0.000000,0.000000,0.000000,0.000000,0.000000,0.000000,0.000000,0.000000,0.000000,1770022246.835303,0.000000
182.000000,649.809915,-9518.557432,-3563.404508,282.771919,44.368213,-3183.760128,147.074479,5224.429694,-7070.281454,-17948.115521,-1367.122098,-2300.598002,4953.615958,12624.622896,2598.636162,-2269.842001,-0.007453,-0.011938,1.004375,192.000000,0.000000,0.000000,0.000000,0.000000,0.000000,0.000000,0.000000,0.000000,0.000000,1770022246.835321,0.000000
184.000000,680.677674,-9486.661492,-3541.611557,296.719408,64.037748,-3159.083803,158.965607,5242.176979,-7056.401021,-17925.383797,-1348.592502,-2276.703987,4974.783060,12644.404190,2616.875186,-2263.739975,-0.008000,-0.006000,1.002000,192.000000,127.500000,96.000000,127.500000,104.000000,15.500000,40.000000,0.000000,0.000000,0.000000,1770022246.835338,0.000000
186.000000,658.214171,-9513.125958,-3564.946778,284.560059,45.150524,-3179.133317,148.192066,5225.748447,-7053.562350,-17925.696722,-1351.945263,-2277.642760,4971.810278,12643.286603,2613.835348,-2260.342510,-0.008000,-0.006000,1.002000,192.000000,0.000000,0.000000,0.000000,0.000000,0.000000,0.000000,0.000000,0.000000,0.000000,1770022246.835360,0.000000
188.000000,663.243313,-9504.252315,-3549.859351,290.751492,54.895884,-3162.816544,156.439859,5235.247938,-7066.772230,-17937.364332,-1364.015205,-2292.238449,4970.156249,12639.062123,2604.045284,-2260.118992,-0.008000,-0.006000,1.002000,192.000000,0.000000,0.000000,0.000000,0.000000,0.000000,0.000000,0.000000,0.000000,0.000000,1770022246.835377,0.000000
190.000000,649.452287,-9510.443748,-3557.257778,282.950733,47.877437,-3178.999207,153.735298,5229.794112,-7068.493315,-17922.187498,-1349.285406,-2269.529077,4976.995883,12656.720001,2620.518520,-2266.422184,-0.008000,-0.006000,1.002000,192.000000,0.000000,0.000000,0.000000,0.000000,0.000000,0.000000,0.000000,0.000000,0.000000,1770022246.835395,0.000000
192.000000,648.088830,-9517.417493,-3560.811706,278.525088,42.311852,-3190.108024,148.504990,5224.362639,-7078.439841,-17949.300164,-1367.971464,-2300.776816,4952.297205,12624.600545,2602.815938,-2274.088833,-0.008000,-0.006000,1.002000,192.000000,0.000000,0.000000,0.000000,0.000000,0.000000,0.000000,0.000000,0.000000,0.000000,1770022246.835412,0.000000
194.000000,674.083909,-9487.600265,-3540.985708,290.751492,64.685948,-3167.510410,158.719737,5240.679412,-7063.978262,-17925.227335,-1349.464220,-2275.988731,4967.697557,12650.595623,2621.591404,-2271.294865,-0.010000,-0.006000,1.002000,192.000000,127.500000,88.000000,127.500000,104.000000,15.500000,40.000000,0.000000,0.000000,0.000000,1770022247.315686,0.000000
196.000000,657.029528,-9516.858699,-3565.080889,281.676684,46.357518,-3182.553134,150.024909,5227.223662,-7062.212475,-17924.132100,-1352.504057,-2278.514478,4979.432223,12643.554824,2618.305697,-2268.970283,-0.010000,-0.006000,1.002000,192.000000,0.000000,0.000000,0.000000,0.000000,0.000000,0.000000,0.000000,0.000000,0.000000,1770022247.315756,0.000000
198.000000,674.352130,-9489.880143,-3544.159656,296.451187,53.487724,-3162.861247,160.351415,5240.299432,-7062.838323,-17933.631591,-1358.740194,-2288.237487,4972.749051,12643.644231,2608.605040,-2262.376519,-0.010000,-0.006000,1.002000,192.000000,0.000000,0.000000,0.000000,0.000000,0.000000,0.000000,0.000000,0.000000,0.000000,1770022247.315813,0.000000
200.000000,670.194706,-9495.758652,-3552.943892,290.416216,51.073736,-3172.874829,157.311577,5234.823255,-7054.277605,-17911.659826,-1341.372888,-2263.672920,4973.218438,12663.313766,2622.820750,-2261.929484,-0.010000,-0.006000,1.002000,192.000000,0.000000,0.000000,0.000000,0.000000,0.000000,0.000000,0.000000,0.000000,0.000000,1770022247.315840,0.000000
202.000000,662.371595,-9509.482623,-3556.251950,286.303495,52.168972,-3176.853439,155.389327,5232.118694,-7062.056012,-17934.950344,-1359.544856,-2287.812804,4960.902627,12632.960097,2605.632258,-2264.298769,-0.010000,-0.006000,1.002000,192.000000,0.000000,0.000000,0.000000,0.000000,0.000000,0.000000,0.000000,0.000000,0.000000,1770022247.315885,0.000000
204.000000,681.258819,-9484.895704,-3538.392906,295.288896,67.435213,-3155.976910,165.559371,5241.707592,-7048.175579,-17913.984408,-1344.323319,-2269.842001,4987.791775,12655.580062,2626.084104,-2262.264760,-0.006000,-0.012000,1.010000,192.000000,127.500000,104.000000,127.500000,80.000000,15.500000,72.000000,0.000000,0.000000,0.000000,1770022247.315929,0.000000
206.000000,657.074232,-9512.455405,-3563.292749,280.737910,46.089297,-3185.950599,152.260083,5224.988487,-7054.948158,-17922.902754,-1352.682871,-2276.927504,4974.917170,12650.953251,2616.450502,-2267.360958,-0.006000,-0.012000,1.010000,192.000000,0.000000,0.000000,0.000000,0.000000,0.000000,0.000000,0.000000,0.000000,0.000000,1770022247.315973,0.000000
208.000000,672.116956,-9491.288303,-3542.997365,292.584335,61.936684,-3164.895256,162.586589,5238.555996,-7065.028794,-17933.251611,-1361.958845,-2290.651475,4975.565371,12644.001859,2607.576860,-2267.025681,-0.006000,-0.012000,1.010000,192.000000,0.000000,0.000000,0.000000,0.000000,0.000000,0.000000,0.000000,0.000000,0.000000,1770022247.315988,0.000000
210.000000,669.233581,-9503.492356,-3548.473543,287.465785,57.779259,-3170.684358,159.032662,5231.917528,-7051.058954,-17914.386739,-1342.065792,-2269.216152,4984.863697,12663.224359,2625.413552,-2267.048033,-0.006000,-0.012000,1.010000,192.000000,0.000000,0.000000,0.000000,0.000000,0.000000,0.000000,0.000000,0.000000,0.000000,1770022247.316003,0.000000
212.000000,660.114069,-9513.908269,-3557.883627,286.571716,49.687928,-3175.646445,155.366976,5226.955441,-7063.084193,-17942.929917,-1362.115307,-2295.613563,4966.378804,12634.792940,2604.715837,-2264.634045,-0.006000,-0.012000,1.010000,192.000000,0.000000,0.000000,0.000000,0.000000,0.000000,0.000000,0.000000,0.000000,0.000000,1770022247.316021,0.000000
214.000000,683.717511,-9487.309693,-3544.517284,291.891431,64.574190,-3155.820448,163.368900,5238.511293,-7053.852922,-17919.818213,-1346.893769,-2273.731205,4980.192182,12653.903682,2619.378581,-2261.817725,-0.004000,-0.014000,1.006000,192.000000,127.500000,112.000000,127.500000,72.000000,15.500000,56.000000,0.000000,0.000000,0.000000,1770022247.316038,0.000000
216.000000,659.711738,-9512.254240,-3564.477392,278.703902,48.682099,-3181.189678,152.416545,5225.234357,-7057.362146,-17928.356579,-1351.319415,-2281.688426,4975.051281,12644.962984,2617.858662,-2268.970283,-0.004000,-0.014000,1.006000,192.000000,0.000000,0.000000,0.000000,0.000000,0.000000,0.000000,0.000000,0.000000,0.000000,1770022247.316054,0.000000
218.000000,675.760290,-9489.969550,-3543.578511,298.418140,61.444946,-3161.006053,165.849944,5242.489903,-7066.906341,-17935.263268,-1360.014243,-2285.778795,4973.576066,12640.224414,2611.555470,-2263.829382,-0.004000,-0.014000,1.006000,192.000000,0.000000,0.000000,0.000000,0.000000,0.000000,0.000000,0.000000,0.000000,0.000000,1770022247.316077,0.000000
220.000000,671.356996,-9501.883030,-3556.386060,288.449262,47.653919,-3166.504582,160.127897,5233.817426,-7057.853884,-17910.788108,-1344.122153,-2262.354167,4968.904551,12662.933786,2618.573918,-2265.081080,-0.004000,-0.014000,1.006000,192.000000,0.000000,0.000000,0.000000,0.000000,0.000000,0.000000,0.000000,0.000000,0.000000,1770022247.316094,0.000000
222.000000,664.025624,-9507.985056,-3555.670804,288.292800,51.163143,-3174.975893,158.473868,5231.805769,-7068.940350,-17944.226318,-1362.048252,-2291.277324,4952.073688,12638.995068,2606.727494,-2262.220056,-0.004000,-0.014000,1.006000,192.000000,0.000000,0.000000,0.000000,0.000000,0.000000,0.000000,0.000000,0.000000,0.000000,1770022247.316113,0.000000
224.000000,676.609656,-9485.767422,-3544.494932,294.350123,60.059137,-3160.491962,167.191049,5240.791171,-7056.982166,-17923.461547,-1346.491438,-2269.931408,4973.509010,12655.982394,2623.312488,-2257.883818,-0.004000,-0.014000,1.004000,192.000000,127.500000,112.000000,127.500000,72.000000,15.500000,48.000000,0.000000,0.000000,0.000000,1770022247.316130,0.000000
226.000000,652.961511,-9515.472891,-3570.020624,275.373492,35.472218,-3192.790233,154.607016,5223.468569,-7069.387385,-17930.837623,-1357.622606,-2281.464908,4966.244694,12643.040734,2612.807168,-2267.629178,-0.004000,-0.014000,1.004000,192.000000,0.000000,0.000000,0.000000,0.000000,0.000000,0.000000,0.000000,0.000000,0.000000,1770022247.316145,0.000000
228.000000,662.617464,-9504.252315,-3548.987633,290.103291,50.894922,-3175.400576,166.766365,5237.550168,-7071.555504,-17946.327382,-1363.679929,-2291.456138,4960.723813,12630.121425,2602.055979,-2271.026644,-0.004000,-0.014000,1.004000,192.000000,0.000000,0.000000,0.000000,0.000000,0.000000,0.000000,0.000000,0.000000,0.000000,1770022247.316163,0.000000
230.000000,660.203476,-9516.165795,-3555.536694,285.163556,51.364309,-3179.401538,161.379595,5227.603641,-7059.999652,-17927.529565,-1347.676080,-2268.120917,4974.894819,12651.623804,2619.870319,-2274.357054,-0.004000,-0.014000,1.004000,192.000000,0.000000,0.000000,0.000000,0.000000,0.000000,0.000000,0.000000,0.000000,0.000000,1770022247.316175,0.000000
232.000000,651.978034,-9527.095798,-3562.778659,279.709730,49.956149,-3188.275181,155.031700,5217.411246,-7070.326158,-17957.302088,-1370.899543,-2301.760292,4949.011499,12637.229280,2606.571031,-2271.406623,-0.004000,-0.014000,1.004000,192.000000,0.000000,0.000000,0.000000,0.000000,0.000000,0.000000,0.000000,0.000000,0.000000,1770022247.316187,0.000000
234.000000,664.986749,-9497.993827,-3543.958490,292.182004,62.227257,-3168.024500,164.955874,5232.677487,-7061.251350,-17934.369199,-1353.956920,-2281.174336,4975.632426,12646.393495,2623.446598,-2267.092737,-0.008000,-0.014000,1.002000,192.000000,127.500000,96.000000,127.500000,72.000000,15.500000,40.000000,0.000000,0.000000,0.000000,1770022247.316199,0.000000
236.000000,646.881836,-9523.765388,-3570.333549,278.435681,43.965881,-3192.834937,155.255217,5218.305316,-7070.415565,-17943.578117,-1359.321339,-2287.432824,4965.149458,12637.430446,2613.812997,-2270.758423,-0.008000,-0.014000,1.002000,192.000000,0.000000,0.000000,0.000000,0.000000,0.000000,0.000000,0.000000,0.000000,0.000000,1770022247.316215,0.000000
238.000000,666.171392,-9511.337818,-3549.322909,286.906992,53.018338,-3175.400576,166.364034,5231.470493,-7069.633254,-17955.245728,-1365.825697,-2296.507632,4963.070746,12628.288582,2604.693485,-2265.975149,-0.008000,-0.014000,1.002000,192.000000,0.000000,0.000000,0.000000,0.000000,0.000000,0.000000,0.000000,0.000000,0.000000,1770022247.316234,0.000000
240.000000,659.912903,-9510.935487,-3557.302482,280.737910,47.340995,-3184.855364,163.324197,5228.430656,-7060.960777,-17933.944515,-1349.263054,-2273.574743,4970.737394,12638.928013,2621.412590,-2272.077176,-0.008000,-0.014000,1.002000,192.000000,0.000000,0.000000,0.000000,0.000000,0.000000,0.000000,0.000000,0.000000,0.000000,1770022247.316252,0.000000
242.000000,646.725374,-9525.866452,-3566.533752,279.106233,40.613120,-3193.729006,160.262008,5224.049714,-7074.081251,-17959.716077,-1367.278560,-2298.899269,4948.743278,12621.851280,2603.665305,-2273.932370,-0.008000,-0.014000,1.002000,192.000000,0.000000,0.000000,0.000000,0.000000,0.000000,0.000000,0.000000,0.000000,0.000000,1770022247.316270,0.000000
244.000000,673.413357,-9495.043396,-3542.885607,296.115911,59.545047,-3163.598855,172.019025,5238.555996,-7061.318405,-17934.503309,-1350.358290,-2276.346359,4970.580932,12650.930899,2615.914061,-2270.043167,-0.007000,-0.013000,1.003000,192.000000,127.500000,104.000000,127.500000,80.000000,15.500000,48.000000,0.000000,0.000000,0.000000,1770022247.316287,0.000000
246.000000,650.346357,-9524.704161,-3564.566799,284.493003,47.408050,-3183.134280,156.931598,5218.662944,-7060.245521,-17935.039751,-1355.365080,-2283.834193,4973.039624,12644.113617,2615.377619,-2265.505763,-0.007000,-0.013000,1.003000,192.000000,0.000000,0.000000,0.000000,0.000000,0.000000,0.000000,0.000000,0.000000,0.000000,1770022247.316319,0.000000
248.000000,670.842906,-9498.127937,-3547.199493,295.512413,63.166030,-3159.821410,164.821764,5233.750371,-7062.257178,-17950.037771,-1364.931627,-2295.971190,4964.210685,12643.487769,2610.795511,-2259.403737,-0.007000,-0.013000,1.003000,192.000000,0.000000,0.000000,0.000000,0.000000,0.000000,0.000000,0.000000,0.000000,0.000000,1770022247.316337,0.000000
250.000000,667.691310,-9505.593420,-3559.805877,285.342370,50.894922,-3171.421966,163.637121,5232.386915,-7049.404925,-17923.729768,-1342.758696,-2266.265722,4982.874391,12667.046507,2626.553491,-2260.141344,-0.007000,-0.013000,1.003000,192.000000,0.000000,0.000000,0.000000,0.000000,0.000000,0.000000,0.000000,0.000000,0.000000,1770022247.316360,0.000000
252.000000,655.934293,-9515.785815,-3565.214999,280.559096,38.981442,-3189.415120,161.737223,5228.207139,-7072.941312,-17949.210757,-1365.266903,-2293.467795,4948.206836,12628.981486,2598.926735,-2269.640835,-0.007000,-0.013000,1.003000,192.000000,0.000000,0.000000,0.000000,0.000000,0.000000,0.000000,0.000000,0.000000,0.000000,1770022247.316377,0.000000
254.000000,670.351168,-9496.004521,-3547.646528,291.198527,52.593655,-3167.890390,167.928656,5236.857264,-7066.079326,-17932.871632,-1351.185304,-2275.564048,4965.238865,12645.410019,2611.577822,-2272.658321,-0.005500,-0.010500,1.006500,192.000000,127.500000,112.000000,127.500000,96.000000,15.500000,72.000000,0.000000,0.000000,0.000000,1770022247.316395,0.000000
0.000000,657.968302,-9519.809129,-3564.477392,282.995437,49.106783,-3181.882582,155.456383,5224.362639,-7066.213437,-17939.465396,-1354.694528,-2284.460042,4968.345758,12645.342963,2609.499110,-2269.305559,-0.005500,-0.010500,1.006500,192.000000,0.000000,0.000000,0.000000,0.000000,0.000000,0.000000,0.000000,0.000000,0.000000,1770022247.316413,0.000000
2.000000,692.568802,-9487.041472,-3542.282110,298.418140,70.743271,-3161.900122,165.134688,5242.601662,-7056.825704,-17942.639344,-1354.582769,-2291.366731,4969.508048,12645.477074,2610.102607,-2262.354167,-0.005500,-0.010500,1.006500,192.000000,0.000000,0.000000,0.000000,0.000000,0.000000,0.000000,0.000000,0.000000,0.000000,1770022247.316431,0.000000
4.000000,683.114014,-9491.333007,-3550.485200,293.947791,61.981387,-3167.733928,165.693482,5240.545302,-7035.256271,-17906.697739,-1330.666403,-2259.135516,4987.545906,12671.807429,2627.782837,-2263.382347,-0.005500,-0.010500,1.006500,192.000000,0.000000,0.000000,0.000000,0.000000,0.000000,0.000000,0.000000,0.000000,0.000000,1770022247.316450,0.000000
6.000000,655.241389,-9519.898536,-3564.544447,286.817585,46.469277,-3182.374320,159.345586,5230.084685,-7074.125954,-17945.142739,-1361.623569,-2291.366731,4963.115449,12638.235109,2601.675999,-2267.942103,-0.005500,-0.010500,1.006500,192.000000,0.000000,0.000000,0.000000,0.000000,0.000000,0.000000,0.000000,0.000000,0.000000,1770022247.316466,0.000000
8.000000,673.770985,-9491.400062,-3546.506589,300.362742,56.974597,-3157.385070,167.012235,5239.450066,-7063.151248,-17921.114614,-1347.072583,-2270.959588,4964.814182,12660.542150,2615.534081,-2264.634045,-0.004750,-0.010250,1.004250,192.000000,127.500000,112.000000,127.500000,88.000000,15.500000,40.000000,0.000000,0.000000,0.000000,1770022247.316485,0.000000
10.000000,648.424107,-9519.563260,-3572.121688,285.878812,45.418745,-3182.776652,152.818877,5219.355848,-7072.851905,-17927.551917,-1356.974406,-2280.928466,4961.573179,12661.637385,2607.688619,-2265.975149,-0.004750,-0.010250,1.004250,192.000000,0.000000,0.000000,0.000000,0.000000,0.000000,0.000000,0.000000,0.000000,0.000000,1770022247.316503,0.000000
12.000000,669.881781,-9503.984094,-3558.934159,293.143129,55.789954,-3164.962311,161.625464,5229.123560,-7077.590475,-17936.626725,-1369.625493,-2294.987714,4957.371051,12645.633536,2600.089026,-2262.287112,-0.004750,-0.010250,1.004250,192.000000,0.000000,0.000000,0.000000,0.000000,0.000000,0.000000,0.000000,0.000000,0.000000,1770022247.316521,0.000000
14.000000,663.153906,-9513.058902,-3567.539581,284.291838,45.329338,-3181.770823,162.094851,5227.335421,-7065.006443,-17923.752120,-1351.386470,-2274.602923,4969.798621,12660.944481,2609.767331,-2270.244333,-0.004750,-0.010250,1.004250,192.000000,0.000000,0.000000,0.000000,0.000000,0.000000,0.000000,0.000000,0.000000,0.000000,1770022247.316539,0.000000
16.000000,654.906113,-9516.903402,-3568.254837,282.660160,40.054326,-3192.499661,158.384461,5223.848548,-7081.010292,-17951.244766,-1369.714900,-2301.693237,4951.537246,12629.964963,2590.097796,-2277.106318,-0.004750,-0.010250,1.004250,192.000000,0.000000,0.000000,0.000000,0.000000,0.000000,0.000000,0.000000,0.000000,0.000000,1770022247.316556,0.000000
18.000000,674.732110,-9495.177507,-3546.081906,295.802986,61.444946,-3165.744622,168.621560,5235.762028,-7063.754745,-17928.401283,-1350.000662,-2278.715644,4965.082403,12650.975603,2611.868395,-2269.864353,-0.001375,-0.011125,1.005125,192.000000,0.000000,8.000000,127.500000,80.000000,15.500000,56.000000,0.000000,0.000000,0.000000,1770022247.316575,0.000000
20.000000,657.118935,-9519.473853,-3567.763098,286.884640,47.005719,-3182.955466,156.931598,5220.585194,-7065.565236,-17929.384760,-1356.080336,-2282.738958,4966.043528,12656.608243,2609.275592,-2266.310426,-0.001375,-0.011125,1.005125,192.000000,0.000000,0.000000,0.000000,0.000000,0.000000,0.000000,0.000000,0.000000,0.000000,1770022247.316593,0.000000
22.000000,680.230639,-9495.915114,-3548.004156,298.239326,66.384681,-3159.352024,165.648778,5236.209063,-7062.883027,-17940.001838,-1361.422403,-2290.740882,4967.384633,12652.763743,2605.274630,-2259.403737,-0.001375,-0.011125,1.005125,192.000000,0.000000,0.000000,0.000000,0.000000,0.000000,0.000000,0.000000,0.000000,0.000000,1770022247.316611,0.000000
24.000000,673.614523,-9495.982170,-3556.073136,292.584335,56.415803,-3165.498753,161.469002,5233.236281,-7051.997727,-17909.067024,-1341.596406,-2263.896437,4978.024063,12674.847266,2620.607927,-2259.783716,-0.001375,-0.011125,1.005125,192.000000,0.000000,0.000000,0.000000,0.000000,0.000000,0.000000,0.000000,0.000000,0.000000,1770022247.316629,0.000000
26.000000,660.002310,-9512.231888,-3564.008005,288.069283,54.292387,-3179.669759,157.646854,5228.341249,-7067.509838,-17939.420693,-1362.428232,-2291.679656,4962.601359,12646.952289,2600.446653,-2264.924617,-0.001375,-0.011125,1.005125,192.000000,0.000000,0.000000,0.000000,0.000000,0.000000,0.000000,0.000000,0.000000,0.000000,1770022247.316651,0.000000
28.000000,678.174279,-9491.645931,-3549.881703,296.786463,65.043576,-3159.352024,165.492316,5237.684278,-7062.368937,-17924.355617,-1350.671214,-2272.859487,4970.737394,12672.902664,2616.718723,-2262.912960,-0.001687,-0.011562,1.007563,192.000000,127.500000,120.000000,127.500000,80.000000,15.500000,72.000000,0.000000,0.000000,0.000000,1770022247.316669,0.000000
30.000000,651.285130,-9524.480644,-3571.451136,281.386111,46.491628,-3189.906858,153.690595,5216.137197,-7068.403908,-17929.451815,-1360.438926,-2281.688426,4963.786002,12646.885234,2610.437883,-2266.064556,-0.001687,-0.011562,1.007563,192.000000,0.000000,0.000000,0.000000,0.000000,0.000000,0.000000,0.000000,0.000000,0.000000,1770022247.316682,0.000000
32.000000,669.434746,-9492.718815,-3556.922502,290.527974,60.662634,-3163.196524,159.055014,5228.028325,-7076.852867,-17941.566460,-1368.083223,-2297.379350,4961.774345,12641.140835,2603.732360,-2258.710832,-0.001687,-0.011562,1.007563,192.000000,0.000000,0.000000,0.000000,0.000000,0.000000,0.000000,0.000000,0.000000,0.000000,1770022247.316701,0.000000
34.000000,666.238447,-9496.987998,-3554.888493,289.835070,55.499381,-3166.325768,158.630330,5230.062333,-7059.686727,-17909.290541,-1346.871417,-2267.942103,4974.470136,12666.644176,2621.166721,-2256.363899,-0.001687,-0.011562,1.007563,192.000000,0.000000,0.000000,0.000000,0.000000,0.000000,0.000000,0.000000,0.000000,0.000000,1770022247.316720,0.000000
36.000000,656.113107,-9519.071522,-3563.315101,285.767053,45.105820,-3181.547306,154.830534,5226.821330,-7075.645873,-17946.439141,-1364.328130,-2295.166528,4955.761725,12639.710324,2600.893688,-2261.437745,-0.001687,-0.011562,1.007563,192.000000,0.000000,0.000000,0.000000,0.000000,0.000000,0.000000,0.000000,0.000000,0.000000,1770022247.316738,0.000000
38.000000,671.155831,-9504.006446,-3545.925444,295.132434,57.332225,-3155.798096,166.319330,5238.153665,-7063.084193,-17932.268135,-1350.134772,-2274.491164,4961.908455,12655.043620,2611.823691,-2264.455231,-0.003844,-0.011781,1.006781,192.000000,127.500000,104.000000,127.500000,80.000000,15.500000,56.000000,0.000000,0.000000,0.000000,1770022247.316756,0.000000
40.000000,660.583456,-9518.825652,-3565.662034,279.732082,51.409012,-3176.004073,152.595359,5221.233394,-7058.300919,-17934.436254,-1353.509885,-2283.118937,4964.210685,12656.541187,2610.214366,-2266.779812,-0.003844,-0.011781,1.006781,192.000000,0.000000,0.000000,0.000000,0.000000,0.000000,0.000000,0.000000,0.000000,0.000000,1770022247.316774,0.000000
42.000000,669.680616,-9503.894687,-3554.173238,290.662085,56.728727,-3164.783497,159.345586,5229.660002,-7065.855809,-17947.713190,-1365.825697,-2299.681580,4957.549865,12639.330344,2600.625467,-2266.221019,-0.003844,-0.011781,1.006781,192.000000,0.000000,0.000000,0.000000,0.000000,0.000000,0.000000,0.000000,0.000000,0.000000,1770022247.316791,0.000000
44.000000,664.807935,-9504.766405,-3561.079927,288.225745,45.128172,-3173.433623,158.362109,5229.391781,-7054.501123,-17920.332303,-1346.290272,-2271.250161,4973.509010,12664.096077,2608.761502,-2265.885742,-0.003844,-0.011781,1.006781,192.000000,0.000000,0.000000,0.000000,0.000000,0.000000,0.000000,0.000000,0.000000,0.000000,1770022247.316809,0.000000
46.000000,657.387156,-9521.351400,-3574.423918,283.263657,36.232178,-3185.347102,152.461249,5223.535624,-7072.293111,-17949.926013,-1368.440851,-2298.295772,4943.043583,12646.080571,2587.683807,-2263.292940,-0.003844,-0.011781,1.006781,192.000000,0.000000,0.000000,0.000000,0.000000,0.000000,0.000000,0.000000,0.000000,0.000000,1770022247.316826,0.000000
48.000000,683.561049,-9492.763518,-3547.668880,295.132434,55.007643,-3163.710614,163.927694,5240.411191,-7059.172637,-17927.708379,-1353.554589,-2276.771042,4968.993958,12651.199120,2605.788720,-2264.544638,-0.003922,-0.012891,1.004391,192.000000,127.500000,112.000000,127.500000,72.000000,15.500000,40.000000,0.000000,0.000000,0.000000,1770022247.316844,0.000000
50.000000,662.662168,-9512.813033,-3566.064366,280.715559,47.743326,-3177.032253,152.617711,5225.413171,-7052.735335,-17928.088358,-1350.760621,-2279.185030,4966.088231,12651.444990,2605.498148,-2267.673882,-0.003922,-0.012891,1.004391,192.000000,0.000000,0.000000,0.000000,0.000000,0.000000,0.000000,0.000000,0.000000,0.000000,1770022247.316862,0.000000
52.000000,682.309351,-9484.381614,-3548.987633,293.813681,63.501306,-3151.573616,161.156078,5241.528778,-7058.479733,-17938.660734,-1359.343691,-2289.109205,4957.415754,12646.326440,2603.106511,-2260.297806,-0.003922,-0.012891,1.004391,192.000000,0.000000,0.000000,0.000000,0.000000,0.000000,0.000000,0.000000,0.000000,0.000000,1770022247.316880,0.000000
54.000000,678.218982,-9494.082271,-3557.704813,293.813681,64.596541,-3152.847666,159.211476,5238.444238,-7044.845169,-17900.014567,-1337.304871,-2258.464963,4983.567295,12675.987205,2622.172549,-2255.291016,-0.003922,-0.012891,1.004391,192.000000,0.000000,0.000000,0.000000,0.000000,0.000000,0.000000,0.000000,0.000000,0.000000,1770022247.316899,0.000000
56.000000,666.573723,-9513.751806,-3567.137249,281.184945,52.191323,-3180.697939,150.114316,5227.491883,-7062.994786,-17947.132045,-1363.635226,-2296.284115,4960.723813,12644.046562,2601.832462,-2258.777888,-0.003922,-0.012891,1.004391,192.000000,0.000000,0.000000,0.000000,0.000000,0.000000,0.000000,0.000000,0.000000,0.000000,1770022247.316916,0.000000
58.000000,688.813709,-9484.985111,-3548.473543,293.768977,67.770489,-3159.642596,162.765403,5243.562787,-7050.768381,-17921.986332,-1345.351499,-2275.072309,4969.284531,12659.893949,2615.243508,-2259.604902,-0.003922,-0.012891,1.004391,192.000000,0.000000,0.000000,0.000000,0.000000,0.000000,0.000000,0.000000,0.000000,0.000000,1770022247.795815,0.000000
60.000000,662.975092,-9517.976286,-3570.691177,280.715559,54.270036,-3182.553134,151.477772,5226.821330,-7056.423373,-17930.703513,-1350.470048,-2283.051882,4972.659644,12654.775400,2611.153139,-2263.985844,-0.002000,-0.020000,1.006000,192.000000,127.500000,120.000000,127.500000,48.000000,15.500000,56.000000,0.000000,0.000000,0.000000,1770022247.795897,0.000000
62.000000,681.504688,-9490.193068,-3550.418145,290.639733,67.345806,-3157.966215,161.826630,5240.590005,-7061.094887,-17945.410960,-1359.142525,-2294.831251,4970.782098,12650.215644,2602.346552,-2263.874085,-0.002000,-0.020000,1.006000,192.000000,0.000000,0.000000,0.000000,0.000000,0.000000,0.000000,0.000000,0.000000,0.000000,1770022247.795965,0.000000
64.000000,666.976055,-9503.648818,-3559.694118,287.666951,54.091222,-3162.615378,159.189124,5231.224624,-7047.169751,-17912.755062,-1338.310699,-2265.058728,4978.649912,12672.053298,2621.546700,-2261.415394,-0.002000,-0.020000,1.006000,192.000000,0.000000,0.000000,0.000000,0.000000,0.000000,0.000000,0.000000,0.000000,0.000000,1770022247.796014,0.000000
66.000000,659.689386,-9527.162853,-3570.892342,274.680588,39.294367,-3182.664893,151.120144,5221.322801,-7069.789716,-17956.340963,-1366.429194,-2306.208289,4948.944443,12645.208853,2595.551621,-2265.796335,-0.002000,-0.020000,1.006000,192.000000,0.000000,0.000000,0.000000,0.000000,0.000000,0.000000,0.000000,0.000000,0.000000,1770022247.796064,0.000000
68.000000,677.637837,-9500.474870,-3554.843790,288.024579,54.046518,-3157.273311,160.351415,5235.493807,-7056.132800,-17932.558707,-1348.816019,-2284.236525,4962.981339,12653.210777,2610.393180,-2266.779812,-0.002000,-0.020000,1.006000,192.000000,0.000000,0.000000,0.000000,0.000000,0.000000,0.000000,0.000000,0.000000,0.000000,1770022247.796114,0.000000
70.000000,649.809915,-9525.017086,-3578.424880,273.205372,35.271053,-3185.570620,148.661452,5217.187729,-7067.979225,-17941.387646,-1360.841258,-2291.702007,4957.907493,12646.348792,2604.469967,-2267.226847,0.002000,-0.014000,1.004000,192.000000,0.000000,8.000000,127.500000,72.000000,15.500000,48.000000,0.000000,0.000000,0.000000,1770022247.796150,0.000000
72.000000,676.162622,-9497.390330,-3558.889456,284.917687,50.023204,-3167.108079,156.953950,5232.006935,-7066.727527,-17948.115521,-1367.882057,-2301.134443,4956.789906,12641.006725,2598.747921,-2262.823553,0.002000,-0.014000,1.004000,192.000000,0.000000,0.000000,0.000000,0.000000,0.000000,0.000000,0.000000,0.000000,0.000000,1770022247.796163,0.000000
74.000000,665.344377,-9511.203708,-3563.180991,279.419157,51.520771,-3168.896218,154.338795,5223.602679,-7056.088097,-17923.707416,-1347.899598,-2275.094661,4969.575103,12669.728717,2614.818825,-2263.158830,0.002000,-0.014000,1.004000,192.000000,0.000000,0.000000,0.000000,0.000000,0.000000,0.000000,0.000000,0.000000,0.000000,1770022247.796175,0.000000
76.000000,658.638854,-9520.390275,-3570.802935,278.838012,57.913370,-3168.136259,149.846095,5218.238261,-7075.042376,-17953.167016,-1371.704205,-2306.342400,4950.285548,12644.247728,2600.647819,-2261.840077,0.002000,-0.014000,1.004000,192.000000,0.000000,0.000000,0.000000,0.000000,0.000000,0.000000,0.000000,0.000000,0.000000,1770022247.796188,0.000000
78.000000,677.906058,-9490.148364,-3556.766040,292.316114,73.269018,-3143.571692,159.345586,5233.459799,-7061.228998,-17923.036864,-1355.476839,-2278.335664,4965.976473,12664.185484,2617.501034,-2256.810934,0.002000,-0.014000,1.004000,192.000000,0.000000,0.000000,0.000000,0.000000,0.000000,0.000000,0.000000,0.000000,0.000000,1770022247.796200,0.000000
80.000000,661.276360,-9514.109434,-3572.389909,280.961428,55.365271,-3160.737832,151.500124,5222.641554,-7062.346585,-17924.377969,-1356.236798,-2279.833231,4974.112508,12666.599472,2611.197843,-2256.341548,-0.002000,-0.016000,1.006000,192.000000,127.500000,120.000000,127.500000,64.000000,15.500000,56.000000,0.000000,0.000000,0.000000,1770022247.796213,0.000000
82.000000,680.297694,-9490.103661,-3555.447287,290.662085,62.517829,-3152.422983,159.949083,5235.784380,-7062.905379,-17932.111672,-1360.908313,-2289.735054,4962.288435,12660.542150,2604.045284,-2252.787620,-0.002000,-0.016000,1.006000,192.000000,0.000000,0.000000,0.000000,0.000000,0.000000,0.000000,0.000000,0.000000,0.000000,1770022247.796225,0.000000
84.000000,668.451270,-9502.866507,-3559.448249,282.570753,51.274902,-3161.810715,157.333929,5229.458836,-7053.852922,-17917.605390,-1343.809228,-2270.110222,4973.039624,12681.306920,2611.846043,-2259.984882,-0.002000,-0.016000,1.006000,192.000000,0.000000,0.000000,0.000000,0.000000,0.000000,0.000000,0.000000,0.000000,0.000000,1770022247.796237,0.000000
86.000000,660.404642,-9521.194937,-3573.820421,274.457070,45.172876,-3182.821355,150.695461,5220.495787,-7072.047242,-17952.161187,-1366.473897,-2301.492071,4945.077592,12641.185539,2596.937430,-2266.086908,-0.002000,-0.016000,1.006000,192.000000,0.000000,0.000000,0.000000,0.000000,0.000000,0.000000,0.000000,0.000000,0.000000,1770022247.796250,0.000000
88.000000,676.386139,-9492.584704,-3558.084793,284.560059,58.159239,-3158.100326,159.569104,5234.197406,-7065.811105,-17936.313800,-1355.409784,-2280.548487,4959.986205,12656.787057,2612.695409,-2265.058728,-0.002000,-0.016000,1.006000,192.000000,0.000000,0.000000,0.000000,0.000000,0.000000,0.000000,0.000000,0.000000,0.000000,1770022247.796262,0.000000
90.000000,654.950816,-9525.687638,-3583.275209,266.522201,38.713221,-3181.860230,144.079345,5212.650324,-7071.890780,-17939.331286,-1362.182362,-2289.802109,4956.119353,12652.115542,2606.973363,-2263.829382,0.004000,-0.016000,1.002000,192.000000,0.000000,16.000000,127.500000,64.000000,15.500000,40.000000,0.000000,0.000000,0.000000,1770022247.796280,0.000000
92.000000,666.305502,-9510.086120,-3564.253874,277.362797,55.342919,-3164.559980,152.684766,5227.246014,-7073.857733,-17956.005687,-1372.575924,-2307.661153,4954.979414,12639.956193,2599.932563,-2258.420260,0.004000,-0.016000,1.002000,192.000000,0.000000,0.000000,0.000000,0.000000,0.000000,0.000000,0.000000,0.000000,0.000000,1770022247.796293,0.000000
94.000000,669.390043,-9503.000617,-3562.488087,283.554230,53.510076,-3166.750451,158.183296,5234.286813,-7056.982166,-17925.160280,-1346.938473,-2276.324007,4969.664510,12662.173827,2617.366924,-2260.409565,0.004000,-0.016000,1.002000,192.000000,0.000000,0.000000,0.000000,0.000000,0.000000,0.000000,0.000000,0.000000,0.000000,1770022247.796305,0.000000
96.000000,660.538752,-9513.885917,-3571.697005,279.799137,48.860913,-3179.379187,152.729470,5226.418999,-7072.740146,-17948.428446,-1367.412671,-2297.401702,4948.184484,12644.001859,2597.451520,-2263.359995,0.004000,-0.016000,1.002000,192.000000,0.000000,0.000000,0.000000,0.000000,0.000000,0.000000,0.000000,0.000000,0.000000,1770022247.796317,0.000000
98.000000,676.497898,-9489.477812,-3552.139229,289.209222,65.915294,-3158.569712,160.239656,5236.477284,-7059.127934,-17929.228297,-1351.721746,-2277.553353,4965.060051,12660.989184,2611.242546,-2262.577684,0.004000,-0.016000,1.002000,192.000000,0.000000,0.000000,0.000000,0.000000,0.000000,0.000000,0.000000,0.000000,0.000000,1770022247.796329,0.000000
100.000000,662.013967,-9515.137615,-3571.227619,276.960466,48.793858,-3173.791250,152.394194,5223.557976,-7060.312576,-17932.603411,-1355.700356,-2285.108243,4958.801563,12658.776362,2607.085122,-2264.902266,0.004000,-0.012000,1.014000,192.000000,0.000000,16.000000,127.500000,80.000000,15.500000,88.000000,0.000000,0.000000,0.000000,1770022247.796342,0.000000
102.000000,676.028511,-9499.737263,-3557.883627,287.510489,66.362329,-3152.870018,161.111374,5236.521988,-7061.497219,-17943.064027,-1360.863609,-2298.765159,4959.941502,12654.596586,2600.379598,-2259.739013,0.004000,-0.012000,1.014000,192.000000,0.000000,0.000000,0.000000,0.000000,0.000000,0.000000,0.000000,0.000000,0.000000,1770022247.796391,0.000000
104.000000,662.773927,-9515.271725,-3569.126555,282.615457,54.001815,-3151.506561,155.724604,5229.883519,-7056.177504,-17926.769605,-1348.279577,-2277.285132,4977.197048,12667.873522,2614.170625,-2259.493143,0.004000,-0.012000,1.014000,192.000000,0.000000,0.000000,0.000000,0.000000,0.000000,0.000000,0.000000,0.000000,0.000000,1770022247.796404,0.000000
106.000000,652.358014,-9515.428187,-3579.341302,277.474556,42.423611,-3164.962311,150.538999,5223.736790,-7075.936446,-17951.155359,-1372.844144,-2303.660191,4946.038717,12648.762780,2592.288267,-2257.257969,0.004000,-0.012000,1.014000,192.000000,0.000000,0.000000,0.000000,0.000000,0.000000,0.000000,0.000000,0.000000,0.000000,1770022247.796415,0.000000
108.000000,672.496935,-9495.713949,-3562.443383,292.204355,49.553817,-3143.929320,159.971435,5235.024421,-7062.905379,-17929.071835,-1358.203752,-2281.062577,4962.601359,12669.013461,2604.224098,-2252.094716,0.004000,-0.012000,1.014000,192.000000,0.000000,0.000000,0.000000,0.000000,0.000000,0.000000,0.000000,0.000000,0.000000,1770022247.796427,0.000000
110.000000,653.944988,-9526.715818,-3583.811651,273.585352,25.637451,-3178.507469,146.582740,5215.600755,-7068.269797,-17938.303106,-1362.204714,-2292.618429,4945.882254,12673.304996,2594.948124,-2259.582550,0.004000,-0.012000,1.014000,192.000000,0.000000,0.000000,127.500000,80.000000,15.500000,72.000000,0.000000,0.000000,0.000000,1770022247.796440,0.000000
112.000000,676.855526,-9498.709082,-3557.123668,285.990570,41.797762,-3166.057547,159.479697,5234.912662,-7066.481658,-17943.935745,-1368.396147,-2300.709760,4951.537246,12651.981431,2586.700331,-2263.851734,0.004000,-0.012000,1.014000,192.000000,0.000000,0.000000,0.000000,0.000000,0.000000,0.000000,0.000000,0.000000,0.000000,1770022247.796452,0.000000
114.000000,670.999369,-9502.263010,-3558.464773,282.190774,51.476067,-3174.864134,156.842191,5231.805769,-7052.087134,-17917.895963,-1345.798534,-2271.652492,4962.422545,12670.935711,2609.834386,-2268.165620,0.004000,-0.012000,1.014000,192.000000,0.000000,0.000000,0.000000,0.000000,0.000000,0.000000,0.000000,0.000000,0.000000,1770022247.796465,0.000000
116.000000,663.220961,-9514.467062,-3570.780584,277.496907,49.956149,-3182.016692,151.030737,5222.350982,-7066.012271,-17946.372085,-1367.099746,-2299.726284,4957.616920,12646.728772,2595.462214,-2269.104394,0.004000,-0.012000,1.014000,192.000000,0.000000,0.000000,0.000000,0.000000,0.000000,0.000000,0.000000,0.000000,0.000000,1770022247.796476,0.000000
118.000000,686.802052,-9489.433109,-3550.149924,292.494928,67.301103,-3151.059526,161.804278,5235.024421,-7053.204722,-17925.361446,-1353.107554,-2280.414376,4972.391423,12667.404135,2608.403874,-2261.683614,0.004000,-0.012000,1.014000,192.000000,0.000000,0.000000,0.000000,0.000000,0.000000,0.000000,0.000000,0.000000,0.000000,1770022247.796489,0.000000
120.000000,667.378386,-9508.722664,-3571.451136,284.113024,53.800649,-3165.386995,150.650758,5223.200348,-7056.848056,-17927.216640,-1355.901522,-2283.677731,4965.998824,12664.297243,2605.095816,-2258.152039,-0.002000,-0.014000,1.002000,192.000000,127.500000,120.000000,127.500000,72.000000,15.500000,40.000000,0.000000,0.000000,0.000000,1770022247.796501,0.000000
122.000000,692.524098,-9489.164888,-3555.939025,295.378303,65.848239,-3145.829218,158.049185,5238.868921,-7051.081306,-17930.681161,-1356.996758,-2288.416301,4961.439068,12664.006670,2596.624505,-2255.201609,-0.002000,-0.014000,1.002000,192.000000,0.000000,0.000000,0.000000,0.000000,0.000000,0.000000,0.000000,0.000000,0.000000,1770022247.796515,0.000000
124.000000,673.681578,-9497.770309,-3560.834057,288.113986,61.824925,-3150.344271,155.881066,5229.458836,-7047.505027,-17906.206001,-1342.781048,-2266.824516,4972.480830,12683.139763,2609.901441,-2257.012100,-0.002000,-0.014000,1.002000,192.000000,0.000000,0.000000,0.000000,0.000000,0.000000,0.000000,0.000000,0.000000,0.000000,1770022247.796527,0.000000
126.000000,661.701043,-9519.831481,-3572.680482,280.268524,55.320568,-3160.693128,149.108487,5217.634763,-7064.827629,-17949.881309,-1368.485554,-2299.391007,4954.599435,12656.004745,2593.897592,-2253.480524,-0.002000,-0.014000,1.002000,192.000000,0.000000,0.000000,0.000000,0.000000,0.000000,0.000000,0.000000,0.000000,0.000000,1770022247.796539,0.000000
128.000000,685.729168,-9493.188202,-3552.318043,292.763149,76.130042,-3138.743715,159.770269,5231.291679,-7052.489466,-17930.524699,-1355.141563,-2283.320103,4979.968665,12668.767592,2609.968497,-2249.524265,-0.002000,-0.014000,1.002000,192.000000,0.000000,0.000000,0.000000,0.000000,0.000000,0.000000,0.000000,0.000000,0.000000,1770022247.796552,0.000000
130.000000,668.361863,-9518.445673,-3566.779621,275.239381,59.723861,-3153.741736,150.270778,5219.489958,-7049.583739,-17930.167071,-1352.146429,-2286.024664,4975.364205,12676.233074,2607.845081,-2246.439725,-0.002000,-0.014000,1.002000,192.000000,0.000000,0.000000,127.500000,72.000000,15.500000,48.000000,0.000000,0.000000,0.000000,1770022247.796564,0.000000
132.000000,685.751520,-9499.737263,-3556.386060,287.689303,71.637341,-3139.637785,158.026833,5233.169226,-7057.406850,-17945.075684,-1361.042423,-2297.334647,4956.476981,12654.328365,2599.217307,-2245.053917,-0.002000,-0.014000,1.002000,192.000000,0.000000,0.000000,0.000000,0.000000,0.000000,0.000000,0.000000,0.000000,0.000000,1770022247.796576,0.000000
134.000000,671.133479,-9498.418510,-3564.767964,284.403596,61.310835,-3148.891407,157.177467,5229.637650,-7043.682878,-17919.594696,-1343.183380,-2272.971245,4975.207743,12683.497391,2612.717761,-2248.853713,-0.002000,-0.014000,1.002000,192.000000,0.000000,0.000000,0.000000,0.000000,0.000000,0.000000,0.000000,0.000000,0.000000,1770022247.796589,0.000000
136.000000,659.063537,-9518.110397,-3575.496802,277.139280,49.687928,-3168.762108,151.991862,5221.792188,-7065.028794,-17949.903661,-1367.166801,-2299.011028,4954.062993,12646.974641,2590.544831,-2255.939216,-0.002000,-0.014000,1.002000,192.000000,0.000000,0.000000,0.000000,0.000000,0.000000,0.000000,0.000000,0.000000,0.000000,1770022247.796601,0.000000
138.000000,679.917715,-9493.791699,-3553.659147,290.103291,65.021225,-3153.182942,163.212438,5236.790208,-7055.417544,-17931.955210,-1350.715917,-2279.609714,4966.647025,12661.011536,2602.100683,-2261.527152,-0.002000,-0.014000,1.002000,192.000000,0.000000,0.000000,0.000000,0.000000,0.000000,0.000000,0.000000,0.000000,0.000000,1770022247.796613,0.000000
140.000000,659.801145,-9523.340705,-3575.027415,275.775823,47.363347,-3171.757242,151.142496,5218.685295,-7059.262044,-17934.838585,-1355.119211,-2285.823498,4961.595531,12662.732621,2601.050151,-2262.734146,0.000000,-0.014000,1.005000,192.000000,0.000000,8.000000,127.500000,72.000000,15.500000,64.000000,0.000000,0.000000,0.000000,1770022247.796625,0.000000
142.000000,673.167488,-9506.688655,-3558.442421,284.828280,58.896847,-3155.462820,158.518572,5227.871862,-7064.090021,-17946.595603,-1364.596351,-2301.514423,4949.749106,12659.961004,2594.076406,-2256.609768,0.000000,-0.014000,1.005000,192.000000,0.000000,0.000000,0.000000,0.000000,0.000000,0.000000,0.000000,0.000000,0.000000,1770022247.796638,0.000000
144.000000,667.110165,-9501.994789,-3563.270398,284.872983,57.868666,-3155.306358,157.870371,5224.541452,-7055.305786,-17919.929972,-1349.084240,-2274.200591,4961.036737,12672.925016,2611.533119,-2256.877989,0.000000,-0.014000,1.005000,192.000000,0.000000,0.000000,0.000000,0.000000,0.000000,0.000000,0.000000,0.000000,0.000000,1770022247.796650,0.000000
146.000000,665.478488,-9510.376693,-3573.038110,281.967256,53.532428,-3157.541532,153.891761,5222.149816,-7066.593417,-17947.243803,-1368.977293,-2302.006161,4965.238865,12654.328365,2592.824709,-2252.385289,0.000000,-0.014000,1.005000,192.000000,0.000000,0.000000,0.000000,0.000000,0.000000,0.000000,0.000000,0.000000,0.000000,1770022247.796663,0.000000
148.000000,681.124709,-9490.103661,-3549.568778,292.763149,73.157260,-3134.251015,163.771232,5236.410229,-7046.454495,-17921.986332,-1347.519618,-2277.151022,4958.712156,12675.584874,2607.710970,-2245.880931,0.000000,-0.014000,1.005000,192.000000,0.000000,0.000000,0.000000,0.000000,0.000000,0.000000,0.000000,0.000000,0.000000,1770022247.796674,0.000000
150.000000,655.531961,-9522.290173,-3575.407395,276.692245,55.812306,-3164.492925,151.634234,5217.187729,-7054.657585,-17927.037826,-1357.443793,-2286.404644,4962.601359,12669.013461,2605.296982,-2249.524265,0.001000,-0.016000,1.003500,192.000000,0.000000,8.000000,127.500000,56.000000,15.500000,40.000000,0.000000,0.000000,0.000000,1770022247.796687,0.000000
152.000000,669.032415,-9499.111414,-3562.689252,286.437605,61.668463,-3152.445334,158.652682,5230.196444,-7067.331024,-17948.540205,-1373.268828,-2302.229679,4955.359394,12649.209815,2591.550659,-2252.161771,0.001000,-0.016000,1.003500,192.000000,0.000000,0.000000,0.000000,0.000000,0.000000,0.000000,0.000000,0.000000,0.000000,1770022247.796700,0.000000
154.000000,675.313255,-9496.228039,-3560.521133,283.598934,60.237951,-3150.701898,158.585627,5230.598775,-7047.460323,-17913.582076,-1348.883074,-2274.111184,4970.268008,12679.027042,2608.314467,-2252.720565,0.001000,-0.016000,1.003500,192.000000,0.000000,0.000000,0.000000,0.000000,0.000000,0.000000,0.000000,0.000000,0.000000,1770022247.796713,0.000000
156.000000,664.740880,-9512.298943,-3572.948703,277.206335,54.135925,-3161.788364,152.103621,5220.987525,-7055.797524,-17941.521757,-1366.228028,-2296.865260,4953.727717,12664.990147,2592.198860,-2253.145248,0.001000,-0.016000,1.003500,192.000000,0.000000,0.000000,0.000000,0.000000,0.000000,0.000000,0.000000,0.000000,0.000000,1770022247.796726,0.000000
158.000000,675.156793,-9486.281513,-3555.089659,291.310285,66.049405,-3144.197541,161.580761,5235.449104,-7054.501123,-17919.997027,-1359.075470,-2277.374539,4967.496391,12666.465362,2607.778026,-2252.787620,0.001000,-0.016000,1.003500,192.000000,0.000000,0.000000,0.000000,0.000000,0.000000,0.000000,0.000000,0.000000,0.000000,1770022247.796738,0.000000
160.000000,648.737031,-9523.184243,-3583.543430,279.843841,45.217579,-3168.136259,152.170676,5218.014743,-7065.744050,-17926.099053,-1366.853877,-2281.487260,4952.140743,12665.437182,2602.994752,-2254.374594,0.001500,-0.015000,1.003750,192.000000,0.000000,8.000000,127.500000,72.000000,15.500000,48.000000,0.000000,0.000000,0.000000,1770022247.796750,0.000000
162.000000,662.595113,-9501.592457,-3568.187781,291.109120,53.800649,-3151.461858,160.060842,5231.023458,-7073.209533,-17940.806501,-1377.023921,-2296.261763,4946.306937,12653.858978,2588.801395,-2254.553408,0.001500,-0.015000,1.003750,192.000000,0.000000,0.000000,0.000000,0.000000,0.000000,0.000000,0.000000,0.000000,0.000000,1770022247.796762,0.000000
164.000000,667.892476,-9499.066710,-3562.666900,285.722349,52.973634,-3158.547361,161.826630,5231.805769,-7056.043393,-17909.424652,-1353.018147,-2267.785641,4962.422545,12678.244731,2604.984058,-2260.521324,0.001500,-0.015000,1.003750,192.000000,0.000000,0.000000,0.000000,0.000000,0.000000,0.000000,0.000000,0.000000,0.000000,1770022247.796775,0.000000
166.000000,658.281226,-9513.327123,-3570.802935,278.793309,47.810381,-3173.768899,154.472906,5222.395685,-7068.113335,-17931.731693,-1369.245514,-2297.044074,4948.452705,12653.076667,2590.947162,-2264.656396,0.001500,-0.015000,1.003750,192.000000,0.000000,0.000000,0.000000,0.000000,0.000000,0.000000,0.000000,0.000000,0.000000,1770022247.796787,0.000000
168.000000,679.582438,-9490.148364,-3550.418145,288.784538,63.233085,-3147.729116,164.106508,5237.214892,-7051.684803,-17919.885268,-1351.453525,-2277.329836,4964.411851,12674.959025,2609.946145,-2259.604902,0.001500,-0.015000,1.003750,192.000000,0.000000,0.000000,0.000000,0.000000,0.000000,0.000000,0.000000,0.000000,0.000000,1770022247.796799,0.000000
170.000000,658.661206,-9516.903402,-3578.201363,275.306436,42.535370,-3172.517201,152.282435,5222.283926,-7059.396155,-17929.518870,-1360.081298,-2286.829327,4958.108659,12663.224359,2605.006409,-2259.537847,0.001500,-0.015000,1.003750,192.000000,0.000000,0.000000,127.500000,80.000000,15.500000,32.000000,0.000000,0.000000,0.000000,1770022247.796811,0.000000
172.000000,671.826383,-9490.304827,-3562.331624,288.806890,56.169934,-3155.172247,160.686691,5235.024421,-7064.961739,-17932.469300,-1368.865534,-2295.144176,4953.861827,12660.788019,2593.539964,-2256.542713,0.001500,-0.015000,1.003750,192.000000,0.000000,0.000000,0.000000,0.000000,0.000000,0.000000,0.000000,0.000000,0.000000,1770022247.796826,0.000000
174.000000,672.452232,-9497.703254,-3565.058537,283.800099,52.392489,-3162.369509,159.613807,5229.548243,-7055.104620,-17912.911524,-1352.749926,-2272.121879,4963.361319,12673.237940,2609.029723,-2260.633082,0.001500,-0.015000,1.003750,192.000000,0.000000,0.000000,0.000000,0.000000,0.000000,0.000000,0.000000,0.000000,0.000000,1770022247.796843,0.000000
176.000000,665.791412,-9515.718760,-3571.272322,276.669893,46.871608,-3173.500678,153.288263,5220.808711,-7063.933559,-17940.784149,-1368.485554,-2300.352132,4956.029946,12651.020306,2590.835403,-2259.895475,0.001500,-0.015000,1.003750,192.000000,0.000000,0.000000,0.000000,0.000000,0.000000,0.000000,0.000000,0.000000,0.000000,1770022247.796855,0.000000
178.000000,677.146098,-9491.467117,-3550.015813,289.276277,64.820059,-3154.501695,161.401947,5231.068162,-7049.382573,-17921.874573,-1353.599292,-2285.443519,4964.009519,12667.538246,2609.499110,-2255.358071,0.001500,-0.015000,1.003750,192.000000,0.000000,0.000000,0.000000,0.000000,0.000000,0.000000,0.000000,0.000000,0.000000,1770022248.276769,0.000000
180.000000,657.185990,-9515.696408,-3571.875819,275.172326,49.062079,-3175.937018,151.366013,5216.763045,-7057.295091,-17928.535393,-1360.461278,-2289.466833,4957.751031,12666.130086,2608.783854,-2257.213266,-0.001250,-0.015500,1.001875,192.000000,127.500000,112.000000,127.500000,64.000000,15.500000,32.000000,0.000000,0.000000,0.000000,1770022248.276846,0.000000
182.000000,674.441537,-9493.501126,-3558.554179,287.778710,61.064966,-3159.799058,159.725566,5229.838816,-7061.676033,-17940.806501,-1370.720729,-2299.413359,4953.526551,12651.310879,2603.195918,-2253.145248,-0.001250,-0.015500,1.001875,192.000000,0.000000,0.000000,0.000000,0.000000,0.000000,0.000000,0.000000,0.000000,0.000000,1770022248.276917,0.000000
184.000000,676.184973,-9500.430167,-3565.170296,288.002227,55.454678,-3158.212085,161.089022,5228.721229,-7044.934576,-17911.302198,-1350.358290,-2271.361920,4970.893856,12678.468249,2613.969459,-2254.240484,-0.001250,-0.015500,1.001875,192.000000,0.000000,0.000000,0.000000,0.000000,0.000000,0.000000,0.000000,0.000000,0.000000,1770022248.276978,0.000000
186.000000,661.969264,-9511.114301,-3576.122651,279.843841,47.206884,-3175.624093,155.545790,5221.836891,-7061.564274,-17943.399303,-1370.631322,-2299.994504,4949.704403,12653.411943,2591.573011,-2260.387213,-0.001250,-0.015500,1.001875,192.000000,0.000000,0.000000,0.000000,0.000000,0.000000,0.000000,0.000000,0.000000,0.000000,1770022248.277048,0.000000
188.000000,688.366674,-9483.264027,-3551.356918,292.696094,66.250571,-3155.127544,168.912133,5242.445200,-7046.990937,-17917.113652,-1351.453525,-2275.675806,4985.131918,12676.031909,2604.469967,-2261.728318,-0.001250,-0.015500,1.001875,192.000000,0.000000,0.000000,0.000000,0.000000,0.000000,0.000000,0.000000,0.000000,0.000000,1770022248.277098,0.000000
190.000000,667.646607,-9512.254240,-3569.886514,277.496907,55.320568,-3175.691149,158.384461,5224.921432,-7050.500161,-17919.907620,-1349.374813,-2276.100490,4964.076574,12667.806467,2606.839252,-2262.577684,-0.001250,-0.015500,1.001875,192.000000,0.000000,0.000000,127.500000,72.000000,15.500000,56.000000,0.000000,0.000000,0.000000,1770022248.277116,0.000000
192.000000,673.323950,-9500.921905,-3558.665938,286.862288,62.517829,-3165.275236,161.401947,5228.229490,-7054.568178,-17944.449835,-1362.405880,-2297.267592,4955.784077,12652.830798,2602.033627,-2256.162734,-0.001250,-0.015500,1.001875,192.000000,0.000000,0.000000,0.000000,0.000000,0.000000,0.000000,0.000000,0.000000,0.000000,1770022248.277134,0.000000
194.000000,668.630084,-9505.213440,-3563.315101,281.252000,52.146620,-3172.539553,159.412641,5225.144950,-7050.053126,-17922.835698,-1350.827676,-2278.492126,4968.055185,12670.846304,2616.316392,-2261.594207,-0.001250,-0.015500,1.001875,192.000000,0.000000,0.000000,0.000000,0.000000,0.000000,0.000000,0.000000,0.000000,0.000000,1770022248.277150,0.000000
196.000000,658.616502,-9516.813995,-3576.524982,277.563963,44.055288,-3184.631847,153.757650,5218.998220,-7063.151248,-17945.835644,-1372.173592,-2301.648534,4950.464362,12652.540225,2591.014217,-2261.281283,-0.001250,-0.015500,1.001875,192.000000,0.000000,0.000000,0.000000,0.000000,0.000000,0.000000,0.000000,0.000000,0.000000,1770022248.277161,0.000000
198.000000,678.397796,-9489.120184,-3554.933197,291.556155,62.830754,-3157.832105,166.006406,5233.660964,-7054.188198,-17921.807518,-1358.784897,-2278.469775,4961.841400,12665.660699,2605.609906,-2258.330853,-0.001250,-0.015500,1.001875,192.000000,0.000000,0.000000,0.000000,0.000000,0.000000,0.000000,0.000000,0.000000,0.000000,1770022248.277173,0.000000
200.000000,653.386194,-9522.558394,-3580.436537,279.486213,52.303082,-3176.562867,151.634234,5212.650324,-7061.921902,-17928.893021,-1364.708109,-2285.689388,4968.926903,12660.765667,2606.101645,-2255.872161,-0.001250,-0.015500,1.001875,192.000000,0.000000,0.000000,0.000000,0.000000,0.000000,0.000000,0.000000,0.000000,0.000000,1770022248.277185,0.000000
202.000000,665.769060,-9508.655609,-3567.897209,284.023617,55.231161,-3161.542494,159.099717,5221.903947,-7067.263969,-17947.266155,-1376.867458,-2305.358923,4956.454629,12652.607280,2597.451520,-2249.032527,0.004000,-0.014000,1.002000,192.000000,0.000000,16.000000,127.500000,72.000000,15.500000,40.000000,0.000000,0.000000,0.000000,1770022248.277197,0.000000
204.000000,661.745746,-9517.685713,-3568.456002,275.552306,50.336129,-3171.712538,158.205647,5218.729999,-7056.713945,-17925.786129,-1357.488496,-2286.695217,4957.102830,12669.818124,2609.566165,-2256.006271,0.004000,-0.014000,1.002000,192.000000,0.000000,0.000000,0.000000,0.000000,0.000000,0.000000,0.000000,0.000000,0.000000,1770022248.277209,0.000000
206.000000,652.246255,-9521.619621,-3577.083776,270.120832,46.178704,-3186.419986,154.763479,5215.980734,-7073.231885,-17957.033867,-1377.694473,-2313.405551,4937.209777,12642.839568,2589.583706,-2262.242408,0.004000,-0.014000,1.002000,192.000000,0.000000,0.000000,0.000000,0.000000,0.000000,0.000000,0.000000,0.000000,0.000000,1770022248.277221,0.000000
208.000000,680.811784,-9491.400062,-3550.194627,286.504660,68.329283,-3162.615378,167.861601,5235.158531,-7055.685765,-17928.602449,-1357.443793,-2287.142251,4966.155287,12666.733583,2604.000581,-2266.824516,0.004000,-0.014000,1.002000,192.000000,0.000000,0.000000,0.000000,0.000000,0.000000,0.000000,0.000000,0.000000,0.000000,1770022248.277232,0.000000
210.000000,664.673825,-9513.751806,-3569.662996,274.032387,53.420669,-3184.788309,155.188162,5219.266441,-7045.269852,-17927.462510,-1353.308720,-2288.595115,4969.239827,12666.554769,2605.296982,-2267.405661,0.004000,-0.014000,1.002000,192.000000,0.000000,0.000000,0.000000,0.000000,0.000000,0.000000,0.000000,0.000000,0.000000,1770022248.277245,0.000000
212.000000,677.704892,-9500.944257,-3556.117839,284.180079,65.781184,-3171.533724,163.637121,5232.051639,-7054.188198,-17938.124292,-1365.289255,-2301.536775,4964.836534,12661.346812,2600.223136,-2264.768155,0.004000,-0.014000,1.002000,192.000000,0.000000,0.000000,127.500000,88.000000,15.500000,56.000000,0.000000,0.000000,0.000000,1770022248.277256,0.000000
214.000000,668.317159,-9508.990885,-3562.644549,279.150937,56.348748,-3178.328655,160.731394,5227.000144,-7050.433105,-17922.321608,-1354.046327,-2280.392025,4969.731566,12676.098964,2616.003468,-2270.020815,0.004000,-0.014000,1.002000,192.000000,0.000000,0.000000,0.000000,0.000000,0.000000,0.000000,0.000000,0.000000,0.000000,1770022248.277268,0.000000
216.000000,651.083964,-9528.950993,-3576.681444,273.361835,44.681137,-3188.632809,152.170676,5217.388894,-7068.336853,-17952.921147,-1376.353368,-2310.455121,4944.518798,12655.513007,2591.640066,-2267.696234,0.004000,-0.014000,1.002000,192.000000,0.000000,0.000000,0.000000,0.000000,0.000000,0.000000,0.000000,0.000000,0.000000,1770022248.277280,0.000000
218.000000,673.748633,-9497.412681,-3559.001214,287.085806,63.814230,-3161.453088,161.312540,5232.342211,-7058.882065,-17933.385722,-1361.377700,-2292.149042,4966.579970,12670.041641,2606.146348,-2259.381385,0.004000,-0.014000,1.002000,192.000000,0.000000,0.000000,0.000000,0.000000,0.000000,0.000000,0.000000,0.000000,0.000000,1770022248.277294,0.000000
220.000000,660.471697,-9522.066655,-3577.329645,269.539686,44.390564,-3187.984608,152.014214,5220.607545,-7056.289262,-17935.576193,-1358.650787,-2292.573725,4959.449763,12671.829781,2604.738188,-2259.426088,0.004000,-0.014000,1.002000,192.000000,0.000000,0.000000,0.000000,0.000000,0.000000,0.000000,0.000000,0.000000,0.000000,1770022248.277313,0.000000
222.000000,671.871087,-9512.053074,-3565.214999,284.358893,56.102879,-3173.344216,157.959778,5227.938918,-7060.625501,-17947.355562,-1368.999644,-2307.772912,4953.839475,12654.037792,2594.076406,-2258.353205,-0.004000,-0.012000,1.008000,192.000000,127.500000,112.000000,127.500000,80.000000,15.500000,64.000000,0.000000,0.000000,0.000000,1770022248.277330,0.000000
224.000000,670.552334,-9505.414606,-3562.443383,283.889506,59.343882,-3163.554151,156.797487,5226.441351,-7049.650794,-17922.321608,-1353.331072,-2281.487260,4976.839420,12671.002766,2614.841177,-2256.542713,-0.004000,-0.012000,1.008000,192.000000,0.000000,0.000000,0.000000,0.000000,0.000000,0.000000,0.000000,0.000000,0.000000,1770022248.277346,0.000000
226.000000,656.806011,-9525.911155,-3576.279113,271.171364,60.394414,-3176.384053,146.985072,5212.158586,-7061.631329,-17949.769551,-1374.989912,-2311.013914,4947.960967,12653.657812,2603.195918,-2250.798315,-0.004000,-0.012000,1.008000,192.000000,0.000000,0.000000,0.000000,0.000000,0.000000,0.000000,0.000000,0.000000,0.000000,1770022248.277363,0.000000
228.000000,673.167488,-9504.520536,-3559.984691,285.364721,72.777280,-3153.249997,159.703214,5227.581290,-7055.842227,-17935.442082,-1363.903447,-2296.574688,4971.899685,12667.225321,2617.724552,-2250.306577,-0.004000,-0.012000,1.008000,192.000000,0.000000,0.000000,0.000000,0.000000,0.000000,0.000000,0.000000,0.000000,0.000000,1770022248.277375,0.000000
230.000000,650.324005,-9539.880996,-3582.604657,269.137355,52.593655,-3179.267428,148.929673,5212.426807,-7055.462248,-17939.934783,-1363.411708,-2298.116958,4955.359394,12662.419696,2610.169662,-2251.580626,-0.004000,-0.012000,1.008000,192.000000,0.000000,0.000000,0.000000,0.000000,0.000000,0.000000,0.000000,0.000000,0.000000,1770022248.277387,0.000000
232.000000,667.110165,-9513.125958,-3566.042014,281.453166,66.496440,-3165.677567,157.333929,5224.899080,-7067.308672,-17956.229205,-1378.968522,-2315.998353,4949.749106,12649.522740,2594.098758,-2253.726393,-0.004000,-0.012000,1.008000,192.000000,0.000000,0.000000,127.500000,96.000000,15.500000,56.000000,0.000000,0.000000,0.000000,1770022248.277399,0.000000
234.000000,670.999369,-9508.365036,-3563.337453,276.714596,66.965826,-3170.214971,159.882028,5227.402476,-7045.314556,-17921.025207,-1352.593464,-2285.979961,4976.682958,12677.283606,2611.309601,-2261.951835,-0.004000,-0.012000,1.008000,192.000000,0.000000,0.000000,0.000000,0.000000,0.000000,0.000000,0.000000,0.000000,0.000000,1770022248.277411,0.000000
236.000000,659.667034,-9522.223118,-3572.814592,271.819564,57.555742,-3190.510355,154.964644,5220.518138,-7058.211512,-17950.529510,-1369.826659,-2311.259784,4958.555693,12651.556748,2592.377674,-2268.053862,-0.004000,-0.012000,1.008000,192.000000,0.000000,0.000000,0.000000,0.000000,0.000000,0.000000,0.000000,0.000000,0.000000,1770022248.277422,0.000000
238.000000,674.016854,-9507.470966,-3554.307348,281.073187,69.402167,-3168.672701,166.095813,5234.510330,-7050.544864,-17935.509138,-1355.186266,-2294.764196,4971.497353,12664.051373,2602.927697,-2266.757460,-0.004000,-0.012000,1.008000,192.000000,0.000000,0.000000,0.000000,0.000000,0.000000,0.000000,0.000000,0.000000,0.000000,1770022248.277434,0.000000
240.000000,657.185990,-9533.622507,-3578.424880,266.030463,53.823001,-3189.236306,152.774173,5216.338362,-7056.937463,-17940.650039,-1361.400051,-2302.430845,4965.015348,12663.760801,2599.597287,-2265.751632,-0.004000,-0.012000,1.008000,192.000000,0.000000,0.000000,0.000000,0.000000,0.000000,0.000000,0.000000,0.000000,0.000000,1770022248.277446,0.000000
242.000000,661.768098,-9512.768330,-3559.224732,275.082919,69.983312,-3174.327692,157.311577,5224.116769,-7063.352414,-17953.815216,-1375.034615,-2312.489130,4946.239882,12643.554824,2596.311581,-2257.593245,-0.002000,-0.008000,1.012000,192.000000,127.500000,120.000000,127.500000,96.000000,15.500000,80.000000,0.000000,0.000000,0.000000,1770022248.277458,0.000000
244.000000,667.065462,-9515.182318,-3561.929293,275.217029,72.151431,-3174.662968,157.803316,5223.401514,-7052.735335,-17926.814309,-1359.030766,-2287.835155,4977.778194,12664.967795,2620.160892,-2259.180219,-0.002000,-0.008000,1.012000,192.000000,0.000000,0.000000,0.000000,0.000000,0.000000,0.000000,0.000000,0.000000,0.000000,1770022248.277470,0.000000
246.000000,652.805049,-9529.107455,-3572.524020,273.227724,53.241855,-3193.863117,154.718775,5219.199386,-7062.771268,-17953.435237,-1376.822755,-2313.807883,4952.431315,12647.041696,2599.865508,-2257.146210,-0.002000,-0.008000,1.012000,192.000000,0.000000,0.000000,0.000000,0.000000,0.000000,0.000000,0.000000,0.000000,0.000000,1770022248.277481,0.000000
