Sample_index,EXG Channel 0,EXG Channel 1,EXG Channel 2,EXG Channel 3,EXG Channel 4,EXG Channel 5,EXG Channel 6,EXG Channel 7,EXG Channel 8,EXG Channel 9,EXG Channel 10,EXG Channel 11,EXG Channel 12,EXG Channel 13,EXG Channel 14,EXG Channel 15,Accel Channel 0,Accel Channel 1,Accel Channel 2,Not Used,Digital Channel 0 (D11),Digital Channel 1 (D12),Digital Channel 2 (D13),Digital Channel 3 (D17),Not Used,Digital Channel 4 (D18),Analog Channel 0,Analog Channel 1,Analog Channel 2,Timestamp,Marker Channel
210.000000,5952.247197,-9446.003669,-3042.877083,-2349.145991,-2064.116545,-8182.906590,-1298.166966,2217.270698,-4226.446656,-16615.146889,-1619.920328,-2238.102524,1477.450308,13623.388246,966.780003,-4361.875875,0.002000,-0.010000,1.006000,192.000000,0.000000,0.000000,0.000000,0.000000,0.000000,0.000000,0.000000,0.000000,0.000000,1770023336.346394,101.000000
212.000000,5971.715566,-9433.419637,-3024.302784,-2336.941938,-2050.481981,-8166.969796,-1281.336103,2235.375611,-4195.578896,-16578.624139,-1585.632752,-2199.188137,1509.256841,13659.732182,996.843099,-4348.040145,0.002000,-0.010000,1.006000,192.000000,0.000000,0.000000,0.000000,0.000000,0.000000,0.000000,0.000000,0.000000,0.000000,1770023336.346464,0.000000
214.000000,5944.066458,-9466.790791,-3048.263854,-2362.042947,-2070.173868,-8197.904610,-1302.793777,2215.259041,-4213.303830,-16612.621142,-1601.480138,-2228.424219,1482.032416,13629.780844,973.954913,-4360.490067,0.002000,-0.010000,1.006000,192.000000,0.000000,0.000000,0.000000,0.000000,0.000000,0.000000,0.000000,0.000000,0.000000,1770023336.346517,0.000000
216.000000,5979.471621,-9420.097997,-3010.467054,-2334.438543,-2027.683202,-8156.196255,-1282.185469,2244.137495,-4198.775196,-16600.975883,-1588.024388,-2214.990820,1500.204384,13639.682667,985.331951,-4356.980843,0.002000,-0.010000,1.006000,192.000000,0.000000,0.000000,127.500000,64.000000,15.500000,48.000000,0.000000,0.000000,0.000000,1770023336.346571,0.000000
218.000000,5950.906092,-9451.636309,-3037.959699,-2354.130430,-2054.907626,-8180.760822,-1298.993981,2221.741047,-4188.403987,-16580.412278,-1575.440356,-2194.360160,1513.995411,13657.854635,1004.532099,-4347.436648,0.002000,-0.010000,1.006000,192.000000,0.000000,0.000000,0.000000,0.000000,0.000000,0.000000,0.000000,0.000000,0.000000,1770023336.346624,0.000000
220.000000,5946.122819,-9457.425410,-3041.424220,-2352.968139,-2065.100022,-8180.380843,-1297.429359,2219.528224,-4224.166778,-16623.305276,-1612.521900,-2235.599129,1475.997445,13619.946077,966.377672,-4359.394832,0.002000,-0.010000,1.006000,192.000000,0.000000,0.000000,0.000000,0.000000,0.000000,0.000000,0.000000,0.000000,0.000000,1770023336.346677,0.000000
222.000000,5956.784601,-9442.516797,-3025.979164,-2342.775743,-2059.176810,-8173.317691,-1282.721911,2228.424219,-4199.155176,-16594.583284,-1586.638580,-2203.770245,1498.550355,13645.203548,991.411625,-4349.001270,0.002000,-0.010000,1.006000,192.000000,0.000000,0.000000,0.000000,0.000000,0.000000,0.000000,0.000000,0.000000,0.000000,1770023336.346695,0.000000
224.000000,5922.966411,-9486.303864,-3053.136534,-2371.184811,-2091.028046,-8212.500300,-1305.252469,2198.763454,-4223.876205,-16630.346075,-1613.930060,-2239.287167,1475.461003,13613.821699,967.517610,-4359.037204,0.002000,-0.010000,1.006000,192.000000,0.000000,0.000000,0.000000,0.000000,0.000000,0.000000,0.000000,0.000000,0.000000,1770023336.346713,0.000000
226.000000,5952.046031,-9451.681012,-3023.028734,-2344.541531,-2066.441127,-8181.364319,-1280.844364,2228.424219,-4221.439865,-16629.921392,-1607.425703,-2238.706021,1473.561105,13614.983990,968.925770,-4362.725242,-0.004000,-0.014000,1.012000,192.000000,127.500000,112.000000,127.500000,72.000000,15.500000,80.000000,0.000000,0.000000,0.000000,1770023336.346731,0.000000
228.000000,5927.347353,-9489.231943,-3057.517476,-2369.866058,-2091.162156,-8217.685904,-1305.319524,2201.199794,-4210.129882,-16613.962247,-1593.433510,-2222.456303,1489.229678,13629.289106,982.225058,-4357.427878,-0.004000,-0.014000,1.012000,192.000000,0.000000,0.000000,0.000000,0.000000,0.000000,0.000000,0.000000,0.000000,0.000000,1770023336.346744,0.000000
230.000000,5935.841016,-9469.450649,-3051.974243,-2361.975892,-2087.004732,-8207.493509,-1301.631487,2211.258079,-4242.092877,-16652.809579,-1630.291537,-2261.616559,1453.466887,13592.699300,948.339814,-4372.314140,-0.004000,-0.014000,1.012000,192.000000,0.000000,0.000000,0.000000,0.000000,0.000000,0.000000,0.000000,0.000000,0.000000,1770023336.346756,0.000000
232.000000,5955.197627,-9445.087248,-3029.086057,-2349.995357,-2067.983397,-8191.467308,-1287.371074,2229.698268,-4206.531251,-16606.496764,-1590.348970,-2209.961678,1487.687407,13631.904260,987.924753,-4351.594073,-0.004000,-0.014000,1.012000,192.000000,0.000000,0.000000,0.000000,0.000000,0.000000,0.000000,0.000000,0.000000,0.000000,1770023336.346800,0.000000
234.000000,5923.860481,-9486.907361,-3059.193857,-2377.532706,-2094.514918,-8229.174701,-1311.823882,2198.338771,-4226.647821,-16635.464625,-1612.074865,-2242.751687,1462.586398,13604.366911,962.108488,-4370.056614,-0.004000,-0.014000,1.012000,192.000000,0.000000,0.000000,0.000000,0.000000,0.000000,0.000000,0.000000,0.000000,0.000000,1770023336.346814,0.000000
236.000000,5955.488200,-9457.671280,-3024.325135,-2346.128505,-2060.003824,-8189.925038,-1283.884202,2225.093809,-4220.076408,-16630.815462,-1606.844557,-2239.845960,1471.728262,13612.726463,973.038491,-4368.983730,-0.005000,-0.017000,1.014000,192.000000,127.500000,104.000000,127.500000,48.000000,15.500000,96.000000,0.000000,0.000000,0.000000,1770023336.346826,0.000000
238.000000,5933.069400,-9476.804373,-3051.482505,-2368.077918,-2083.674322,-8212.254430,-1303.285516,2199.813986,-4204.430187,-16613.224639,-1593.947601,-2223.350373,1489.229678,13628.909126,987.567125,-4365.653320,-0.005000,-0.017000,1.014000,192.000000,0.000000,0.000000,0.000000,0.000000,0.000000,0.000000,0.000000,0.000000,0.000000,1770023336.346838,0.000000
240.000000,5942.211263,-9465.248521,-3042.005365,-2363.115831,-2067.536362,-8198.753977,-1301.743245,2207.145358,-4234.783856,-16647.556919,-1627.005831,-2258.956702,1459.166582,13596.029710,960.677977,-4375.353977,-0.005000,-0.017000,1.014000,192.000000,0.000000,0.000000,0.000000,0.000000,0.000000,0.000000,0.000000,0.000000,0.000000,1770023336.346850,0.000000
242.000000,5965.971168,-9442.293279,-3022.961679,-2347.313147,-2046.905702,-8174.524686,-1288.689827,2226.256099,-4191.220306,-16598.874819,-1586.772691,-2212.129797,1505.166472,13643.482464,1000.598192,-4357.226712,-0.005000,-0.017000,1.014000,192.000000,0.000000,0.000000,0.000000,0.000000,0.000000,0.000000,0.000000,0.000000,0.000000,1770023336.346862,0.000000
244.000000,5934.075228,-9484.091042,-3055.461115,-2375.141069,-2079.248676,-8208.499337,-1310.236908,2201.266849,-4213.169719,-16627.149776,-1606.174005,-2240.024774,1480.199573,13620.057836,970.311579,-4364.759250,-0.005000,-0.017000,1.014000,192.000000,0.000000,0.000000,0.000000,0.000000,0.000000,0.000000,0.000000,0.000000,0.000000,1770023336.346874,0.000000
246.000000,5969.234522,-9437.934689,-3017.172577,-2344.854456,-2047.531551,-8175.798735,-1281.716082,2236.962585,-4210.822786,-16627.440349,-1598.328543,-2235.330908,1479.305503,13621.890679,972.390291,-4366.167410,-0.005000,-0.017000,1.014000,192.000000,0.000000,0.000000,127.500000,80.000000,15.500000,104.000000,0.000000,0.000000,0.000000,1770023336.346886,0.000000
248.000000,5952.649528,-9464.041527,-3043.569987,-2364.345177,-2067.625769,-8208.834613,-1300.938583,2213.850881,-4189.320408,-16602.115822,-1577.317903,-2210.833396,1499.086797,13642.297821,991.523384,-4361.764116,-0.005000,-0.017000,1.014000,192.000000,0.000000,0.000000,0.000000,0.000000,0.000000,0.000000,0.000000,0.000000,0.000000,1770023336.346898,0.000000
250.000000,5952.738935,-9458.990033,-3039.300804,-2358.913703,-2065.792926,-8202.017331,-1299.128091,2213.515605,-4218.601193,-16639.487939,-1614.220633,-2251.446515,1468.643721,13605.417443,956.207628,-4378.997311,-0.005000,-0.017000,1.014000,192.000000,0.000000,0.000000,0.000000,0.000000,0.000000,0.000000,0.000000,0.000000,0.000000,1770023336.346910,0.000000
252.000000,5965.591188,-9447.992974,-3023.229900,-2350.218874,-2057.053394,-8198.083424,-1287.348722,2222.590413,-4187.487565,-16603.144002,-1583.241115,-2213.068570,1503.378332,13638.833301,990.696369,-4364.982768,-0.005000,-0.017000,1.014000,192.000000,0.000000,0.000000,0.000000,0.000000,0.000000,0.000000,0.000000,0.000000,0.000000,1770023336.346921,0.000000
254.000000,5942.770057,-9476.871428,-3051.527208,-2373.174116,-2091.698598,-8232.460407,-1306.012429,2203.434968,-4210.867490,-16633.497671,-1606.106950,-2241.723507,1475.393948,13604.992760,960.365052,-4381.008968,-0.005000,-0.017000,1.014000,192.000000,0.000000,0.000000,0.000000,0.000000,0.000000,0.000000,0.000000,0.000000,0.000000,1770023336.346933,0.000000
0.000000,5977.884648,-9437.062971,-3014.020981,-2342.552226,-2056.405193,-8189.142727,-1278.162155,2236.448495,-4202.396179,-16623.215869,-1592.762958,-2229.519454,1484.088777,13612.726463,968.545791,-4374.303445,-0.001500,-0.015500,1.012000,192.000000,0.000000,8.000000,127.500000,72.000000,15.500000,72.000000,0.000000,0.000000,0.000000,1770023336.346945,0.000000
2.000000,5950.749630,-9469.920036,-3046.609824,-2365.865095,-2078.198144,-8218.512919,-1303.196109,2206.877137,-4187.219344,-16602.026415,-1579.396615,-2213.090922,1500.383198,13631.501929,986.494242,-4367.955550,-0.001500,-0.015500,1.012000,192.000000,0.000000,0.000000,0.000000,0.000000,0.000000,0.000000,0.000000,0.000000,0.000000,1770023336.346956,0.000000
4.000000,5957.209284,-9464.443858,-3041.133647,-2362.557037,-2065.524705,-8213.819052,-1300.759769,2210.676934,-4220.568147,-16645.634669,-1618.199243,-2255.000443,1464.575704,13598.846030,959.649796,-4379.846678,-0.001500,-0.015500,1.012000,192.000000,0.000000,0.000000,0.000000,0.000000,0.000000,0.000000,0.000000,0.000000,0.000000,1770023336.346968,0.000000
6.000000,5968.608674,-9455.279643,-3021.352353,-2352.409345,-2044.447010,-8193.993055,-1286.901687,2222.210434,-4185.788832,-16610.005988,-1582.972894,-2214.610841,1503.333629,13631.032542,999.592364,-4364.088698,-0.001500,-0.015500,1.012000,192.000000,0.000000,0.000000,0.000000,0.000000,0.000000,0.000000,0.000000,0.000000,0.000000,1770023336.346980,0.000000
8.000000,5937.807970,-9487.376748,-3053.225941,-2381.623075,-2067.335196,-8226.939526,-1312.539138,2193.779015,-4212.119187,-16644.964116,-1611.404313,-2250.463039,1479.663131,13600.075376,979.900477,-4374.594018,-0.001500,-0.015500,1.012000,192.000000,0.000000,0.000000,0.000000,0.000000,0.000000,0.000000,0.000000,0.000000,0.000000,1770023336.346991,0.000000
10.000000,5972.184953,-9447.255367,-3018.021943,-2347.022575,-2034.187559,-8182.303093,-1286.946391,2224.825588,-4204.474891,-16635.308163,-1602.843595,-2242.684632,1484.513460,13612.927629,986.158965,-4365.541561,0.001250,-0.013750,1.008000,192.000000,0.000000,16.000000,127.500000,80.000000,15.500000,48.000000,0.000000,0.000000,0.000000,1770023336.347003,0.000000
12.000000,5945.116990,-9479.017196,-3046.431011,-2368.144973,-2062.753089,-8211.181547,-1307.711161,2196.528279,-4186.951123,-16615.638627,-1587.622057,-2226.367858,1507.692219,13632.574812,997.938335,-4354.298634,0.001250,-0.013750,1.008000,192.000000,0.000000,0.000000,0.000000,0.000000,0.000000,0.000000,0.000000,0.000000,0.000000,1770023336.347015,0.000000
14.000000,5947.240406,-9481.095908,-3042.430048,-2363.786383,-2062.887199,-8212.366189,-1299.463367,2201.847995,-4222.378638,-16657.905776,-1624.033049,-2268.635007,1465.603884,13593.727481,962.153192,-4371.040090,0.001250,-0.013750,1.008000,192.000000,0.000000,0.000000,0.000000,0.000000,0.000000,0.000000,0.000000,0.000000,0.000000,1770023336.347027,0.000000
16.000000,5969.636854,-9456.307823,-3025.599185,-2349.414211,-2046.525722,-8196.719968,-1283.057187,2219.595280,-4188.627504,-16619.773700,-1587.890278,-2224.825588,1503.713608,13630.473749,992.417454,-4361.987634,0.001250,-0.013750,1.008000,192.000000,0.000000,0.000000,0.000000,0.000000,0.000000,0.000000,0.000000,0.000000,0.000000,1770023336.347039,0.000000
18.000000,5947.866255,-9480.738280,-3052.644795,-2373.040005,-2068.452784,-8228.280631,-1307.174719,2197.176480,-4210.733379,-16645.768779,-1610.420836,-2249.770135,1474.879858,13605.618609,971.049186,-4376.538620,0.001250,-0.013750,1.008000,192.000000,0.000000,0.000000,0.000000,0.000000,0.000000,0.000000,0.000000,0.000000,0.000000,1770023336.347051,0.000000
20.000000,5983.561991,-9440.996878,-3015.295031,-2344.653290,-2035.215740,-8190.483831,-1285.135899,2224.713829,-4195.109510,-16630.390779,-1597.099197,-2236.672012,1488.335608,13620.102539,983.364997,-4367.933198,0.001625,-0.012875,1.010000,192.000000,0.000000,8.000000,127.500000,80.000000,15.500000,80.000000,0.000000,0.000000,0.000000,1770023336.347072,0.000000
22.000000,5957.723374,-9471.484658,-3041.983013,-2367.407366,-2061.903723,-8220.703390,-1304.201937,2204.016114,-4181.318484,-16616.957380,-1583.174060,-2223.171559,1502.908945,13632.775978,995.658457,-4363.306387,0.001625,-0.012875,1.010000,192.000000,0.000000,0.000000,0.000000,0.000000,0.000000,0.000000,0.000000,0.000000,0.000000,1770023336.347090,0.000000
24.000000,5963.154848,-9464.153286,-3035.612766,-2362.937017,-2059.266217,-8222.089198,-1294.814205,2214.364971,-4211.269821,-16652.519006,-1614.064171,-2257.190914,1473.717567,13597.907257,961.639102,-4378.796146,0.001625,-0.012875,1.010000,192.000000,0.000000,0.000000,0.000000,0.000000,0.000000,0.000000,0.000000,0.000000,0.000000,1770023336.347106,0.000000
26.000000,5973.749575,-9454.318518,-3022.157016,-2350.621206,-2046.592778,-8208.320523,-1281.179640,2226.479617,-4179.664454,-16613.939895,-1577.809641,-2213.381495,1506.261707,13632.686571,996.507823,-4366.525038,0.001625,-0.012875,1.010000,192.000000,0.000000,0.000000,0.000000,0.000000,0.000000,0.000000,0.000000,0.000000,0.000000,1770023336.347124,0.000000
28.000000,5938.143246,-9495.199859,-3056.399889,-2380.259619,-2076.387653,-8246.340841,-1311.980344,2192.259096,-4214.622583,-16655.022401,-1613.795950,-2253.927559,1472.063538,13594.107460,971.116241,-4378.796146,0.001625,-0.012875,1.010000,192.000000,0.000000,0.000000,0.000000,0.000000,0.000000,0.000000,0.000000,0.000000,0.000000,1770023336.347142,0.000000
30.000000,5977.102337,-9448.082381,-3019.787731,-2348.743659,-2040.490751,-8201.302076,-1289.047454,2222.366896,-4207.648838,-16636.135177,-1607.470406,-2250.083059,1484.491108,13602.690530,978.805241,-4374.258742,-0.000187,-0.014438,1.012000,192.000000,127.500000,120.000000,127.500000,64.000000,15.500000,88.000000,0.000000,0.000000,0.000000,1770023336.347154,0.000000
32.000000,5956.471676,-9471.797582,-3045.536941,-2368.949636,-2059.087403,-8221.061018,-1308.113493,2200.417483,-4188.716911,-16620.891287,-1589.544307,-2227.440742,1498.639762,13626.271621,994.809090,-4360.601826,-0.000187,-0.014438,1.012000,192.000000,0.000000,0.000000,0.000000,0.000000,0.000000,0.000000,0.000000,0.000000,0.000000,1770023336.347166,0.000000
34.000000,5968.407508,-9462.543960,-3038.652603,-2360.679491,-2052.471286,-8209.058131,-1300.335085,2212.554480,-4216.366019,-16654.530663,-1619.138017,-2261.795373,1466.319140,13596.342635,962.197895,-4369.117840,-0.000187,-0.014438,1.012000,192.000000,0.000000,0.000000,0.000000,0.000000,0.000000,0.000000,0.000000,0.000000,0.000000,1770023336.347178,0.000000
36.000000,5987.272380,-9439.432256,-3020.592394,-2341.501694,-2030.633632,-8183.197163,-1283.012483,2231.307594,-4177.228114,-16607.502593,-1578.301379,-2214.476730,1508.139254,13640.129702,994.853794,-4350.476486,-0.000187,-0.014438,1.012000,192.000000,0.000000,0.000000,0.000000,0.000000,0.000000,0.000000,0.000000,0.000000,0.000000,1770023336.347190,0.000000
38.000000,5948.223883,-9491.467117,-3052.622444,-2374.582276,-2061.836667,-8228.101817,-1311.645068,2196.617686,-4204.229022,-16642.594831,-1608.073903,-2242.841094,1482.904134,13612.435891,976.592419,-4358.053727,-0.000187,-0.014438,1.012000,192.000000,0.000000,0.000000,0.000000,0.000000,0.000000,0.000000,0.000000,0.000000,0.000000,1770023336.347201,0.000000
40.000000,5971.939084,-9456.017251,-3020.167711,-2350.263578,-2035.081629,-8191.333198,-1290.589725,2220.332887,-4207.984115,-16644.181805,-1606.755150,-2251.670033,1485.809861,13610.826565,980.459271,-4361.741765,-0.000187,-0.014438,1.012000,192.000000,0.000000,0.000000,0.000000,0.000000,0.000000,0.000000,0.000000,0.000000,0.000000,1770023336.347213,0.000000
42.000000,5962.171371,-9474.502143,-3045.291072,-2367.720290,-2057.545132,-8218.535271,-1305.520690,2204.999591,-4189.610981,-16623.841718,-1589.119624,-2230.100600,1500.606716,13630.965487,994.920849,-4357.763154,0.002000,-0.014000,1.016000,192.000000,0.000000,8.000000,127.500000,72.000000,15.500000,96.000000,0.000000,0.000000,0.000000,1770023336.347225,0.000000
44.000000,5960.472639,-9480.805335,-3042.005365,-2368.592008,-2055.309958,-8225.397256,-1298.748112,2207.190061,-4215.471949,-16669.148704,-1618.713333,-2261.169524,1468.174335,13592.453431,959.247465,-4376.605675,0.002000,-0.014000,1.016000,192.000000,0.000000,0.000000,0.000000,0.000000,0.000000,0.000000,0.000000,0.000000,0.000000,1770023336.347236,0.000000
46.000000,5981.818555,-9454.676146,-3021.732333,-2355.762107,-2036.646251,-8206.487680,-1283.638332,2221.606937,-4180.714986,-16628.803805,-1582.436452,-2222.053972,1502.037227,13625.489309,998.094797,-4366.972073,0.002000,-0.014000,1.016000,192.000000,0.000000,0.000000,0.000000,0.000000,0.000000,0.000000,0.000000,0.000000,0.000000,1770023336.347248,0.000000
48.000000,5952.873046,-9492.674111,-3052.868313,-2380.438433,-2063.535400,-8238.875358,-1309.320487,2191.588544,-4205.994809,-16659.537454,-1612.253679,-2256.453306,1475.639817,13597.102594,973.038491,-4378.684387,0.002000,-0.014000,1.016000,192.000000,0.000000,0.000000,0.000000,0.000000,0.000000,0.000000,0.000000,0.000000,0.000000,1770023336.347260,0.000000
50.000000,5990.178107,-9444.863730,-3013.641001,-2349.816543,-2029.627804,-8201.726759,-1284.286533,2223.126855,-4195.645952,-16648.450988,-1603.916479,-2247.490257,1491.308390,13607.406748,980.325160,-4375.264570,0.002000,-0.014000,1.016000,192.000000,0.000000,0.000000,0.000000,0.000000,0.000000,0.000000,0.000000,0.000000,0.000000,1770023336.347272,0.000000
52.000000,5967.289921,-9478.167829,-3042.407697,-2373.822316,-2057.455725,-8236.908404,-1305.163062,2199.501061,-4177.094004,-16627.149776,-1584.962199,-2228.066591,1505.188823,13624.125853,997.692466,-4372.448250,0.002000,-0.008000,1.010000,192.000000,0.000000,8.000000,127.500000,96.000000,15.500000,72.000000,0.000000,0.000000,0.000000,1770023336.347283,0.000000
54.000000,5974.286017,-9465.136762,-3039.636080,-2366.848572,-2059.221513,-8228.817073,-1299.150443,2211.481596,-4209.280516,-16665.326555,-1617.975726,-2263.047071,1467.883762,13589.078318,961.482639,-4384.294675,0.002000,-0.008000,1.010000,192.000000,0.000000,0.000000,0.000000,0.000000,0.000000,0.000000,0.000000,0.000000,0.000000,1770023336.347295,0.000000
56.000000,5984.657226,-9451.636309,-3022.559347,-2353.526932,-2040.155475,-8205.928887,-1285.717045,2222.724524,-4178.949199,-16624.221697,-1583.419929,-2217.717733,1499.064445,13627.009228,990.986942,-4363.887532,0.002000,-0.008000,1.010000,192.000000,0.000000,0.000000,0.000000,0.000000,0.000000,0.000000,0.000000,0.000000,0.000000,1770023336.347307,0.000000
58.000000,5952.001328,-9488.628446,-3050.789601,-2374.828145,-2058.148629,-8224.637297,-1309.611059,2192.952000,-4203.044379,-16654.307145,-1611.404313,-2253.055841,1477.003274,13601.908219,973.753747,-4366.256817,0.002000,-0.008000,1.010000,192.000000,0.000000,0.000000,0.000000,0.000000,0.000000,0.000000,0.000000,0.000000,0.000000,1770023336.347318,0.000000
60.000000,5993.285000,-9442.919128,-3011.025847,-2344.318014,-2017.356696,-8179.173849,-1287.281667,2224.199739,-4189.923905,-16641.589003,-1603.827072,-2246.529132,1497.902155,13619.230821,983.074425,-4353.091640,0.002000,-0.008000,1.010000,192.000000,0.000000,0.000000,0.000000,0.000000,0.000000,0.000000,0.000000,0.000000,0.000000,1770023336.347330,0.000000
62.000000,5971.916732,-9472.021100,-3037.490313,-2363.607569,-2035.260443,-8199.983323,-1302.793777,2206.653620,-4172.601303,-16619.706645,-1584.559868,-2225.160864,1510.687353,13640.397923,1003.347457,-4340.529959,0.002000,-0.008000,1.010000,192.000000,0.000000,0.000000,127.500000,88.000000,15.500000,64.000000,0.000000,0.000000,0.000000,1770023336.347342,0.000000
64.000000,5972.967264,-9467.818972,-3032.148246,-2360.254808,-2035.439257,-8197.859907,-1297.004676,2211.034562,-4207.268859,-16657.615204,-1617.931022,-2262.331815,1482.390044,13604.344559,970.244523,-4355.080945,0.002000,-0.008000,1.010000,192.000000,0.000000,0.000000,0.000000,0.000000,0.000000,0.000000,0.000000,0.000000,0.000000,1770023336.347354,0.000000
66.000000,5983.852563,-9457.000727,-3021.799388,-2354.130430,-2032.310013,-8199.446881,-1285.672341,2218.432989,-4178.658626,-16622.142985,-1585.833917,-2222.992745,1507.871033,13632.999496,1002.341628,-4349.805933,0.002000,-0.008000,1.010000,192.000000,0.000000,0.000000,0.000000,0.000000,0.000000,0.000000,0.000000,0.000000,0.000000,1770023336.347365,0.000000
68.000000,5958.036299,-9484.403966,-3048.554426,-2378.382072,-2055.779345,-8234.807340,-1307.375885,2200.037503,-4205.301905,-16655.916471,-1610.644354,-2254.128725,1480.981884,13597.996664,974.290189,-4370.749518,0.002000,-0.008000,1.010000,192.000000,0.000000,0.000000,0.000000,0.000000,0.000000,0.000000,0.000000,0.000000,0.000000,1770023336.347377,0.000000
70.000000,6006.964267,-9435.945384,-3006.510795,-2343.848627,-2013.042809,-8190.550886,-1281.380806,2238.638966,-4188.627504,-16639.957325,-1594.484042,-2237.811951,1494.258820,13613.039388,981.710968,-4371.621236,0.002000,-0.008000,1.010000,192.000000,0.000000,0.000000,0.000000,0.000000,0.000000,0.000000,0.000000,0.000000,0.000000,1770023336.347389,0.000000
72.000000,5979.784546,-9464.510913,-3032.081191,-2363.160534,-2032.555882,-8217.238869,-1300.335085,2215.013172,-4159.123201,-16613.202287,-1573.115775,-2213.247384,1519.046905,13639.615612,1002.632201,-4360.355957,0.002000,-0.008000,1.010000,192.000000,0.000000,0.000000,127.500000,88.000000,15.500000,72.000000,0.000000,0.000000,0.000000,1770023336.347401,0.000000
74.000000,5981.080947,-9459.615881,-3029.130760,-2359.338386,-2030.343059,-8216.411855,-1294.613039,2219.572928,-4196.517670,-16656.072933,-1612.678362,-2258.710832,1486.346303,13600.187135,973.418471,-4378.729091,0.002000,-0.008000,1.010000,192.000000,0.000000,0.000000,0.000000,0.000000,0.000000,0.000000,0.000000,0.000000,0.000000,1770023336.827340,0.000000
76.000000,5997.330665,-9445.578986,-3017.105522,-2351.179999,-2025.224510,-8202.576125,-1282.297228,2228.133646,-4164.979358,-16619.036093,-1578.502545,-2219.841149,1517.929318,13635.033504,1000.307620,-4369.296654,0.002000,-0.008000,1.010000,192.000000,0.000000,0.000000,0.000000,0.000000,0.000000,0.000000,0.000000,0.000000,0.000000,1770023336.827407,0.000000
78.000000,5964.607711,-9486.013292,-3053.672976,-2379.119680,-2059.020347,-8235.656707,-1310.147501,2195.522451,-4194.416606,-16651.379067,-1609.705580,-2254.262835,1485.273419,13606.043292,971.473869,-4380.249009,0.002000,-0.008000,1.010000,192.000000,0.000000,0.000000,0.000000,0.000000,0.000000,0.000000,0.000000,0.000000,0.000000,1770023336.827460,0.000000
80.000000,6000.057578,-9447.344774,-3018.245461,-2349.548322,-2024.621013,-8198.552811,-1288.198088,2225.294974,-4188.180469,-16645.947593,-1605.995191,-2251.111239,1491.218983,13612.815870,980.906305,-4369.877800,0.002000,-0.008000,1.010000,192.000000,0.000000,0.000000,0.000000,0.000000,0.000000,0.000000,0.000000,0.000000,0.000000,1770023336.827511,0.000000
82.000000,5979.873953,-9470.322367,-3041.066592,-2364.881619,-2046.682185,-8223.854986,-1305.408931,2208.575870,-4166.700443,-16621.450081,-1584.671627,-2226.859597,1509.301544,13635.547594,996.306657,-4361.652358,-0.002000,-0.014000,1.006000,192.000000,127.500000,120.000000,127.500000,72.000000,15.500000,56.000000,0.000000,0.000000,0.000000,1770023336.827575,0.000000
84.000000,5982.734976,-9465.293224,-3030.360106,-2363.361700,-2039.104943,-8219.652858,-1301.564431,2214.119102,-4200.228059,-16659.783323,-1613.930060,-2263.225885,1475.058672,13596.342635,969.193991,-4373.565838,-0.002000,-0.014000,1.006000,192.000000,0.000000,0.000000,0.000000,0.000000,0.000000,0.000000,0.000000,0.000000,0.000000,1770023336.827624,0.000000
86.000000,6005.466700,-9446.182483,-3013.305725,-2350.330633,-2023.436370,-8191.444956,-1286.611114,2230.949966,-4158.698518,-16622.970000,-1574.188658,-2223.395076,1511.871995,13630.138472,1003.682733,-4353.158695,-0.002000,-0.014000,1.006000,192.000000,0.000000,0.000000,0.000000,0.000000,0.000000,0.000000,0.000000,0.000000,0.000000,1770023336.827644,0.000000
88.000000,5975.560066,-9480.291245,-3046.542769,-2377.376244,-2047.196275,-8217.752959,-1307.822920,2204.954887,-4182.279609,-16648.719209,-1601.927173,-2252.206475,1490.146099,13604.612780,976.257143,-4354.030413,-0.002000,-0.014000,1.006000,192.000000,0.000000,0.000000,0.000000,0.000000,0.000000,0.000000,0.000000,0.000000,0.000000,1770023336.827662,0.000000
90.000000,6004.706741,-9444.595509,-3014.445664,-2350.956482,-2014.138045,-8179.017386,-1286.655818,2227.708963,-4180.335007,-16641.141968,-1598.999095,-2243.533998,1494.638800,13613.329961,980.101643,-4354.253930,-0.002000,-0.014000,1.006000,192.000000,0.000000,0.000000,0.000000,0.000000,0.000000,0.000000,0.000000,0.000000,0.000000,1770023336.827677,0.000000
92.000000,5978.644607,-9465.382631,-3039.501970,-2364.725156,-2038.233225,-8209.527518,-1304.805434,2203.680838,-4167.348643,-16621.673598,-1586.370359,-2226.613727,1508.474530,13633.602993,998.854756,-4350.275320,-0.002000,-0.012000,1.008000,192.000000,127.500000,120.000000,127.500000,80.000000,15.500000,64.000000,0.000000,0.000000,0.000000,1770023336.827695,0.000000
94.000000,5985.037206,-9463.572140,-3033.444647,-2358.623130,-2034.098152,-8214.914288,-1302.167928,2206.608916,-4195.556545,-16653.815407,-1616.209938,-2262.711795,1480.177221,13602.779937,966.735299,-4371.442422,-0.002000,-0.012000,1.008000,192.000000,0.000000,0.000000,0.000000,0.000000,0.000000,0.000000,0.000000,0.000000,0.000000,1770023336.827713,0.000000
96.000000,5994.335532,-9452.619785,-3019.161882,-2351.291758,-2027.884367,-8208.745206,-1287.885164,2216.980126,-4164.688786,-16620.198383,-1582.503507,-2227.284280,1514.062466,13631.166653,999.502957,-4366.659149,-0.002000,-0.012000,1.008000,192.000000,0.000000,0.000000,0.000000,0.000000,0.000000,0.000000,0.000000,0.000000,0.000000,1770023336.827729,0.000000
98.000000,5962.461944,-9493.836402,-3049.224979,-2380.304322,-2059.668548,-8256.130905,-1303.598440,2196.952963,-4196.092987,-16657.101113,-1611.449017,-2259.850771,1484.558163,13593.191039,967.741128,-4392.743634,-0.002000,-0.012000,1.008000,192.000000,0.000000,0.000000,0.000000,0.000000,0.000000,0.000000,0.000000,0.000000,0.000000,1770023336.827747,0.000000
100.000000,5997.196555,-9444.729620,-3015.675010,-2346.016746,-2031.438295,-8213.327314,-1274.138841,2235.442666,-4187.845193,-16645.031171,-1598.976743,-2245.433896,1484.312294,13597.974312,967.428204,-4392.676579,-0.002000,-0.012000,1.008000,192.000000,0.000000,0.000000,0.000000,0.000000,0.000000,0.000000,0.000000,0.000000,0.000000,1770023336.827764,0.000000
102.000000,5982.377348,-9457.671280,-3043.480580,-2363.227590,-2056.807525,-8234.181492,-1294.188356,2220.757570,-4171.148440,-16618.834927,-1580.044816,-2216.197814,1499.176204,13621.443644,982.046244,-4378.147945,0.004000,-0.014000,1.006000,192.000000,0.000000,16.000000,127.500000,72.000000,15.500000,56.000000,0.000000,0.000000,0.000000,1770023336.827780,0.000000
104.000000,5986.445366,-9457.358355,-3034.539882,-2362.445278,-2047.486847,-8220.725741,-1294.747149,2222.568062,-4197.992885,-16650.127369,-1608.655048,-2251.155943,1472.264704,13588.854800,951.536113,-4387.133346,0.004000,-0.014000,1.006000,192.000000,0.000000,0.000000,0.000000,0.000000,0.000000,0.000000,0.000000,0.000000,0.000000,1770023336.827796,0.000000
106.000000,6004.818500,-9441.376858,-3019.474807,-2352.699918,-2025.470379,-8199.379826,-1289.852117,2230.122951,-4164.442916,-16613.336398,-1575.529763,-2216.443684,1508.407475,13625.086978,991.657495,-4367.150887,0.004000,-0.014000,1.006000,192.000000,0.000000,0.000000,0.000000,0.000000,0.000000,0.000000,0.000000,0.000000,0.000000,1770023336.827814,0.000000
108.000000,5976.118860,-9484.314559,-3051.147229,-2380.773709,-2051.286644,-8231.164006,-1317.098894,2197.422349,-4186.928771,-16644.964116,-1606.084598,-2254.106373,1485.765157,13597.192001,970.937427,-4378.192649,0.004000,-0.014000,1.006000,192.000000,0.000000,0.000000,0.000000,0.000000,0.000000,0.000000,0.000000,0.000000,0.000000,1770023336.827830,0.000000
110.000000,6008.841814,-9435.833625,-3016.770246,-2343.490999,-2020.485940,-8185.432337,-1288.220440,2231.039373,-4184.715949,-16636.269288,-1601.748359,-2245.120972,1493.700027,13606.870306,976.994750,-4370.324835,0.004000,-0.014000,1.006000,192.000000,0.000000,0.000000,0.000000,0.000000,0.000000,0.000000,0.000000,0.000000,0.000000,1770023336.827847,0.000000
112.000000,5980.589209,-9466.813143,-3043.793505,-2362.914665,-2043.619996,-8209.683980,-1308.739341,2207.301820,-4169.002672,-16609.178973,-1581.967066,-2217.740085,1508.809806,13632.105426,992.909192,-4353.493971,0.004000,-0.014000,1.006000,192.000000,0.000000,0.000000,127.500000,72.000000,15.500000,64.000000,0.000000,0.000000,0.000000,1770023336.827864,0.000000
114.000000,5991.094529,-9458.699460,-3031.902377,-2356.589121,-2041.585987,-8204.654837,-1304.179585,2217.360105,-4205.503071,-16653.882462,-1617.036953,-2263.069423,1465.872105,13591.201733,958.331044,-4365.943893,0.004000,-0.014000,1.006000,192.000000,0.000000,0.000000,0.000000,0.000000,0.000000,0.000000,0.000000,0.000000,0.000000,1770023336.827886,0.000000
116.000000,6014.005067,-9434.470169,-3007.427216,-2342.261653,-2016.753199,-8183.331273,-1293.406045,2236.157922,-4161.447783,-16608.351959,-1572.646388,-2215.102579,1509.793283,13632.865385,993.758558,-4351.147038,0.004000,-0.014000,1.006000,192.000000,0.000000,0.000000,0.000000,0.000000,0.000000,0.000000,0.000000,0.000000,0.000000,1770023336.827904,0.000000
118.000000,5991.362750,-9462.923940,-3037.199740,-2366.267427,-2034.925167,-8217.171814,-1319.848158,2212.710942,-4179.016254,-16629.675523,-1592.159461,-2236.739068,1493.767082,13611.541821,974.737224,-4368.223771,0.004000,-0.014000,1.006000,192.000000,0.000000,0.000000,0.000000,0.000000,0.000000,0.000000,0.000000,0.000000,0.000000,1770023336.827921,0.000000
120.000000,6020.889404,-9426.200023,-3011.942269,-2339.221816,-2009.108902,-8183.688901,-1295.574164,2234.816818,-4174.277684,-16619.170203,-1587.398539,-2228.424219,1501.366675,13620.929554,982.493279,-4367.642625,0.004000,-0.014000,1.006000,192.000000,0.000000,0.000000,0.000000,0.000000,0.000000,0.000000,0.000000,0.000000,0.000000,1770023336.827939,0.000000
122.000000,5994.179069,-9455.994899,-3038.429086,-2365.395709,-2034.567539,-8214.422550,-1311.354495,2212.733294,-4160.888989,-16602.361691,-1576.066205,-2214.387323,1517.929318,13636.821644,994.786739,-4364.356919,0.004000,-0.014000,1.006000,192.000000,0.000000,0.000000,127.500000,72.000000,15.500000,48.000000,0.000000,0.000000,0.000000,1770023336.827956,0.000000
124.000000,5992.368578,-9460.733469,-3036.059801,-2364.903970,-2037.495618,-8218.110587,-1302.346742,2213.917937,-4193.746053,-16648.249823,-1610.554947,-2260.946007,1480.959532,13592.028748,963.181372,-4380.427823,0.004000,-0.014000,1.006000,192.000000,0.000000,0.000000,0.000000,0.000000,0.000000,0.000000,0.000000,0.000000,0.000000,1770023336.827971,0.000000
126.000000,6003.052712,-9443.835550,-3025.889757,-2349.905950,-2031.170074,-8208.722855,-1286.231135,2227.440742,-4171.729585,-16613.984598,-1583.352874,-2222.568062,1506.932259,13620.348408,984.281419,-4373.655245,0.004000,-0.014000,1.006000,192.000000,0.000000,0.000000,0.000000,0.000000,0.000000,0.000000,0.000000,0.000000,0.000000,1770023336.827988,0.000000
128.000000,5963.423069,-9496.965646,-3062.993653,-2380.214915,-2062.909551,-8243.256300,-1314.751961,2193.913125,-4202.530289,-16646.796959,-1613.393618,-2251.625329,1476.735053,13588.787745,957.571084,-4388.116823,0.004000,-0.014000,1.006000,192.000000,0.000000,0.000000,0.000000,0.000000,0.000000,0.000000,0.000000,0.000000,0.000000,1770023336.828003,0.000000
130.000000,6001.689255,-9452.060992,-3023.788693,-2349.302453,-2024.241033,-8197.278762,-1290.321504,2225.294974,-4205.190147,-16648.875671,-1611.605479,-2251.714736,1471.996483,13595.605027,966.914113,-4381.612466,0.004000,-0.014000,1.006000,192.000000,0.000000,0.000000,0.000000,0.000000,0.000000,0.000000,0.000000,0.000000,0.000000,1770023336.828020,0.000000
132.000000,5984.880744,-9468.645986,-3045.805162,-2369.351967,-2041.138952,-8216.165986,-1313.075580,2204.552556,-4176.624617,-16616.242125,-1588.918458,-2225.540844,1500.673771,13626.070455,987.812994,-4368.849619,0.004000,-0.014000,1.006000,192.000000,0.000000,0.000000,127.500000,80.000000,15.500000,72.000000,0.000000,0.000000,0.000000,1770023336.828037,0.000000
134.000000,5988.814651,-9466.902550,-3039.010231,-2363.741680,-2032.980565,-8209.214593,-1309.655763,2208.240593,-4201.390350,-16653.547186,-1618.825092,-2265.438708,1472.845849,13593.369853,961.817916,-4377.924428,0.004000,-0.014000,1.006000,192.000000,0.000000,0.000000,0.000000,0.000000,0.000000,0.000000,0.000000,0.000000,0.000000,1770023336.828054,0.000000
136.000000,6002.426863,-9449.557596,-3021.799388,-2345.703822,-2019.480112,-8187.779270,-1293.338989,2225.540844,-4172.087213,-16611.794127,-1586.772691,-2218.991783,1508.049847,13632.530109,997.983038,-4358.836038,0.004000,-0.014000,1.006000,192.000000,0.000000,0.000000,0.000000,0.000000,0.000000,0.000000,0.000000,0.000000,0.000000,1770023336.828071,0.000000
138.000000,5973.593113,-9488.583742,-3052.376575,-2373.554095,-2052.001900,-8225.263146,-1312.360324,2201.311553,-4200.965667,-16644.159453,-1612.566604,-2248.540789,1477.092681,13600.142431,967.182334,-4372.269436,0.004000,-0.014000,1.006000,192.000000,0.000000,0.000000,0.000000,0.000000,0.000000,0.000000,0.000000,0.000000,0.000000,1770023336.828089,0.000000
140.000000,6004.863203,-9451.368088,-3018.066647,-2350.867075,-2025.515083,-8189.276837,-1288.175736,2226.457265,-4196.987056,-16640.940802,-1605.861080,-2245.500951,1486.100434,13600.388300,971.809145,-4369.453117,0.004000,-0.014000,1.006000,192.000000,0.000000,0.000000,0.000000,0.000000,0.000000,0.000000,0.000000,0.000000,0.000000,1770023336.828106,0.000000
142.000000,5981.863258,-9479.196010,-3042.653566,-2377.823279,-2048.917359,-8219.943430,-1310.862757,2199.724579,-4173.540076,-16624.892250,-1585.610400,-2232.469884,1501.992524,13615.811004,986.114262,-4363.865180,0.003000,-0.014000,1.007000,192.000000,0.000000,8.000000,127.500000,72.000000,15.500000,64.000000,0.000000,0.000000,0.000000,1770023336.828123,0.000000
144.000000,5992.972075,-9470.098850,-3035.232787,-2367.496773,-2036.087458,-8216.791834,-1304.917193,2210.475768,-4203.357304,-16661.079724,-1620.032086,-2271.473679,1469.828364,13580.607007,960.432108,-4380.919561,0.003000,-0.014000,1.007000,192.000000,0.000000,0.000000,0.000000,0.000000,0.000000,0.000000,0.000000,0.000000,0.000000,1770023336.828141,0.000000
146.000000,6011.613430,-9447.970623,-3019.698324,-2348.095459,-2024.777475,-8198.016369,-1287.259315,2234.101562,-4165.001710,-16611.883534,-1579.754243,-2216.600146,1510.016800,13625.690475,995.032608,-4367.352053,0.003000,-0.014000,1.007000,192.000000,0.000000,0.000000,0.000000,0.000000,0.000000,0.000000,0.000000,0.000000,0.000000,1770023336.828177,0.000000
148.000000,5978.599903,-9481.006501,-3054.276473,-2375.252828,-2049.431449,-8231.901614,-1311.756827,2205.893660,-4193.969571,-16638.705628,-1606.799854,-2244.383364,1478.433785,13600.388300,963.471945,-4381.321893,0.003000,-0.014000,1.007000,192.000000,0.000000,0.000000,0.000000,0.000000,0.000000,0.000000,0.000000,0.000000,0.000000,1770023336.828195,0.000000
150.000000,6013.736846,-9442.673259,-3020.435932,-2346.799057,-2022.475245,-8199.133956,-1285.135899,2235.174446,-4191.488527,-16631.888346,-1600.653124,-2239.376573,1489.363788,13605.596257,972.479698,-4378.371463,0.003000,-0.014000,1.007000,192.000000,0.000000,0.000000,0.000000,0.000000,0.000000,0.000000,0.000000,0.000000,0.000000,1770023336.828212,0.000000
152.000000,5987.071215,-9474.256274,-3050.096697,-2367.876752,-2052.203065,-8224.927869,-1307.778216,2209.894623,-4176.401100,-16613.783433,-1581.967066,-2221.875158,1497.477472,13622.471824,984.214364,-4372.157678,0.002500,-0.015000,1.007500,192.000000,0.000000,8.000000,127.500000,64.000000,15.500000,64.000000,0.000000,0.000000,0.000000,1770023336.828228,0.000000
154.000000,5989.172279,-9471.931693,-3044.128781,-2363.987549,-2046.190446,-8218.937602,-1307.465292,2212.107445,-4210.509862,-16654.977698,-1618.154540,-2262.376519,1461.200590,13585.032652,951.312596,-4384.697006,0.002500,-0.015000,1.007500,192.000000,0.000000,0.000000,0.000000,0.000000,0.000000,0.000000,0.000000,0.000000,0.000000,1770023336.828244,0.000000
156.000000,6002.717436,-9453.826780,-3022.380534,-2353.884560,-2027.236167,-8198.530459,-1296.468234,2223.909166,-4175.104699,-16614.252819,-1585.118662,-2224.199739,1502.976001,13621.197775,992.953896,-4370.213076,0.002500,-0.015000,1.007500,192.000000,0.000000,0.000000,0.000000,0.000000,0.000000,0.000000,0.000000,0.000000,0.000000,1770023336.828261,0.000000
158.000000,5969.346281,-9495.758652,-3056.958682,-2382.785366,-2058.506257,-8236.930756,-1322.955051,2193.600201,-4205.123091,-16645.500558,-1611.292554,-2257.481486,1469.269570,13594.666254,967.294093,-4377.410338,0.002500,-0.015000,1.007500,192.000000,0.000000,0.000000,0.000000,0.000000,0.000000,0.000000,0.000000,0.000000,0.000000,1770023336.828280,0.000000
160.000000,6001.242221,-9452.463323,-3022.425237,-2352.386993,-2025.671545,-8195.177698,-1299.217498,2221.226957,-4199.713969,-16643.399494,-1606.106950,-2254.687518,1478.277323,13597.214353,969.685730,-4375.555143,0.002500,-0.015000,1.007500,192.000000,0.000000,0.000000,0.000000,0.000000,0.000000,0.000000,0.000000,0.000000,0.000000,1770023336.828298,0.000000
162.000000,5978.599903,-9480.805335,-3051.057822,-2370.916590,-2043.977623,-8215.875413,-1317.054190,2198.584640,-4184.134803,-16618.723168,-1592.919420,-2232.536940,1494.370579,13618.537917,988.260029,-4362.568779,0.002500,-0.015000,1.007500,192.000000,0.000000,0.000000,127.500000,64.000000,15.500000,96.000000,0.000000,0.000000,0.000000,1770023336.828313,0.000000
164.000000,5985.819517,-9472.244617,-3040.418391,-2362.221761,-2028.174940,-8203.179622,-1309.342838,2207.391227,-4214.555528,-16651.691991,-1626.201168,-2265.438708,1468.129631,13588.921856,961.169715,-4366.681500,0.002500,-0.015000,1.007500,192.000000,0.000000,0.000000,0.000000,0.000000,0.000000,0.000000,0.000000,0.000000,0.000000,1770023336.828331,0.000000
166.000000,5996.928334,-9455.570216,-3026.269737,-2354.689223,-2016.507330,-8191.780232,-1298.815167,2217.650678,-4181.027911,-16615.593924,-1593.165290,-2225.160864,1503.981829,13620.638981,996.507823,-4354.566855,0.002500,-0.015000,1.007500,192.000000,0.000000,0.000000,0.000000,0.000000,0.000000,0.000000,0.000000,0.000000,0.000000,1770023336.828349,0.000000
168.000000,5964.563008,-9494.328141,-3061.741955,-2380.594895,-2045.475190,-8221.664515,-1322.664478,2188.146375,-4212.923850,-16648.205119,-1624.547139,-2259.113164,1476.310370,13588.966559,968.925770,-4370.369538,0.002500,-0.015000,1.007500,192.000000,0.000000,0.000000,0.000000,0.000000,0.000000,0.000000,0.000000,0.000000,0.000000,1770023336.828366,0.000000
170.000000,6004.371465,-9454.251463,-3023.967507,-2348.363679,-2012.349905,-8188.673340,-1295.283591,2222.836283,-4202.329123,-16635.218756,-1615.002944,-2248.406678,1486.301599,13600.656521,978.313503,-4368.581399,0.002500,-0.015000,1.007500,192.000000,0.000000,0.000000,0.000000,0.000000,0.000000,0.000000,0.000000,0.000000,0.000000,1770023336.828384,0.000000
172.000000,5985.819517,-9479.352472,-3048.107391,-2366.178020,-2035.819237,-8218.132939,-1309.320487,2208.061780,-4181.407890,-16614.968075,-1591.891240,-2226.412562,1499.198556,13617.733254,991.232811,-4369.117840,-0.000750,-0.015500,1.007750,192.000000,127.500000,112.000000,127.500000,64.000000,15.500000,64.000000,0.000000,0.000000,0.000000,1770023336.828400,0.000000
174.000000,5992.145061,-9466.634329,-3042.787676,-2359.539552,-2034.276966,-8210.578049,-1303.754902,2217.471864,-4212.029780,-16649.166244,-1620.412066,-2259.113164,1468.867239,13585.703204,956.453497,-4383.333550,-0.000750,-0.015500,1.007750,192.000000,0.000000,0.000000,0.000000,0.000000,0.000000,0.000000,0.000000,0.000000,0.000000,1770023336.828418,0.000000
176.000000,6004.147947,-9447.344774,-3031.343583,-2347.648424,-2025.828007,-8192.249619,-1294.367170,2224.289146,-4179.150364,-16606.742633,-1586.303304,-2215.437855,1501.545489,13622.672990,986.784814,-4364.871009,-0.000750,-0.015500,1.007750,192.000000,0.000000,0.000000,0.000000,0.000000,0.000000,0.000000,0.000000,0.000000,0.000000,1770023336.828435,0.000000
178.000000,5970.687386,-9492.003559,-3064.871200,-2379.834936,-2050.414926,-8228.168872,-1319.892862,2192.616724,-4211.918022,-16641.007857,-1621.149674,-2254.262835,1475.908038,13592.140507,961.907323,-4373.856410,-0.000750,-0.015500,1.007750,192.000000,0.000000,0.000000,0.000000,0.000000,0.000000,0.000000,0.000000,0.000000,0.000000,1770023336.828456,0.000000
180.000000,6006.293715,-9452.910358,-3025.554481,-2349.235397,-2017.289641,-8192.361378,-1289.494489,2229.653565,-4202.999676,-16637.029247,-1613.170101,-2246.618539,1481.227753,13594.867420,970.423337,-4375.555143,-0.000750,-0.015500,1.007750,192.000000,0.000000,0.000000,0.000000,0.000000,0.000000,0.000000,0.000000,0.000000,0.000000,1770023336.828473,0.000000
182.000000,5990.401624,-9470.255312,-3047.503894,-2364.121659,-2035.998051,-8212.992038,-1303.531385,2212.934460,-4178.993902,-16612.934066,-1590.170156,-2218.924727,1505.389989,13616.682722,984.303771,-4369.274303,-0.000750,-0.015500,1.007750,192.000000,0.000000,0.000000,0.000000,0.000000,0.000000,0.000000,0.000000,0.000000,0.000000,1770023336.828490,0.000000
184.000000,5993.285000,-9465.226169,-3041.960662,-2363.115831,-2028.532568,-8212.567355,-1305.319524,2211.593355,-4210.353400,-16648.205119,-1623.317793,-2259.046109,1469.202515,13581.903408,959.538038,-4383.646474,-0.006000,-0.008000,1.004000,192.000000,127.500000,104.000000,127.500000,96.000000,15.500000,48.000000,0.000000,0.000000,0.000000,1770023336.828508,0.000000
186.000000,6014.317991,-9448.127085,-3023.028734,-2349.905950,-2017.356696,-8193.635427,-1294.568335,2225.362030,-4176.244638,-16607.703758,-1586.258601,-2220.221128,1503.333629,13622.985914,991.724550,-4365.340396,-0.006000,-0.008000,1.004000,192.000000,0.000000,0.000000,0.000000,0.000000,0.000000,0.000000,0.000000,0.000000,0.000000,1770023336.828525,0.000000
188.000000,5978.130517,-9490.505992,-3053.114182,-2376.325712,-2045.095211,-8227.341858,-1317.657687,2202.049160,-4202.686751,-16640.650230,-1610.420836,-2252.318234,1479.372559,13594.554495,969.238695,-4372.850582,-0.006000,-0.008000,1.004000,192.000000,0.000000,0.000000,0.000000,0.000000,0.000000,0.000000,0.000000,0.000000,0.000000,1770023336.828543,0.000000
190.000000,6014.228584,-9447.456532,-3018.446626,-2344.496828,-2010.986449,-8188.047491,-1289.360379,2238.013117,-4198.842251,-16633.497671,-1601.368380,-2240.717678,1487.486242,13601.125908,975.273666,-4369.609579,-0.006000,-0.008000,1.004000,192.000000,0.000000,0.000000,0.000000,0.000000,0.000000,0.000000,0.000000,0.000000,0.000000,1770023336.828561,0.000000
192.000000,5988.367616,-9477.229056,-3050.879008,-2366.401537,-2036.623900,-8217.462387,-1307.621754,2210.587527,-4181.542001,-16616.733863,-1586.236249,-2220.936384,1502.730131,13618.247344,988.684712,-4369.497820,-0.006000,-0.008000,1.004000,192.000000,0.000000,0.000000,0.000000,0.000000,0.000000,0.000000,0.000000,0.000000,0.000000,1770023336.828578,0.000000
194.000000,5993.709683,-9468.444820,-3040.641909,-2359.651310,-2039.507275,-8211.338009,-1300.849176,2215.639021,-4212.923850,-16648.629802,-1619.093313,-2257.503838,1466.810878,13588.363062,953.726584,-4382.618294,-0.006000,-0.008000,1.004000,192.000000,0.000000,0.000000,127.500000,80.000000,15.500000,80.000000,0.000000,0.000000,0.000000,1770023337.307645,0.000000
196.000000,6005.354942,-9456.978376,-3029.197816,-2350.688261,-2034.724001,-8201.749110,-1293.897783,2223.171559,-4180.402062,-16609.849526,-1585.677455,-2218.589451,1497.321009,13624.304667,981.532154,-4372.224733,-0.006000,-0.008000,1.004000,192.000000,0.000000,0.000000,0.000000,0.000000,0.000000,0.000000,0.000000,0.000000,0.000000,1770023337.307701,0.000000
198.000000,5977.236447,-9488.360225,-3059.104450,-2376.638636,-2057.276911,-8234.002678,-1319.043496,2199.881041,-4209.548737,-16642.751294,-1618.311002,-2253.748745,1465.223904,13594.666254,956.006462,-4381.523059,-0.006000,-0.008000,1.004000,192.000000,0.000000,0.000000,0.000000,0.000000,0.000000,0.000000,0.000000,0.000000,0.000000,1770023337.307745,0.000000
200.000000,6022.029343,-9435.408942,-3018.401923,-2343.423944,-2013.646306,-8192.808413,-1292.847251,2236.001460,-4193.097853,-16628.021494,-1602.731836,-2236.694364,1487.106262,13606.177402,970.266875,-4374.862239,-0.006000,-0.008000,1.004000,192.000000,0.000000,0.000000,0.000000,0.000000,0.000000,0.000000,0.000000,0.000000,0.000000,1770023337.307788,0.000000
202.000000,5999.275267,-9466.723736,-3043.882912,-2361.394746,-2028.286699,-8216.523614,-1311.287440,2212.398018,-4172.176620,-16605.222715,-1583.621095,-2214.253213,1510.150911,13625.019923,991.344570,-4365.340396,-0.006000,-0.008000,1.004000,192.000000,0.000000,0.000000,0.000000,0.000000,0.000000,0.000000,0.000000,0.000000,0.000000,1770023337.307832,0.000000
204.000000,5995.833098,-9469.271835,-3039.881949,-2359.226627,-2024.755123,-8214.176680,-1305.744208,2209.335829,-4204.765463,-16641.298430,-1617.439284,-2255.849809,1475.461003,13589.435946,958.845134,-4380.830155,0.002000,-0.012000,1.010000,192.000000,0.000000,8.000000,127.500000,80.000000,15.500000,72.000000,0.000000,0.000000,0.000000,1770023337.307987,0.000000
206.000000,5998.403549,-9459.459419,-3031.388287,-2351.716441,-2022.899928,-8198.709273,-1294.791853,2214.566137,-4182.838402,-16613.314046,-1592.628848,-2227.127818,1499.980867,13620.661333,986.226021,-4369.475468,0.002000,-0.012000,1.010000,192.000000,0.000000,0.000000,0.000000,0.000000,0.000000,0.000000,0.000000,0.000000,0.000000,1770023337.308003,0.000000
208.000000,5969.838020,-9499.670207,-3065.094717,-2383.008883,-2048.202103,-8237.713067,-1323.692658,2186.738215,-4216.321315,-16651.557881,-1627.274052,-2264.075251,1464.307483,13585.658501,959.135706,-4386.015759,0.002000,-0.012000,1.010000,192.000000,0.000000,0.000000,0.000000,0.000000,0.000000,0.000000,0.000000,0.000000,0.000000,1770023337.308019,0.000000
210.000000,6015.167357,-9449.222320,-3026.627365,-2350.665909,-2006.963135,-8190.617942,-1300.513899,2222.031620,-4200.898612,-16639.376180,-1615.740551,-2250.664204,1478.634951,13598.734271,967.182334,-4380.785451,0.002000,-0.012000,1.010000,192.000000,0.000000,0.000000,0.000000,0.000000,0.000000,0.000000,0.000000,0.000000,0.000000,1770023337.308046,0.000000
212.000000,6002.069235,-9475.150344,-3047.548598,-2367.630883,-2023.056391,-8212.165023,-1318.417647,2204.105521,-4169.539114,-16609.782470,-1590.170156,-2222.746876,1506.127597,13625.936344,987.321256,-4368.067308,0.002000,-0.012000,1.010000,192.000000,0.000000,0.000000,0.000000,0.000000,0.000000,0.000000,0.000000,0.000000,0.000000,1770023337.308064,0.000000
214.000000,5998.850584,-9462.521608,-3044.709926,-2365.261598,-2018.139007,-8210.443939,-1316.405990,2205.692495,-4199.803376,-16646.662849,-1621.909633,-2262.421222,1478.076157,13592.006396,957.079346,-4381.634817,0.002000,-0.012000,1.010000,192.000000,0.000000,0.000000,127.500000,72.000000,15.500000,56.000000,0.000000,0.000000,0.000000,1770023337.308079,0.000000
216.000000,6018.453064,-9448.171788,-3024.123970,-2349.436563,-2006.449045,-8192.249619,-1298.681056,2220.601108,-4168.622693,-16607.390834,-1587.510298,-2224.602070,1506.239355,13629.110292,990.495204,-4369.698986,0.002000,-0.012000,1.010000,192.000000,0.000000,0.000000,0.000000,0.000000,0.000000,0.000000,0.000000,0.000000,0.000000,1770023337.308096,0.000000
218.000000,5976.454136,-9492.361187,-3062.948950,-2380.483136,-2042.144780,-8230.426399,-1324.184397,2187.632285,-4202.351475,-16637.565689,-1618.981554,-2255.268664,1470.498916,13599.494231,960.767384,-4384.451137,0.002000,-0.012000,1.010000,192.000000,0.000000,0.000000,0.000000,0.000000,0.000000,0.000000,0.000000,0.000000,0.000000,1770023337.308114,0.000000
220.000000,6017.469587,-9453.290338,-3025.688592,-2348.117810,-2004.191518,-8188.919209,-1296.982324,2222.545710,-4203.044379,-16633.162395,-1617.841615,-2248.786658,1473.561105,13603.517545,967.517610,-4382.126556,0.002000,-0.012000,1.010000,192.000000,0.000000,0.000000,0.000000,0.000000,0.000000,0.000000,0.000000,0.000000,0.000000,1770023337.308128,0.000000
222.000000,5996.056616,-9472.065803,-3049.493200,-2366.401537,-2021.827045,-8208.409930,-1317.165949,2204.843128,-4174.121222,-16609.313084,-1591.444205,-2222.880986,1499.109149,13628.484443,981.979189,-4367.530867,0.002000,-0.012000,1.010000,192.000000,0.000000,0.000000,0.000000,0.000000,0.000000,0.000000,0.000000,0.000000,0.000000,1770023337.308145,0.000000
224.000000,6001.108110,-9461.381669,-3041.245406,-2357.930226,-2011.008800,-8200.944448,-1314.416684,2210.721637,-4209.124054,-16646.037000,-1626.558796,-2262.532981,1467.481430,13592.185210,956.855828,-4377.052710,0.002000,-0.012000,1.010000,192.000000,0.000000,0.000000,127.500000,64.000000,15.500000,48.000000,0.000000,0.000000,0.000000,1770023337.308162,0.000000
226.000000,6014.407398,-9449.781114,-3032.058839,-2346.307319,-2000.637591,-8185.655854,-1304.157234,2219.036486,-4169.405004,-16603.680444,-1589.141976,-2219.014134,1503.825367,13634.184138,990.808128,-4360.087736,0.002000,-0.012000,1.010000,192.000000,0.000000,0.000000,0.000000,0.000000,0.000000,0.000000,0.000000,0.000000,0.000000,1770023337.308177,0.000000
228.000000,5975.314197,-9499.804318,-3068.581589,-2380.259619,-2033.293490,-8228.660611,-1328.051249,2184.368930,-4207.246507,-16646.126407,-1626.782313,-2259.850771,1466.296788,13596.163821,961.326177,-4377.902076,0.002000,-0.012000,1.010000,192.000000,0.000000,0.000000,0.000000,0.000000,0.000000,0.000000,0.000000,0.000000,0.000000,1770023337.308194,0.000000
230.000000,6008.797110,-9459.370012,-3031.455342,-2355.650348,-2002.425731,-8197.703445,-1298.144614,2215.281393,-4203.312600,-16641.544299,-1621.104970,-2253.882856,1474.365768,13600.589466,963.471945,-4384.227620,0.002000,-0.012000,1.010000,192.000000,0.000000,0.000000,0.000000,0.000000,0.000000,0.000000,0.000000,0.000000,0.000000,1770023337.308211,0.000000
232.000000,5982.444403,-9489.768385,-3055.505819,-2380.103157,-2030.879501,-8231.298117,-1315.735437,2196.707093,-4187.264048,-16627.015665,-1600.943697,-2234.503893,1492.090701,13611.765338,978.045282,-4378.662035,0.002000,-0.012000,1.010000,192.000000,0.000000,0.000000,0.000000,0.000000,0.000000,0.000000,0.000000,0.000000,0.000000,1770023337.308226,0.000000
234.000000,5988.144098,-9480.715928,-3046.922749,-2373.397633,-2018.183710,-8222.849157,-1314.103760,2201.758588,-4218.109455,-16666.466494,-1632.951395,-2273.351225,1454.495067,13572.493323,942.997747,-4397.661018,-0.004000,-0.014000,0.998000,192.000000,127.500000,112.000000,127.500000,72.000000,15.500000,24.000000,0.000000,0.000000,0.000000,1770023337.308242,0.000000
236.000000,6009.579421,-9458.006556,-3031.611804,-2354.488057,-1998.223603,-8195.289456,-1302.190280,2216.063704,-4183.933638,-16619.483128,-1599.803758,-2229.117123,1494.437634,13617.867365,980.571029,-4372.291788,-0.004000,-0.014000,0.998000,192.000000,0.000000,0.000000,0.000000,0.000000,0.000000,0.000000,0.000000,0.000000,0.000000,1770023337.308259,0.000000
238.000000,5982.891438,-9493.277609,-3061.697252,-2378.180907,-2025.380972,-8230.940489,-1325.860778,2188.682817,-4200.943315,-16644.941764,-1619.160368,-2255.536885,1476.891515,13594.688606,961.259122,-4379.086718,-0.004000,-0.014000,0.998000,192.000000,0.000000,0.000000,0.000000,0.000000,0.000000,0.000000,0.000000,0.000000,0.000000,1770023337.308275,0.000000
240.000000,6013.133349,-9453.759724,-3028.147284,-2348.922473,-1999.452949,-8189.857982,-1298.390484,2216.421332,-4196.852946,-16638.772683,-1613.572432,-2250.060707,1472.801146,13604.009283,962.801392,-4377.410338,-0.004000,-0.014000,0.998000,192.000000,0.000000,0.000000,0.000000,0.000000,0.000000,0.000000,0.000000,0.000000,0.000000,1770023337.308291,0.000000
242.000000,5987.071215,-9490.573047,-3056.735165,-2373.397633,-2025.760952,-8225.240794,-1318.976440,2193.086111,-4181.810222,-16621.494785,-1600.340200,-2231.531111,1487.910925,13620.214298,975.877163,-4370.838925,-0.004000,-0.014000,0.998000,192.000000,0.000000,0.000000,0.000000,0.000000,0.000000,0.000000,0.000000,0.000000,0.000000,1770023337.308311,0.000000
244.000000,5985.752462,-9490.930675,-3051.393098,-2368.770822,-2022.274080,-8223.340896,-1313.768484,2200.551593,-4215.136673,-16663.784285,-1633.107857,-2270.937237,1458.093698,13578.930626,940.315537,-4388.094471,-0.002000,-0.012000,1.000000,192.000000,127.500000,120.000000,127.500000,80.000000,15.500000,32.000000,0.000000,0.000000,0.000000,1770023337.308350,0.000000
246.000000,6000.683427,-9469.048318,-3032.282356,-2352.856380,-2004.236222,-8200.922096,-1300.469196,2214.432027,-4182.659588,-16628.222660,-1596.808624,-2231.821684,1492.224812,13615.028693,974.781927,-4372.560009,-0.002000,-0.012000,1.000000,192.000000,0.000000,0.000000,0.000000,0.000000,0.000000,0.000000,0.000000,0.000000,0.000000,1770023337.308366,0.000000
248.000000,5974.129555,-9497.859716,-3066.704043,-2379.343197,-2030.611280,-8228.794721,-1327.917138,2185.888849,-4207.402969,-16652.966041,-1622.244909,-2261.258931,1465.045090,13592.721652,953.346605,-4378.863201,-0.002000,-0.012000,1.000000,192.000000,0.000000,0.000000,0.000000,0.000000,0.000000,0.000000,0.000000,0.000000,0.000000,1770023337.308383,0.000000
250.000000,6009.735883,-9461.806352,-3033.534054,-2352.185828,-1997.821271,-8190.752052,-1302.145577,2215.884890,-4204.474891,-16644.360619,-1617.998078,-2255.916864,1468.688425,13600.321245,964.366015,-4371.665939,-0.002000,-0.012000,1.000000,192.000000,0.000000,0.000000,0.000000,0.000000,0.000000,0.000000,0.000000,0.000000,0.000000,1770023337.308400,0.000000
252.000000,5991.899191,-9483.644007,-3059.372671,-2376.012787,-2022.743466,-8222.446826,-1321.345725,2197.645867,-4187.018178,-16621.830061,-1600.921345,-2233.363954,1486.860393,13619.208469,980.906305,-4365.183933,-0.002000,-0.012000,1.000000,192.000000,0.000000,0.000000,0.000000,0.000000,0.000000,0.000000,0.000000,0.000000,0.000000,1770023337.308415,0.000000
254.000000,6001.488090,-9471.104678,-3049.470848,-2369.821354,-2021.201196,-8221.530404,-1312.628545,2212.040390,-4212.409760,-16654.396552,-1627.408162,-2264.209362,1457.132573,13584.585617,944.540017,-4385.389910,0.005000,-0.011000,1.002000,192.000000,0.000000,48.000000,127.500000,88.000000,15.500000,48.000000,0.000000,0.000000,0.000000,1770023337.308432,0.000000
0.000000,6014.317991,-9461.269910,-3032.841150,-2355.784459,-2003.520966,-8201.838517,-1299.619830,2223.842111,-4175.328216,-16618.007912,-1589.410196,-2223.886815,1492.023646,13622.024789,978.157041,-4375.689253,0.005000,-0.011000,1.002000,192.000000,0.000000,0.000000,0.000000,0.000000,0.000000,0.000000,0.000000,0.000000,0.000000,1770023337.308449,0.000000
2.000000,5984.143136,-9491.824745,-3066.234656,-2385.646389,-2022.430542,-8236.506073,-1330.465237,2189.420425,-4202.485586,-16648.540395,-1621.820226,-2260.498972,1470.655378,13597.750795,951.223189,-4391.044902,0.005000,-0.011000,1.002000,192.000000,0.000000,0.000000,0.000000,0.000000,0.000000,0.000000,0.000000,0.000000,0.000000,1770023337.308462,0.000000
4.000000,6016.955497,-9448.060030,-3029.667202,-2354.532761,-1989.037036,-8197.569334,-1304.045475,2219.841149,-4192.159080,-16638.884442,-1615.941717,-2255.447478,1482.524154,13608.501984,964.567180,-4387.155698,0.005000,-0.011000,1.002000,192.000000,0.000000,0.000000,0.000000,0.000000,0.000000,0.000000,0.000000,0.000000,0.000000,1770023337.308480,0.000000
6.000000,5989.328741,-9486.102699,-3060.892589,-2376.303360,-2020.105960,-8232.594518,-1322.195092,2195.723617,-4179.262123,-16619.885459,-1598.842633,-2234.727411,1489.900230,13624.438777,980.906305,-4378.729091,0.005000,-0.011000,1.002000,192.000000,0.000000,0.000000,0.000000,0.000000,0.000000,0.000000,0.000000,0.000000,0.000000,1770023337.308496,0.000000
8.000000,5994.559049,-9482.593475,-3053.784734,-2370.402499,-2019.524815,-8230.985192,-1317.434170,2202.853823,-4212.745036,-16658.710439,-1631.140903,-2273.015949,1454.428012,13587.156068,948.205703,-4389.122652,0.004500,-0.016500,1.006000,192.000000,0.000000,16.000000,127.500000,40.000000,15.500000,72.000000,0.000000,0.000000,0.000000,1770023337.308512,0.000000
10.000000,6009.847642,-9465.807315,-3031.991784,-2354.108078,-2000.615239,-8205.750073,-1301.206803,2218.991783,-4180.446765,-16620.466604,-1597.501528,-2231.218187,1489.073216,13623.589411,980.682788,-4371.420070,0.004500,-0.016500,1.006000,192.000000,0.000000,0.000000,0.000000,0.000000,0.000000,0.000000,0.000000,0.000000,0.000000,1770023337.308529,0.000000
12.000000,5979.359863,-9495.736300,-3065.050014,-2381.578372,-2025.604490,-8240.104704,-1325.816074,2190.448605,-4200.451577,-16648.428637,-1622.580185,-2260.521324,1470.230695,13599.762452,958.018119,-4380.740748,0.004500,-0.016500,1.006000,192.000000,0.000000,0.000000,0.000000,0.000000,0.000000,0.000000,0.000000,0.000000,0.000000,1770023337.308546,0.000000
14.000000,6019.280078,-9456.218416,-3026.090923,-2347.693127,-1988.947629,-8197.077596,-1296.937620,2225.138512,-4195.958876,-16641.857224,-1617.483988,-2255.492181,1477.495012,13607.518507,962.555523,-4378.125593,0.004500,-0.016500,1.006000,192.000000,0.000000,0.000000,0.000000,0.000000,0.000000,0.000000,0.000000,0.000000,0.000000,1770023337.308564,0.000000
16.000000,5994.559049,-9486.862658,-3053.248293,-2368.748470,-2014.316859,-8228.884128,-1313.924946,2205.334867,-4170.835515,-16616.331532,-1592.561792,-2230.324117,1500.182033,13632.261888,979.229925,-4369.967207,0.004500,-0.016500,1.006000,192.000000,0.000000,0.000000,0.000000,0.000000,0.000000,0.000000,0.000000,0.000000,0.000000,1770023337.308584,0.000000
18.000000,5998.738825,-9477.899608,-3049.269682,-2365.351005,-2011.522891,-8231.342820,-1312.002696,2212.263907,-4204.609001,-16659.671564,-1625.620022,-2272.233638,1461.245294,13589.480649,942.997747,-4391.313123,0.003250,-0.017250,1.006000,192.000000,0.000000,8.000000,127.500000,56.000000,15.500000,56.000000,0.000000,0.000000,0.000000,1770023337.308606,0.000000
20.000000,6016.106131,-9452.575082,-3033.623461,-2350.710613,-1999.765873,-8215.026047,-1302.212632,2225.406733,-4169.382652,-16613.850488,-1586.325656,-2226.524320,1499.444425,13626.763359,976.503012,-4375.599846,0.003250,-0.017250,1.006000,192.000000,0.000000,0.000000,0.000000,0.000000,0.000000,0.000000,0.000000,0.000000,0.000000,1770023337.308623,0.000000
22.000000,5986.333607,-9495.557486,-3064.804144,-2379.074976,-2023.995164,-8246.720820,-1328.699449,2195.365989,-4197.769367,-16644.450026,-1614.846482,-2259.269626,1469.403680,13600.991798,952.005500,-4382.148907,0.003250,-0.017250,1.006000,192.000000,0.000000,0.000000,0.000000,0.000000,0.000000,0.000000,0.000000,0.000000,0.000000,1770023337.308640,0.000000
24.000000,6014.787378,-9461.784001,-3030.941252,-2356.410307,-1993.574440,-8214.064922,-1305.632449,2220.824626,-4191.309713,-16640.896099,-1609.862043,-2256.632120,1476.198611,13607.183231,962.019081,-4380.651341,0.003250,-0.017250,1.006000,192.000000,0.000000,0.000000,0.000000,0.000000,0.000000,0.000000,0.000000,0.000000,0.000000,1770023337.308657,0.000000
26.000000,5991.809784,-9497.591495,-3056.601054,-2380.371378,-2015.367391,-8249.067753,-1322.016278,2198.159957,-4177.228114,-16628.312067,-1596.003961,-2243.712812,1494.348227,13620.415463,974.938390,-4379.377291,0.003250,-0.017250,1.006000,192.000000,0.000000,0.000000,0.000000,0.000000,0.000000,0.000000,0.000000,0.000000,0.000000,1770023337.308674,0.000000
28.000000,5995.408415,-9482.749937,-3050.901359,-2376.437470,-2017.244937,-8242.496341,-1319.244661,2206.228936,-4208.498205,-16668.679317,-1625.240043,-2282.180164,1458.250160,13580.718765,943.064802,-4398.130405,0.002625,-0.016625,1.005000,192.000000,0.000000,8.000000,127.500000,64.000000,15.500000,48.000000,0.000000,0.000000,0.000000,1770023337.308691,0.000000
30.000000,6010.942878,-9468.869504,-3031.030659,-2362.177058,-1993.127405,-8223.095026,-1305.140710,2220.422294,-4173.249504,-16626.367465,-1589.700769,-2237.163751,1492.716550,13619.744911,974.536058,-4379.131422,0.002625,-0.016625,1.005000,192.000000,0.000000,0.000000,0.000000,0.000000,0.000000,0.000000,0.000000,0.000000,0.000000,1770023337.308708,0.000000
32.000000,5986.758290,-9502.732396,-3059.819705,-2383.590029,-2012.484016,-8249.783009,-1328.922967,2196.215355,-4195.310676,-16654.754180,-1615.069999,-2268.970283,1471.683558,13594.241571,959.470982,-4385.971056,0.002625,-0.016625,1.005000,192.000000,0.000000,0.000000,0.000000,0.000000,0.000000,0.000000,0.000000,0.000000,0.000000,1770023337.308725,0.000000
34.000000,6024.644497,-9457.939501,-3026.537958,-2348.453086,-1981.504498,-8207.605267,-1302.391446,2228.580681,-4183.754824,-16641.298430,-1604.698790,-2261.728318,1483.172355,13607.920838,966.467079,-4379.712567,0.002625,-0.016625,1.005000,192.000000,0.000000,0.000000,0.000000,0.000000,0.000000,0.000000,0.000000,0.000000,0.000000,1770023337.308742,0.000000
36.000000,5999.722302,-9483.442841,-3054.298825,-2364.881619,-2009.108902,-8228.392390,-1315.422513,2208.844091,-4166.812201,-16612.509383,-1585.520993,-2234.638004,1500.182033,13636.598126,977.799413,-4368.849619,0.002625,-0.016625,1.005000,192.000000,0.000000,0.000000,0.000000,0.000000,0.000000,0.000000,0.000000,0.000000,0.000000,1770023337.308759,0.000000
38.000000,5996.861279,-9487.980245,-3050.700194,-2366.580351,-2000.659943,-8231.655745,-1314.640202,2209.693457,-4206.106568,-16658.308108,-1624.636546,-2277.776870,1464.173372,13595.515620,944.495314,-4387.490974,0.002313,-0.016313,1.007500,192.000000,0.000000,8.000000,127.500000,64.000000,15.500000,72.000000,0.000000,0.000000,0.000000,1770023337.308771,0.000000
40.000000,6024.622145,-9456.799562,-3027.633193,-2351.492924,-1983.225582,-8211.516823,-1302.302039,2229.720620,-4166.007539,-16613.269343,-1584.336350,-2230.592338,1498.975038,13635.212318,982.336817,-4376.315102,0.002313,-0.016313,1.007500,192.000000,0.000000,0.000000,0.000000,0.000000,0.000000,0.000000,0.000000,0.000000,0.000000,1770023337.308783,0.000000
42.000000,5991.563915,-9501.815975,-3061.272569,-2380.237267,-2013.311030,-8247.547835,-1329.593519,2196.707093,-4189.812146,-16642.863052,-1610.510243,-2261.817725,1473.628160,13608.323170,959.202762,-4388.183878,0.002313,-0.016313,1.007500,192.000000,0.000000,0.000000,0.000000,0.000000,0.000000,0.000000,0.000000,0.000000,0.000000,1770023337.308794,0.000000
44.000000,6010.026456,-9466.299053,-3035.523359,-2355.136258,-1988.947629,-8215.495433,-1303.017295,2217.181291,-4192.382597,-16642.214852,-1611.180796,-2263.270588,1473.851678,13610.156013,961.840267,-4382.417128,0.002313,-0.016313,1.007500,192.000000,0.000000,0.000000,0.000000,0.000000,0.000000,0.000000,0.000000,0.000000,0.000000,1770023337.308806,0.000000
46.000000,5988.322912,-9499.916077,-3062.993653,-2377.175078,-2012.796940,-8247.279614,-1318.551757,2195.276582,-4181.787870,-16629.720226,-1599.088502,-2250.798315,1484.334646,13621.488347,976.346550,-4375.666902,0.002313,-0.016313,1.007500,192.000000,0.000000,0.000000,0.000000,0.000000,0.000000,0.000000,0.000000,0.000000,0.000000,1770023337.308817,0.000000
48.000000,5995.006084,-9491.221248,-3050.677842,-2371.274218,-2003.476263,-8237.243681,-1315.489568,2204.664314,-4209.571089,-16665.550073,-1629.620985,-2286.002312,1455.187971,13587.759565,944.852942,-4388.250934,0.003156,-0.020156,1.008750,192.000000,0.000000,16.000000,127.500000,32.000000,15.500000,72.000000,0.000000,0.000000,0.000000,1770023337.308829,0.000000
50.000000,6012.619258,-9474.502143,-3035.880987,-2356.656177,-1986.645399,-8210.443939,-1309.164024,2218.187120,-4174.098870,-16623.797014,-1594.729912,-2241.567044,1495.354056,13629.534975,984.348474,-4367.419108,0.003156,-0.020156,1.008750,192.000000,0.000000,0.000000,0.000000,0.000000,0.000000,0.000000,0.000000,0.000000,0.000000,1770023337.308844,0.000000
52.000000,5986.020683,-9504.721702,-3065.921732,-2379.477308,-2011.299373,-8244.887977,-1331.716935,2192.817890,-4197.970533,-16651.312012,-1621.931985,-2271.585437,1469.426032,13604.501021,957.727546,-4380.494878,0.003156,-0.020156,1.008750,192.000000,0.000000,0.000000,0.000000,0.000000,0.000000,0.000000,0.000000,0.000000,0.000000,1770023337.308855,0.000000
54.000000,6025.985602,-9454.899663,-3025.174502,-2345.793229,-1979.358730,-8211.382712,-1298.658705,2228.848902,-4186.459385,-16635.017590,-1608.163310,-2256.229789,1483.641742,13615.900411,964.880105,-4382.372425,0.003156,-0.020156,1.008750,192.000000,0.000000,0.000000,0.000000,0.000000,0.000000,0.000000,0.000000,0.000000,0.000000,1770023337.308867,0.000000
56.000000,5995.386064,-9490.282475,-3055.103487,-2368.346139,-2007.499577,-8243.435114,-1315.266051,2206.340695,-4171.975454,-16619.997218,-1590.147804,-2237.051992,1491.531908,13628.864423,979.654608,-4380.047843,0.003156,-0.020156,1.008750,192.000000,0.000000,0.000000,0.000000,0.000000,0.000000,0.000000,0.000000,0.000000,0.000000,1770023337.308878,0.000000
58.000000,6004.438520,-9483.107565,-3050.141400,-2362.221761,-2000.503480,-8231.655745,-1314.036705,2214.163806,-4204.296077,-16657.592852,-1621.373191,-2274.155888,1459.725375,13592.833411,948.764497,-4388.675617,0.003578,-0.019078,1.008375,192.000000,0.000000,16.000000,127.500000,56.000000,15.500000,64.000000,0.000000,0.000000,0.000000,1770023337.788642,0.000000
60.000000,6021.828177,-9466.075536,-3033.221130,-2349.727136,-1981.325684,-8209.192241,-1304.537213,2226.099637,-4169.226190,-16616.510346,-1588.091444,-2232.313422,1500.293791,13634.318249,979.028759,-4367.463811,0.003578,-0.019078,1.008375,192.000000,0.000000,0.000000,0.000000,0.000000,0.000000,0.000000,0.000000,0.000000,0.000000,1770023337.788707,0.000000
62.000000,5993.486165,-9499.357283,-3064.535924,-2377.577409,-2005.912603,-8243.099838,-1328.520635,2198.271715,-4195.310676,-16645.567613,-1615.606441,-2263.650568,1473.516401,13606.289161,960.610921,-4377.477393,0.003578,-0.019078,1.008375,192.000000,0.000000,0.000000,0.000000,0.000000,0.000000,0.000000,0.000000,0.000000,0.000000,1770023337.788754,0.000000
64.000000,6029.114846,-9460.509951,-3028.482560,-2349.101287,-1978.352902,-8205.861831,-1299.977458,2228.155998,-4185.364149,-16636.828081,-1605.726970,-2255.425126,1482.948838,13613.195850,965.461250,-4374.571666,0.003578,-0.019078,1.008375,192.000000,0.000000,0.000000,0.000000,0.000000,0.000000,0.000000,0.000000,0.000000,0.000000,1770023337.788800,0.000000
66.000000,6003.209174,-9493.232905,-3051.840133,-2366.803869,-2003.431559,-8231.722800,-1317.054190,2210.073437,-4168.823858,-16619.036093,-1588.404368,-2235.152094,1496.248126,13631.121949,976.346550,-4371.598884,0.003578,-0.019078,1.008375,192.000000,0.000000,0.000000,0.000000,0.000000,0.000000,0.000000,0.000000,0.000000,0.000000,1770023337.788846,0.000000
68.000000,6004.818500,-9485.767422,-3048.107391,-2363.808735,-1999.810576,-8234.852044,-1314.819016,2214.677896,-4201.010370,-16656.654079,-1621.484950,-2272.188934,1465.246256,13595.314454,947.646910,-4387.155698,0.003578,-0.019078,1.008375,192.000000,0.000000,0.000000,0.000000,0.000000,0.000000,0.000000,0.000000,0.000000,0.000000,1770023337.788893,0.000000
70.000000,6020.844700,-9469.987091,-3033.265833,-2349.883598,-1983.918486,-8213.997866,-1301.117396,2227.798370,-4169.829687,-16617.315008,-1588.471423,-2231.799332,1502.953649,13633.021847,979.051111,-4375.756309,0.003578,-0.019078,1.008375,192.000000,0.000000,0.000000,127.500000,80.000000,15.500000,64.000000,0.000000,0.000000,0.000000,1770023337.788913,0.000000
72.000000,5985.864220,-9510.644914,-3064.848848,-2376.705691,-2014.227452,-8252.219349,-1323.469141,2196.908259,-4197.612905,-16652.519006,-1617.595746,-2267.360958,1467.637893,13601.908219,953.480715,-4387.960361,0.003578,-0.019078,1.008375,192.000000,0.000000,0.000000,0.000000,0.000000,0.000000,0.000000,0.000000,0.000000,0.000000,1770023337.788932,0.000000
74.000000,6016.419055,-9473.630425,-3029.756609,-2347.313147,-1980.386910,-8210.779215,-1296.311771,2225.183216,-4195.891821,-16647.601622,-1611.896051,-2259.448440,1474.835154,13605.551553,961.952026,-4379.131422,0.003578,-0.019078,1.008375,192.000000,0.000000,0.000000,0.000000,0.000000,0.000000,0.000000,0.000000,0.000000,0.000000,1770023337.788951,0.000000
76.000000,5998.112976,-9502.710045,-3055.662281,-2368.793174,-2005.040885,-8237.847178,-1316.584804,2205.670143,-4180.446765,-16629.899040,-1595.892202,-2239.197760,1490.906059,13621.689513,978.425262,-4371.129497,0.003578,-0.019078,1.008375,192.000000,0.000000,0.000000,0.000000,0.000000,0.000000,0.000000,0.000000,0.000000,0.000000,1770023337.788969,0.000000
78.000000,6004.997314,-9486.952065,-3048.956758,-2363.384052,-1997.038960,-8229.398218,-1312.203862,2213.716771,-4206.553603,-16661.862035,-1622.513130,-2271.808955,1460.731204,13590.844106,944.897645,-4385.591076,0.003578,-0.019078,1.008375,192.000000,0.000000,0.000000,0.000000,0.000000,0.000000,0.000000,0.000000,0.000000,0.000000,1770023337.788987,0.000000
80.000000,6020.576480,-9475.932655,-3035.568063,-2352.521104,-1985.170184,-8218.848195,-1299.016333,2224.423256,-4174.970588,-16621.606543,-1589.186679,-2230.279413,1496.918678,13626.271621,979.475794,-4373.007044,0.002000,-0.012000,1.006000,192.000000,0.000000,8.000000,127.500000,80.000000,15.500000,56.000000,0.000000,0.000000,0.000000,1770023337.789006,0.000000
82.000000,5977.594075,-9524.480644,-3069.229790,-2385.400520,-2013.087513,-8266.010376,-1322.463312,2189.107500,-4205.234850,-16659.336288,-1622.736647,-2265.975149,1466.542657,13589.748870,949.904436,-4394.777643,0.002000,-0.012000,1.006000,192.000000,0.000000,0.000000,0.000000,0.000000,0.000000,0.000000,0.000000,0.000000,0.000000,1770023337.789036,0.000000
84.000000,6003.835023,-9484.381614,-3034.405772,-2356.276197,-1983.560858,-8223.452654,-1299.441016,2215.661373,-4205.905402,-16664.499541,-1620.836749,-2268.053862,1466.408547,13583.982120,963.494296,-4390.910791,0.002000,-0.012000,1.006000,192.000000,0.000000,0.000000,0.000000,0.000000,0.000000,0.000000,0.000000,0.000000,0.000000,1770023337.789055,0.000000
86.000000,5992.949723,-9506.822766,-3056.399889,-2376.392767,-2002.157510,-8242.451637,-1320.451655,2197.399997,-4184.514783,-16636.045770,-1600.161386,-2242.639928,1490.548431,13612.771167,977.508840,-4380.696044,0.002000,-0.012000,1.006000,192.000000,0.000000,0.000000,0.000000,0.000000,0.000000,0.000000,0.000000,0.000000,0.000000,1770023337.789073,0.000000
88.000000,6001.689255,-9500.854850,-3050.141400,-2371.564790,-1996.770739,-8233.756808,-1315.020182,2207.435931,-4210.085179,-16670.735678,-1628.145770,-2280.012045,1456.909055,13585.434983,946.350508,-4393.280076,0.002000,-0.012000,1.006000,192.000000,0.000000,0.000000,0.000000,0.000000,0.000000,0.000000,0.000000,0.000000,0.000000,1770023337.789090,0.000000
90.000000,6014.094474,-9483.465193,-3035.657470,-2356.522066,-1985.304294,-8214.221384,-1298.055207,2222.702172,-4174.143574,-16627.216831,-1591.377150,-2233.162789,1493.744730,13627.277449,977.531192,-4378.885553,0.006000,-0.012000,1.008000,192.000000,0.000000,24.000000,127.500000,80.000000,15.500000,64.000000,0.000000,0.000000,0.000000,1770023337.789108,0.000000
92.000000,5982.042072,-9520.949068,-3069.632121,-2382.897125,-2015.523853,-8256.734402,-1322.485664,2193.399035,-4201.122129,-16660.386820,-1620.993211,-2265.215190,1467.660244,13593.772184,949.166828,-4396.163451,0.006000,-0.012000,1.008000,192.000000,0.000000,0.000000,0.000000,0.000000,0.000000,0.000000,0.000000,0.000000,0.000000,1770023337.789126,0.000000
94.000000,6014.005067,-9481.542943,-3030.538920,-2358.846648,-1979.939876,-8223.318544,-1300.446844,2219.997611,-4196.920001,-16654.776532,-1614.757075,-2262.264760,1472.734090,13593.682777,956.542904,-4396.610486,0.006000,-0.012000,1.008000,192.000000,0.000000,0.000000,0.000000,0.000000,0.000000,0.000000,0.000000,0.000000,0.000000,1770023337.789144,0.000000
96.000000,5994.022607,-9512.097777,-3052.801258,-2380.483136,-1999.967039,-8245.402067,-1317.680039,2199.881041,-4176.423451,-16636.470453,-1594.305229,-2246.752649,1492.090701,13612.927629,978.760538,-4388.519155,0.006000,-0.012000,1.008000,192.000000,0.000000,0.000000,0.000000,0.000000,0.000000,0.000000,0.000000,0.000000,0.000000,1770023337.789162,0.000000
98.000000,5993.821441,-9513.818862,-3052.868313,-2378.382072,-2003.185690,-8243.904500,-1314.237870,2201.825643,-4211.336876,-16678.089401,-1631.498531,-2290.383254,1457.467849,13575.734326,945.076459,-4401.907850,0.006000,-0.012000,1.008000,192.000000,0.000000,0.000000,0.000000,0.000000,0.000000,0.000000,0.000000,0.000000,0.000000,1770023337.789180,0.000000
100.000000,6001.845718,-9496.630370,-3041.133647,-2365.328653,-1991.763948,-8231.253413,-1301.430321,2213.292088,-4181.385539,-16639.689105,-1599.736702,-2247.981995,1491.062521,13610.826565,972.636160,-4387.356864,0.004000,-0.010000,1.002000,192.000000,0.000000,16.000000,127.500000,88.000000,15.500000,40.000000,0.000000,0.000000,0.000000,1770023337.789198,0.000000
102.000000,5966.775831,-9533.466045,-3074.348339,-2390.094386,-2016.842606,-8260.869475,-1329.302946,2179.987988,-4218.511786,-16675.138971,-1637.421744,-2281.666074,1460.552390,13576.695451,949.099773,-4398.420977,0.004000,-0.010000,1.002000,192.000000,0.000000,0.000000,0.000000,0.000000,0.000000,0.000000,0.000000,0.000000,0.000000,1770023337.789216,0.000000
104.000000,6013.736846,-9481.833515,-3030.158941,-2357.349081,-1980.319855,-8217.283573,-1302.525556,2219.125893,-4204.184318,-16664.208968,-1624.681249,-2273.462984,1466.497954,13589.301835,957.213456,-4388.876783,0.004000,-0.010000,1.002000,192.000000,0.000000,0.000000,0.000000,0.000000,0.000000,0.000000,0.000000,0.000000,0.000000,1770023337.789234,0.000000
106.000000,5998.045921,-9506.643952,-3051.124877,-2376.750395,-2001.442254,-8241.758733,-1316.920080,2207.502986,-4178.703329,-16635.732846,-1596.115720,-2245.903283,1491.554259,13612.838222,977.933523,-4386.328684,0.004000,-0.010000,1.002000,192.000000,0.000000,0.000000,0.000000,0.000000,0.000000,0.000000,0.000000,0.000000,0.000000,1770023337.789251,0.000000
108.000000,6007.411302,-9496.406853,-3048.308557,-2370.871886,-1998.894155,-8237.042515,-1309.901632,2216.488387,-4203.603173,-16667.941710,-1620.255604,-2277.106318,1463.256951,13582.439850,945.076459,-4400.969076,0.004000,-0.010000,1.002000,192.000000,0.000000,0.000000,0.000000,0.000000,0.000000,0.000000,0.000000,0.000000,0.000000,1770023337.789268,0.000000
110.000000,6014.183881,-9495.982170,-3038.362031,-2359.718366,-1987.137137,-8218.647029,-1300.044513,2222.791579,-4175.596437,-16629.943744,-1589.767824,-2237.007289,1492.470681,13616.593315,975.608942,-4387.222753,0.004000,-0.010000,1.002000,192.000000,0.000000,0.000000,127.500000,64.000000,15.500000,72.000000,0.000000,0.000000,0.000000,1770023337.789286,0.000000
112.000000,5975.470659,-9529.979173,-3073.610732,-2384.975837,-2011.008800,-8250.878245,-1329.347650,2188.593410,-4211.336876,-16670.221587,-1627.363459,-2276.480469,1459.703023,13583.803306,951.469058,-4395.783472,0.004000,-0.010000,1.002000,192.000000,0.000000,0.000000,0.000000,0.000000,0.000000,0.000000,0.000000,0.000000,0.000000,1770023337.789304,0.000000
114.000000,6019.950631,-9478.346643,-3033.936385,-2353.772802,-1973.524925,-8204.386616,-1304.514862,2221.986916,-4202.373827,-16655.380029,-1620.099142,-2266.422184,1473.784622,13596.901428,961.013253,-4387.178050,0.004000,-0.010000,1.002000,192.000000,0.000000,0.000000,0.000000,0.000000,0.000000,0.000000,0.000000,0.000000,0.000000,1770023337.789327,0.000000
116.000000,6000.191689,-9508.208574,-3055.639929,-2375.677511,-1996.726036,-8236.774294,-1321.323373,2203.054989,-4174.210629,-16629.742578,-1595.556926,-2242.930501,1500.360847,13617.599144,980.682788,-4381.925390,0.004000,-0.010000,1.002000,192.000000,0.000000,0.000000,0.000000,0.000000,0.000000,0.000000,0.000000,0.000000,0.000000,1770023337.789345,0.000000
118.000000,6001.398683,-9506.733359,-3051.996595,-2373.598799,-1993.954419,-8239.188282,-1315.914251,2206.519509,-4206.844176,-16670.422753,-1627.452866,-2283.141289,1461.021776,13577.522466,945.255273,-4400.857318,0.004000,-0.010000,1.002000,192.000000,0.000000,0.000000,0.000000,0.000000,0.000000,0.000000,0.000000,0.000000,0.000000,1770023337.789363,0.000000
120.000000,6010.898174,-9496.652722,-3037.624423,-2361.752374,-1979.045806,-8225.978401,-1302.927888,2218.187120,-4180.871449,-16637.252764,-1596.898031,-2245.165675,1493.677675,13602.265847,979.699311,-4389.882611,0.002000,-0.016000,1.012000,192.000000,0.000000,8.000000,127.500000,64.000000,15.500000,80.000000,0.000000,0.000000,0.000000,1770023337.789398,0.000000
122.000000,5989.284037,-9524.324182,-3065.072365,-2382.315979,-2006.493748,-8250.788838,-1322.597423,2198.361122,-4204.474891,-16668.411096,-1621.663764,-2276.882801,1467.392023,13574.326166,953.167791,-4397.906887,0.002000,-0.016000,1.012000,192.000000,0.000000,0.000000,0.000000,0.000000,0.000000,0.000000,0.000000,0.000000,0.000000,1770023337.789416,0.000000
124.000000,6027.617279,-9473.317501,-3027.499083,-2351.872903,-1971.513268,-8207.113529,-1297.496414,2232.156960,-4187.264048,-16651.691991,-1606.956316,-2260.454269,1481.540678,13589.815925,959.649796,-4391.737806,0.002000,-0.016000,1.012000,192.000000,0.000000,0.000000,0.000000,0.000000,0.000000,0.000000,0.000000,0.000000,0.000000,1770023337.789434,0.000000
126.000000,6006.919564,-9500.676036,-3052.577740,-2371.609494,-1988.657056,-8226.917175,-1314.528443,2209.313477,-4166.834553,-16627.619163,-1589.946638,-2237.856655,1500.383198,13614.268734,976.838288,-4379.690216,0.002000,-0.016000,1.012000,192.000000,0.000000,0.000000,0.000000,0.000000,0.000000,0.000000,0.000000,0.000000,0.000000,1770023337.789453,0.000000
128.000000,6007.232488,-9495.915114,-3050.320214,-2369.866058,-1984.164355,-8223.407951,-1313.969650,2211.682762,-4199.110472,-16662.443180,-1625.061229,-2276.793394,1467.548486,13580.964635,949.792677,-4389.972018,0.002000,-0.016000,1.012000,192.000000,0.000000,0.000000,0.000000,0.000000,0.000000,0.000000,0.000000,0.000000,0.000000,1770023337.789471,0.000000
130.000000,6022.006991,-9484.985111,-3035.791580,-2357.863171,-1970.798012,-8209.371055,-1304.738379,2221.271660,-4169.583818,-16627.060369,-1593.679380,-2241.075306,1501.880765,13614.738120,986.382483,-4375.353977,0.004000,-0.012000,1.012000,192.000000,0.000000,24.000000,127.500000,96.000000,15.500000,80.000000,0.000000,0.000000,0.000000,1770023337.789490,0.000000
132.000000,5993.083834,-9516.344609,-3067.754575,-2382.673607,-2004.526794,-8247.033745,-1326.263109,2196.774149,-4195.087158,-16659.559805,-1620.881453,-2273.172411,1475.818631,13585.658501,958.129878,-4390.642570,0.004000,-0.012000,1.012000,192.000000,0.000000,0.000000,0.000000,0.000000,0.000000,0.000000,0.000000,0.000000,0.000000,1770023337.789510,0.000000
134.000000,6025.203291,-9475.910303,-3034.852807,-2351.157648,-1976.497707,-8208.767558,-1300.200975,2229.161826,-4190.996789,-16650.641459,-1613.170101,-2263.315292,1473.695215,13594.353329,958.018119,-4386.954532,0.004000,-0.012000,1.012000,192.000000,0.000000,0.000000,0.000000,0.000000,0.000000,0.000000,0.000000,0.000000,0.000000,1770023337.789528,0.000000
136.000000,6008.350075,-9500.385463,-3060.803182,-2368.077918,-1997.262478,-8230.269936,-1315.981307,2210.229899,-4175.305864,-16625.026360,-1596.227479,-2237.566082,1493.252992,13616.883888,971.563276,-4378.103242,0.004000,-0.012000,1.012000,192.000000,0.000000,0.000000,0.000000,0.000000,0.000000,0.000000,0.000000,0.000000,0.000000,1770023337.789543,0.000000
138.000000,5995.833098,-9504.788757,-3062.345453,-2370.536610,-1988.254725,-8228.414742,-1320.272841,2201.937402,-4213.884975,-16668.388744,-1637.466447,-2283.342455,1456.149096,13578.349480,941.544883,-4393.414187,0.004000,-0.012000,1.012000,192.000000,0.000000,0.000000,0.000000,0.000000,0.000000,0.000000,0.000000,0.000000,0.000000,1770023337.789559,0.000000
140.000000,6023.191634,-9481.051204,-3036.842112,-2353.482229,-1969.948646,-8198.508107,-1306.414760,2217.516567,-4180.223248,-16629.988447,-1602.798891,-2246.372670,1494.012951,13616.548612,978.201744,-4375.622198,0.004000,-0.013000,1.013000,192.000000,0.000000,16.000000,127.500000,72.000000,15.500000,88.000000,0.000000,0.000000,0.000000,1770023337.789579,0.000000
142.000000,5992.860316,-9513.304772,-3068.335720,-2385.758148,-1993.037998,-8240.417628,-1332.655708,2189.733349,-4199.311638,-16656.810541,-1623.362496,-2276.234600,1470.141288,13590.084146,959.247465,-4385.076986,0.004000,-0.013000,1.013000,192.000000,0.000000,0.000000,0.000000,0.000000,0.000000,0.000000,0.000000,0.000000,0.000000,1770023337.789597,0.000000
144.000000,6031.841759,-9469.115373,-3035.053973,-2353.728098,-1969.345149,-8206.420625,-1303.419626,2224.602070,-4188.694559,-16645.187634,-1613.885357,-2262.264760,1479.998407,13596.141469,963.270779,-4386.686312,0.004000,-0.013000,1.013000,192.000000,0.000000,0.000000,0.000000,0.000000,0.000000,0.000000,0.000000,0.000000,0.000000,1770023337.789617,0.000000
146.000000,6001.711607,-9497.792661,-3066.972264,-2372.123584,-2001.397550,-8237.243681,-1320.295193,2202.093864,-4177.406928,-16625.115767,-1598.283839,-2239.533036,1491.151928,13617.465033,969.216343,-4382.014797,0.004000,-0.013000,1.013000,192.000000,0.000000,0.000000,0.000000,0.000000,0.000000,0.000000,0.000000,0.000000,0.000000,1770023337.789639,0.000000
148.000000,6006.047846,-9500.787795,-3060.713775,-2369.530781,-1994.759082,-8230.828730,-1318.864682,2206.720675,-4212.298001,-16663.940747,-1633.309023,-2278.335664,1459.613616,13581.769297,934.459380,-4396.945762,0.004000,-0.013000,1.013000,192.000000,0.000000,0.000000,0.000000,0.000000,0.000000,0.000000,0.000000,0.000000,0.000000,1770023337.789654,0.000000
150.000000,6023.549262,-9482.235847,-3039.792542,-2356.700880,-1973.614332,-8204.431320,-1308.158196,2217.404809,-4177.675149,-16629.049674,-1600.854290,-2244.048088,1487.218021,13618.694379,975.407776,-4379.310236,0.000000,-0.011500,1.009500,192.000000,127.500000,112.000000,127.500000,88.000000,15.500000,56.000000,0.000000,0.000000,0.000000,1770023337.789670,0.000000
152.000000,5990.625142,-9515.517594,-3074.393043,-2385.892258,-1995.407283,-8233.890919,-1337.170760,2186.291180,-4200.831556,-16655.804712,-1627.072886,-2276.391062,1465.916808,13593.660425,954.598302,-4387.200402,0.000000,-0.011500,1.009500,192.000000,0.000000,0.000000,0.000000,0.000000,0.000000,0.000000,0.000000,0.000000,0.000000,1770023337.789685,0.000000
154.000000,6025.449160,-9472.356376,-3041.468923,-2355.873866,-1964.114841,-8189.433299,-1309.767522,2215.124931,-4196.383559,-16648.674506,-1624.189511,-2271.406623,1475.103375,13602.534068,957.392270,-4382.640646,0.000000,-0.011500,1.009500,192.000000,0.000000,0.000000,0.000000,0.000000,0.000000,0.000000,0.000000,0.000000,0.000000,1770023337.789700,0.000000
156.000000,6004.036189,-9500.653684,-3066.189953,-2377.555058,-1988.590001,-8221.508053,-1324.586728,2195.321285,-4179.128013,-16625.294581,-1606.643391,-2249.300748,1491.710721,13622.918859,974.513707,-4375.823364,0.000000,-0.011500,1.009500,192.000000,0.000000,0.000000,0.000000,0.000000,0.000000,0.000000,0.000000,0.000000,0.000000,1770023337.789716,0.000000
158.000000,6006.785453,-9501.771271,-3061.719604,-2375.699863,-1988.388835,-8223.027971,-1323.603251,2200.193965,-4211.873318,-16669.707497,-1638.293462,-2288.840984,1453.690404,13582.305739,937.096886,-4392.810690,0.000000,-0.011500,1.009500,192.000000,0.000000,0.000000,0.000000,0.000000,0.000000,0.000000,0.000000,0.000000,0.000000,1770023337.789731,0.000000
160.000000,6028.064314,-9483.107565,-3039.434915,-2357.863171,-1976.631817,-8203.470195,-1307.644106,2215.683724,-4177.295170,-16630.368427,-1601.591897,-2247.400850,1490.123748,13617.599144,972.434994,-4376.538620,-0.001000,-0.011750,1.011750,192.000000,127.500000,120.000000,127.500000,80.000000,15.500000,88.000000,0.000000,0.000000,0.000000,1770023337.789757,0.000000
162.000000,5997.867107,-9510.577859,-3071.733185,-2382.271276,-2002.358675,-8238.875358,-1329.593519,2193.399035,-4199.490452,-16656.341154,-1625.821188,-2273.708853,1468.934294,13593.369853,944.696479,-4388.317989,-0.001000,-0.011750,1.011750,192.000000,0.000000,0.000000,0.000000,0.000000,0.000000,0.000000,0.000000,0.000000,0.000000,1770023337.789775,0.000000
164.000000,6036.781494,-9465.047355,-3031.567100,-2353.526932,-1965.746518,-8202.464366,-1302.056170,2230.681745,-4192.762577,-16644.874709,-1614.511205,-2261.236580,1482.144175,13601.081205,952.944273,-4390.061425,-0.001000,-0.011750,1.011750,192.000000,0.000000,0.000000,0.000000,0.000000,0.000000,0.000000,0.000000,0.000000,0.000000,1770023337.789797,0.000000
166.000000,6017.626049,-9491.668283,-3054.969377,-2376.571581,-1990.534602,-8233.443884,-1318.819978,2212.018038,-4170.299073,-16622.880593,-1591.131281,-2239.018946,1497.522175,13617.375626,971.563276,-4389.234410,-0.001000,-0.011750,1.011750,192.000000,0.000000,0.000000,0.000000,0.000000,0.000000,0.000000,0.000000,0.000000,0.000000,1770023337.789818,0.000000
168.000000,6018.117788,-9492.785870,-3050.409621,-2376.124546,-1987.673579,-8233.443884,-1318.596461,2214.275564,-4206.531251,-16664.879521,-1624.860063,-2279.475603,1461.088832,13579.936454,938.907378,-4406.355847,-0.001000,-0.011750,1.011750,192.000000,0.000000,0.000000,0.000000,0.000000,0.000000,0.000000,0.000000,0.000000,0.000000,1770023337.789834,0.000000
170.000000,6040.223663,-9468.109544,-3032.483522,-2355.024499,-1974.195477,-8207.851137,-1301.653838,2231.441704,-4169.784983,-16624.087587,-1587.219726,-2237.096696,1499.109149,13620.817795,973.194954,-4387.379216,0.000500,-0.012875,1.012875,192.000000,0.000000,8.000000,127.500000,72.000000,15.500000,88.000000,0.000000,0.000000,0.000000,1770023337.789851,0.000000
172.000000,6005.265535,-9501.838327,-3068.067499,-2384.305285,-2000.637591,-8243.233948,-1329.660574,2200.395131,-4194.394254,-16651.624936,-1614.645316,-2265.796335,1473.181125,13596.074414,950.887913,-4392.676579,0.000500,-0.012875,1.012875,192.000000,0.000000,0.000000,0.000000,0.000000,0.000000,0.000000,0.000000,0.000000,0.000000,1770023337.789873,0.000000
174.000000,6040.044849,-9466.433163,-3030.203644,-2354.644520,-1970.194515,-8206.107701,-1301.273859,2232.201664,-4189.253353,-16646.416980,-1608.945621,-2258.777888,1479.394910,13600.701225,953.257198,-4392.073082,0.000500,-0.012875,1.012875,192.000000,0.000000,0.000000,0.000000,0.000000,0.000000,0.000000,0.000000,0.000000,0.000000,1770023337.789891,0.000000
176.000000,6018.654229,-9497.815013,-3056.981034,-2377.800927,-1993.619143,-8229.286460,-1319.736400,2209.559346,-4171.126088,-16629.541413,-1590.170156,-2238.773076,1498.438597,13618.269696,970.155116,-4382.707701,0.000500,-0.012875,1.012875,192.000000,0.000000,0.000000,0.000000,0.000000,0.000000,0.000000,0.000000,0.000000,0.000000,1770023337.789907,0.000000
178.000000,6026.365581,-9489.008425,-3050.454325,-2373.397633,-1985.371349,-8224.056151,-1317.255356,2215.124931,-4202.172661,-16667.584082,-1624.010697,-2278.805051,1468.151983,13583.646844,938.639157,-4395.939934,0.000500,-0.012875,1.012875,192.000000,0.000000,0.000000,0.000000,0.000000,0.000000,0.000000,0.000000,0.000000,0.000000,1770023338.269368,0.000000
180.000000,6048.113829,-9463.616844,-3035.053973,-2358.489020,-1971.468564,-8202.263201,-1307.062961,2231.911091,-4165.627559,-16619.706645,-1585.610400,-2231.329945,1505.680562,13625.176385,975.139555,-4377.745614,0.003250,-0.014438,1.011437,192.000000,0.000000,24.000000,127.500000,64.000000,15.500000,72.000000,0.000000,0.000000,0.000000,1770023338.269432,0.000000
182.000000,6013.870956,-9496.116280,-3066.636988,-2387.680398,-2002.515137,-8243.591576,-1332.901577,2203.233803,-4187.889896,-16648.898023,-1609.392656,-2259.962530,1476.109204,13594.733309,948.608035,-4392.698931,0.003250,-0.014438,1.011437,192.000000,0.000000,0.000000,0.000000,0.000000,0.000000,0.000000,0.000000,0.000000,0.000000,1770023338.269483,0.000000
184.000000,6045.945709,-9458.788867,-3028.795484,-2356.678528,-1972.899076,-8206.442977,-1304.224289,2234.459190,-4186.302923,-16643.421846,-1605.749322,-2254.173428,1480.870125,13600.388300,951.714927,-4393.660056,0.003250,-0.014438,1.011437,192.000000,0.000000,0.000000,0.000000,0.000000,0.000000,0.000000,0.000000,0.000000,0.000000,1770023338.269514,0.000000
186.000000,6019.995334,-9493.054091,-3055.192894,-2375.990436,-1996.077835,-8232.169835,-1320.339897,2213.292088,-4171.886047,-16624.691084,-1588.516127,-2234.459190,1497.477472,13619.364932,969.305750,-4386.462794,0.003250,-0.014438,1.011437,192.000000,0.000000,0.000000,0.000000,0.000000,0.000000,0.000000,0.000000,0.000000,0.000000,1770023338.269568,0.000000
188.000000,6020.509424,-9493.769347,-3052.711851,-2374.179944,-1989.037036,-8231.767503,-1319.714048,2213.403846,-4204.072559,-16665.706535,-1623.340145,-2277.955684,1462.295826,13583.266864,937.968604,-4401.594925,0.003250,-0.014438,1.011437,192.000000,0.000000,0.000000,0.000000,0.000000,0.000000,0.000000,0.000000,0.000000,0.000000,1770023338.269618,0.000000
190.000000,6036.066238,-9472.803411,-3037.982051,-2359.226627,-1975.961265,-8213.550832,-1308.873452,2227.776018,-4174.545905,-16627.574459,-1593.724083,-2237.320213,1492.895364,13618.292048,973.686692,-4387.155698,0.003625,-0.017219,1.011719,192.000000,0.000000,16.000000,127.500000,48.000000,15.500000,80.000000,0.000000,0.000000,0.000000,1770023338.269668,0.000000
192.000000,6009.288849,-9498.731434,-3066.927560,-2384.484098,-2006.650210,-8244.373887,-1329.772333,2206.295992,-4197.612905,-16651.043791,-1616.366400,-2260.834248,1465.179201,13594.956827,947.825724,-4397.124576,0.003625,-0.017219,1.011719,192.000000,0.000000,0.000000,0.000000,0.000000,0.000000,0.000000,0.000000,0.000000,0.000000,1770023338.269700,0.000000
194.000000,6044.403439,-9457.648928,-3030.203644,-2355.315072,-1974.754271,-8207.001770,-1300.871527,2238.795428,-4192.472004,-16643.175977,-1604.609383,-2252.720565,1473.874029,13598.890734,953.503067,-4395.291733,0.003625,-0.017219,1.011719,192.000000,0.000000,0.000000,0.000000,0.000000,0.000000,0.000000,0.000000,0.000000,0.000000,1770023338.269716,0.000000
196.000000,6022.498730,-9486.527382,-3055.572874,-2377.510354,-1996.815443,-8236.081390,-1319.490530,2215.326096,-4170.902571,-16620.690122,-1583.710502,-2230.234710,1495.979905,13620.862498,969.216343,-4391.268419,0.003625,-0.017219,1.011719,192.000000,0.000000,0.000000,0.000000,0.000000,0.000000,0.000000,0.000000,0.000000,0.000000,1770023338.269733,0.000000
198.000000,6024.957421,-9490.327178,-3051.750726,-2374.984607,-1992.367446,-8232.303945,-1319.624641,2214.499082,-4203.849042,-16663.560768,-1619.562700,-2276.413414,1458.004291,13582.529257,942.058974,-4405.484129,0.003625,-0.017219,1.011719,192.000000,0.000000,0.000000,0.000000,0.000000,0.000000,0.000000,0.000000,0.000000,0.000000,1770023338.269749,0.000000
200.000000,6036.982660,-9470.948216,-3038.965528,-2359.763069,-1982.465623,-8213.416721,-1306.951202,2228.290108,-4174.188277,-16625.763968,-1589.186679,-2236.850826,1488.939105,13619.186118,975.273666,-4388.452099,0.003625,-0.017219,1.011719,192.000000,0.000000,0.000000,0.000000,0.000000,0.000000,0.000000,0.000000,0.000000,0.000000,1770023338.269765,0.000000
202.000000,6005.399645,-9507.649780,-3070.906171,-2389.647351,-2006.940783,-8252.666384,-1330.711106,2199.612820,-4205.145443,-16660.587986,-1617.595746,-2270.624312,1459.859486,13586.686681,951.983148,-4399.985600,0.004000,-0.012000,1.008000,192.000000,0.000000,16.000000,127.500000,80.000000,15.500000,64.000000,0.000000,0.000000,0.000000,1770023338.269782,0.000000
204.000000,6036.803846,-9471.104678,-3037.937348,-2359.517200,-1981.772719,-8214.042570,-1305.632449,2227.127818,-4198.529327,-16652.831930,-1611.046685,-2261.884780,1466.855582,13593.794536,953.883046,-4395.358788,0.004000,-0.012000,1.008000,192.000000,0.000000,0.000000,0.000000,0.000000,0.000000,0.000000,0.000000,0.000000,0.000000,1770023338.269799,0.000000
206.000000,6007.411302,-9506.196917,-3066.704043,-2382.897125,-2008.036018,-8241.915195,-1327.403048,2199.009323,-4184.268914,-16636.448102,-1599.490833,-2245.813876,1478.903172,13611.653580,966.288265,-4386.105166,0.004000,-0.012000,1.008000,192.000000,0.000000,0.000000,0.000000,0.000000,0.000000,0.000000,0.000000,0.000000,0.000000,1770023338.269815,0.000000
208.000000,6013.245107,-9500.944257,-3059.864409,-2377.510354,-1998.245954,-8231.320468,-1321.703353,2205.536032,-4222.378638,-16678.067050,-1638.673441,-2290.271496,1446.224921,13576.047251,934.861712,-4396.051692,0.004000,-0.012000,1.008000,192.000000,0.000000,0.000000,0.000000,0.000000,0.000000,0.000000,0.000000,0.000000,0.000000,1770023338.269828,0.000000
210.000000,6036.110942,-9473.161039,-3039.390211,-2362.825258,-1983.739672,-8215.808358,-1304.559565,2225.742009,-4183.128975,-16634.190575,-1596.808624,-2245.031565,1488.201498,13614.313437,969.082233,-4386.440442,0.004000,-0.012000,1.008000,192.000000,0.000000,0.000000,0.000000,0.000000,0.000000,0.000000,0.000000,0.000000,0.000000,1770023338.269853,0.000000
212.000000,6006.763101,-9507.202745,-3070.481488,-2388.865040,-2006.180824,-8244.597405,-1329.504112,2199.746931,-4205.033684,-16656.989355,-1618.132188,-2267.360958,1459.926541,13591.715824,944.227093,-4399.136233,0.004000,-0.018000,1.006000,192.000000,0.000000,16.000000,127.500000,56.000000,15.500000,56.000000,0.000000,0.000000,0.000000,1770023338.269871,0.000000
214.000000,6040.044849,-9466.343756,-3035.813932,-2359.561903,-1971.267399,-8205.504203,-1306.437112,2228.290108,-4197.255277,-16653.278965,-1614.801778,-2263.494106,1469.291922,13596.744966,950.642043,-4398.510384,0.004000,-0.018000,1.006000,192.000000,0.000000,0.000000,0.000000,0.000000,0.000000,0.000000,0.000000,0.000000,0.000000,1770023338.269883,0.000000
216.000000,6019.011857,-9496.853888,-3062.144287,-2378.985569,-1997.888326,-8231.342820,-1323.759714,2208.531166,-4179.820917,-16628.870860,-1594.685208,-2239.577739,1487.843870,13620.102539,968.277570,-4385.501669,0.004000,-0.018000,1.006000,192.000000,0.000000,0.000000,0.000000,0.000000,0.000000,0.000000,0.000000,0.000000,0.000000,1770023338.269900,0.000000
218.000000,6030.433599,-9485.387443,-3056.131668,-2376.862154,-1999.072969,-8230.895785,-1321.278670,2216.108408,-4213.549699,-16669.506332,-1625.731781,-2280.682597,1451.924616,13579.824696,931.665412,-4403.338361,0.004000,-0.018000,1.006000,192.000000,0.000000,0.000000,0.000000,0.000000,0.000000,0.000000,0.000000,0.000000,0.000000,1770023338.269916,0.000000
220.000000,6052.874750,-9454.296166,-3035.813932,-2360.143049,-1981.929181,-8211.986209,-1304.760731,2235.912053,-4173.607132,-16617.762043,-1583.509336,-2230.100600,1491.464852,13629.110292,963.918980,-4389.636742,0.004000,-0.018000,1.006000,192.000000,0.000000,0.000000,0.000000,0.000000,0.000000,0.000000,0.000000,0.000000,0.000000,1770023338.269932,0.000000
222.000000,6025.605622,-9491.891800,-3066.972264,-2386.004017,-2002.023399,-8244.552701,-1330.174664,2210.542823,-4195.869469,-16643.891232,-1609.571470,-2256.855638,1470.454212,13604.165745,943.243616,-4404.701818,0.004000,-0.018000,1.006000,192.000000,0.000000,0.000000,127.500000,56.000000,15.500000,40.000000,0.000000,0.000000,0.000000,1770023338.269949,0.000000
224.000000,6055.176980,-9457.403059,-3031.544749,-2356.075031,-1970.239219,-8203.067863,-1305.431283,2238.102524,-4189.253353,-16640.225546,-1603.089464,-2251.737088,1483.507631,13611.653580,951.804334,-4396.632838,0.004000,-0.018000,1.006000,192.000000,0.000000,0.000000,0.000000,0.000000,0.000000,0.000000,0.000000,0.000000,0.000000,1770023338.269965,0.000000
226.000000,6030.701820,-9487.779079,-3057.293958,-2379.410253,-1991.831004,-8235.075561,-1325.793722,2214.364971,-4174.769422,-16625.026360,-1584.515164,-2235.509722,1494.929373,13628.484443,970.669206,-4386.485146,0.004000,-0.018000,1.006000,192.000000,0.000000,0.000000,0.000000,0.000000,0.000000,0.000000,0.000000,0.000000,0.000000,1770023338.269982,0.000000
228.000000,6036.580329,-9475.642082,-3056.511647,-2375.945732,-1989.417015,-8226.134864,-1322.016278,2218.254175,-4208.252336,-16661.593814,-1619.115665,-2275.876972,1458.585436,13594.085109,936.672203,-4400.700855,0.004000,-0.018000,1.006000,192.000000,0.000000,0.000000,0.000000,0.000000,0.000000,0.000000,0.000000,0.000000,0.000000,1770023338.269994,0.000000
230.000000,6047.398573,-9465.829666,-3042.295938,-2363.652273,-1980.722187,-8208.409930,-1311.287440,2226.859597,-4176.132879,-16619.796052,-1588.538478,-2235.062687,1491.531908,13628.953830,969.976302,-4381.143079,0.004000,-0.018000,1.006000,192.000000,0.000000,0.000000,0.000000,0.000000,0.000000,0.000000,0.000000,0.000000,0.000000,1770023338.270023,0.000000
232.000000,6012.574555,-9509.326161,-3075.510630,-2391.346084,-2008.952440,-8244.195073,-1336.388449,2196.595335,-4208.364094,-16657.123465,-1621.708467,-2273.775908,1457.870180,13594.733309,942.237788,-4396.968114,0.004000,-0.018000,1.006000,192.000000,0.000000,0.000000,127.500000,80.000000,15.500000,64.000000,0.000000,0.000000,0.000000,1770023338.270040,0.000000
234.000000,6048.270291,-9465.293224,-3039.792542,-2362.266465,-1973.860201,-8204.230154,-1312.047400,2227.060762,-4200.384522,-16652.809579,-1613.818301,-2266.422184,1466.050919,13602.422309,949.166828,-4393.458890,0.004000,-0.018000,1.006000,192.000000,0.000000,0.000000,0.000000,0.000000,0.000000,0.000000,0.000000,0.000000,0.000000,1770023338.270052,0.000000
236.000000,6024.912718,-9499.200821,-3065.631159,-2387.322770,-1994.177937,-8234.047381,-1331.202845,2204.016114,-4181.162021,-16630.547241,-1596.696865,-2245.433896,1485.832213,13621.957734,972.613808,-4387.848602,0.004000,-0.018000,1.006000,192.000000,0.000000,0.000000,0.000000,0.000000,0.000000,0.000000,0.000000,0.000000,0.000000,1770023338.270070,0.000000
238.000000,6032.132331,-9483.845172,-3060.087926,-2382.092462,-1994.066178,-8229.711143,-1325.369039,2213.403846,-4216.298964,-16672.188541,-1631.654993,-2287.097548,1447.946006,13580.942283,938.415639,-4404.657114,0.004000,-0.018000,1.006000,192.000000,0.000000,0.000000,0.000000,0.000000,0.000000,0.000000,0.000000,0.000000,0.000000,1770023338.270084,0.000000
240.000000,6048.225587,-9464.443858,-3044.732278,-2366.356834,-1984.767852,-8212.299134,-1311.980344,2229.273585,-4179.284475,-16625.406340,-1592.584144,-2237.588434,1485.519288,13619.744911,969.931599,-4386.820422,0.004000,-0.018000,1.006000,192.000000,0.000000,0.000000,0.000000,0.000000,0.000000,0.000000,0.000000,0.000000,0.000000,1770023338.270100,0.000000
242.000000,6016.530814,-9507.158042,-3077.119956,-2393.782424,-2011.254670,-8248.464256,-1335.695545,2197.399997,-4203.513766,-16657.056410,-1620.300307,-2268.098565,1463.860448,13590.173553,940.293186,-4401.192594,0.002000,-0.012000,1.008000,192.000000,0.000000,8.000000,127.500000,80.000000,15.500000,64.000000,0.000000,0.000000,0.000000,1770023338.270118,0.000000
244.000000,6050.281948,-9469.338890,-3044.061726,-2367.161497,-1981.392739,-8210.376884,-1310.885109,2223.998573,-4201.278591,-16655.670602,-1617.863967,-2266.936274,1463.659282,13599.494231,947.110468,-4394.867050,0.002000,-0.012000,1.008000,192.000000,0.000000,0.000000,0.000000,0.000000,0.000000,0.000000,0.000000,0.000000,0.000000,1770023338.270133,0.000000
246.000000,6029.271308,-9492.227077,-3068.939217,-2386.607514,-2003.453911,-8239.300041,-1327.559510,2206.921841,-4182.726643,-16632.648305,-1599.110854,-2242.304652,1473.963436,13617.554440,963.181372,-4390.866088,0.002000,-0.012000,1.008000,192.000000,0.000000,0.000000,0.000000,0.000000,0.000000,0.000000,0.000000,0.000000,0.000000,1770023338.270149,0.000000
248.000000,6025.225642,-9489.634274,-3064.580627,-2382.248924,-2001.621068,-8235.768465,-1327.201882,2207.815910,-4215.963687,-16668.567558,-1632.593767,-2281.107280,1450.047070,13583.624492,931.777171,-4405.081797,0.002000,-0.012000,1.008000,192.000000,0.000000,0.000000,0.000000,0.000000,0.000000,0.000000,0.000000,0.000000,0.000000,1770023338.270162,0.000000
250.000000,6045.453971,-9472.222265,-3047.526246,-2364.501639,-1990.087568,-8212.768520,-1313.187338,2223.886815,-4185.498260,-16627.663866,-1599.624944,-2238.817780,1478.992579,13623.298839,963.337834,-4388.005064,0.002000,-0.012000,1.008000,192.000000,0.000000,0.000000,0.000000,0.000000,0.000000,0.000000,0.000000,0.000000,0.000000,1770023338.270178,0.000000
252.000000,6013.222756,-9504.967571,-3079.422185,-2393.178927,-2016.306164,-8253.448695,-1336.544911,2195.053064,-4207.939411,-16658.531625,-1625.262395,-2269.260856,1452.908093,13594.710957,938.639157,-4400.991428,-0.002000,-0.016000,1.006000,192.000000,127.500000,120.000000,127.500000,64.000000,15.500000,56.000000,0.000000,0.000000,0.000000,1770023338.270192,0.000000
254.000000,6051.108962,-9465.628501,-3044.419354,-2367.139145,-1984.924315,-8218.825843,-1310.192205,2223.640945,-4204.452539,-16654.530663,-1620.456770,-2264.142306,1459.434802,13596.253228,943.511837,-4401.013780,-0.002000,-0.016000,1.006000,192.000000,0.000000,0.000000,0.000000,0.000000,0.000000,0.000000,0.000000,0.000000,0.000000,1770023338.270208,0.000000
0.000000,6038.279061,-9480.715928,-3062.948950,-2383.478270,-2001.017571,-8238.316564,-1326.061943,2208.285297,-4176.691672,-16625.115767,-1595.646333,-2238.147228,1479.909000,13619.901373,963.270779,-4389.435576,-0.002000,-0.016000,1.006000,192.000000,0.000000,0.000000,0.000000,0.000000,0.000000,0.000000,0.000000,0.000000,0.000000,1770023338.270221,0.000000
2.000000,6026.432637,-9497.435033,-3060.937293,-2384.662912,-1992.322742,-8236.707239,-1327.335993,2205.021942,-4211.940373,-16671.026250,-1629.129246,-2281.286094,1448.124820,13582.484553,934.057049,-4403.807748,-0.002000,-0.016000,1.006000,192.000000,0.000000,0.000000,0.000000,0.000000,0.000000,0.000000,0.000000,0.000000,0.000000,1770023338.270237,0.000000
4.000000,6050.572521,-9468.735393,-3045.447534,-2366.356834,-1977.257666,-8210.019256,-1314.439036,2220.578756,-4181.854925,-16638.191538,-1597.099197,-2244.606882,1484.245239,13618.716731,967.919942,-4384.831117,-0.002000,-0.016000,1.006000,192.000000,0.000000,0.000000,0.000000,0.000000,0.000000,0.000000,0.000000,0.000000,0.000000,1770023338.270253,0.000000
6.000000,6024.644497,-9503.045321,-3078.416357,-2390.094386,-2010.070027,-8240.417628,-1335.829656,2193.801367,-4203.245545,-16665.907701,-1623.563662,-2274.871144,1455.947930,13595.113289,937.119238,-4396.342265,-0.002000,-0.016000,1.008000,192.000000,127.500000,120.000000,127.500000,64.000000,15.500000,64.000000,0.000000,0.000000,0.000000,1770023338.270267,0.000000
8.000000,6063.424774,-9458.252425,-3042.787676,-2363.160534,-1980.610428,-8206.353570,-1310.281612,2226.569024,-4192.270838,-16656.408209,-1614.153578,-2264.969321,1461.401756,13601.081205,943.400078,-4389.614390,-0.002000,-0.016000,1.008000,192.000000,0.000000,0.000000,0.000000,0.000000,0.000000,0.000000,0.000000,0.000000,0.000000,1770023338.270281,0.000000
10.000000,6038.189654,-9489.656626,-3067.933389,-2386.942790,-2003.096283,-8239.635317,-1327.738324,2204.574907,-4176.646969,-16634.056465,-1597.769749,-2243.019908,1479.506669,13619.230821,959.582741,-4387.356864,-0.002000,-0.016000,1.008000,192.000000,0.000000,0.000000,0.000000,0.000000,0.000000,0.000000,0.000000,0.000000,0.000000,1770023338.270297,0.000000
12.000000,6038.770799,-9485.745071,-3065.117069,-2385.020540,-2000.302315,-8240.127056,-1325.436094,2206.206585,-4212.923850,-16676.323614,-1633.107857,-2285.577629,1447.074288,13580.584655,931.598357,-4407.875765,-0.002000,-0.016000,1.008000,192.000000,0.000000,0.000000,0.000000,0.000000,0.000000,0.000000,0.000000,0.000000,0.000000,1770023338.270315,0.000000
14.000000,6056.428678,-9462.208684,-3050.633138,-2370.827183,-1985.930143,-8218.892898,-1313.835539,2219.751742,-4179.820917,-16634.101168,-1600.831938,-2246.462076,1479.461965,13618.828490,964.075442,-4396.006989,-0.002000,-0.016000,1.008000,192.000000,0.000000,0.000000,0.000000,0.000000,0.000000,0.000000,0.000000,0.000000,0.000000,1770023338.270331,0.000000
16.000000,6026.477340,-9504.878164,-3084.652494,-2399.012732,-2015.300335,-8255.058021,-1338.176589,2193.197869,-4205.525423,-16666.779419,-1626.000002,-2279.654417,1455.858523,13589.480649,938.370936,-4409.127463,-0.002000,-0.014000,1.010000,192.000000,127.500000,120.000000,127.500000,80.000000,15.500000,80.000000,0.000000,0.000000,0.000000,1770023338.270343,0.000000
18.000000,6067.336329,-9457.425410,-3042.608862,-2364.367528,-1982.689140,-8206.621791,-1309.298135,2228.513626,-4192.851984,-16654.776532,-1612.879528,-2268.031510,1461.781736,13601.662350,946.752840,-4395.872879,-0.002000,-0.014000,1.010000,192.000000,0.000000,0.000000,0.000000,0.000000,0.000000,0.000000,0.000000,0.000000,0.000000,1770023338.270358,0.000000
20.000000,6041.207140,-9485.499201,-3070.123860,-2389.267372,-2002.917469,-8239.255338,-1331.314603,2203.792596,-4173.450669,-16630.994276,-1593.344103,-2245.880931,1481.183050,13622.762397,961.817916,-4388.385044,-0.002000,-0.014000,1.010000,192.000000,0.000000,0.000000,0.000000,0.000000,0.000000,0.000000,0.000000,0.000000,0.000000,1770023338.270370,0.000000
22.000000,6042.615300,-9479.240713,-3064.781793,-2383.500622,-1992.926239,-8235.790817,-1327.157179,2207.368875,-4205.458368,-16672.076782,-1628.481046,-2287.723397,1450.628215,13582.842181,932.715944,-4401.907850,-0.002000,-0.014000,1.010000,192.000000,0.000000,0.000000,0.000000,0.000000,0.000000,0.000000,0.000000,0.000000,0.000000,1770023338.270382,0.000000
24.000000,6061.860152,-9459.057088,-3048.017984,-2370.737776,-1982.175050,-8220.122244,-1311.443902,2222.813931,-4172.847172,-16630.994276,-1593.366455,-2244.428068,1486.189841,13620.504870,969.417509,-4388.250934,-0.002000,-0.014000,1.010000,192.000000,0.000000,0.000000,0.000000,0.000000,0.000000,0.000000,0.000000,0.000000,0.000000,1770023338.270398,0.000000
26.000000,6025.359753,-9508.610905,-3084.428976,-2402.186680,-2019.793036,-8257.583768,-1340.545874,2188.571058,-4202.709103,-16666.891178,-1623.921290,-2281.084929,1454.852695,13588.586579,942.617767,-4398.666847,0.000000,-0.014000,1.009000,192.000000,0.000000,8.000000,127.500000,72.000000,15.500000,64.000000,0.000000,0.000000,0.000000,1770023338.270415,0.000000
28.000000,6060.720213,-9463.549788,-3048.934406,-2374.716386,-1985.080777,-8220.435169,-1315.467216,2220.154073,-4202.396179,-16664.834817,-1622.714296,-2279.207382,1458.160753,13592.498135,945.881122,-4397.705722,0.000000,-0.014000,1.009000,192.000000,0.000000,0.000000,0.000000,0.000000,0.000000,0.000000,0.000000,0.000000,0.000000,1770023338.270431,0.000000
30.000000,6043.062334,-9484.471021,-3072.135517,-2393.201279,-2005.309106,-8243.211596,-1331.806342,2204.060817,-4178.323350,-16636.448102,-1599.379074,-2249.077231,1481.875954,13618.984952,965.640064,-4384.831117,0.000000,-0.014000,1.009000,192.000000,0.000000,0.000000,0.000000,0.000000,0.000000,0.000000,0.000000,0.000000,0.000000,1770023338.270447,0.000000
32.000000,6050.013727,-9479.911265,-3066.100546,-2386.719273,-1999.989390,-8243.792742,-1325.346687,2209.760512,-4209.571089,-16674.490771,-1633.666650,-2287.924562,1448.370689,13584.496210,932.201854,-4403.226602,0.000000,-0.014000,1.009000,192.000000,0.000000,0.000000,0.000000,0.000000,0.000000,0.000000,0.000000,0.000000,0.000000,1770023338.270464,0.000000
34.000000,6065.615245,-9462.834533,-3047.481543,-2372.280046,-1983.985541,-8227.073637,-1309.633411,2225.518492,-4173.383614,-16633.788244,-1594.506394,-2245.500951,1483.574686,13622.181251,967.294093,-4393.436538,0.000000,-0.014000,1.009000,192.000000,0.000000,0.000000,0.000000,0.000000,0.000000,0.000000,0.000000,0.000000,0.000000,1770023338.270479,0.000000
36.000000,6040.022497,-9493.836402,-3074.013063,-2396.107006,-2004.705608,-8256.265015,-1333.683888,2201.557422,-4198.283458,-16659.380991,-1616.925194,-2273.083004,1461.424108,13598.510754,944.540017,-4405.282963,0.002000,-0.013000,1.006500,192.000000,0.000000,16.000000,127.500000,80.000000,15.500000,48.000000,0.000000,0.000000,0.000000,1770023338.270496,0.000000
38.000000,6071.381995,-9453.133876,-3041.938310,-2368.301436,-1972.273227,-8217.372980,-1312.963821,2227.418390,-4190.862678,-16651.647288,-1611.203147,-2267.360958,1474.455175,13608.189059,954.710061,-4396.252858,0.002000,-0.013000,1.006500,192.000000,0.000000,0.000000,0.000000,0.000000,0.000000,0.000000,0.000000,0.000000,0.000000,1770023338.270512,0.000000
40.000000,6045.476323,-9482.280550,-3068.313368,-2391.323732,-1998.201251,-8247.279614,-1330.107609,2204.753721,-4173.540076,-16631.709532,-1594.998133,-2246.596187,1487.598000,13628.417388,972.032663,-4382.864163,0.002000,-0.013000,1.006500,192.000000,0.000000,0.000000,0.000000,0.000000,0.000000,0.000000,0.000000,0.000000,0.000000,1770023338.270528,0.000000
42.000000,6041.385954,-9490.662454,-3068.201610,-2392.061340,-2001.062274,-8251.749963,-1327.783028,2203.390265,-4213.057961,-16678.357622,-1631.565587,-2289.779757,1449.242407,13584.876190,938.750915,-4398.242163,0.002000,-0.013000,1.006500,192.000000,0.000000,0.000000,0.000000,0.000000,0.000000,0.000000,0.000000,0.000000,0.000000,1770023338.749600,0.000000
44.000000,6056.607492,-9470.054146,-3053.628272,-2376.035139,-1985.281943,-8232.818035,-1315.780141,2215.527262,-4184.000693,-16643.533605,-1603.223575,-2252.877027,1479.081986,13620.303705,964.053090,-4386.440442,0.002000,-0.013000,1.006500,192.000000,0.000000,0.000000,0.000000,0.000000,0.000000,0.000000,0.000000,0.000000,0.000000,1770023338.749672,0.000000
46.000000,6029.986564,-9504.431129,-3080.785642,-2401.225555,-2006.851376,-8269.720765,-1337.662499,2191.432082,-4208.386446,-16671.070954,-1628.749267,-2284.370635,1460.619445,13595.694434,940.047317,-4403.427768,0.000000,-0.013500,1.004250,192.000000,127.500000,120.000000,127.500000,72.000000,15.500000,40.000000,0.000000,0.000000,0.000000,1770023338.749724,0.000000
48.000000,6068.878599,-9455.883140,-3037.713830,-2367.943808,-1971.043881,-8222.893861,-1309.588708,2227.530149,-4195.556545,-16660.677393,-1616.031124,-2273.194763,1466.542657,13604.657484,948.004538,-4399.247992,0.000000,-0.013500,1.004250,192.000000,0.000000,0.000000,0.000000,0.000000,0.000000,0.000000,0.000000,0.000000,0.000000,1770023338.749777,0.000000
50.000000,6044.023459,-9487.622617,-3065.988787,-2390.563773,-1993.842661,-8246.653765,-1329.794685,2204.664314,-4172.780117,-16634.570555,-1595.154595,-2245.165675,1488.112091,13627.366856,970.043358,-4385.121689,0.000000,-0.013500,1.004250,192.000000,0.000000,0.000000,0.000000,0.000000,0.000000,0.000000,0.000000,0.000000,0.000000,1770023338.749836,0.000000
52.000000,6052.472419,-9477.743146,-3061.786659,-2383.098290,-1992.210983,-8238.405971,-1325.167874,2213.269736,-4207.358266,-16674.379012,-1629.464523,-2283.968304,1448.527151,13590.821754,934.906415,-4396.968114,0.000000,-0.013500,1.004250,192.000000,0.000000,0.000000,0.000000,0.000000,0.000000,0.000000,0.000000,0.000000,0.000000,1770023338.749889,0.000000
54.000000,6070.979663,-9456.039602,-3047.034508,-2372.168287,-1978.866992,-8226.224271,-1314.886071,2226.501969,-4172.221324,-16628.535584,-1594.931077,-2237.119047,1486.435710,13631.904260,970.848020,-4377.209172,0.000000,-0.013500,1.004250,192.000000,0.000000,0.000000,0.000000,0.000000,0.000000,0.000000,0.000000,0.000000,0.000000,1770023338.749920,0.000000
56.000000,6042.391782,-9492.852925,-3080.696235,-2401.136148,-2010.941745,-8271.888885,-1336.567263,2199.523413,-4198.149347,-16660.051544,-1619.629755,-2268.880876,1459.032471,13600.835335,940.449648,-4394.263553,0.001000,-0.013750,1.002125,192.000000,0.000000,8.000000,127.500000,72.000000,15.500000,32.000000,0.000000,0.000000,0.000000,1770023338.749938,0.000000
58.000000,6069.347986,-9461.761649,-3049.761420,-2376.973912,-1985.728977,-8240.328221,-1309.856929,2224.602070,-4198.261106,-16661.973794,-1616.969897,-2268.590303,1459.211285,13600.723577,939.041488,-4400.410283,0.001000,-0.013750,1.002125,192.000000,0.000000,0.000000,0.000000,0.000000,0.000000,0.000000,0.000000,0.000000,0.000000,1770023338.749955,0.000000
60.000000,6045.833951,-9485.342739,-3071.777889,-2394.676494,-1995.072007,-8263.305815,-1326.061943,2204.910184,-4182.771347,-16641.767817,-1600.496662,-2248.764306,1479.484317,13618.917897,960.476811,-4398.465681,0.001000,-0.013750,1.002125,192.000000,0.000000,0.000000,0.000000,0.000000,0.000000,0.000000,0.000000,0.000000,0.000000,1770023338.749973,0.000000
62.000000,6052.964157,-9472.870466,-3061.965473,-2389.379131,-1986.533640,-8251.280576,-1326.866606,2209.112311,-4212.812091,-16674.043736,-1632.906691,-2282.984827,1450.337642,13586.641978,939.354412,-4408.412207,0.001000,-0.013750,1.002125,192.000000,0.000000,0.000000,0.000000,0.000000,0.000000,0.000000,0.000000,0.000000,0.000000,1770023338.749989,0.000000
64.000000,6071.873733,-9460.644062,-3049.515551,-2375.521049,-1972.608503,-8223.430303,-1319.602289,2218.745913,-4177.116356,-16628.803805,-1597.836804,-2239.957719,1483.172355,13628.685609,977.285323,-4385.993407,0.001000,-0.013750,1.002125,192.000000,0.000000,0.000000,0.000000,0.000000,0.000000,0.000000,0.000000,0.000000,0.000000,1770023338.750005,0.000000
66.000000,6043.241148,-9495.177507,-3084.428976,-2400.286782,-2001.621068,-8248.397201,-1344.479781,2190.269791,-4203.580821,-16661.772628,-1628.279880,-2275.675806,1457.601959,13603.986931,949.435049,-4392.408358,0.001500,-0.011875,1.006063,192.000000,0.000000,8.000000,127.500000,88.000000,15.500000,72.000000,0.000000,0.000000,0.000000,1770023338.750023,0.000000
68.000000,6069.437393,-9452.642137,-3050.007290,-2370.044872,-1975.022492,-8210.108663,-1314.774312,2221.159902,-4199.803376,-16651.535529,-1622.937813,-2266.936274,1463.324006,13613.978161,948.876256,-4384.317027,0.001500,-0.011875,1.006063,192.000000,0.000000,0.000000,0.000000,0.000000,0.000000,0.000000,0.000000,0.000000,0.000000,1770023338.750040,0.000000
70.000000,6049.969023,-9486.773251,-3069.319197,-2393.961238,-2002.559841,-8249.984175,-1328.855911,2206.228936,-4183.017216,-16635.621087,-1601.860118,-2247.177332,1480.177221,13627.120987,959.314520,-4380.874858,0.001500,-0.011875,1.006063,192.000000,0.000000,0.000000,0.000000,0.000000,0.000000,0.000000,0.000000,0.000000,0.000000,1770023338.750057,0.000000
72.000000,6053.299433,-9484.381614,-3061.585493,-2392.038988,-1997.687161,-8254.163951,-1325.905481,2212.196852,-4215.471949,-16675.518951,-1627.654031,-2282.314275,1444.213264,13589.145373,923.976412,-4402.377236,0.001500,-0.011875,1.006063,192.000000,0.000000,0.000000,0.000000,0.000000,0.000000,0.000000,0.000000,0.000000,0.000000,1770023338.750074,0.000000
74.000000,6077.729890,-9452.552730,-3043.346470,-2374.895200,-1977.704701,-8235.723762,-1313.053228,2227.843073,-4181.340835,-16634.011761,-1594.014656,-2239.689498,1480.847774,13623.947039,969.037529,-4389.234410,0.001500,-0.011875,1.006063,192.000000,0.000000,0.000000,0.000000,0.000000,0.000000,0.000000,0.000000,0.000000,0.000000,1770023338.750091,0.000000
76.000000,6047.778553,-9484.269856,-3079.243371,-2402.119625,-2003.140986,-8268.513771,-1337.103705,2199.478710,-4202.977324,-16654.061276,-1619.830921,-2267.025681,1464.240428,13603.674007,947.021061,-4402.332533,0.001750,-0.011938,1.009031,192.000000,0.000000,8.000000,127.500000,80.000000,15.500000,80.000000,0.000000,0.000000,0.000000,1770023338.750107,0.000000
78.000000,6079.741547,-9448.775285,-3044.620519,-2370.178982,-1970.708605,-8221.865680,-1308.784045,2229.854730,-4196.160042,-16651.312012,-1613.035990,-2264.924617,1462.653454,13608.099652,951.022023,-4401.661980,0.001750,-0.011938,1.009031,192.000000,0.000000,0.000000,0.000000,0.000000,0.000000,0.000000,0.000000,0.000000,0.000000,1770023338.750136,0.000000
80.000000,6058.350928,-9480.358300,-3071.979054,-2387.121604,-1993.328571,-8247.257262,-1325.994888,2208.419407,-4177.786908,-16628.289715,-1595.311057,-2241.924672,1484.446405,13630.183176,966.400023,-4387.222753,0.001750,-0.011938,1.009031,192.000000,0.000000,0.000000,0.000000,0.000000,0.000000,0.000000,0.000000,0.000000,0.000000,1770023338.750153,0.000000
82.000000,6063.737698,-9470.411774,-3064.222999,-2386.629866,-1994.312047,-8252.576977,-1323.335030,2217.270698,-4209.995772,-16666.332384,-1628.861025,-2277.866277,1450.538808,13592.453431,930.346659,-4406.177033,0.001750,-0.011938,1.009031,192.000000,0.000000,0.000000,0.000000,0.000000,0.000000,0.000000,0.000000,0.000000,0.000000,1770023338.750174,0.000000
84.000000,6085.731815,-9444.528454,-3043.704098,-2373.218819,-1977.101204,-8232.303945,-1309.231080,2235.308556,-4170.567294,-16625.473395,-1588.158499,-2231.061725,1490.123748,13625.846937,965.282436,-4390.821384,0.001750,-0.011938,1.009031,192.000000,0.000000,0.000000,0.000000,0.000000,0.000000,0.000000,0.000000,0.000000,0.000000,1770023338.750190,0.000000
86.000000,6060.451992,-9480.626521,-3073.297807,-2399.660933,-1999.788225,-8264.579864,-1334.935586,2212.442721,-4192.427301,-16653.077799,-1606.822205,-2260.118992,1465.246256,13600.969446,941.075497,-4404.031265,0.001750,-0.011938,1.009031,192.000000,0.000000,0.000000,0.000000,0.000000,0.000000,0.000000,0.000000,0.000000,0.000000,1770023338.750207,0.000000
88.000000,6101.154518,-9438.694649,-3032.416467,-2367.832049,-1968.428727,-8219.898727,-1306.861795,2248.093754,-4182.614885,-16649.881500,-1590.751301,-2254.799277,1478.009102,13607.138527,946.954006,-4397.169280,0.002000,-0.012000,1.014000,192.000000,0.000000,8.000000,127.500000,80.000000,15.500000,88.000000,0.000000,0.000000,0.000000,1770023338.750223,0.000000
90.000000,6070.622035,-9471.417602,-3057.830400,-2391.189622,-1986.734806,-8243.949204,-1326.307812,2218.656506,-4165.448745,-16626.278058,-1573.071071,-2234.816818,1496.248126,13630.786673,969.126936,-4384.764062,0.002000,-0.012000,1.014000,192.000000,0.000000,0.000000,0.000000,0.000000,0.000000,0.000000,0.000000,0.000000,0.000000,1770023338.750239,0.000000
92.000000,6064.743527,-9471.238789,-3061.652549,-2389.580296,-1986.198364,-8238.897710,-1325.838426,2214.029695,-4207.693542,-16671.138009,-1621.596708,-2280.324969,1461.558218,13593.056928,934.280566,-4401.103187,0.002000,-0.012000,1.014000,192.000000,0.000000,0.000000,0.000000,0.000000,0.000000,0.000000,0.000000,0.000000,0.000000,1770023338.750256,0.000000
94.000000,6086.894105,-9444.729620,-3043.815856,-2369.776651,-1972.228524,-8211.717988,-1313.321449,2230.458227,-4176.736376,-16625.562802,-1593.612324,-2235.733239,1494.169413,13635.525243,964.656587,-4384.249971,0.002000,-0.012000,1.014000,192.000000,0.000000,0.000000,0.000000,0.000000,0.000000,0.000000,0.000000,0.000000,0.000000,1770023338.750273,0.000000
96.000000,6063.491829,-9479.374823,-3076.449403,-2394.967067,-2004.996181,-8247.681945,-1340.501170,2207.659448,-4192.784928,-16647.422808,-1612.857176,-2260.431917,1465.827401,13614.983990,940.427296,-4393.190669,0.002000,-0.012000,1.014000,192.000000,0.000000,0.000000,0.000000,0.000000,0.000000,0.000000,0.000000,0.000000,0.000000,1770023338.750290,0.000000
98.000000,6096.706521,-9437.711172,-3043.324118,-2366.893276,-1977.302370,-8215.562489,-1316.517748,2239.980071,-4185.878239,-16640.493767,-1600.250793,-2251.759440,1469.627198,13620.996609,942.438953,-4392.542469,0.002000,-0.012000,1.014000,192.000000,0.000000,0.000000,127.500000,72.000000,15.500000,72.000000,0.000000,0.000000,0.000000,1770023338.750307,0.000000
