Sample_index,EXG Channel 0,EXG Channel 1,EXG Channel 2,EXG Channel 3,EXG Channel 4,EXG Channel 5,EXG Channel 6,EXG Channel 7,EXG Channel 8,EXG Channel 9,EXG Channel 10,EXG Channel 11,EXG Channel 12,EXG Channel 13,EXG Channel 14,EXG Channel 15,Accel Channel 0,Accel Channel 1,Accel Channel 2,Not Used,Digital Channel 0 (D11),Digital Channel 1 (D12),Digital Channel 2 (D13),Digital Channel 3 (D17),Not Used,Digital Channel 4 (D18),Analog Channel 0,Analog Channel 1,Analog Channel 2,Timestamp,Marker Channel
90.000000,7255.845637,-9570.368775,-2695.709788,-2722.800103,-2567.678996,-11311.010875,-1793.906306,1523.003164,-4093.006741,-16072.290072,-2447.136038,-2724.118855,766.463669,13146.446722,912.331153,-4978.225229,0.002000,-0.012000,0.994000,192.000000,0.000000,0.000000,0.000000,0.000000,0.000000,0.000000,0.000000,0.000000,0.000000,1770023756.938488,101.000000
92.000000,7227.749494,-9606.019808,-2726.108161,-2750.158638,-2594.344627,-11348.315936,-1820.527234,1496.695160,-4106.440140,-16093.233656,-2468.258437,-2743.430763,752.426774,13117.143585,894.405054,-4996.196031,0.002000,-0.012000,0.994000,192.000000,0.000000,0.000000,0.000000,0.000000,0.000000,0.000000,0.000000,0.000000,0.000000,1770023756.938558,0.000000
94.000000,7252.805800,-9567.843028,-2700.180137,-2720.676687,-2568.438955,-11316.151776,-1798.197841,1520.298603,-4113.704457,-16092.406642,-2474.315759,-2742.290824,763.982625,13115.847184,890.828775,-4994.474947,0.002000,-0.012000,0.994000,192.000000,0.000000,0.000000,127.500000,96.000000,15.500000,56.000000,0.000000,0.000000,0.000000,1770023756.938612,0.000000
96.000000,7243.865102,-9583.578656,-2719.715562,-2734.646527,-2584.554563,-11326.791206,-1809.418417,1508.921565,-4088.044654,-16066.053935,-2445.459657,-2715.424027,774.152669,13141.618746,912.778188,-4975.967702,0.002000,-0.012000,0.994000,192.000000,0.000000,0.000000,0.000000,0.000000,0.000000,0.000000,0.000000,0.000000,0.000000,1770023756.938662,0.000000
98.000000,7229.805855,-9592.921685,-2725.594071,-2743.095487,-2591.371845,-11337.140064,-1814.425208,1500.897288,-4118.644192,-16100.654435,-2485.335169,-2754.047841,739.015727,13107.085300,879.451737,-4995.123147,0.002000,-0.012000,0.994000,192.000000,0.000000,0.000000,0.000000,0.000000,0.000000,0.000000,0.000000,0.000000,0.000000,1770023756.938723,0.000000
100.000000,7246.904939,-9581.321130,-2705.522204,-2723.761228,-2573.781022,-11315.280058,-1797.259068,1516.811730,-4097.275924,-16079.710851,-2452.522809,-2727.784542,770.509335,13130.711094,908.687819,-4973.866638,0.002000,-0.012000,0.994000,192.000000,0.000000,0.000000,0.000000,0.000000,0.000000,0.000000,0.000000,0.000000,0.000000,1770023756.938773,0.000000
102.000000,7224.664953,-9603.829337,-2728.991536,-2746.403545,-2597.138595,-11338.481169,-1823.522368,1491.844832,-4109.792901,-16096.407604,-2472.438213,-2747.677594,755.176038,13116.115405,895.142662,-4978.918133,0.002000,-0.012000,0.994000,192.000000,0.000000,0.000000,0.000000,0.000000,0.000000,0.000000,0.000000,0.000000,0.000000,1770023756.938800,0.000000
104.000000,7258.103163,-9568.602987,-2699.755454,-2716.496911,-2563.476868,-11298.695063,-1799.091911,1519.069257,-4109.524680,-16091.803144,-2474.069890,-2745.285957,755.757184,13117.881193,894.852089,-4975.699481,0.000000,-0.012000,1.003000,192.000000,127.500000,120.000000,127.500000,80.000000,15.500000,80.000000,0.000000,0.000000,0.000000,1770023756.938817,0.000000
106.000000,7243.172198,-9579.376528,-2714.038219,-2732.813684,-2569.131859,-11314.475395,-1811.877109,1504.764140,-4084.758947,-16063.349374,-2442.799800,-2718.352105,772.364530,13143.630403,922.836473,-4956.812257,0.000000,-0.012000,1.003000,192.000000,0.000000,0.000000,0.000000,0.000000,0.000000,0.000000,0.000000,0.000000,0.000000,1770023756.938832,0.000000
108.000000,7237.584262,-9591.737043,-2715.714600,-2736.725239,-2572.954008,-11315.503575,-1813.844063,1504.831195,-4117.973640,-16098.508668,-2480.797765,-2755.098373,747.107058,13110.348655,894.717979,-4973.933694,0.000000,-0.012000,1.003000,192.000000,0.000000,0.000000,0.000000,0.000000,0.000000,0.000000,0.000000,0.000000,0.000000,1770023756.938848,0.000000
110.000000,7262.886436,-9559.438772,-2695.463919,-2716.675725,-2557.955987,-11294.068252,-1797.035551,1527.652327,-4087.061177,-16072.290072,-2441.972785,-2718.888547,783.696864,13145.083266,919.439008,-4953.034813,0.000000,-0.012000,1.003000,192.000000,0.000000,0.000000,0.000000,0.000000,0.000000,0.000000,0.000000,0.000000,0.000000,1770023756.938861,0.000000
112.000000,7238.299517,-9592.742871,-2731.092600,-2747.498780,-2591.640066,-11334.502558,-1824.125865,1494.884669,-4096.828889,-16082.080136,-2459.921236,-2733.797161,763.803812,13130.800501,897.690761,-4970.893856,0.000000,-0.012000,1.003000,192.000000,0.000000,0.000000,0.000000,0.000000,0.000000,0.000000,0.000000,0.000000,0.000000,1770023756.938873,0.000000
114.000000,7266.261550,-9567.641862,-2697.453224,-2724.118855,-2568.975397,-11312.933125,-1800.701237,1515.694143,-4097.700608,-16090.663205,-2467.744347,-2745.867103,767.693015,13121.390417,890.180575,-4980.639217,0.002000,-0.014000,1.007500,192.000000,0.000000,16.000000,127.500000,64.000000,15.500000,80.000000,0.000000,0.000000,0.000000,1770023756.938885,0.000000
116.000000,7255.957396,-9574.883828,-2708.629097,-2737.574606,-2572.283455,-11333.832006,-1811.430074,1504.428864,-4069.492706,-16067.238577,-2434.954337,-2721.190777,784.099195,13144.412714,914.968659,-4973.061976,0.002000,-0.014000,1.007500,192.000000,0.000000,0.000000,0.000000,0.000000,0.000000,0.000000,0.000000,0.000000,0.000000,1770023756.938896,0.000000
118.000000,7252.761096,-9576.694319,-2715.289916,-2741.016774,-2576.932618,-11338.637631,-1814.984002,1504.428864,-4105.501366,-16098.799240,-2473.891076,-2756.059498,758.215875,13110.080434,891.074644,-4992.440938,0.002000,-0.014000,1.007500,192.000000,0.000000,0.000000,0.000000,0.000000,0.000000,0.000000,0.000000,0.000000,0.000000,1770023756.938909,0.000000
120.000000,7273.168239,-9556.957729,-2690.479480,-2721.593108,-2562.046356,-11315.995314,-1797.527289,1526.110056,-4072.554895,-16065.875121,-2432.652108,-2717.413332,777.013692,13148.413676,912.375857,-4971.430298,0.002000,-0.014000,1.007500,192.000000,0.000000,0.000000,0.000000,0.000000,0.000000,0.000000,0.000000,0.000000,0.000000,1770023756.938921,0.000000
122.000000,7244.692116,-9594.598066,-2725.124684,-2750.493914,-2591.304790,-11352.987451,-1825.511673,1491.263687,-4089.430462,-16085.589359,-2455.495591,-2738.781600,772.789213,13124.519661,901.825834,-4976.459441,0.002000,-0.014000,1.007500,192.000000,0.000000,0.000000,0.000000,0.000000,0.000000,0.000000,0.000000,0.000000,0.000000,1770023756.938933,0.000000
124.000000,7266.574474,-9564.244397,-2699.531937,-2725.705829,-2567.097851,-11326.992372,-1802.891708,1513.347210,-4096.203041,-16094.597112,-2464.279826,-2749.353975,760.138125,13112.919106,899.277735,-4980.415700,0.002000,-0.013000,1.009750,192.000000,0.000000,8.000000,127.500000,80.000000,15.500000,80.000000,0.000000,0.000000,0.000000,1770023756.938945,0.000000
126.000000,7256.493837,-9579.532990,-2716.563966,-2738.289861,-2571.724662,-11337.676506,-1813.575842,1500.651419,-4073.068985,-16071.194836,-2436.831884,-2723.582414,788.591896,13136.455493,918.455531,-4969.306883,0.002000,-0.013000,1.009750,192.000000,0.000000,0.000000,0.000000,0.000000,0.000000,0.000000,0.000000,0.000000,0.000000,1770023756.938956,0.000000
128.000000,7251.643509,-9580.941150,-2713.591184,-2742.290824,-2574.831554,-11341.476302,-1817.018010,1500.740826,-4099.198174,-16098.687482,-2474.583980,-2755.835981,756.785364,13113.410844,898.227203,-4985.355435,0.002000,-0.013000,1.009750,192.000000,0.000000,0.000000,0.000000,0.000000,0.000000,0.000000,0.000000,0.000000,0.000000,1770023756.938968,0.000000
130.000000,7276.968035,-9555.616624,-2694.189870,-2721.660164,-2553.843266,-11310.385026,-1798.600173,1522.064390,-4071.124383,-16071.686574,-2435.490779,-2722.330716,787.273143,13136.500196,925.473979,-4963.249560,0.002000,-0.013000,1.009750,192.000000,0.000000,0.000000,0.000000,0.000000,0.000000,0.000000,0.000000,0.000000,0.000000,1770023756.938980,0.000000
132.000000,7250.637680,-9588.473688,-2714.887585,-2748.459905,-2575.144479,-11337.162416,-1820.594289,1495.823442,-4081.316779,-16082.929502,-2452.299291,-2737.351088,772.163364,13126.151338,909.894813,-4966.959949,0.002000,-0.013000,1.009750,192.000000,0.000000,0.000000,0.000000,0.000000,0.000000,0.000000,0.000000,0.000000,0.000000,1770023756.938992,0.000000
134.000000,7271.357747,-9561.517484,-2694.033407,-2723.627117,-2555.050260,-11309.714473,-1799.851871,1516.275289,-4089.318703,-16089.880894,-2460.211809,-2748.057574,770.509335,13121.256306,904.105711,-4968.636330,0.002000,-0.013000,1.009750,192.000000,0.000000,0.000000,127.500000,80.000000,15.500000,80.000000,0.000000,0.000000,0.000000,1770023756.939004,0.000000
136.000000,7257.142038,-9572.805115,-2706.662143,-2736.188797,-2570.383557,-11330.121616,-1810.334839,1505.747617,-4070.118555,-16065.517493,-2436.429553,-2719.737914,787.228440,13145.127969,921.137741,-4956.767554,0.002000,-0.013000,1.009750,192.000000,0.000000,0.000000,0.000000,0.000000,0.000000,0.000000,0.000000,0.000000,0.000000,1770023756.939015,0.000000
138.000000,7254.884512,-9579.555342,-2719.290879,-2742.402582,-2574.988016,-11340.448122,-1815.207519,1501.277268,-4099.645209,-16097.413432,-2475.276884,-2753.466696,756.047756,13111.376835,889.442967,-4983.075557,0.002000,-0.013000,1.009750,192.000000,0.000000,0.000000,0.000000,0.000000,0.000000,0.000000,0.000000,0.000000,0.000000,1770023756.939027,0.000000
140.000000,7271.737727,-9555.214292,-2699.554288,-2719.760265,-2562.247522,-11315.771796,-1794.956838,1522.019687,-4070.230314,-16067.216226,-2435.870759,-2721.034315,790.983533,13140.970545,918.813159,-4962.646063,0.002000,-0.013000,1.009750,192.000000,0.000000,0.000000,0.000000,0.000000,0.000000,0.000000,0.000000,0.000000,0.000000,1770023756.939039,0.000000
142.000000,7235.416142,-9599.582505,-2724.968222,-2753.913731,-2593.249392,-11360.140009,-1822.874167,1487.173317,-4093.945514,-16089.344453,-2460.524733,-2742.849617,760.652216,13118.909373,895.321476,-4979.365168,0.002000,-0.013000,1.009750,192.000000,0.000000,0.000000,0.000000,0.000000,0.000000,0.000000,0.000000,0.000000,0.000000,1770023756.939051,0.000000
144.000000,7257.589073,-9573.386261,-2699.487233,-2727.248100,-2569.087156,-11331.999163,-1801.640010,1509.256841,-4106.060160,-16098.486316,-2469.778355,-2753.399641,753.343195,13118.194117,897.020208,-4982.293246,0.002000,-0.013000,1.009750,192.000000,0.000000,0.000000,127.500000,64.000000,15.500000,72.000000,0.000000,0.000000,0.000000,1770023756.939063,0.000000
146.000000,7246.793180,-9578.303644,-2718.128588,-2738.312213,-2578.519592,-11345.231395,-1813.866414,1496.404588,-4081.517945,-16076.872179,-2445.057326,-2728.589204,781.349931,13133.147434,917.583813,-4966.512914,0.002000,-0.013000,1.009750,192.000000,0.000000,0.000000,0.000000,0.000000,0.000000,0.000000,0.000000,0.000000,0.000000,1770023756.939075,0.000000
148.000000,7239.953547,-9590.462993,-2713.345315,-2746.537655,-2587.281476,-11354.485018,-1818.426170,1493.767082,-4106.283677,-16102.174354,-2479.702530,-2759.076984,754.907817,13101.542068,888.951229,-4984.997807,0.002000,-0.013000,1.009750,192.000000,0.000000,0.000000,0.000000,0.000000,0.000000,0.000000,0.000000,0.000000,0.000000,1770023756.939091,0.000000
150.000000,7266.261550,-9567.328938,-2692.826413,-2724.431780,-2564.080365,-11320.510366,-1798.600173,1515.716495,-4083.171974,-16079.085002,-2443.269186,-2728.812722,778.265390,13128.140644,913.404037,-4966.937598,0.002000,-0.013000,1.009750,192.000000,0.000000,0.000000,0.000000,0.000000,0.000000,0.000000,0.000000,0.000000,0.000000,1770023756.939109,0.000000
152.000000,7227.190700,-9610.736026,-2721.213129,-2756.439478,-2590.254258,-11354.663832,-1826.472798,1481.495974,-4097.477090,-16103.403700,-2464.391585,-2753.176123,759.646387,13109.275771,903.166938,-4972.592589,0.002000,-0.013000,1.009750,192.000000,0.000000,0.000000,0.000000,0.000000,0.000000,0.000000,0.000000,0.000000,0.000000,1770023756.939145,0.000000
154.000000,7259.690137,-9575.844953,-2693.072282,-2727.292803,-2564.594455,-11324.712494,-1801.170623,1511.179091,-4102.193308,-16108.522249,-2469.845411,-2758.406431,754.684300,13106.839431,900.574136,-4975.364205,0.002000,-0.013000,1.009750,192.000000,0.000000,0.000000,127.500000,88.000000,15.500000,80.000000,0.000000,0.000000,0.000000,1770023756.939162,0.000000
156.000000,7249.855369,-9583.824525,-2715.401675,-2738.200454,-2576.530287,-11335.039000,-1814.961650,1499.802053,-4077.964017,-16081.074307,-2440.519922,-2728.656260,785.015617,13136.902527,919.975450,-4958.600397,0.002000,-0.013000,1.009750,192.000000,0.000000,0.000000,0.000000,0.000000,0.000000,0.000000,0.000000,0.000000,0.000000,1770023756.939192,0.000000
158.000000,7249.296576,-9593.234610,-2711.780693,-2742.782562,-2582.967589,-11341.073971,-1815.922775,1497.008085,-4106.574250,-16112.724377,-2477.824983,-2763.793202,759.288759,13105.252457,889.554726,-4977.197048,0.002000,-0.013000,1.009750,192.000000,0.000000,0.000000,0.000000,0.000000,0.000000,0.000000,0.000000,0.000000,0.000000,1770023756.939210,0.000000
160.000000,7267.379137,-9566.121944,-2690.300666,-2719.804969,-2563.499220,-11315.771796,-1797.326123,1513.816597,-4075.907657,-16079.129705,-2438.396506,-2730.399696,778.511259,13138.981240,913.716962,-4962.243731,0.002000,-0.013000,1.009750,192.000000,0.000000,0.000000,0.000000,0.000000,0.000000,0.000000,0.000000,0.000000,0.000000,1770023756.939226,0.000000
162.000000,7238.791256,-9603.225840,-2731.986670,-2748.526960,-2589.360188,-11345.231395,-1826.584557,1481.741843,-4095.130157,-16098.575723,-2463.944550,-2752.594978,763.692053,13122.060969,903.211642,-4969.977435,0.002000,-0.013000,1.009750,192.000000,0.000000,0.000000,0.000000,0.000000,0.000000,0.000000,0.000000,0.000000,0.000000,1770023756.939244,0.000000
164.000000,7264.987500,-9576.828429,-2695.754492,-2727.337507,-2563.499220,-11323.661962,-1801.505900,1511.447312,-4100.114596,-16103.426052,-2471.030053,-2756.864161,766.687187,13115.914239,898.160147,-4974.850115,0.002000,-0.009500,1.008875,192.000000,0.000000,8.000000,127.500000,104.000000,15.500000,64.000000,0.000000,0.000000,0.000000,1770023756.939261,0.000000
166.000000,7253.610462,-9584.070395,-2712.786521,-2742.693155,-2575.077423,-11343.979698,-1809.530176,1504.607678,-4074.343035,-16084.158848,-2434.462599,-2731.182007,782.311056,13135.404961,925.228110,-4965.685900,0.002000,-0.009500,1.008875,192.000000,0.000000,0.000000,0.000000,0.000000,0.000000,0.000000,0.000000,0.000000,0.000000,1770023756.939278,0.000000
168.000000,7241.808741,-9593.636941,-2710.171367,-2751.052708,-2585.180412,-11353.792114,-1812.949993,1500.249088,-4109.256459,-16115.540697,-2474.315759,-2767.280074,752.940864,13095.261228,895.030903,-4992.507993,0.002000,-0.009500,1.008875,192.000000,0.000000,0.000000,0.000000,0.000000,0.000000,0.000000,0.000000,0.000000,0.000000,1770023756.939295,0.000000
170.000000,7259.086640,-9577.543685,-2695.128643,-2727.069286,-2572.484621,-11331.194500,-1796.119129,1517.549338,-4087.776433,-16090.082060,-2442.218654,-2733.774809,778.354797,13123.267963,920.243671,-4971.653816,0.002000,-0.009500,1.008875,192.000000,0.000000,0.000000,0.000000,0.000000,0.000000,0.000000,0.000000,0.000000,0.000000,1770023756.939312,0.000000
172.000000,7230.632869,-9616.703941,-2725.325850,-2754.539580,-2605.431092,-11359.804733,-1824.125865,1484.714625,-4105.993105,-16110.399796,-2466.000911,-2754.964263,753.969044,13103.263152,901.624668,-4979.007540,0.002000,-0.009500,1.008875,192.000000,0.000000,0.000000,0.000000,0.000000,0.000000,0.000000,0.000000,0.000000,0.000000,1770023756.939329,0.000000
174.000000,7257.253797,-9577.364871,-2691.708826,-2728.142169,-2571.389386,-11326.165357,-1798.711932,1512.721361,-4106.283677,-16114.020778,-2467.096146,-2761.960359,751.286835,13100.603294,898.920107,-4977.241752,0.002000,-0.009500,1.008875,192.000000,0.000000,0.000000,0.000000,0.000000,0.000000,0.000000,0.000000,0.000000,0.000000,1770023756.939347,0.000000
176.000000,7249.073058,-9591.245304,-2707.131530,-2744.078963,-2585.381578,-11342.795055,-1811.765350,1498.483300,-4079.238067,-16089.076232,-2439.514093,-2734.355954,776.745472,13126.933649,926.390401,-4962.757821,0.004000,-0.010000,1.008000,192.000000,0.000000,16.000000,127.500000,88.000000,15.500000,64.000000,0.000000,0.000000,0.000000,1770023756.939362,0.000000
178.000000,7238.612442,-9600.901258,-2719.447341,-2747.141152,-2588.533174,-11345.633727,-1820.795455,1491.174280,-4116.721942,-16122.089758,-2479.970751,-2772.912714,744.804829,13092.958998,894.472110,-4985.869525,0.004000,-0.010000,1.008000,192.000000,0.000000,0.000000,0.000000,0.000000,0.000000,0.000000,0.000000,0.000000,0.000000,1770023756.939380,0.000000
180.000000,7267.490896,-9572.983929,-2690.926515,-2719.424989,-2563.163944,-11313.424863,-1798.197841,1519.203367,-4086.412977,-16087.802182,-2446.107858,-2735.160617,779.740605,13133.102731,922.523549,-4963.473077,0.004000,-0.010000,1.008000,192.000000,0.000000,0.000000,0.000000,0.000000,0.000000,0.000000,0.000000,0.000000,0.000000,1770023756.939396,0.000000
182.000000,7242.479294,-9594.821584,-2725.728181,-2746.627062,-2589.091967,-11340.314012,-1820.393124,1495.979905,-4093.073796,-16096.072328,-2456.322605,-2745.777696,758.238227,13121.837452,908.821930,-4969.910380,0.004000,-0.010000,1.008000,192.000000,0.000000,0.000000,0.000000,0.000000,0.000000,0.000000,0.000000,0.000000,0.000000,1770023756.939414,0.000000
184.000000,7262.528808,-9574.012110,-2696.760320,-2724.990574,-2561.956949,-11311.860241,-1796.409702,1516.521158,-4103.892041,-16102.643740,-2465.352710,-2753.064365,759.355814,13115.042521,904.485691,-4971.787926,0.004000,-0.010000,1.008000,192.000000,0.000000,0.000000,0.000000,0.000000,0.000000,0.000000,0.000000,0.000000,0.000000,1770023756.939468,0.000000
186.000000,7252.135247,-9587.289046,-2710.908975,-2740.100353,-2580.374787,-11331.395666,-1810.424246,1499.556184,-4075.617084,-16079.152057,-2437.994175,-2730.198530,786.580239,13143.540996,928.312651,-4956.164057,-0.006000,-0.016000,1.006000,192.000000,127.500000,104.000000,127.500000,64.000000,15.500000,56.000000,0.000000,0.000000,0.000000,1770023756.939487,0.000000
188.000000,7235.527901,-9607.070340,-2719.872024,-2750.203341,-2590.075444,-11341.543358,-1823.879996,1485.563992,-4120.633497,-16119.631066,-2485.424576,-2774.812612,746.168285,13097.205829,897.713113,-4982.427357,-0.006000,-0.016000,1.006000,192.000000,0.000000,0.000000,0.000000,0.000000,0.000000,0.000000,0.000000,0.000000,0.000000,1770023756.939503,0.000000
190.000000,7264.048727,-9571.531066,-2698.436701,-2725.638774,-2562.471040,-11317.247011,-1802.377618,1514.151873,-4087.284695,-16089.635025,-2448.700660,-2740.636795,767.201277,13130.666391,924.378744,-4965.752955,-0.006000,-0.016000,1.006000,192.000000,0.000000,0.000000,0.000000,0.000000,0.000000,0.000000,0.000000,0.000000,0.000000,1770023756.939519,0.000000
192.000000,7238.970070,-9599.470746,-2721.838978,-2755.456001,-2586.566220,-11350.774628,-1823.656478,1490.302562,-4097.588849,-16100.609732,-2464.413937,-2751.656205,759.869905,13126.106635,913.024058,-4979.655740,-0.006000,-0.016000,1.006000,192.000000,0.000000,0.000000,0.000000,0.000000,0.000000,0.000000,0.000000,0.000000,0.000000,1770023756.939536,0.000000
194.000000,7262.774678,-9574.369737,-2696.626210,-2728.052763,-2566.159077,-11321.136215,-1800.053036,1515.157701,-4100.986314,-16105.951799,-2469.174858,-2758.115859,757.791192,13106.146527,903.435159,-4986.182450,-0.006000,-0.016000,1.006000,192.000000,0.000000,0.000000,0.000000,0.000000,0.000000,0.000000,0.000000,0.000000,0.000000,1770023756.939552,0.000000
196.000000,7247.351974,-9592.564057,-2708.562041,-2739.228635,-2586.946200,-11336.782436,-1811.251260,1499.824405,-4076.734671,-16081.253121,-2438.664727,-2729.639736,782.087538,13136.075513,918.768456,-4968.636330,-0.004000,-0.016000,1.012000,192.000000,127.500000,112.000000,127.500000,64.000000,15.500000,80.000000,0.000000,0.000000,0.000000,1770023756.939568,0.000000
198.000000,7232.890395,-9607.629133,-2725.906995,-2745.040088,-2594.992828,-11342.772704,-1818.470874,1490.526079,-4114.911451,-16119.519308,-2486.340998,-2771.772775,742.949634,13101.676178,892.929839,-4984.439014,-0.004000,-0.016000,1.012000,192.000000,0.000000,0.000000,0.000000,0.000000,0.000000,0.000000,0.000000,0.000000,0.000000,1770023756.939584,0.000000
200.000000,7262.618215,-9576.560208,-2690.278314,-2724.834111,-2567.321368,-11316.621162,-1795.247411,1516.655268,-4084.826003,-16091.378461,-2447.918349,-2739.228635,773.839745,13129.615859,924.982241,-4968.055185,-0.004000,-0.016000,1.012000,192.000000,0.000000,0.000000,0.000000,0.000000,0.000000,0.000000,0.000000,0.000000,0.000000,1770023756.939601,0.000000
202.000000,7229.939965,-9612.278296,-2726.644603,-2757.646472,-2591.081272,-11345.298451,-1825.042287,1484.871088,-4098.572326,-16106.689406,-2462.469335,-2755.858333,770.822259,13115.601315,923.238805,-4971.050319,-0.004000,-0.016000,1.012000,192.000000,0.000000,0.000000,0.000000,0.000000,0.000000,0.000000,0.000000,0.000000,0.000000,1770023756.939619,0.000000
204.000000,7257.633776,-9580.337653,-2698.816681,-2732.098428,-2571.501144,-11318.275192,-1802.511728,1508.161605,-4103.579116,-16113.439633,-2473.801669,-2764.888437,757.970006,13106.794728,914.611031,-4976.012406,-0.004000,-0.016000,1.012000,192.000000,0.000000,0.000000,0.000000,0.000000,0.000000,0.000000,0.000000,0.000000,0.000000,1770023756.939637,0.000000
206.000000,7243.775695,-9599.783671,-2713.099445,-2739.787428,-2585.783909,-11329.160491,-1811.497129,1494.415283,-4081.629703,-16087.869237,-2448.410088,-2736.769943,769.950541,13135.583775,934.437029,-4960.857923,-0.004000,-0.012000,1.010000,192.000000,127.500000,112.000000,127.500000,80.000000,15.500000,72.000000,0.000000,0.000000,0.000000,1770023756.939654,0.000000
208.000000,7239.685326,-9607.159747,-2722.286012,-2745.844751,-2592.981171,-11333.250860,-1817.196824,1490.414320,-4115.872576,-16122.290924,-2489.961981,-2773.247990,745.453029,13101.720882,898.942459,-4978.918133,-0.004000,-0.012000,1.010000,192.000000,0.000000,0.000000,0.000000,0.000000,0.000000,0.000000,0.000000,0.000000,0.000000,1770023756.939672,0.000000
210.000000,7267.312082,-9574.526200,-2700.001323,-2720.140245,-2566.717871,-11303.411282,-1793.168699,1518.890443,-4085.943590,-16088.673900,-2448.924178,-2735.786466,768.050643,13136.299030,925.317517,-4959.449763,-0.004000,-0.012000,1.010000,192.000000,0.000000,0.000000,0.000000,0.000000,0.000000,0.000000,0.000000,0.000000,0.000000,1770023757.418417,0.000000
212.000000,7243.216901,-9597.257924,-2725.303498,-2751.387984,-2590.880107,-11339.822273,-1820.482531,1493.700027,-4092.917334,-16097.525191,-2462.290521,-2747.007042,775.627884,13130.040542,915.728619,-4971.184429,-0.004000,-0.012000,1.010000,192.000000,0.000000,0.000000,0.000000,0.000000,0.000000,0.000000,0.000000,0.000000,0.000000,1770023757.418478,0.000000
214.000000,7271.894189,-9570.145258,-2688.557230,-2724.543539,-2563.856848,-11318.521061,-1796.119129,1521.505597,-4095.286619,-16102.152002,-2464.436288,-2751.924426,756.830067,13119.781091,910.833587,-4984.953104,-0.004000,-0.012000,1.010000,192.000000,0.000000,0.000000,0.000000,0.000000,0.000000,0.000000,0.000000,0.000000,0.000000,1770023757.418526,0.000000
216.000000,7260.718317,-9585.702072,-2703.309381,-2735.361783,-2574.183354,-11327.305296,-1806.199766,1505.971134,-4072.085508,-16077.676842,-2435.937814,-2724.968222,785.574411,13141.886966,934.012346,-4970.513877,-0.004000,-0.014000,1.010000,192.000000,127.500000,112.000000,127.500000,72.000000,15.500000,72.000000,0.000000,0.000000,0.000000,1770023757.418574,0.000000
218.000000,7258.103163,-9586.573790,-2707.422102,-2740.972071,-2584.621618,-11336.983602,-1812.279440,1502.730131,-4100.896907,-16107.337607,-2473.958132,-2760.149868,759.847553,13108.538164,899.411845,-4993.714987,-0.004000,-0.014000,1.010000,192.000000,0.000000,0.000000,0.000000,0.000000,0.000000,0.000000,0.000000,0.000000,0.000000,1770023757.418628,0.000000
220.000000,7290.870820,-9552.040345,-2681.471727,-2714.485254,-2564.348586,-11309.021569,-1788.474833,1531.876806,-4065.022357,-16067.707964,-2432.227425,-2719.492044,795.275068,13147.050219,922.992936,-4973.687824,-0.004000,-0.014000,1.010000,192.000000,0.000000,0.000000,0.000000,0.000000,0.000000,0.000000,0.000000,0.000000,0.000000,1770023757.418672,0.000000
222.000000,7258.796067,-9588.876020,-2719.492044,-2747.118801,-2593.830537,-11338.123541,-1818.247356,1500.249088,-4078.321645,-16082.884798,-2449.527675,-2735.942928,778.690073,13134.309725,910.632421,-4979.007540,-0.004000,-0.014000,1.010000,192.000000,0.000000,0.000000,0.000000,0.000000,0.000000,0.000000,0.000000,0.000000,0.000000,1770023757.418688,0.000000
224.000000,7269.681367,-9578.303644,-2700.090730,-2725.169387,-2571.814069,-11309.178032,-1798.734283,1517.638745,-4095.130157,-16099.067461,-2466.984387,-2751.455039,763.937922,13124.117330,906.519700,-4975.721833,-0.004000,-0.014000,1.010000,192.000000,0.000000,0.000000,0.000000,0.000000,0.000000,0.000000,0.000000,0.000000,0.000000,1770023757.418703,0.000000
226.000000,7264.406355,-9584.182153,-2711.713637,-2736.591129,-2579.726586,-11317.895212,-1811.564185,1503.333629,-4070.453831,-16078.235636,-2436.138980,-2728.902129,785.239134,13143.742161,936.314575,-4956.946368,-0.004000,-0.014000,1.010000,192.000000,0.000000,0.000000,127.500000,88.000000,15.500000,72.000000,0.000000,0.000000,0.000000,1770023757.418720,0.000000
228.000000,7254.616291,-9595.045101,-2707.869137,-2745.062440,-2579.123089,-11322.142043,-1818.917909,1493.990599,-4097.007703,-16108.321084,-2475.902733,-2764.262589,764.876695,13110.661579,904.597450,-4977.040586,-0.004000,-0.014000,1.010000,192.000000,0.000000,0.000000,0.000000,0.000000,0.000000,0.000000,0.000000,0.000000,0.000000,1770023757.418736,0.000000
230.000000,7281.997178,-9562.210388,-2684.735082,-2715.356972,-2551.272816,-11287.429784,-1796.432054,1517.482283,-4070.945569,-16077.520380,-2439.469390,-2730.712620,779.718254,13146.223205,932.380668,-4955.001766,-0.004000,-0.014000,1.010000,192.000000,0.000000,0.000000,0.000000,0.000000,0.000000,0.000000,0.000000,0.000000,0.000000,1770023757.418753,0.000000
232.000000,7252.470523,-9599.604857,-2721.235480,-2744.704812,-2577.603171,-11321.918526,-1824.774066,1484.848736,-4079.618046,-16082.884798,-2457.082564,-2740.547388,787.496661,13142.982202,918.969622,-4958.622749,-0.004000,-0.014000,1.010000,192.000000,0.000000,0.000000,0.000000,0.000000,0.000000,0.000000,0.000000,0.000000,0.000000,1770023757.418770,0.000000
234.000000,7256.896169,-9582.729290,-2695.709788,-2730.690268,-2569.690653,-11315.928258,-1808.054961,1497.522175,-4097.700608,-16101.459098,-2476.662693,-2759.613426,763.043852,13124.609068,914.566328,-4971.564409,-0.004000,-0.014000,1.010000,192.000000,0.000000,0.000000,0.000000,0.000000,0.000000,0.000000,0.000000,0.000000,0.000000,1770023757.418788,0.000000
236.000000,7243.351012,-9602.331770,-2713.077094,-2746.627062,-2591.014217,-11336.022477,-1819.722571,1487.106262,-4086.390625,-16086.975168,-2454.422707,-2739.183931,773.884448,13139.651792,934.794657,-4962.489600,0.002000,-0.010000,1.006000,192.000000,0.000000,8.000000,127.500000,88.000000,15.500000,56.000000,0.000000,0.000000,0.000000,1770023757.418806,0.000000
238.000000,7251.956433,-9598.017883,-2719.402637,-2749.778658,-2600.804281,-11340.984564,-1821.913042,1491.733073,-4110.910488,-16117.932334,-2488.375007,-2772.420975,747.777611,13106.347693,899.210679,-4990.630447,0.002000,-0.010000,1.006000,192.000000,0.000000,0.000000,0.000000,0.000000,0.000000,0.000000,0.000000,0.000000,0.000000,1770023757.418822,0.000000
240.000000,7280.656073,-9566.568979,-2689.272486,-2723.403600,-2573.110470,-11311.815537,-1795.672094,1523.807826,-4076.689968,-16082.996557,-2441.168122,-2732.970146,773.996207,13137.930708,920.869520,-4975.878295,0.002000,-0.010000,1.006000,192.000000,0.000000,0.000000,0.000000,0.000000,0.000000,0.000000,0.000000,0.000000,0.000000,1770023757.418839,0.000000
242.000000,7253.275186,-9594.463956,-2720.766094,-2748.504609,-2594.255220,-11338.168244,-1821.600118,1494.527041,-4084.647189,-16085.432897,-2452.880437,-2739.653318,773.325655,13136.790769,907.749046,-4982.494412,0.002000,-0.010000,1.006000,192.000000,0.000000,0.000000,0.000000,0.000000,0.000000,0.000000,0.000000,0.000000,0.000000,1770023757.418855,0.000000
244.000000,7278.800878,-9565.987833,-2699.062550,-2722.733047,-2569.109508,-11309.602715,-1801.662362,1516.588213,-4097.342980,-16094.820630,-2467.118498,-2750.918597,775.784347,13129.749969,903.055179,-4990.406929,0.002000,-0.010000,1.006000,192.000000,0.000000,0.000000,0.000000,0.000000,0.000000,0.000000,0.000000,0.000000,0.000000,1770023757.418871,0.000000
246.000000,7263.556989,-9581.723461,-2708.204413,-2733.908920,-2573.915133,-11318.454006,-1810.625411,1502.931297,-4067.391642,-16065.405734,-2430.327526,-2718.910899,789.553021,13163.031717,929.743162,-4969.061013,0.002000,-0.013000,1.007000,192.000000,0.000000,8.000000,127.500000,64.000000,15.500000,64.000000,0.000000,0.000000,0.000000,1770023757.418887,0.000000
248.000000,7257.007928,-9589.121889,-2713.099445,-2742.894321,-2583.481679,-11327.864090,-1817.465045,1494.459986,-4103.310895,-16104.387177,-2479.031978,-2762.474449,764.764937,13124.944344,901.267040,-4988.350569,0.002000,-0.013000,1.007000,192.000000,0.000000,0.000000,0.000000,0.000000,0.000000,0.000000,0.000000,0.000000,0.000000,1770023757.418903,0.000000
250.000000,7274.486992,-9568.312415,-2692.826413,-2722.755399,-2558.850057,-11304.014779,-1799.360132,1512.766065,-4074.655959,-16078.995595,-2443.492704,-2732.456056,782.646332,13147.676068,931.576005,-4964.098926,0.002000,-0.013000,1.007000,192.000000,0.000000,0.000000,0.000000,0.000000,0.000000,0.000000,0.000000,0.000000,0.000000,1770023757.418922,0.000000
252.000000,7240.646451,-9610.356046,-2723.761228,-2751.209170,-2586.230944,-11332.513253,-1828.953842,1479.350207,-4091.173898,-16094.954740,-2464.793916,-2748.884588,765.435489,13132.052199,924.714020,-4968.815144,0.002000,-0.013000,1.007000,192.000000,0.000000,0.000000,0.000000,0.000000,0.000000,0.000000,0.000000,0.000000,0.000000,1770023757.418936,0.000000
254.000000,7262.528808,-9584.383319,-2698.771977,-2726.331678,-2564.348586,-11301.734901,-1806.713856,1503.892422,-4104.093206,-16109.259857,-2481.177745,-2763.279112,761.948617,13122.798577,918.008497,-4968.122240,0.002000,-0.013000,1.007000,192.000000,0.000000,0.000000,0.000000,0.000000,0.000000,0.000000,0.000000,0.000000,0.000000,1770023757.418948,0.000000
0.000000,7259.846599,-9589.591275,-2707.824434,-2734.735934,-2571.501144,-11312.553145,-1812.413551,1500.114977,-4075.505325,-16078.481505,-2439.335279,-2732.120780,784.523879,13151.453513,939.957910,-4951.045507,0.002000,-0.015500,1.004500,192.000000,0.000000,8.000000,127.500000,56.000000,15.500000,40.000000,0.000000,0.000000,0.000000,1770023757.418960,0.000000
2.000000,7261.321814,-9588.049005,-2716.921594,-2738.781600,-2574.988016,-11315.481224,-1818.604984,1499.779701,-4101.232183,-16108.410491,-2475.232181,-2766.408356,765.211971,13122.060969,908.196081,-4974.939522,0.002000,-0.015500,1.004500,192.000000,0.000000,0.000000,0.000000,0.000000,0.000000,0.000000,0.000000,0.000000,0.000000,1770023757.418972,0.000000
4.000000,7288.143908,-9560.265787,-2686.746739,-2712.473597,-2555.832571,-11290.044938,-1797.236716,1523.427847,-4061.557837,-16068.646737,-2436.317794,-2727.941004,797.622001,13159.522493,931.106619,-4957.952196,0.002000,-0.015500,1.004500,192.000000,0.000000,0.000000,0.000000,0.000000,0.000000,0.000000,0.000000,0.000000,0.000000,1770023757.418984,0.000000
6.000000,7256.851465,-9591.401767,-2716.318097,-2744.525998,-2583.459328,-11334.167282,-1823.209443,1491.286038,-4077.092299,-16079.263816,-2451.606387,-2737.619309,786.334370,13150.827664,924.982241,-4967.071708,0.002000,-0.015500,1.004500,192.000000,0.000000,0.000000,0.000000,0.000000,0.000000,0.000000,0.000000,0.000000,0.000000,1770023757.418996,0.000000
8.000000,7285.238181,-9563.395031,-2692.245268,-2720.319059,-2568.841287,-11306.227601,-1797.281420,1517.191710,-4081.517945,-16090.149115,-2458.960111,-2746.805876,770.889315,13132.700399,905.268002,-4978.158173,0.002000,-0.015500,1.004500,192.000000,0.000000,0.000000,0.000000,0.000000,0.000000,0.000000,0.000000,0.000000,0.000000,1770023757.419008,0.000000
10.000000,7278.376195,-9579.510639,-2702.929402,-2729.438571,-2574.161002,-11317.515232,-1803.517557,1506.172300,-4049.778467,-16067.707964,-2424.136093,-2721.302536,796.884393,13161.198874,930.883101,-4966.378804,0.002000,-0.014750,1.004250,192.000000,0.000000,8.000000,127.500000,72.000000,15.500000,48.000000,0.000000,0.000000,0.000000,1770023757.419020,0.000000
12.000000,7263.221712,-9582.483421,-2718.799140,-2738.669841,-2584.643970,-11326.143006,-1816.660382,1495.242297,-4089.899849,-16095.200610,-2470.158335,-2756.260664,768.050643,13133.303897,900.037694,-4987.568258,0.002000,-0.014750,1.004250,192.000000,0.000000,0.000000,0.000000,0.000000,0.000000,0.000000,0.000000,0.000000,0.000000,1770023757.419037,0.000000
14.000000,7281.483088,-9560.981043,-2689.764224,-2716.608669,-2560.817011,-11300.125575,-1798.287248,1515.694143,-4074.298331,-16067.193874,-2441.168122,-2723.895338,781.908725,13157.935519,926.524511,-4972.838458,0.002000,-0.014750,1.004250,192.000000,0.000000,0.000000,0.000000,0.000000,0.000000,0.000000,0.000000,0.000000,0.000000,1770023757.419053,0.000000
16.000000,7245.809704,-9606.310380,-2727.315155,-2751.723260,-2591.595363,-11329.384009,-1829.847912,1478.009102,-4086.345921,-16084.650586,-2457.998986,-2741.933196,774.733815,13142.199891,922.009459,-4976.012406,0.002000,-0.014750,1.004250,192.000000,0.000000,0.000000,0.000000,0.000000,0.000000,0.000000,0.000000,0.000000,0.000000,1770023757.419065,0.000000
18.000000,7270.307215,-9583.131621,-2698.101425,-2727.784542,-2557.777173,-11296.191668,-1805.819786,1503.445387,-4100.338113,-16105.795336,-2474.427518,-2764.664920,755.600721,13124.631420,920.377781,-4970.089194,0.002000,-0.014750,1.004250,192.000000,0.000000,0.000000,0.000000,0.000000,0.000000,0.000000,0.000000,0.000000,0.000000,1770023757.419076,0.000000
20.000000,7258.170218,-9589.032482,-2706.639791,-2732.009021,-2565.287359,-11296.571648,-1814.022877,1494.124710,-4069.962093,-16076.425144,-2438.620024,-2732.277242,805.288649,13158.673127,953.570122,-4941.590719,0.003000,-0.012375,1.004125,192.000000,0.000000,16.000000,127.500000,88.000000,15.500000,48.000000,0.000000,0.000000,0.000000,1770023757.419088,0.000000
22.000000,7250.548273,-9600.588334,-2718.888547,-2737.731068,-2577.603171,-11308.015741,-1822.315374,1484.871088,-4104.182613,-16108.231677,-2482.675312,-2766.318949,754.885465,13126.352504,916.935613,-4960.924978,0.003000,-0.012375,1.004125,192.000000,0.000000,0.000000,0.000000,0.000000,0.000000,0.000000,0.000000,0.000000,0.000000,1770023757.419100,0.000000
24.000000,7272.363576,-9569.877037,-2695.061588,-2709.590222,-2561.487563,-11282.422993,-1797.303772,1510.754408,-4079.595694,-16077.699194,-2449.080640,-2730.712620,780.746434,13158.024926,935.442857,-4944.675260,0.003000,-0.012375,1.004125,192.000000,0.000000,0.000000,0.000000,0.000000,0.000000,0.000000,0.000000,0.000000,0.000000,1770023757.419111,0.000000
26.000000,7244.960337,-9610.244287,-2726.309326,-2744.436591,-2599.910212,-11326.098302,-1825.042287,1480.959532,-4088.089357,-16089.098583,-2461.262341,-2743.922501,767.134221,13143.719809,920.087209,-4957.236941,0.003000,-0.012375,1.004125,192.000000,0.000000,0.000000,0.000000,0.000000,0.000000,0.000000,0.000000,0.000000,0.000000,1770023757.419126,0.000000
28.000000,7264.495762,-9585.143278,-2702.124739,-2725.459960,-2583.235810,-11305.758215,-1803.405798,1504.518271,-4100.315762,-16106.331778,-2471.342977,-2761.826248,752.739698,13125.749007,906.944383,-4971.206781,0.003000,-0.012375,1.004125,192.000000,0.000000,0.000000,0.000000,0.000000,0.000000,0.000000,0.000000,0.000000,0.000000,1770023757.419138,0.000000
30.000000,7248.357802,-9606.086863,-2718.352105,-2738.982766,-2598.345589,-11324.623087,-1813.151158,1491.062521,-4080.936799,-16089.143287,-2443.179779,-2737.798123,777.416024,13142.535167,926.479808,-4956.544036,0.003500,-0.010188,1.004063,192.000000,0.000000,16.000000,127.500000,96.000000,15.500000,48.000000,0.000000,0.000000,0.000000,1770023757.419149,0.000000
32.000000,7242.635756,-9613.820566,-2722.665992,-2749.331623,-2610.326124,-11343.957346,-1820.303717,1485.228716,-4110.865785,-16122.916773,-2486.542164,-2772.398624,749.655157,13106.660617,890.873479,-4980.169830,0.003500,-0.010188,1.004063,192.000000,0.000000,0.000000,0.000000,0.000000,0.000000,0.000000,0.000000,0.000000,0.000000,1770023757.419161,0.000000
34.000000,7267.267378,-9582.841049,-2694.681608,-2723.113027,-2588.130842,-11325.852433,-1795.180356,1512.520196,-4083.216677,-16095.111203,-2447.895998,-2738.915710,767.156573,13133.594469,914.365162,-4975.565371,0.003500,-0.010188,1.004063,192.000000,0.000000,0.000000,0.000000,0.000000,0.000000,0.000000,0.000000,0.000000,0.000000,1770023757.419173,0.000000
36.000000,7233.806817,-9619.967296,-2732.768981,-2751.499742,-2615.623488,-11358.843608,-1821.734228,1484.245239,-4092.962038,-16104.834211,-2458.624835,-2747.498780,765.301378,13122.284487,907.905508,-4988.864659,0.003500,-0.010188,1.004063,192.000000,0.000000,0.000000,0.000000,0.000000,0.000000,0.000000,0.000000,0.000000,0.000000,1770023757.419185,0.000000
38.000000,7251.062364,-9598.599028,-2712.451245,-2730.064420,-2589.449595,-11331.865052,-1804.344571,1501.076102,-4109.412922,-16120.435729,-2478.875515,-2765.156658,741.586178,13107.755853,895.477938,-4999.302924,0.003500,-0.010188,1.004063,192.000000,0.000000,0.000000,0.000000,0.000000,0.000000,0.000000,0.000000,0.000000,0.000000,1770023757.419196,0.000000
40.000000,7236.667840,-9615.273430,-2714.887585,-2740.659146,-2590.343665,-11337.721209,-1815.229871,1483.664093,-4081.205020,-16092.563104,-2449.013585,-2737.954585,779.897068,13137.416618,933.207683,-4975.431261,0.002750,-0.013094,1.003031,192.000000,0.000000,8.000000,127.500000,64.000000,15.500000,40.000000,0.000000,0.000000,0.000000,1770023757.419208,0.000000
42.000000,7227.615384,-9621.308401,-2729.572681,-2748.996347,-2593.852889,-11333.876709,-1826.808074,1475.483355,-4120.924070,-16131.410436,-2497.449815,-2779.864106,745.788305,13099.105728,910.252441,-4987.411796,0.002750,-0.013094,1.003031,192.000000,0.000000,0.000000,0.000000,0.000000,0.000000,0.000000,0.000000,0.000000,0.000000,1770023757.419219,0.000000
44.000000,7257.745535,-9588.808964,-2697.922611,-2721.101370,-2566.002615,-11297.242200,-1803.852833,1504.250050,-4091.531526,-16093.077194,-2460.457678,-2741.128533,767.290684,13137.014286,941.969567,-4956.655795,0.002750,-0.013094,1.003031,192.000000,0.000000,0.000000,0.000000,0.000000,0.000000,0.000000,0.000000,0.000000,0.000000,1770023757.419231,0.000000
46.000000,7227.123645,-9631.098465,-2734.624175,-2749.309271,-2592.265915,-11328.333477,-1829.065601,1472.555276,-4093.319666,-16100.475621,-2469.778355,-2751.075059,770.308169,13132.208661,925.943366,-4957.929845,0.002750,-0.013094,1.003031,192.000000,0.000000,0.000000,0.000000,0.000000,0.000000,0.000000,0.000000,0.000000,0.000000,1770023757.419243,0.000000
48.000000,7249.765962,-9595.872116,-2712.875928,-2724.901167,-2567.589589,-11307.792223,-1806.646801,1496.181070,-4109.591736,-16119.564011,-2487.123309,-2769.001158,755.980701,13111.667408,914.789845,-4971.072670,0.002750,-0.013094,1.003031,192.000000,0.000000,0.000000,0.000000,0.000000,0.000000,0.000000,0.000000,0.000000,0.000000,1770023757.419255,0.000000
50.000000,7247.597843,-9597.704959,-2714.038219,-2731.025545,-2585.292171,-11316.397645,-1814.604022,1488.693236,-4077.941665,-16083.845923,-2449.907655,-2733.685402,792.145823,13148.592490,932.090096,-4957.818086,0.002750,-0.013094,1.003031,192.000000,0.000000,0.000000,127.500000,64.000000,15.500000,72.000000,0.000000,0.000000,0.000000,1770023757.419267,0.000000
52.000000,7237.181930,-9609.998418,-2728.790370,-2744.235426,-2597.719741,-11325.070122,-1826.852778,1481.652436,-4112.273945,-16113.730206,-2490.945457,-2772.286865,749.409288,13113.835527,897.243726,-4976.593551,0.002750,-0.013094,1.003031,192.000000,0.000000,0.000000,0.000000,0.000000,0.000000,0.000000,0.000000,0.000000,0.000000,1770023757.419278,0.000000
54.000000,7269.904884,-9578.482458,-2690.010093,-2715.267565,-2568.684825,-11295.342302,-1797.460234,1515.068294,-4079.685101,-16085.857580,-2451.360518,-2738.133399,771.738681,13144.412714,922.881177,-4959.896798,0.002750,-0.013094,1.003031,192.000000,0.000000,0.000000,0.000000,0.000000,0.000000,0.000000,0.000000,0.000000,0.000000,1770023757.419290,0.000000
56.000000,7236.801951,-9612.881793,-2721.146073,-2747.387021,-2603.888822,-11335.106055,-1823.589423,1481.808899,-4080.266247,-16092.898380,-2455.361480,-2745.531827,777.594838,13138.645964,919.349601,-4969.105717,0.002750,-0.013094,1.003031,192.000000,0.000000,0.000000,0.000000,0.000000,0.000000,0.000000,0.000000,0.000000,0.000000,1770023757.419302,0.000000
58.000000,7252.470523,-9597.257924,-2707.399751,-2726.286975,-2587.013255,-11317.448177,-1805.573917,1498.416245,-4098.393512,-16113.171412,-2476.774451,-2766.095432,760.227532,13118.641152,900.596488,-4985.869525,0.002750,-0.013094,1.003031,192.000000,0.000000,0.000000,0.000000,0.000000,0.000000,0.000000,0.000000,0.000000,0.000000,1770023757.419326,0.000000
60.000000,7234.253852,-9614.066436,-2723.381248,-2739.698021,-2601.161909,-11334.211985,-1816.012182,1482.859431,-4080.690930,-16089.433860,-2451.718146,-2738.848655,777.885411,13143.630403,919.908395,-4968.569275,0.002750,-0.013094,1.003031,192.000000,0.000000,0.000000,0.000000,0.000000,0.000000,0.000000,0.000000,0.000000,0.000000,1770023757.419338,0.000000
62.000000,7224.195567,-9622.090712,-2732.970146,-2751.499742,-2611.778988,-11348.695916,-1826.897481,1475.528058,-4123.919204,-16130.739883,-2498.366236,-2782.546315,728.041020,13101.899696,886.201964,-4986.361264,0.004000,-0.016000,1.004000,192.000000,0.000000,16.000000,127.500000,64.000000,15.500000,48.000000,0.000000,0.000000,0.000000,1770023757.419350,0.000000
64.000000,7242.367535,-9601.705921,-2702.616477,-2730.287937,-2587.616752,-11320.622125,-1803.271687,1495.912849,-4093.878459,-16106.890572,-2461.776431,-2753.153772,765.167268,13129.526452,917.628517,-4969.172772,0.004000,-0.016000,1.004000,192.000000,0.000000,0.000000,0.000000,0.000000,0.000000,0.000000,0.000000,0.000000,0.000000,1770023757.419362,0.000000
66.000000,7210.940982,-9639.413314,-2739.452152,-2754.696042,-2614.595308,-11342.348020,-1832.887749,1462.742861,-4104.093206,-16113.909020,-2476.282713,-2761.356862,755.891294,13120.809271,914.521624,-4971.475002,0.004000,-0.016000,1.004000,192.000000,0.000000,0.000000,0.000000,0.000000,0.000000,0.000000,0.000000,0.000000,0.000000,1770023757.419374,0.000000
68.000000,7243.127494,-9609.216107,-2709.120835,-2729.706792,-2590.410720,-11316.777625,-1814.224042,1487.128614,-4121.840492,-16129.555241,-2496.913373,-2781.652246,741.250901,13108.068777,903.524566,-4982.293246,0.004000,-0.016000,1.004000,192.000000,0.000000,0.000000,0.000000,0.000000,0.000000,0.000000,0.000000,0.000000,0.000000,1770023757.419386,0.000000
70.000000,7242.144017,-9607.651485,-2722.286012,-2732.478408,-2594.210517,-11317.202308,-1816.995659,1488.201498,-4082.389663,-16088.763307,-2455.450887,-2740.748553,782.623980,13143.652754,928.044430,-4963.204856,0.004000,-0.016000,1.004000,192.000000,0.000000,0.000000,0.000000,0.000000,0.000000,0.000000,0.000000,0.000000,0.000000,1770023757.419397,0.000000
72.000000,7245.452076,-9602.041197,-2726.130512,-2738.267510,-2609.722627,-11325.070122,-1820.393124,1489.229678,-4106.551898,-16113.551392,-2489.336132,-2770.588132,755.801887,13119.781091,892.326342,-4980.572162,-0.002000,-0.018000,1.006000,192.000000,127.500000,120.000000,127.500000,56.000000,15.500000,56.000000,0.000000,0.000000,0.000000,1770023757.419409,0.000000
74.000000,7268.742593,-9582.394014,-2692.312323,-2717.078056,-2585.538040,-11308.641590,-1795.850908,1514.710667,-4076.891133,-16081.007252,-2443.246835,-2734.825341,765.815469,13149.330097,914.365162,-4969.910380,-0.002000,-0.018000,1.006000,192.000000,0.000000,0.000000,0.000000,0.000000,0.000000,0.000000,0.000000,0.000000,0.000000,1770023757.898764,0.000000
76.000000,7239.841788,-9614.088787,-2717.614498,-2748.258740,-2610.750808,-11349.344116,-1822.784760,1486.502765,-4079.640398,-16094.932389,-2451.025242,-2742.693155,775.069091,13131.560461,907.212604,-4977.599380,-0.002000,-0.018000,1.006000,192.000000,0.000000,0.000000,0.000000,0.000000,0.000000,0.000000,0.000000,0.000000,0.000000,1770023757.898831,0.000000
78.000000,7261.657090,-9597.995531,-2700.068378,-2726.868120,-2585.403929,-11321.449139,-1806.400932,1503.221870,-4096.068930,-16116.278305,-2473.667559,-2762.988539,757.075936,13113.857879,901.423502,-4988.708197,-0.002000,-0.018000,1.006000,192.000000,0.000000,0.000000,0.000000,0.000000,0.000000,0.000000,0.000000,0.000000,0.000000,1770023757.898876,0.000000
80.000000,7249.833018,-9602.957619,-2710.439588,-2733.327774,-2591.930639,-11326.545337,-1815.162815,1489.363788,-4072.577247,-16086.058746,-2445.146733,-2735.965280,799.320733,13147.519606,930.458418,-4966.445859,-0.002000,-0.018000,1.006000,192.000000,0.000000,0.000000,0.000000,0.000000,0.000000,0.000000,0.000000,0.000000,0.000000,1770023757.898932,0.000000
82.000000,7245.765000,-9618.939116,-2721.749571,-2747.208208,-2600.692523,-11342.906814,-1824.461141,1480.736015,-4104.406131,-16119.653418,-2484.754024,-2779.215906,753.209085,13112.337960,901.535261,-4989.736377,-0.002000,-0.014000,1.016000,192.000000,127.500000,120.000000,127.500000,72.000000,15.500000,96.000000,0.000000,0.000000,0.000000,1770023757.898986,0.000000
84.000000,7268.854352,-9581.812868,-2702.325905,-2723.180082,-2574.295112,-11317.626991,-1800.343609,1507.580460,-4075.974712,-16092.786621,-2447.381907,-2747.588187,781.327579,13136.276679,926.323345,-4979.566333,-0.002000,-0.014000,1.016000,192.000000,0.000000,0.000000,0.000000,0.000000,0.000000,0.000000,0.000000,0.000000,0.000000,1770023757.899040,0.000000
86.000000,7231.303421,-9621.129587,-2726.398733,-2756.439478,-2613.611831,-11351.020497,-1828.506807,1473.024663,-4089.452814,-16102.531982,-2458.826001,-2757.065327,772.610399,13123.714998,914.163996,-4981.108604,-0.002000,-0.014000,1.016000,192.000000,0.000000,0.000000,0.000000,0.000000,0.000000,0.000000,0.000000,0.000000,0.000000,1770023757.899085,0.000000
88.000000,7252.850503,-9600.364816,-2700.694227,-2737.418143,-2586.052130,-11318.610468,-1810.491301,1493.342399,-4109.345866,-16121.396854,-2479.277847,-2777.695987,748.381108,13106.258286,899.814177,-4992.597400,-0.002000,-0.014000,1.016000,192.000000,0.000000,0.000000,0.000000,0.000000,0.000000,0.000000,0.000000,0.000000,0.000000,1770023757.899104,0.000000
90.000000,7246.837884,-9607.293857,-2711.311306,-2741.530864,-2587.102662,-11318.968096,-1816.034534,1482.524154,-4071.750232,-16090.126764,-2446.443134,-2743.989556,790.916478,13146.312612,932.157151,-4969.351586,-0.002000,-0.014000,1.016000,192.000000,0.000000,0.000000,0.000000,0.000000,0.000000,0.000000,0.000000,0.000000,0.000000,1770023757.899132,0.000000
92.000000,7233.225671,-9620.861366,-2727.963356,-2749.778658,-2599.641991,-11334.413151,-1827.053944,1471.817669,-4108.205927,-16123.140290,-2494.298219,-2782.009874,764.250846,13105.207754,901.982296,-4989.646970,-0.004000,-0.014000,1.012000,192.000000,127.500000,112.000000,127.500000,72.000000,15.500000,80.000000,0.000000,0.000000,0.000000,1770023757.899151,0.000000
94.000000,7260.941835,-9591.290008,-2704.449320,-2722.733047,-2582.788775,-11313.983657,-1802.757597,1500.204384,-4085.697721,-16097.860467,-2458.378966,-2749.711603,769.458803,13128.364161,921.718886,-4978.269932,-0.004000,-0.014000,1.012000,192.000000,0.000000,0.000000,0.000000,0.000000,0.000000,0.000000,0.000000,0.000000,0.000000,1770023757.899169,0.000000
96.000000,7230.208186,-9624.616459,-2732.232539,-2749.041051,-2616.361095,-11345.946651,-1827.165702,1473.426994,-4092.582058,-16101.794374,-2464.548047,-2754.718394,761.590989,13124.407902,908.911337,-4982.248543,-0.004000,-0.014000,1.012000,192.000000,0.000000,0.000000,0.000000,0.000000,0.000000,0.000000,0.000000,0.000000,0.000000,1770023757.899187,0.000000
98.000000,7254.482180,-9601.795328,-2711.847748,-2732.321946,-2596.959781,-11324.019590,-1809.664286,1491.934239,-4108.630611,-16122.559145,-2481.915353,-2776.131365,744.827180,13105.185402,892.572211,-4993.625581,-0.004000,-0.014000,1.012000,192.000000,0.000000,0.000000,0.000000,0.000000,0.000000,0.000000,0.000000,0.000000,0.000000,1770023757.899206,0.000000
100.000000,7247.463733,-9610.668970,-2715.267565,-2739.116876,-2595.663380,-11325.494805,-1813.486435,1481.607733,-4076.198229,-16094.038319,-2447.024279,-2748.482257,788.681303,13134.063856,924.714020,-4968.792792,-0.004000,-0.014000,1.012000,192.000000,0.000000,0.000000,0.000000,0.000000,0.000000,0.000000,0.000000,0.000000,0.000000,1770023757.899224,0.000000
102.000000,7236.019639,-9634.741799,-2722.531882,-2758.875818,-2608.023895,-11353.948576,-1829.400877,1465.134497,-4111.491634,-16135.590212,-2491.325437,-2792.761063,753.745527,13092.020225,900.283563,-4992.597400,-0.004000,-0.014000,1.012000,192.000000,0.000000,0.000000,127.500000,72.000000,15.500000,72.000000,0.000000,0.000000,0.000000,1770023757.899243,0.000000
104.000000,7260.003061,-9596.006226,-2700.828338,-2731.651393,-2587.370883,-11322.745540,-1806.244469,1492.045998,-4085.675369,-16109.885706,-2460.256512,-2763.435574,779.919419,13117.568268,924.423447,-4979.678092,-0.004000,-0.014000,1.012000,192.000000,0.000000,0.000000,0.000000,0.000000,0.000000,0.000000,0.000000,0.000000,0.000000,1770023757.899261,0.000000
106.000000,7226.408389,-9626.717523,-2733.283071,-2760.082812,-2617.255165,-11356.183750,-1832.284252,1465.134497,-4099.242878,-16111.249162,-2473.153469,-2767.436536,757.567675,13115.064873,911.459435,-4986.204801,-0.004000,-0.014000,1.012000,192.000000,0.000000,0.000000,0.000000,0.000000,0.000000,0.000000,0.000000,0.000000,0.000000,1770023757.899279,0.000000
108.000000,7251.621157,-9604.432834,-2713.725294,-2736.211149,-2592.400025,-11330.747465,-1812.435903,1488.894402,-4117.839529,-16125.330761,-2488.978504,-2780.422900,743.754297,13100.312722,900.976467,-4995.413720,-0.004000,-0.014000,1.012000,192.000000,0.000000,0.000000,0.000000,0.000000,0.000000,0.000000,0.000000,0.000000,0.000000,1770023757.899298,0.000000
110.000000,7245.519131,-9614.245250,-2715.401675,-2738.915710,-2591.438900,-11325.114825,-1816.302754,1482.233582,-4086.636494,-16096.072328,-2451.315814,-2747.275263,778.757129,13133.817987,931.888930,-4971.966740,-0.004000,-0.014000,1.012000,192.000000,0.000000,0.000000,0.000000,0.000000,0.000000,0.000000,0.000000,0.000000,0.000000,1770023757.899316,0.000000
112.000000,7223.256793,-9630.293802,-2729.304460,-2753.511399,-2605.922831,-11340.090494,-1829.669098,1463.301654,-4118.040695,-16131.052808,-2494.007646,-2788.670693,752.471477,13102.771414,904.016304,-4988.685845,0.002000,-0.012000,1.006000,192.000000,0.000000,8.000000,127.500000,80.000000,15.500000,56.000000,0.000000,0.000000,0.000000,1770023757.899334,0.000000
114.000000,7252.738744,-9602.801156,-2707.913841,-2725.683478,-2582.207630,-11309.893287,-1805.059827,1487.687407,-4094.057273,-16108.902229,-2463.989254,-2765.156658,769.481155,13122.508004,925.317517,-4977.577028,0.002000,-0.012000,1.006000,192.000000,0.000000,0.000000,0.000000,0.000000,0.000000,0.000000,0.000000,0.000000,0.000000,1770023757.899352,0.000000
116.000000,7223.703828,-9635.322945,-2736.233501,-2757.221789,-2609.789683,-11344.270270,-1834.094743,1459.032471,-4096.806538,-16115.183069,-2470.873591,-2771.638664,762.641521,13116.271867,918.634345,-4979.655740,0.002000,-0.012000,1.006000,192.000000,0.000000,0.000000,0.000000,0.000000,0.000000,0.000000,0.000000,0.000000,0.000000,1770023757.899371,0.000000
118.000000,7254.951567,-9606.958581,-2711.065437,-2733.104257,-2580.084214,-11314.251878,-1814.715781,1484.960495,-4110.843433,-16129.667000,-2487.033902,-2786.882554,744.268387,13103.263152,909.000744,-4991.233944,0.002000,-0.012000,1.006000,192.000000,0.000000,0.000000,0.000000,0.000000,0.000000,0.000000,0.000000,0.000000,0.000000,1770023757.899389,0.000000
120.000000,7251.107067,-9605.863345,-2712.540652,-2736.233501,-2575.099775,-11317.291715,-1818.068542,1481.607733,-4072.689005,-16093.680691,-2448.164218,-2748.258740,795.900917,13137.774245,943.556540,-4967.295226,0.002000,-0.012000,1.006000,192.000000,0.000000,0.000000,0.000000,0.000000,0.000000,0.000000,0.000000,0.000000,0.000000,1770023757.899408,0.000000
122.000000,7231.683401,-9629.198567,-2728.633908,-2752.863199,-2598.144424,-11336.447160,-1834.765295,1464.151021,-4104.137910,-16125.598982,-2491.772472,-2785.027359,759.400518,13105.095995,913.269927,-4981.443880,0.004000,-0.012000,1.004000,192.000000,0.000000,16.000000,127.500000,80.000000,15.500000,48.000000,0.000000,0.000000,0.000000,1770023757.899429,0.000000
124.000000,7262.484105,-9592.765223,-2703.868175,-2723.537710,-2577.357301,-11306.808747,-1807.317353,1496.024608,-4088.089357,-16103.336645,-2462.603445,-2759.747536,781.595800,13130.197004,929.318479,-4964.501257,0.004000,-0.012000,1.004000,192.000000,0.000000,0.000000,0.000000,0.000000,0.000000,0.000000,0.000000,0.000000,0.000000,1770023757.899448,0.000000
126.000000,7236.645488,-9625.666991,-2732.433704,-2754.181952,-2615.869357,-11348.740619,-1831.412534,1469.761308,-4086.368273,-16105.616523,-2458.803649,-2764.083775,765.279027,13125.972524,921.316555,-4972.659644,0.004000,-0.012000,1.004000,192.000000,0.000000,0.000000,0.000000,0.000000,0.000000,0.000000,0.000000,0.000000,0.000000,1770023757.899467,0.000000
128.000000,7254.795105,-9600.945962,-2704.784597,-2732.768981,-2597.339761,-11334.144930,-1808.993734,1495.242297,-4102.528584,-16123.341456,-2473.488745,-2780.109975,749.275178,13112.919106,899.322438,-4990.563392,0.004000,-0.012000,1.004000,192.000000,0.000000,0.000000,0.000000,0.000000,0.000000,0.000000,0.000000,0.000000,0.000000,1770023757.899499,0.000000
130.000000,7240.489988,-9620.414331,-2726.354030,-2744.101315,-2614.930584,-11348.338288,-1817.554452,1481.026588,-4080.780337,-16101.973188,-2444.945567,-2749.711603,776.298437,13124.743178,924.289337,-4972.614941,0.004000,-0.012000,1.004000,192.000000,0.000000,0.000000,0.000000,0.000000,0.000000,0.000000,0.000000,0.000000,0.000000,1770023757.899518,0.000000
132.000000,7213.109101,-9648.309308,-2741.866141,-2768.375310,-2636.254148,-11376.188561,-1837.134580,1453.869218,-4126.579061,-16150.722343,-2501.003742,-2798.572516,730.343250,13073.155352,892.214583,-4999.660552,0.004000,-0.015000,1.004000,192.000000,0.000000,16.000000,127.500000,56.000000,15.500000,48.000000,0.000000,0.000000,0.000000,1770023757.899536,0.000000
134.000000,7236.176102,-9622.336581,-2710.037256,-2741.620271,-2603.419435,-11343.264442,-1813.218214,1476.645646,-4106.104863,-16132.550375,-2477.132079,-2779.484127,755.332500,13101.273847,919.640174,-4989.490508,0.004000,-0.015000,1.004000,192.000000,0.000000,0.000000,0.000000,0.000000,0.000000,0.000000,0.000000,0.000000,0.000000,1770023757.899554,0.000000
136.000000,7214.941944,-9642.967241,-2737.284033,-2765.156658,-2617.188110,-11367.493733,-1833.982984,1452.304596,-4108.809424,-16129.890517,-2479.747233,-2783.060406,750.549227,13101.787937,922.501197,-4989.870487,0.004000,-0.015000,1.004000,192.000000,0.000000,0.000000,0.000000,0.000000,0.000000,0.000000,0.000000,0.000000,0.000000,1770023757.899572,0.000000
138.000000,7243.596881,-9614.871098,-2708.785559,-2741.195588,-2594.344627,-11335.977773,-1815.051057,1478.366730,-4112.944497,-16137.579517,-2493.202984,-2796.046769,750.817448,13092.221390,910.565366,-4996.687769,0.004000,-0.015000,1.004000,192.000000,0.000000,0.000000,0.000000,0.000000,0.000000,0.000000,0.000000,0.000000,0.000000,1770023757.899590,0.000000
140.000000,7247.039050,-9609.730197,-2714.842882,-2736.389963,-2592.198860,-11330.054561,-1814.402856,1480.758367,-4080.556820,-16099.179220,-2448.432439,-2755.165429,773.348006,13136.433141,937.007479,-4971.765574,0.004000,-0.015000,1.004000,192.000000,0.000000,0.000000,0.000000,0.000000,0.000000,0.000000,0.000000,0.000000,0.000000,1770023757.899608,0.000000
142.000000,7238.634794,-9622.202471,-2724.610594,-2745.889455,-2601.385427,-11342.795055,-1825.332859,1472.599980,-4101.701570,-16124.459043,-2483.211754,-2781.808708,763.557942,13110.952152,908.777226,-4986.964761,0.004000,-0.016500,1.006000,192.000000,0.000000,16.000000,127.500000,56.000000,15.500000,64.000000,0.000000,0.000000,0.000000,1770023757.899626,0.000000
144.000000,7274.486992,-9578.482458,-2693.899297,-2712.272431,-2573.669264,-11304.260648,-1800.477719,1508.608640,-4070.185610,-16093.635987,-2445.280843,-2746.716469,783.987437,13143.652754,926.300994,-4969.195124,0.004000,-0.016500,1.006000,192.000000,0.000000,0.000000,0.000000,0.000000,0.000000,0.000000,0.000000,0.000000,0.000000,1770023757.899644,0.000000
146.000000,7241.540520,-9614.714636,-2724.208262,-2742.715507,-2603.084159,-11340.738695,-1828.082124,1478.210268,-4073.337206,-16093.367767,-2448.387736,-2745.263606,781.126413,13141.216414,927.910319,-4966.758784,0.004000,-0.016500,1.006000,192.000000,0.000000,0.000000,0.000000,0.000000,0.000000,0.000000,0.000000,0.000000,0.000000,1770023757.899663,0.000000
148.000000,7254.169256,-9602.421177,-2706.460977,-2726.197568,-2590.902459,-11325.338343,-1808.859624,1489.944934,-4099.086416,-16117.015912,-2475.545105,-2773.113879,759.646387,13118.954077,907.145549,-4980.035720,0.004000,-0.016500,1.006000,192.000000,0.000000,0.000000,0.000000,0.000000,0.000000,0.000000,0.000000,0.000000,0.000000,1770023757.899681,0.000000
150.000000,7246.592015,-9614.066436,-2712.071265,-2733.640699,-2597.540927,-11334.256689,-1813.687600,1478.724358,-4070.163258,-16091.423165,-2441.123419,-2747.588187,781.975780,13146.491426,932.425372,-4963.115449,0.004000,-0.016500,1.006000,192.000000,0.000000,0.000000,0.000000,0.000000,0.000000,0.000000,0.000000,0.000000,0.000000,1770023757.899700,0.000000
152.000000,7223.033276,-9634.540634,-2732.813684,-2756.059498,-2616.249337,-11360.229416,-1833.737115,1456.394965,-4111.536337,-16133.377389,-2491.571306,-2792.716359,757.277102,13105.878306,900.797653,-4988.887011,0.004000,-0.016500,1.006000,192.000000,0.000000,0.000000,127.500000,72.000000,15.500000,64.000000,0.000000,0.000000,0.000000,1770023757.899718,0.000000
154.000000,7249.363631,-9604.276372,-2706.125701,-2731.539635,-2590.634238,-11336.894195,-1811.273612,1484.401701,-4092.783224,-16110.198630,-2464.190419,-2769.202324,763.803812,13124.474958,923.283508,-4980.460403,0.004000,-0.016500,1.006000,192.000000,0.000000,0.000000,0.000000,0.000000,0.000000,0.000000,0.000000,0.000000,0.000000,1770023757.899741,0.000000
156.000000,7224.933174,-9638.161616,-2734.333603,-2759.278150,-2608.627392,-11363.716288,-1835.793476,1457.669015,-4094.012570,-16119.608715,-2468.146678,-2775.013778,771.626922,13119.892850,922.277680,-4982.002673,0.004000,-0.016500,1.006000,192.000000,0.000000,0.000000,0.000000,0.000000,0.000000,0.000000,0.000000,0.000000,0.000000,1770023757.899760,0.000000
158.000000,7246.480256,-9610.266639,-2711.490120,-2738.222806,-2580.844174,-11335.374276,-1815.363981,1480.400739,-4110.150529,-16132.080988,-2487.056254,-2789.430653,752.046794,13104.023111,913.940479,-4988.775252,0.004000,-0.016500,1.006000,192.000000,0.000000,0.000000,0.000000,0.000000,0.000000,0.000000,0.000000,0.000000,0.000000,1770023757.899778,0.000000
160.000000,7240.847616,-9613.820566,-2709.433759,-2739.228635,-2577.245543,-11331.775645,-1815.632202,1476.131556,-4079.372177,-16099.067461,-2447.806591,-2751.946777,786.580239,13140.635269,946.484619,-4967.429336,0.004000,-0.016500,1.006000,192.000000,0.000000,0.000000,0.000000,0.000000,0.000000,0.000000,0.000000,0.000000,0.000000,1770023757.899796,0.000000
162.000000,7223.972049,-9633.534805,-2727.359858,-2758.495838,-2605.028761,-11357.994241,-1832.194845,1457.221980,-4110.932840,-16132.460968,-2489.425539,-2793.073987,760.853381,13108.649922,914.923956,-4989.848136,0.001000,-0.015250,1.007000,192.000000,127.500000,120.000000,127.500000,72.000000,15.500000,64.000000,0.000000,0.000000,0.000000,1770023757.899815,0.000000
164.000000,7257.969053,-9601.191831,-2700.984800,-2726.868120,-2578.608999,-11330.211023,-1806.669153,1486.525117,-4083.127270,-16106.488241,-2456.814344,-2766.900094,785.552059,13127.023056,923.216453,-4980.303941,0.001000,-0.015250,1.007000,192.000000,0.000000,0.000000,0.000000,0.000000,0.000000,0.000000,0.000000,0.000000,0.000000,1770023757.899834,0.000000
166.000000,7230.744628,-9631.746665,-2732.187835,-2757.042975,-2612.158968,-11359.223587,-1833.088915,1460.083003,-4085.675369,-16114.937200,-2461.888190,-2773.739728,773.795041,13123.178556,925.250462,-4974.336025,0.001000,-0.015250,1.007000,192.000000,0.000000,0.000000,0.000000,0.000000,0.000000,0.000000,0.000000,0.000000,0.000000,1770023757.899852,0.000000
168.000000,7257.007928,-9600.945962,-2714.284088,-2733.372478,-2588.130842,-11331.149796,-1814.738132,1485.318123,-4102.595640,-16126.873031,-2478.607294,-2787.508403,748.671681,13109.521640,908.218432,-4984.304903,0.001000,-0.015250,1.007000,192.000000,0.000000,0.000000,0.000000,0.000000,0.000000,0.000000,0.000000,0.000000,0.000000,1770023757.899870,0.000000
170.000000,7254.281015,-9602.801156,-2709.657277,-2730.220882,-2585.806261,-11320.912697,-1816.056885,1485.742806,-4068.151601,-16090.797316,-2441.861027,-2745.688289,791.050588,13149.464208,937.923901,-4958.376879,0.001000,-0.015250,1.007000,192.000000,0.000000,0.000000,0.000000,0.000000,0.000000,0.000000,0.000000,0.000000,0.000000,1770023757.899889,0.000000
172.000000,7239.528863,-9622.314229,-2724.700001,-2744.749516,-2605.542851,-11337.743561,-1830.071429,1470.789489,-4102.617991,-16119.251087,-2477.221486,-2775.438461,755.131335,13120.317533,908.129025,-4973.888990,0.001000,-0.015250,1.007000,192.000000,0.000000,0.000000,127.500000,56.000000,15.500000,80.000000,0.000000,0.000000,0.000000,1770023757.899908,0.000000
174.000000,7265.300425,-9587.780784,-2704.672838,-2720.296707,-2580.039511,-11316.822328,-1806.579746,1494.370579,-4081.987331,-16098.642778,-2452.500457,-2753.287882,784.412120,13143.518644,926.949194,-4963.338967,0.001000,-0.015250,1.007000,192.000000,0.000000,0.000000,0.000000,0.000000,0.000000,0.000000,0.000000,0.000000,0.000000,1770023757.899926,0.000000
176.000000,7230.007020,-9629.846767,-2723.515358,-2755.098373,-2609.968497,-11363.336308,-1829.713801,1462.519343,-4084.490727,-16104.700101,-2458.088393,-2761.803897,780.388806,13136.187272,923.328212,-4973.888990,0.001000,-0.015250,1.007000,192.000000,0.000000,0.000000,0.000000,0.000000,0.000000,0.000000,0.000000,0.000000,0.000000,1770023757.899944,0.000000
178.000000,7243.015736,-9615.273430,-2706.304515,-2743.207245,-2589.539002,-11356.519026,-1815.051057,1477.629122,-4110.150529,-16134.718494,-2482.094167,-2793.945705,752.315015,13101.184440,913.336982,-4999.951124,0.001000,-0.015250,1.007000,192.000000,0.000000,0.000000,0.000000,0.000000,0.000000,0.000000,0.000000,0.000000,0.000000,1770023757.899962,0.000000
180.000000,7238.724201,-9618.715598,-2718.799140,-2742.782562,-2593.607020,-11351.825160,-1819.499054,1474.768099,-4083.909581,-16107.762290,-2447.113686,-2757.780583,798.694885,13133.348600,940.159075,-4984.930752,0.001000,-0.015250,1.007000,192.000000,0.000000,0.000000,0.000000,0.000000,0.000000,0.000000,0.000000,0.000000,0.000000,1770023757.899980,0.000000
182.000000,7226.721314,-9627.723351,-2733.819513,-2755.768926,-2612.293078,-11363.336308,-1831.434885,1463.525172,-4117.727771,-16134.718494,-2492.107748,-2790.995275,739.440410,13100.603294,904.999781,-5000.442863,0.001500,-0.016625,1.009500,192.000000,0.000000,8.000000,127.500000,56.000000,15.500000,80.000000,0.000000,0.000000,0.000000,1770023757.899995,0.000000
184.000000,7259.578378,-9597.861421,-2707.198585,-2727.404562,-2586.901496,-11324.667790,-1805.685676,1488.715588,-4090.905677,-16105.884743,-2459.161277,-2763.346167,775.404367,13130.018190,925.026944,-4981.756804,0.001500,-0.016625,1.009500,192.000000,0.000000,0.000000,0.000000,0.000000,0.000000,0.000000,0.000000,0.000000,0.000000,1770023757.900011,0.000000
186.000000,7229.314116,-9628.080979,-2727.739838,-2755.746574,-2614.975287,-11358.508332,-1829.937319,1458.585436,-4091.017436,-16108.790470,-2466.447945,-2768.017682,769.749376,13129.302934,919.416656,-4983.500240,0.001500,-0.016625,1.009500,192.000000,0.000000,0.000000,0.000000,0.000000,0.000000,0.000000,0.000000,0.000000,0.000000,1770023757.900034,0.000000
188.000000,7243.418067,-9616.435720,-2712.093617,-2734.981803,-2596.624505,-11340.828102,-1813.777007,1475.997445,-4111.581041,-16127.588287,-2485.357521,-2788.044845,753.074974,13110.795690,905.558575,-4994.966685,0.001500,-0.016625,1.009500,192.000000,0.000000,0.000000,0.000000,0.000000,0.000000,0.000000,0.000000,0.000000,0.000000,1770023757.900052,0.000000
190.000000,7242.859273,-9609.327866,-2711.266602,-2731.383172,-2602.279496,-11344.046753,-1812.838234,1478.545544,-4084.155450,-16095.424127,-2452.008718,-2750.493914,788.480137,13144.435065,930.681936,-4974.268970,0.001500,-0.016625,1.009500,192.000000,0.000000,0.000000,0.000000,0.000000,0.000000,0.000000,0.000000,0.000000,0.000000,1770023757.900069,0.000000
192.000000,7235.751419,-9626.471654,-2729.080943,-2746.649414,-2617.568090,-11363.895102,-1825.466970,1466.117974,-4114.062084,-16127.744750,-2490.252553,-2785.787318,748.045832,13109.812213,903.457511,-4990.183412,0.002750,-0.015312,1.007750,192.000000,0.000000,16.000000,127.500000,72.000000,15.500000,56.000000,0.000000,0.000000,0.000000,1770023757.900087,0.000000
194.000000,7268.072041,-9588.004302,-2697.699094,-2716.854539,-2588.108490,-11321.896174,-1803.450501,1497.321009,-4086.345921,-16103.090775,-2454.668576,-2758.987577,776.812527,13135.717885,921.562424,-4970.759746,0.002750,-0.015312,1.007750,192.000000,0.000000,0.000000,0.000000,0.000000,0.000000,0.000000,0.000000,0.000000,0.000000,1770023758.380761,0.000000
196.000000,7240.244119,-9617.016866,-2724.297669,-2740.502684,-2607.778026,-11341.006916,-1830.093781,1468.442555,-4078.969846,-16092.786621,-2451.204056,-2751.723260,798.873699,13143.853920,918.924918,-4962.467249,0.002750,-0.015312,1.007750,192.000000,0.000000,0.000000,0.000000,0.000000,0.000000,0.000000,0.000000,0.000000,0.000000,1770023758.380825,0.000000
198.000000,7251.643509,-9602.398825,-2710.283126,-2719.648507,-2588.153194,-11314.341285,-1814.492263,1482.032416,-4102.819157,-16113.886668,-2478.495536,-2775.840792,754.885465,13128.990010,911.370028,-4970.826801,0.002750,-0.015312,1.007750,192.000000,0.000000,0.000000,0.000000,0.000000,0.000000,0.000000,0.000000,0.000000,0.000000,1770023758.380880,0.000000
200.000000,7243.529826,-9614.647581,-2719.201472,-2730.265585,-2590.433072,-11323.371389,-1819.700220,1473.225829,-4079.685101,-16083.287130,-2452.500457,-2746.694117,793.576335,13159.969528,936.828665,-4948.899740,0.002750,-0.015312,1.007750,192.000000,0.000000,0.000000,0.000000,0.000000,0.000000,0.000000,0.000000,0.000000,0.000000,1770023758.380934,0.000000
202.000000,7215.768959,-9637.021677,-2735.898225,-2755.858333,-2616.539909,-11357.301337,-1837.179284,1449.108297,-4120.566442,-16127.320066,-2498.612106,-2792.716359,746.816486,13116.718902,907.346714,-4981.510935,0.002750,-0.015312,1.007750,192.000000,0.000000,0.000000,0.000000,0.000000,0.000000,0.000000,0.000000,0.000000,0.000000,1770023758.380988,0.000000
204.000000,7249.564797,-9598.599028,-2708.025599,-2726.286975,-2584.331046,-11328.422884,-1810.468949,1484.401701,-4102.215660,-16109.393967,-2474.002835,-2770.029339,766.463669,13133.348600,925.250462,-4978.113470,0.002000,-0.014000,1.008000,192.000000,0.000000,8.000000,127.500000,72.000000,15.500000,64.000000,0.000000,0.000000,0.000000,1770023758.381008,0.000000
206.000000,7228.956488,-9629.042104,-2720.095541,-2748.504609,-2602.637124,-11353.613300,-1831.501941,1461.893494,-4088.581096,-16101.883781,-2463.721033,-2760.820420,781.662855,13138.690667,924.825779,-4980.974493,0.002000,-0.014000,1.008000,192.000000,0.000000,0.000000,0.000000,0.000000,0.000000,0.000000,0.000000,0.000000,0.000000,1770023758.381042,0.000000
208.000000,7263.780506,-9591.267656,-2699.777806,-2723.381248,-2577.536115,-11323.661962,-1812.838234,1490.123748,-4103.668523,-16113.417281,-2475.388643,-2775.438461,759.445221,13126.061931,912.197043,-4988.730548,0.002000,-0.014000,1.008000,192.000000,0.000000,0.000000,0.000000,0.000000,0.000000,0.000000,0.000000,0.000000,0.000000,1770023758.381073,0.000000
210.000000,7252.448172,-9601.482403,-2708.182062,-2727.538672,-2582.766424,-11319.593945,-1814.291097,1483.082948,-4068.039843,-16078.727374,-2435.244910,-2738.401620,800.438321,13164.573987,937.566273,-4961.550827,0.002000,-0.014000,1.008000,192.000000,0.000000,0.000000,0.000000,0.000000,0.000000,0.000000,0.000000,0.000000,0.000000,1770023758.381092,0.000000
212.000000,7243.015736,-9614.424063,-2727.538672,-2741.620271,-2599.753749,-11339.866977,-1826.763371,1469.783660,-4101.098073,-16113.350226,-2480.686007,-2778.232429,777.639541,13129.906431,904.150415,-4979.119298,0.002000,-0.014000,1.008000,192.000000,0.000000,0.000000,0.000000,0.000000,0.000000,0.000000,0.000000,0.000000,0.000000,1770023758.381110,0.000000
214.000000,7272.251817,-9581.276426,-2692.737006,-2712.250079,-2574.473926,-11316.375293,-1803.182280,1498.416245,-4075.304160,-16084.807048,-2451.718146,-2749.219865,788.949524,13157.264967,921.830645,-4967.474039,0.002000,-0.014000,1.012000,192.000000,0.000000,8.000000,127.500000,72.000000,15.500000,80.000000,0.000000,0.000000,0.000000,1770023758.381128,0.000000
216.000000,7241.339355,-9621.822491,-2717.905071,-2741.083830,-2601.877165,-11348.539454,-1829.691449,1466.721471,-4079.595694,-16087.757479,-2449.170047,-2749.063402,788.457786,13151.900548,924.490502,-4969.820973,0.002000,-0.014000,1.012000,192.000000,0.000000,0.000000,0.000000,0.000000,0.000000,0.000000,0.000000,0.000000,0.000000,1770023758.381147,0.000000
218.000000,7258.661957,-9594.910991,-2704.449320,-2724.118855,-2583.436976,-11325.852433,-1814.358153,1482.032416,-4101.835680,-16111.629142,-2477.869687,-2774.991426,758.059413,13122.329190,909.045447,-4979.767499,0.002000,-0.014000,1.012000,192.000000,0.000000,0.000000,0.000000,0.000000,0.000000,0.000000,0.000000,0.000000,0.000000,1770023758.381176,0.000000
220.000000,7255.108029,-9598.621380,-2706.818605,-2724.610594,-2587.840270,-11323.773721,-1812.279440,1479.931352,-4071.057328,-16080.001423,-2440.743439,-2741.597920,792.659914,13164.618691,936.493389,-4959.829743,0.002000,-0.014000,1.012000,192.000000,0.000000,0.000000,0.000000,0.000000,0.000000,0.000000,0.000000,0.000000,0.000000,1770023758.381194,0.000000
222.000000,7237.606613,-9622.671857,-2727.091638,-2741.597920,-2609.119130,-11343.040924,-1830.272595,1461.334701,-4108.585907,-16112.903191,-2487.682103,-2777.539525,759.892256,13125.369027,904.552746,-4977.800545,0.002000,-0.014000,1.012000,192.000000,0.000000,0.000000,0.000000,0.000000,0.000000,0.000000,0.000000,0.000000,0.000000,1770023758.381213,0.000000
224.000000,7260.025413,-9594.128680,-2700.493062,-2717.949774,-2578.296075,-11314.944782,-1807.853795,1485.720454,-4089.832793,-16094.105374,-2461.262341,-2756.662995,770.598742,13141.730504,927.776209,-4972.033795,0.004000,-0.016000,1.010000,192.000000,0.000000,16.000000,127.500000,64.000000,15.500000,72.000000,0.000000,0.000000,0.000000,1770023758.381231,0.000000
226.000000,7230.699924,-9630.003229,-2734.467713,-2746.291786,-2598.434996,-11339.688163,-1830.741981,1457.736070,-4090.682160,-16098.642778,-2463.765736,-2758.518190,781.685207,13139.405923,930.346659,-4973.486659,0.004000,-0.016000,1.010000,192.000000,0.000000,0.000000,0.000000,0.000000,0.000000,0.000000,0.000000,0.000000,0.000000,1770023758.381250,0.000000
228.000000,7250.905901,-9604.321075,-2710.685457,-2728.723315,-2582.453499,-11325.494805,-1812.726475,1477.226791,-4110.485805,-16119.474604,-2487.257419,-2780.534658,762.619169,13121.278658,913.515796,-4989.669322,0.004000,-0.016000,1.010000,192.000000,0.000000,0.000000,0.000000,0.000000,0.000000,0.000000,0.000000,0.000000,0.000000,1770023758.381268,0.000000
230.000000,7255.264491,-9596.743834,-2716.318097,-2724.677649,-2587.013255,-11325.137177,-1811.474778,1479.305503,-4077.114651,-16081.253121,-2446.912521,-2742.402582,784.814451,13158.181388,936.314575,-4971.676167,0.004000,-0.016000,1.010000,192.000000,0.000000,0.000000,0.000000,0.000000,0.000000,0.000000,0.000000,0.000000,0.000000,1770023758.381286,0.000000
232.000000,7237.606613,-9624.169424,-2725.638774,-2740.882664,-2612.740113,-11349.053544,-1825.601080,1463.972207,-4107.043637,-16111.047996,-2482.004760,-2772.599789,761.032195,13128.587679,897.847223,-4988.931714,0.004000,-0.016000,1.010000,192.000000,0.000000,0.000000,0.000000,0.000000,0.000000,0.000000,0.000000,0.000000,0.000000,1770023758.381305,0.000000
234.000000,7261.768849,-9591.535877,-2698.749626,-2714.194681,-2583.884011,-11317.895212,-1802.399969,1490.548431,-4089.855145,-16095.602941,-2456.121439,-2750.940949,773.057434,13145.351487,916.309764,-4975.341854,0.004000,-0.016000,1.010000,192.000000,0.000000,0.000000,127.500000,72.000000,15.500000,64.000000,0.000000,0.000000,0.000000,1770023758.381323,0.000000
236.000000,7237.360744,-9624.169424,-2721.302536,-2749.041051,-2597.920906,-11350.819332,-1830.183188,1459.434802,-4092.805575,-16100.430918,-2461.910541,-2755.366594,780.992303,13141.372876,928.625575,-4973.397252,0.004000,-0.016000,1.010000,192.000000,0.000000,0.000000,0.000000,0.000000,0.000000,0.000000,0.000000,0.000000,0.000000,1770023758.381342,0.000000
238.000000,7260.137172,-9599.515450,-2700.828338,-2730.489103,-2578.653703,-11328.579346,-1810.088969,1481.741843,-4105.479015,-16115.719511,-2481.781242,-2775.840792,761.300416,13124.139681,917.583813,-4989.155232,0.004000,-0.016000,1.010000,192.000000,0.000000,0.000000,0.000000,0.000000,0.000000,0.000000,0.000000,0.000000,0.000000,1770023758.381361,0.000000
240.000000,7253.141076,-9610.288991,-2702.638829,-2735.473542,-2581.604133,-11335.106055,-1812.122978,1477.338550,-4075.393567,-16089.299749,-2442.285710,-2744.146019,793.397521,13149.397153,947.937482,-4970.044490,0.004000,-0.016000,1.010000,192.000000,0.000000,0.000000,0.000000,0.000000,0.000000,0.000000,0.000000,0.000000,0.000000,1770023758.381380,0.000000
242.000000,7233.918576,-9630.562023,-2729.304460,-2750.516266,-2604.134691,-11351.042849,-1828.506807,1458.943064,-4112.072779,-16125.911906,-2483.144699,-2783.015702,762.127431,13113.857879,915.147473,-4991.837441,0.004000,-0.016000,1.010000,192.000000,0.000000,0.000000,0.000000,0.000000,0.000000,0.000000,0.000000,0.000000,0.000000,1770023758.381398,0.000000
244.000000,7259.332509,-9593.256961,-2703.823472,-2721.883681,-2583.392272,-11313.447215,-1806.020952,1484.781681,-4095.733654,-16102.286113,-2460.949416,-2757.735879,778.712425,13139.048295,927.262119,-4972.525534,0.004000,-0.016000,1.010000,192.000000,0.000000,0.000000,127.500000,80.000000,15.500000,64.000000,0.000000,0.000000,0.000000,1770023758.381417,0.000000
246.000000,7233.851520,-9625.197604,-2723.738876,-2746.694117,-2604.648781,-11339.598756,-1830.116133,1457.490201,-4097.588849,-16097.726357,-2465.531524,-2755.880684,770.397576,13145.686763,928.960851,-4968.077537,0.004000,-0.016000,1.010000,192.000000,0.000000,0.000000,0.000000,0.000000,0.000000,0.000000,0.000000,0.000000,0.000000,1770023758.381435,0.000000
248.000000,7250.123590,-9610.132529,-2710.998381,-2731.539635,-2587.460290,-11325.137177,-1815.632202,1473.516401,-4118.085398,-16124.436691,-2488.039731,-2784.356807,760.071070,13119.959905,912.442912,-4984.371958,0.004000,-0.016000,1.010000,192.000000,0.000000,0.000000,0.000000,0.000000,0.000000,0.000000,0.000000,0.000000,0.000000,1770023758.381454,0.000000
250.000000,7251.509398,-9611.741854,-2703.644658,-2728.991536,-2585.582743,-11325.651267,-1810.848929,1475.438651,-4083.328436,-16092.697214,-2448.365384,-2749.242216,785.909687,13151.229996,941.410773,-4965.730603,0.004000,-0.016000,1.010000,192.000000,0.000000,0.000000,0.000000,0.000000,0.000000,0.000000,0.000000,0.000000,0.000000,1770023758.381478,0.000000
252.000000,7230.923442,-9626.248136,-2724.007097,-2745.598882,-2604.045284,-11344.314974,-1827.009240,1459.881837,-4115.939631,-16122.201517,-2485.871611,-2780.646417,752.583236,13124.921992,910.699476,-4983.142612,0.004000,-0.016000,1.010000,192.000000,0.000000,0.000000,0.000000,0.000000,0.000000,0.000000,0.000000,0.000000,0.000000,1770023758.381496,0.000000
254.000000,7263.288768,-9586.216162,-2695.978009,-2716.519262,-2568.282493,-11312.977828,-1802.534080,1488.223849,-4096.091282,-16097.391081,-2460.882361,-2755.232484,779.338274,13144.300955,926.479808,-4974.604246,0.004000,-0.016000,1.010000,192.000000,0.000000,0.000000,127.500000,88.000000,15.500000,72.000000,0.000000,0.000000,0.000000,1770023758.381515,0.000000
0.000000,7239.752381,-9621.487215,-2721.771922,-2747.051745,-2598.099720,-11345.678430,-1829.490284,1461.312349,-4089.586924,-16096.206438,-2455.875570,-2756.595940,786.714350,13145.664411,934.012346,-4974.336025,0.004000,-0.016000,1.010000,192.000000,0.000000,0.000000,0.000000,0.000000,0.000000,0.000000,0.000000,0.000000,0.000000,1770023758.381534,0.000000
2.000000,7251.867026,-9613.664104,-2702.884698,-2733.014850,-2589.091967,-11329.272250,-1812.659420,1474.008140,-4107.982410,-16123.632029,-2479.166088,-2786.256705,762.038024,13120.228126,908.374895,-4988.819955,0.004000,-0.016000,1.010000,192.000000,0.000000,0.000000,0.000000,0.000000,0.000000,0.000000,0.000000,0.000000,0.000000,1770023758.381552,0.000000
4.000000,7249.274224,-9609.730197,-2711.043085,-2731.629042,-2591.818880,-11327.506462,-1813.799359,1469.291922,-4085.474203,-16096.698176,-2447.404259,-2756.215961,786.781405,13151.140589,937.476866,-4965.931769,0.004000,-0.016000,1.010000,192.000000,0.000000,0.000000,0.000000,0.000000,0.000000,0.000000,0.000000,0.000000,0.000000,1770023758.381571,0.000000
6.000000,7220.619288,-9635.837035,-2732.746629,-2752.974958,-2607.599212,-11348.070067,-1834.675888,1445.666128,-4121.795788,-16126.113072,-2495.304048,-2792.492842,747.956425,13114.841356,909.134854,-4986.808298,0.004000,-0.016000,1.010000,192.000000,0.000000,0.000000,0.000000,0.000000,0.000000,0.000000,0.000000,0.000000,0.000000,1770023758.381590,0.000000
8.000000,7254.906864,-9601.527107,-2696.961486,-2723.671821,-2565.510877,-11310.072101,-1810.826577,1475.438651,-4104.361427,-16106.912924,-2471.164163,-2768.867048,774.733815,13138.310687,929.810218,-4972.100851,-0.002000,-0.010000,1.012000,192.000000,127.500000,120.000000,127.500000,88.000000,15.500000,80.000000,0.000000,0.000000,0.000000,1770023758.381608,0.000000
10.000000,7239.908843,-9628.952697,-2717.212166,-2746.291786,-2586.275647,-11331.730942,-1834.318260,1457.736070,-4091.687988,-16101.079118,-2459.071870,-2764.977844,786.602591,13144.904452,943.444782,-4965.440031,-0.002000,-0.010000,1.012000,192.000000,0.000000,0.000000,0.000000,0.000000,0.000000,0.000000,0.000000,0.000000,0.000000,1770023758.381627,0.000000
12.000000,7250.212997,-9611.361875,-2703.331733,-2731.047896,-2582.654665,-11316.665866,-1818.359115,1473.337588,-4108.407093,-16122.067406,-2477.981446,-2787.307237,764.250846,13123.156205,916.086247,-4979.521630,-0.002000,-0.010000,1.012000,192.000000,0.000000,0.000000,0.000000,0.000000,0.000000,0.000000,0.000000,0.000000,0.000000,1770023758.381646,0.000000
14.000000,7243.820398,-9609.953715,-2708.182062,-2726.443437,-2582.542906,-11312.977828,-1814.358153,1470.610675,-4086.547087,-16093.680691,-2448.052460,-2754.450173,790.000056,13151.587624,937.275700,-4959.270949,-0.002000,-0.010000,1.012000,192.000000,0.000000,0.000000,0.000000,0.000000,0.000000,0.000000,0.000000,0.000000,0.000000,1770023758.381664,0.000000
16.000000,7223.077979,-9628.818587,-2732.232539,-2748.996347,-2597.540927,-11336.938898,-1838.810961,1446.426087,-4128.724829,-16121.776834,-2496.689856,-2789.408301,758.417041,13123.759702,912.129988,-4977.800545,-0.002000,-0.010000,1.012000,192.000000,0.000000,0.000000,0.000000,0.000000,0.000000,0.000000,0.000000,0.000000,0.000000,1770023758.381682,0.000000
18.000000,7255.778582,-9599.113119,-2692.625248,-2723.045972,-2560.571141,-11312.039055,-1812.860586,1477.249143,-4097.208869,-16098.039281,-2468.861934,-2763.122650,782.355759,13145.999687,932.224206,-4973.933694,0.000000,-0.008000,1.009000,192.000000,0.000000,8.000000,127.500000,104.000000,15.500000,56.000000,0.000000,0.000000,0.000000,1770023758.381701,0.000000
20.000000,7237.070171,-9622.984782,-2721.816626,-2747.364670,-2591.707121,-11344.873767,-1832.954804,1458.116050,-4087.038825,-16097.838115,-2459.608312,-2760.820420,796.213841,13144.658583,934.861712,-4978.582856,0.000000,-0.008000,1.009000,192.000000,0.000000,0.000000,0.000000,0.000000,0.000000,0.000000,0.000000,0.000000,0.000000,1770023758.381719,0.000000
22.000000,7249.274224,-9613.105311,-2707.869137,-2732.634870,-2594.121110,-11328.177014,-1815.252222,1474.477526,-4103.914392,-16119.854584,-2478.227315,-2784.535621,763.177963,13122.977391,905.647982,-4992.440938,0.000000,-0.008000,1.009000,192.000000,0.000000,0.000000,0.000000,0.000000,0.000000,0.000000,0.000000,0.000000,0.000000,1770023758.381737,0.000000
24.000000,7238.679497,-9616.592183,-2704.874004,-2732.612518,-2598.345589,-11329.227546,-1812.234737,1467.324968,-4090.369235,-16099.380386,-2448.343032,-2759.345205,777.192506,13144.792693,931.240729,-4966.065880,0.000000,-0.008000,1.009000,192.000000,0.000000,0.000000,0.000000,0.000000,0.000000,0.000000,0.000000,0.000000,0.000000,1770023758.381755,0.000000
26.000000,7219.054665,-9636.261718,-2731.740800,-2749.532789,-2619.892671,-11352.808637,-1830.116133,1452.617520,-4125.126198,-16124.883726,-2493.851184,-2790.168260,745.564788,13118.350580,896.819043,-4983.790813,0.000000,-0.008000,1.009000,192.000000,0.000000,0.000000,0.000000,0.000000,0.000000,0.000000,0.000000,0.000000,0.000000,1770023758.381779,0.000000
28.000000,7243.149846,-9604.164613,-2699.353123,-2723.627117,-2587.996732,-11328.892270,-1806.736208,1479.618428,-4113.324477,-16105.929447,-2470.672425,-2767.257722,768.005939,13136.388437,914.946308,-4980.840383,-0.001000,-0.009000,1.006500,192.000000,127.500000,120.000000,127.500000,88.000000,15.500000,48.000000,0.000000,0.000000,0.000000,1770023758.381798,0.000000
30.000000,7223.435607,-9630.360857,-2734.288899,-2746.068269,-2606.861604,-11347.041887,-1832.552473,1452.706927,-4105.903698,-16101.794374,-2464.637454,-2762.541504,770.419928,13140.165882,921.495369,-4979.342816,-0.001000,-0.009000,1.006500,192.000000,0.000000,0.000000,0.000000,0.000000,0.000000,0.000000,0.000000,0.000000,0.000000,1770023758.381816,0.000000
32.000000,7251.419991,-9607.025636,-2702.080035,-2729.170350,-2592.556488,-11329.316953,-1817.621507,1471.549448,-4112.430407,-16118.379369,-2488.084434,-2783.842717,761.881562,13124.743178,904.820967,-4988.618790,-0.001000,-0.009000,1.006500,192.000000,0.000000,0.000000,0.000000,0.000000,0.000000,0.000000,0.000000,0.000000,0.000000,1770023758.381834,0.000000
34.000000,7247.955471,-9609.439624,-2708.450283,-2727.806893,-2584.487508,-11321.225622,-1819.275536,1466.095622,-4083.462546,-16087.019871,-2448.186570,-2752.170295,788.144861,13159.924824,940.807276,-4964.523609,-0.001000,-0.009000,1.006500,192.000000,0.000000,0.000000,0.000000,0.000000,0.000000,0.000000,0.000000,0.000000,0.000000,1770023758.381852,0.000000
36.000000,7220.596936,-9637.446360,-2729.304460,-2751.142115,-2602.994752,-11340.403419,-1839.593272,1442.022794,-4125.394419,-16125.576630,-2498.254478,-2794.705664,755.108983,13122.731521,910.185386,-4980.125127,-0.001000,-0.009000,1.006500,192.000000,0.000000,0.000000,0.000000,0.000000,0.000000,0.000000,0.000000,0.000000,0.000000,1770023758.381870,0.000000
38.000000,7261.567683,-9586.260865,-2698.034370,-2717.167463,-2566.561409,-11293.800031,-1812.704124,1476.958570,-4102.595640,-16097.815764,-2474.047539,-2769.850525,777.617190,13151.140589,927.329174,-4965.507086,-0.001000,-0.009000,1.006500,192.000000,0.000000,0.000000,127.500000,72.000000,15.500000,64.000000,0.000000,0.000000,0.000000,1770023758.381888,0.000000
40.000000,7246.323794,-9611.428930,-2721.816626,-2737.775771,-2586.320351,-11317.157604,-1833.044211,1459.345395,-4088.178764,-16078.928540,-2458.602483,-2752.796144,794.984495,13167.345603,932.738296,-4959.293301,-0.001000,-0.009000,1.006500,192.000000,0.000000,0.000000,0.000000,0.000000,0.000000,0.000000,0.000000,0.000000,0.000000,1770023758.381907,0.000000
42.000000,7265.188666,-9585.299740,-2703.175271,-2720.117893,-2574.473926,-11304.193593,-1817.286231,1479.774890,-4101.075721,-16100.296807,-2479.724882,-2774.410281,769.771727,13146.536129,914.879252,-4974.090156,-0.001000,-0.009000,1.006500,192.000000,0.000000,0.000000,0.000000,0.000000,0.000000,0.000000,0.000000,0.000000,0.000000,1770023758.381925,0.000000
44.000000,7269.748422,-9589.345406,-2700.984800,-2720.922556,-2578.206668,-11314.475395,-1816.414513,1480.221925,-4066.989311,-16066.433914,-2437.971823,-2734.154789,802.069998,13176.912150,943.645947,-4957.751031,-0.001000,-0.009000,1.006500,192.000000,0.000000,0.000000,0.000000,0.000000,0.000000,0.000000,0.000000,0.000000,0.000000,1770023758.381943,0.000000
46.000000,7236.556081,-9621.308401,-2724.677649,-2747.565835,-2603.821767,-11345.097285,-1834.519426,1452.885741,-4107.758893,-16107.158793,-2479.009626,-2775.684330,765.904876,13136.366086,914.409866,-4980.773327,-0.001000,-0.009000,1.006500,192.000000,0.000000,0.000000,0.000000,0.000000,0.000000,0.000000,0.000000,0.000000,0.000000,1770023758.381961,0.000000
48.000000,7261.455925,-9590.574752,-2697.788501,-2722.196605,-2577.960798,-11314.877726,-1809.172548,1477.316198,-4097.141814,-16093.837153,-2465.151544,-2761.960359,787.027274,13148.257214,925.183406,-4976.258275,0.002500,-0.012500,1.009250,192.000000,0.000000,24.000000,127.500000,64.000000,15.500000,80.000000,0.000000,0.000000,0.000000,1770023758.381980,0.000000
50.000000,7240.065305,-9621.174290,-2724.968222,-2741.217940,-2595.305752,-11333.116750,-1832.217196,1454.293901,-4099.958134,-16094.418299,-2465.397413,-2760.976882,781.238172,13151.833493,928.670279,-4972.033795,0.002500,-0.012500,1.009250,192.000000,0.000000,0.000000,0.000000,0.000000,0.000000,0.000000,0.000000,0.000000,0.000000,1770023758.381998,0.000000
52.000000,7257.522018,-9593.815755,-2708.852614,-2723.895338,-2574.004540,-11310.049750,-1819.275536,1472.845849,-4112.966849,-16105.951799,-2486.028074,-2774.522039,776.030216,13143.250423,911.280621,-4977.107641,0.002500,-0.012500,1.009250,192.000000,0.000000,0.000000,0.000000,0.000000,0.000000,0.000000,0.000000,0.000000,0.000000,1770023758.382015,0.000000
54.000000,7264.763983,-9586.909066,-2702.772940,-2720.229652,-2577.580819,-11310.496785,-1814.782836,1478.858468,-4078.008721,-16068.087944,-2441.793971,-2736.658184,799.410140,13177.985034,938.259177,-4959.874446,0.002500,-0.012500,1.009250,192.000000,0.000000,0.000000,0.000000,0.000000,0.000000,0.000000,0.000000,0.000000,0.000000,1770023758.382033,0.000000
56.000000,7243.485122,-9615.675761,-2725.303498,-2742.156713,-2603.978229,-11335.374276,-1832.038383,1457.378442,-4107.982410,-16103.515459,-2475.969789,-2776.220772,760.004015,13142.356353,907.883156,-4979.700444,0.002500,-0.012500,1.009250,192.000000,0.000000,0.000000,0.000000,0.000000,0.000000,0.000000,0.000000,0.000000,0.000000,1770023758.382051,0.000000
58.000000,7258.125515,-9594.151031,-2703.063512,-2718.754437,-2586.610924,-11309.133328,-1809.597231,1476.578590,-4101.433349,-16092.540752,-2462.134059,-2760.798068,779.204163,13158.382554,922.858825,-4966.557618,0.003250,-0.013250,1.009625,192.000000,0.000000,16.000000,127.500000,72.000000,15.500000,72.000000,0.000000,0.000000,0.000000,1770023758.860848,0.000000
60.000000,7212.505604,-9644.308346,-2738.245158,-2754.964263,-2606.168700,-11343.063276,-1842.029612,1433.573834,-4114.240898,-16107.002331,-2478.026149,-2773.426804,766.150745,13145.016211,928.223244,-4965.082403,0.003250,-0.013250,1.009625,192.000000,0.000000,0.000000,0.000000,0.000000,0.000000,0.000000,0.000000,0.000000,0.000000,1770023758.860920,0.000000
62.000000,7235.997288,-9611.674799,-2718.530919,-2737.395792,-2586.633275,-11326.098302,-1829.870263,1453.668052,-4143.812256,-16132.282154,-2509.542109,-2801.701760,740.021555,13118.104710,913.694610,-4978.739319,0.003250,-0.013250,1.009625,192.000000,0.000000,0.000000,0.000000,0.000000,0.000000,0.000000,0.000000,0.000000,0.000000,1770023758.860974,0.000000
64.000000,7260.718317,-9594.195735,-2702.683533,-2721.123722,-2577.491412,-11311.435558,-1818.001487,1473.002311,-4092.246782,-16084.382365,-2456.277902,-2751.477391,794.850385,13166.742106,940.360241,-4955.649967,0.003250,-0.013250,1.009625,192.000000,0.000000,0.000000,0.000000,0.000000,0.000000,0.000000,0.000000,0.000000,0.000000,1770023758.861027,0.000000
66.000000,7250.436515,-9604.321075,-2726.398733,-2736.009984,-2596.758616,-11330.412189,-1829.177359,1463.458116,-4108.317686,-16103.090775,-2478.674350,-2773.650321,782.691036,13146.402019,910.543014,-4976.370034,0.003250,-0.013250,1.009625,192.000000,0.000000,0.000000,0.000000,0.000000,0.000000,0.000000,0.000000,0.000000,0.000000,1770023758.861085,0.000000
68.000000,7269.368442,-9587.914895,-2688.713692,-2716.943946,-2585.381578,-11307.993389,-1803.405798,1485.251067,-4088.245820,-16083.980034,-2452.299291,-2750.292748,777.527783,13164.708098,922.814122,-4968.591627,0.000625,-0.013625,1.004812,192.000000,127.500000,120.000000,127.500000,72.000000,15.500000,32.000000,0.000000,0.000000,0.000000,1770023758.861139,0.000000
70.000000,7227.995363,-9625.152901,-2739.027469,-2752.662033,-2623.424247,-11346.505445,-1834.631185,1446.157866,-4105.188442,-16094.798278,-2462.067003,-2758.406431,768.609437,13156.817932,918.187310,-4974.134859,0.000625,-0.013625,1.004812,192.000000,0.000000,0.000000,0.000000,0.000000,0.000000,0.000000,0.000000,0.000000,0.000000,1770023758.861166,0.000000
72.000000,7238.590090,-9609.551383,-2723.828283,-2743.497818,-2604.112340,-11342.370372,-1826.562205,1456.618483,-4141.912358,-16126.962438,-2508.446873,-2792.738711,743.374317,13120.742216,892.639267,-5000.375807,0.000625,-0.013625,1.004812,192.000000,0.000000,0.000000,0.000000,0.000000,0.000000,0.000000,0.000000,0.000000,0.000000,1770023758.861183,0.000000
74.000000,7254.929215,-9595.223915,-2708.651448,-2731.249062,-2589.539002,-11328.668753,-1821.734228,1466.341492,-4101.053369,-16087.533961,-2460.703547,-2752.349109,777.416024,13160.081286,933.252386,-4978.336987,0.000625,-0.013625,1.004812,192.000000,0.000000,0.000000,0.000000,0.000000,0.000000,0.000000,0.000000,0.000000,0.000000,1770023758.861202,0.000000
76.000000,7245.273262,-9613.418235,-2727.225748,-2746.939987,-2601.094854,-11349.008840,-1833.133618,1454.360956,-4118.197157,-16107.583476,-2486.005722,-2777.852449,765.882524,13138.265984,914.007534,-4992.820918,0.000625,-0.013625,1.004812,192.000000,0.000000,0.000000,0.000000,0.000000,0.000000,0.000000,0.000000,0.000000,0.000000,1770023758.861216,0.000000
78.000000,7261.366518,-9590.485345,-2695.106291,-2719.134416,-2572.842249,-11312.173165,-1803.808129,1478.590247,-4104.227317,-16097.927522,-2461.687024,-2764.843734,778.801832,13152.995783,930.816046,-4976.928827,0.000625,-0.013625,1.004812,192.000000,0.000000,0.000000,127.500000,72.000000,15.500000,40.000000,0.000000,0.000000,0.000000,1770023758.861233,0.000000
80.000000,7238.008945,-9612.211241,-2729.058591,-2742.581396,-2605.006409,-11333.966116,-1830.652574,1452.796334,-4105.747236,-16094.440650,-2461.597617,-2757.825286,772.163364,13156.817932,928.178540,-4965.752955,0.000625,-0.013625,1.004812,192.000000,0.000000,0.000000,0.000000,0.000000,0.000000,0.000000,0.000000,0.000000,0.000000,1770023758.861251,0.000000
82.000000,7252.314061,-9594.955694,-2723.157730,-2732.634870,-2604.514671,-11318.029322,-1823.276499,1465.067442,-4133.753971,-16112.389101,-2494.499385,-2780.109975,753.879637,13132.365123,896.014380,-4976.593551,0.000625,-0.013625,1.004812,192.000000,0.000000,0.000000,0.000000,0.000000,0.000000,0.000000,0.000000,0.000000,0.000000,1770023758.861269,0.000000
84.000000,7252.291709,-9601.817680,-2722.062495,-2736.971109,-2598.993790,-11317.738750,-1829.311470,1454.249198,-4107.602430,-16089.232694,-2463.497515,-2756.305368,763.200314,13158.114333,928.156189,-4961.684938,0.000625,-0.013625,1.004812,192.000000,0.000000,0.000000,0.000000,0.000000,0.000000,0.000000,0.000000,0.000000,0.000000,1770023758.861286,0.000000
86.000000,7240.266471,-9616.949811,-2739.809780,-2753.824324,-2604.671133,-11333.630840,-1845.471781,1435.004346,-4131.921128,-16118.222906,-2502.925992,-2794.213926,747.688204,13132.700399,905.715037,-4978.985188,0.000625,-0.013625,1.004812,192.000000,0.000000,0.000000,0.000000,0.000000,0.000000,0.000000,0.000000,0.000000,0.000000,1770023758.861305,0.000000
88.000000,7270.955416,-9578.214237,-2703.488195,-2722.353068,-2571.143516,-11304.014779,-1811.675943,1469.828364,-4103.936744,-16093.524229,-2475.902733,-2769.269379,777.773652,13156.236786,925.473979,-4968.166944,0.000625,-0.013625,1.004812,192.000000,0.000000,0.000000,0.000000,0.000000,0.000000,0.000000,0.000000,0.000000,0.000000,1770023758.861323,0.000000
90.000000,7250.861198,-9601.392996,-2724.185911,-2742.044955,-2594.858717,-11329.518119,-1830.294946,1449.108297,-4097.164166,-16086.148153,-2466.604408,-2758.741708,785.619114,13162.785848,930.547825,-4964.031871,0.002000,-0.012000,1.010000,192.000000,0.000000,8.000000,127.500000,80.000000,15.500000,72.000000,0.000000,0.000000,0.000000,1770023758.861350,0.000000
92.000000,7269.971939,-9580.516467,-2720.989611,-2721.570757,-2585.470985,-11314.855375,-1816.950955,1468.800183,-4120.432332,-16105.594171,-2491.191327,-2778.858278,754.438431,13140.210586,908.844281,-4978.895781,0.002000,-0.012000,1.010000,192.000000,0.000000,0.000000,0.000000,0.000000,0.000000,0.000000,0.000000,0.000000,0.000000,1770023758.861362,0.000000
94.000000,7279.091451,-9576.023767,-2712.495948,-2720.564928,-2593.428206,-11311.323799,-1812.949993,1473.650512,-4083.931933,-16067.953833,-2452.411050,-2736.747591,798.449015,13175.191066,927.887968,-4958.354528,0.002000,-0.012000,1.010000,192.000000,0.000000,0.000000,0.000000,0.000000,0.000000,0.000000,0.000000,0.000000,0.000000,1770023758.861374,0.000000
96.000000,7253.945739,-9606.668008,-2736.971109,-2754.897208,-2618.193939,-11345.119637,-1839.794438,1442.380421,-4111.513986,-16108.611656,-2485.469280,-2780.221734,758.886428,13133.147434,903.837491,-4982.606170,0.002000,-0.012000,1.010000,192.000000,0.000000,0.000000,0.000000,0.000000,0.000000,0.000000,0.000000,0.000000,0.000000,1770023758.861386,0.000000
98.000000,7266.283901,-9584.495078,-2708.897318,-2735.294728,-2591.215383,-11320.912697,-1817.688563,1457.445497,-4109.278811,-16107.315255,-2478.830812,-2780.445252,751.622111,13137.103693,918.366124,-4980.438051,0.002000,-0.012000,1.010000,192.000000,0.000000,0.000000,0.000000,0.000000,0.000000,0.000000,0.000000,0.000000,0.000000,1770023758.861398,0.000000
100.000000,7232.689230,-9624.147072,-2741.597920,-2763.435574,-2613.410665,-11355.557901,-1842.230778,1427.583567,-4115.559651,-16108.119918,-2481.133042,-2780.355845,767.245980,13134.756760,925.541034,-4982.740281,-0.002000,-0.016000,1.010000,192.000000,127.500000,120.000000,127.500000,64.000000,15.500000,72.000000,0.000000,0.000000,0.000000,1770023758.861409,0.000000
102.000000,7252.112896,-9599.493098,-2721.436646,-2743.833094,-2592.757653,-11339.196424,-1827.456275,1448.683613,-4137.084381,-16128.907040,-2515.085341,-2804.853356,742.815523,13113.433196,909.246613,-4998.341799,-0.002000,-0.016000,1.010000,192.000000,0.000000,0.000000,0.000000,0.000000,0.000000,0.000000,0.000000,0.000000,0.000000,1770023758.861421,0.000000
104.000000,7267.245026,-9582.192848,-2707.243288,-2729.460922,-2582.587610,-11321.292677,-1818.403818,1464.352186,-4102.997971,-16087.243389,-2464.235123,-2756.573588,775.583181,13157.533188,942.550712,-4969.619807,-0.002000,-0.016000,1.010000,192.000000,0.000000,0.000000,0.000000,0.000000,0.000000,0.000000,0.000000,0.000000,0.000000,1770023758.861433,0.000000
106.000000,7250.615329,-9605.304552,-2726.488140,-2747.543484,-2606.883956,-11332.133273,-1838.743906,1447.074288,-4117.347791,-16111.718549,-2488.956152,-2782.523964,765.904876,13135.404961,916.957965,-4968.949255,-0.002000,-0.016000,1.010000,192.000000,0.000000,0.000000,0.000000,0.000000,0.000000,0.000000,0.000000,0.000000,0.000000,1770023758.861444,0.000000
108.000000,7275.112841,-9573.654482,-2710.730161,-2719.983783,-2584.040473,-11296.884572,-1814.358153,1471.840021,-4104.070855,-16097.212267,-2468.571361,-2767.704757,777.818355,13154.180426,926.211587,-4948.676222,-0.002000,-0.016000,1.010000,192.000000,0.000000,0.000000,0.000000,0.000000,0.000000,0.000000,0.000000,0.000000,0.000000,1770023758.861456,0.000000
110.000000,7251.777619,-9605.796290,-2729.796199,-2748.906940,-2604.402912,-11325.405398,-1833.893577,1444.950872,-4096.828889,-16089.903246,-2463.229294,-2762.720318,778.354797,13165.110429,925.518683,-4945.837551,-0.002000,-0.016000,1.010000,192.000000,0.000000,0.000000,127.500000,72.000000,15.500000,80.000000,0.000000,0.000000,0.000000,1770023758.861468,0.000000
112.000000,7260.852428,-9601.214183,-2714.619364,-2742.961376,-2600.759578,-11324.310163,-1820.594289,1456.752593,-4124.098018,-16118.871107,-2490.341960,-2794.079816,747.040003,13131.024019,904.642153,-4977.755842,-0.002000,-0.016000,1.010000,192.000000,0.000000,0.000000,0.000000,0.000000,0.000000,0.000000,0.000000,0.000000,0.000000,1770023758.861480,0.000000
114.000000,7265.009852,-9592.094671,-2715.871062,-2738.513379,-2598.099720,-11326.254764,-1813.240565,1463.078137,-4103.847337,-16099.492145,-2457.015509,-2763.033243,772.073957,13154.873330,928.826741,-4975.140688,-0.002000,-0.016000,1.010000,192.000000,0.000000,0.000000,0.000000,0.000000,0.000000,0.000000,0.000000,0.000000,0.000000,1770023758.861492,0.000000
116.000000,7246.144980,-9607.025636,-2738.088696,-2756.662995,-2624.743000,-11353.501541,-1829.356173,1445.174390,-4128.076628,-16122.626200,-2491.683065,-2788.491880,746.771782,13116.920068,893.332171,-4998.230040,-0.002000,-0.016000,1.010000,192.000000,0.000000,0.000000,0.000000,0.000000,0.000000,0.000000,0.000000,0.000000,0.000000,1770023758.861504,0.000000
118.000000,7273.212942,-9580.717633,-2703.845823,-2725.705829,-2587.616752,-11321.136215,-1803.830481,1471.482393,-4112.788035,-16106.085909,-2472.304102,-2772.398624,756.539495,13133.192138,910.028924,-4988.507031,-0.002000,-0.016000,1.010000,192.000000,0.000000,0.000000,0.000000,0.000000,0.000000,0.000000,0.000000,0.000000,0.000000,1770023758.861516,0.000000
120.000000,7254.258663,-9603.628171,-2733.350126,-2746.224731,-2608.023895,-11342.660945,-1829.155008,1448.415392,-4103.892041,-16094.708871,-2465.240951,-2759.479315,775.672588,13155.812103,918.947270,-4975.811240,-0.004000,-0.014000,1.008000,192.000000,127.500000,112.000000,127.500000,72.000000,15.500000,64.000000,0.000000,0.000000,0.000000,1770023758.861528,0.000000
122.000000,7267.312082,-9587.423156,-2718.776789,-2736.009984,-2596.915078,-11331.082741,-1821.466007,1459.971244,-4123.516872,-16112.903191,-2493.940591,-2781.585190,749.453992,13128.140644,900.887060,-4987.098871,-0.004000,-0.014000,1.008000,192.000000,0.000000,0.000000,0.000000,0.000000,0.000000,0.000000,0.000000,0.000000,0.000000,1770023758.861542,0.000000
124.000000,7264.696928,-9593.324017,-2715.356972,-2737.664013,-2598.010313,-11332.289735,-1819.633164,1457.825477,-4096.806538,-16088.182162,-2459.653015,-2753.399641,778.757129,13156.549711,931.196026,-4971.631464,-0.004000,-0.014000,1.008000,192.000000,0.000000,0.000000,0.000000,0.000000,0.000000,0.000000,0.000000,0.000000,0.000000,1770023758.861554,0.000000
126.000000,7242.658108,-9622.180119,-2740.905016,-2764.486106,-2618.439808,-11356.451971,-1840.621452,1431.562177,-4132.904605,-16128.839985,-2501.473129,-2799.310124,748.492867,13119.490519,903.926898,-4999.034703,-0.004000,-0.014000,1.008000,192.000000,0.000000,0.000000,0.000000,0.000000,0.000000,0.000000,0.000000,0.000000,0.000000,1770023758.861566,0.000000
128.000000,7275.984559,-9576.493153,-2696.380341,-2728.835074,-2585.470985,-11315.995314,-1812.614717,1468.599018,-4113.145663,-16111.539735,-2476.148603,-2781.674597,752.426774,13140.367048,922.367087,-4982.852040,-0.004000,-0.014000,1.008000,192.000000,0.000000,0.000000,0.000000,0.000000,0.000000,0.000000,0.000000,0.000000,0.000000,1770023758.861578,0.000000
130.000000,7258.729012,-9597.459089,-2723.403600,-2741.061478,-2601.564241,-11329.942802,-1833.848874,1452.125782,-4098.214698,-16087.846886,-2455.026204,-2758.317025,782.825146,13164.238711,928.737334,-4963.808353,-0.004000,-0.014000,1.008000,192.000000,0.000000,0.000000,127.500000,104.000000,15.500000,64.000000,0.000000,0.000000,0.000000,1770023758.861589,0.000000
132.000000,7271.670672,-9582.729290,-2716.921594,-2723.157730,-2588.868450,-11306.696988,-1821.287193,1464.441593,-4117.750122,-16103.537810,-2485.066949,-2775.773737,758.260579,13149.441856,905.290354,-4969.128069,-0.004000,-0.014000,1.008000,192.000000,0.000000,0.000000,0.000000,0.000000,0.000000,0.000000,0.000000,0.000000,0.000000,1770023758.861601,0.000000
134.000000,7268.250855,-9587.020825,-2712.875928,-2726.219919,-2589.963685,-11311.323799,-1817.375638,1458.786602,-4092.515003,-16074.659356,-2453.975672,-2742.469638,779.561791,13179.169676,931.128971,-4948.877388,-0.004000,-0.014000,1.008000,192.000000,0.000000,0.000000,0.000000,0.000000,0.000000,0.000000,0.000000,0.000000,0.000000,1770023758.861613,0.000000
136.000000,7245.943814,-9609.171404,-2745.822399,-2753.511399,-2623.983040,-11346.125465,-1838.386278,1434.199683,-4128.993050,-16109.729243,-2501.026094,-2783.775661,752.896160,13134.488539,898.227203,-4979.275761,-0.004000,-0.014000,1.008000,192.000000,0.000000,0.000000,0.000000,0.000000,0.000000,0.000000,0.000000,0.000000,0.000000,1770023758.861625,0.000000
138.000000,7273.078832,-9573.252150,-2713.010038,-2723.425951,-2598.278534,-11322.834947,-1808.613754,1466.833230,-4111.513986,-16098.061633,-2479.769585,-2768.241199,760.696919,13145.999687,908.017267,-4975.766537,-0.004000,-0.014000,1.008000,192.000000,0.000000,0.000000,0.000000,0.000000,0.000000,0.000000,0.000000,0.000000,0.000000,1770023758.861637,0.000000
140.000000,7236.489026,-9616.167500,-2742.693155,-2756.595940,-2631.426171,-11366.465553,-1835.480551,1437.105410,-4117.526605,-16103.649569,-2473.153469,-2769.112917,758.484096,13140.970545,911.705305,-4979.052243,0.002000,-0.014000,1.008000,192.000000,0.000000,8.000000,127.500000,72.000000,15.500000,64.000000,0.000000,0.000000,0.000000,1770023758.861649,0.000000
142.000000,7248.983651,-9604.008151,-2731.025545,-2743.833094,-2617.545738,-11348.606509,-1827.679792,1450.449401,-4148.170846,-16134.450273,-2505.027056,-2799.153662,725.381163,13109.320475,890.247630,-4997.894764,0.002000,-0.014000,1.008000,192.000000,0.000000,0.000000,0.000000,0.000000,0.000000,0.000000,0.000000,0.000000,0.000000,1770023758.861660,0.000000
144.000000,7261.098297,-9594.352197,-2718.888547,-2732.321946,-2604.380560,-11333.116750,-1821.600118,1460.351224,-4111.893965,-16095.915865,-2459.764774,-2757.422955,767.223628,13151.252347,925.250462,-4973.196086,0.002000,-0.014000,1.008000,192.000000,0.000000,0.000000,0.000000,0.000000,0.000000,0.000000,0.000000,0.000000,0.000000,1770023758.861672,0.000000
146.000000,7242.121666,-9614.088787,-2740.256815,-2752.192647,-2617.478683,-11350.439352,-1840.688508,1436.971299,-4134.983317,-16119.385197,-2493.515908,-2785.340284,735.752372,13132.476882,903.569270,-4988.618790,0.002000,-0.014000,1.008000,192.000000,0.000000,0.000000,0.000000,0.000000,0.000000,0.000000,0.000000,0.000000,0.000000,1770023758.861684,0.000000
148.000000,7271.447154,-9584.316264,-2705.097521,-2727.873949,-2590.164851,-11321.851471,-1812.301792,1464.598055,-4123.159244,-16105.907095,-2476.997969,-2774.656150,748.761088,13149.195987,917.963793,-4979.499278,0.002000,-0.014000,1.008000,192.000000,0.000000,0.000000,0.000000,0.000000,0.000000,0.000000,0.000000,0.000000,0.000000,1770023758.861696,0.000000
150.000000,7251.822323,-9608.433796,-2736.144094,-2752.483219,-2610.683752,-11347.623032,-1833.513598,1439.809971,-4106.373084,-16093.658339,-2465.397413,-2764.687272,772.006902,13155.856807,925.697497,-4974.425432,0.002000,-0.014000,1.008000,192.000000,0.000000,8.000000,127.500000,72.000000,15.500000,64.000000,0.000000,0.000000,0.000000,1770023758.861708,0.000000
152.000000,7257.790239,-9595.827412,-2719.849672,-2741.664975,-2604.089988,-11339.084666,-1822.136560,1451.164657,-4131.496445,-16118.066444,-2502.724827,-2790.011798,755.332500,13129.034713,899.054217,-4986.204801,0.002000,-0.014000,1.008000,192.000000,0.000000,0.000000,0.000000,0.000000,0.000000,0.000000,0.000000,0.000000,0.000000,1770023758.861720,0.000000
154.000000,7267.267378,-9582.572828,-2713.591184,-2731.137303,-2600.111377,-11331.887404,-1811.117150,1465.425070,-4097.231221,-16080.515513,-2457.440192,-2747.141152,775.180849,13166.585644,923.954061,-4962.646063,0.002000,-0.014000,1.008000,192.000000,0.000000,0.000000,0.000000,0.000000,0.000000,0.000000,0.000000,0.000000,0.000000,1770023758.861733,0.000000
156.000000,7233.739762,-9624.080017,-2740.457981,-2761.803897,-2630.800322,-11369.840666,-1836.285214,1435.965471,-4130.714134,-16117.462947,-2494.164109,-2782.434557,742.033212,13128.811196,892.505156,-4979.365168,0.002000,-0.014000,1.008000,192.000000,0.000000,0.000000,0.000000,0.000000,0.000000,0.000000,0.000000,0.000000,0.000000,1770023758.861745,0.000000
158.000000,7267.356785,-9587.400804,-2711.110140,-2734.780638,-2604.805244,-11351.288718,-1813.642897,1462.228771,-4124.232128,-16114.758386,-2480.529544,-2780.713472,759.691091,13127.984181,901.088226,-4975.990054,0.002000,-0.014000,1.008000,192.000000,0.000000,0.000000,0.000000,0.000000,0.000000,0.000000,0.000000,0.000000,0.000000,1770023758.861757,0.000000
160.000000,7242.166369,-9619.117930,-2745.285957,-2761.446269,-2624.698296,-11377.931998,-1839.660327,1434.378497,-4110.016419,-16108.075214,-2470.538315,-2771.124574,758.774669,13135.986106,911.459435,-4974.380729,0.003000,-0.010000,1.009000,192.000000,0.000000,16.000000,127.500000,104.000000,15.500000,72.000000,0.000000,0.000000,0.000000,1770023758.861769,0.000000
162.000000,7249.453038,-9605.751587,-2725.884643,-2744.973033,-2606.660438,-11364.990337,-1825.623432,1452.662224,-4144.102829,-16139.926450,-2505.764664,-2800.450063,730.231491,13106.437100,894.740331,-4992.105662,0.003000,-0.010000,1.009000,192.000000,0.000000,0.000000,0.000000,0.000000,0.000000,0.000000,0.000000,0.000000,0.000000,1770023758.861781,0.000000
164.000000,7257.298500,-9589.323054,-2723.560062,-2730.444399,-2596.289229,-11343.018573,-1816.347458,1464.173372,-4119.180634,-16096.452307,-2461.731727,-2751.969129,756.718309,13151.073533,928.178540,-4973.352548,0.003000,-0.010000,1.009000,192.000000,0.000000,0.000000,0.000000,0.000000,0.000000,0.000000,0.000000,0.000000,0.000000,1770023758.861793,0.000000
166.000000,7233.292727,-9617.754473,-2749.175161,-2751.499742,-2617.836311,-11359.223587,-1837.872188,1440.569930,-4146.405059,-16116.032435,-2498.880327,-2777.740690,738.680451,13133.438007,900.596488,-4992.709159,0.003000,-0.010000,1.009000,192.000000,0.000000,0.000000,0.000000,0.000000,0.000000,0.000000,0.000000,0.000000,0.000000,1770023758.861804,0.000000
168.000000,7258.304329,-9588.853668,-2714.507605,-2727.449265,-2594.076406,-11325.874785,-1816.481568,1460.641797,-4128.523663,-16103.314293,-2487.480937,-2768.598827,747.531742,13147.161978,917.270889,-4979.745147,0.003000,-0.010000,1.009000,192.000000,0.000000,0.000000,0.000000,0.000000,0.000000,0.000000,0.000000,0.000000,0.000000,1770023758.861816,0.000000
170.000000,7228.509453,-9621.174290,-2742.961376,-2758.048804,-2623.357191,-11357.882483,-1843.258958,1429.975203,-4122.198119,-16100.721490,-2481.893001,-2767.347129,755.824239,13151.319403,919.953098,-4973.620769,0.003500,-0.011000,1.010500,192.000000,0.000000,16.000000,127.500000,80.000000,15.500000,80.000000,0.000000,0.000000,0.000000,1770023758.861828,0.000000
172.000000,7260.405393,-9594.128680,-2723.023620,-2740.815609,-2606.503976,-11342.325669,-1829.914967,1452.461058,-4141.465323,-16124.302581,-2512.447835,-2793.275153,744.871884,13125.190213,897.802520,-4984.126089,0.003500,-0.011000,1.010500,192.000000,0.000000,0.000000,0.000000,0.000000,0.000000,0.000000,0.000000,0.000000,0.000000,1770023758.861845,0.000000
174.000000,7272.162410,-9573.229798,-2722.621289,-2728.589204,-2599.641991,-11331.440369,-1818.850853,1464.441593,-4101.880384,-16078.347394,-2459.742422,-2744.235426,770.263466,13165.669223,929.944328,-4956.298167,0.003500,-0.011000,1.010500,192.000000,0.000000,0.000000,0.000000,0.000000,0.000000,0.000000,0.000000,0.000000,0.000000,1770023758.861864,0.000000
176.000000,7249.408334,-9605.975104,-2743.028431,-2757.110030,-2620.943203,-11363.671585,-1840.599101,1441.553407,-4131.764666,-16113.305523,-2494.789957,-2779.305313,738.814561,13131.940440,898.741293,-4975.922999,0.003500,-0.011000,1.010500,192.000000,0.000000,0.000000,0.000000,0.000000,0.000000,0.000000,0.000000,0.000000,0.000000,1770023758.861881,0.000000
178.000000,7288.076852,-9568.312415,-2702.772940,-2728.253928,-2584.398101,-11328.199366,-1812.212385,1480.445442,-4110.575212,-16101.704967,-2469.666597,-2765.335472,761.389823,13147.385496,912.577023,-4972.704348,0.003500,-0.011000,1.010500,192.000000,0.000000,0.000000,0.000000,0.000000,0.000000,0.000000,0.000000,0.000000,0.000000,1770023759.341706,0.000000
180.000000,7264.920445,-9600.186002,-2718.307402,-2752.796144,-2602.391255,-11359.134180,-1832.194845,1458.697195,-4093.699645,-16092.473697,-2447.270149,-2753.533751,783.942733,13156.639118,929.050258,-4972.033795,0.002750,-0.012500,1.008250,192.000000,0.000000,8.000000,127.500000,72.000000,15.500000,56.000000,0.000000,0.000000,0.000000,1770023759.341781,0.000000
182.000000,7269.279035,-9591.222953,-2714.015867,-2742.603748,-2594.679903,-11350.104076,-1821.756580,1463.078137,-4119.828835,-16118.871107,-2483.748196,-2784.043882,758.037061,13126.106635,904.977430,-4992.262124,0.002750,-0.012500,1.008250,192.000000,0.000000,0.000000,0.000000,0.000000,0.000000,0.000000,0.000000,0.000000,0.000000,1770023759.341835,0.000000
184.000000,7266.350957,-9582.371662,-2710.506643,-2734.467713,-2595.998656,-11347.980660,-1812.704124,1464.978035,-4100.159299,-16085.544656,-2451.785201,-2746.314138,766.575428,13157.600243,940.382593,-4974.045452,0.002750,-0.012500,1.008250,192.000000,0.000000,0.000000,0.000000,0.000000,0.000000,0.000000,0.000000,0.000000,0.000000,1770023759.341890,0.000000
186.000000,7235.885529,-9618.134453,-2735.071210,-2758.540542,-2624.743000,-11376.769707,-1831.971327,1440.480523,-4138.134913,-16122.022703,-2495.125234,-2783.283923,741.563826,13126.061931,905.960906,-4994.609057,0.002750,-0.012500,1.008250,192.000000,0.000000,0.000000,0.000000,0.000000,0.000000,0.000000,0.000000,0.000000,0.000000,1770023759.341950,0.000000
188.000000,7254.951567,-9593.189906,-2718.016829,-2731.047896,-2603.397084,-11342.929166,-1811.966516,1458.048994,-4132.166997,-16111.092700,-2481.580076,-2772.599789,752.091497,13135.136740,911.548842,-4982.717929,0.002750,-0.012500,1.008250,192.000000,0.000000,0.000000,0.000000,0.000000,0.000000,0.000000,0.000000,0.000000,0.000000,1770023759.342005,0.000000
190.000000,7228.777674,-9627.455131,-2744.280129,-2752.147943,-2619.311526,-11363.202198,-1837.492208,1423.604956,-4130.535320,-16110.086871,-2483.301161,-2774.142060,752.583236,13142.602222,916.734447,-4969.083365,0.003375,-0.014250,1.009125,192.000000,0.000000,16.000000,127.500000,64.000000,15.500000,72.000000,0.000000,0.000000,0.000000,1770023759.342036,0.000000
192.000000,7240.333526,-9608.679665,-2737.798123,-2737.194626,-2603.307677,-11338.659983,-1831.278423,1434.534959,-4153.937597,-16137.534814,-2521.947327,-2805.680371,727.079895,13121.301010,888.437139,-4976.347682,0.003375,-0.014250,1.009125,192.000000,0.000000,0.000000,0.000000,0.000000,0.000000,0.000000,0.000000,0.000000,0.000000,1770023759.342054,0.000000
194.000000,7267.312082,-9580.695281,-2720.386114,-2719.424989,-2581.537078,-11314.006008,-1817.733266,1460.686500,-4111.044599,-16088.092755,-2473.846373,-2752.371460,767.313035,13172.888836,926.412752,-4942.708307,0.003375,-0.014250,1.009125,192.000000,0.000000,0.000000,0.000000,0.000000,0.000000,0.000000,0.000000,0.000000,0.000000,1770023759.342072,0.000000
196.000000,7254.593939,-9596.475613,-2741.530864,-2744.905978,-2610.192014,-11346.147817,-1835.435848,1450.561160,-4128.948346,-16103.224886,-2497.852146,-2767.235371,747.576445,13151.498217,900.954116,-4970.245656,0.003375,-0.014250,1.009125,192.000000,0.000000,0.000000,0.000000,0.000000,0.000000,0.000000,0.000000,0.000000,0.000000,1770023759.342089,0.000000
198.000000,7289.149736,-9556.980080,-2698.995495,-2722.308364,-2582.967589,-11322.231450,-1806.937374,1485.161660,-4114.263250,-16085.656415,-2469.867762,-2747.722298,768.475326,13166.764458,915.996840,-4975.744185,0.003375,-0.014250,1.009125,192.000000,0.000000,0.000000,0.000000,0.000000,0.000000,0.000000,0.000000,0.000000,0.000000,1770023759.342107,0.000000
200.000000,7263.333471,-9586.014996,-2727.337507,-2750.248045,-2614.081218,-11351.266366,-1830.540816,1457.937236,-4099.354637,-16079.777906,-2450.846428,-2741.463809,765.815469,13163.724621,924.222281,-4972.436127,0.000687,-0.012125,1.011563,192.000000,127.500000,120.000000,127.500000,88.000000,15.500000,88.000000,0.000000,0.000000,0.000000,1770023759.342124,0.000000
202.000000,7265.926274,-9584.875057,-2721.704867,-2744.794219,-2607.778026,-11346.237224,-1825.265804,1460.083003,-4125.729695,-16108.678711,-2482.988236,-2775.684330,747.621149,13137.617783,893.756854,-4987.098871,0.000687,-0.012125,1.011563,192.000000,0.000000,0.000000,0.000000,0.000000,0.000000,0.000000,0.000000,0.000000,0.000000,1770023759.342141,0.000000
204.000000,7271.245989,-9584.808002,-2721.548405,-2739.005117,-2601.988924,-11342.035096,-1819.588461,1464.039262,-4104.652000,-16088.271569,-2452.634567,-2751.477391,773.124489,13158.427257,925.853959,-4963.406022,0.000687,-0.012125,1.011563,192.000000,0.000000,0.000000,0.000000,0.000000,0.000000,0.000000,0.000000,0.000000,0.000000,1770023759.342159,0.000000
206.000000,7245.765000,-9609.216107,-2741.843789,-2760.574551,-2627.291099,-11373.081669,-1836.687545,1441.776924,-4132.032887,-16118.021741,-2487.413882,-2785.362635,734.545378,13127.894774,900.350618,-4982.360301,0.000687,-0.012125,1.011563,192.000000,0.000000,0.000000,0.000000,0.000000,0.000000,0.000000,0.000000,0.000000,0.000000,1770023759.342176,0.000000
208.000000,7274.174067,-9581.969331,-2702.169442,-2733.059553,-2599.083197,-11348.785323,-1809.083141,1469.537791,-4118.644192,-16107.427014,-2472.259399,-2771.705719,756.606550,13136.969583,913.001706,-4978.806374,0.000687,-0.012125,1.011563,192.000000,0.000000,0.000000,0.000000,0.000000,0.000000,0.000000,0.000000,0.000000,0.000000,1770023759.342193,0.000000
210.000000,7252.783448,-9608.120872,-2730.645565,-2759.054632,-2623.200729,-11380.547152,-1833.066563,1445.062631,-4111.469282,-16099.782717,-2461.754079,-2761.066289,767.514201,13139.316516,917.226185,-4982.181487,-0.000656,-0.010063,1.012781,192.000000,127.500000,120.000000,127.500000,96.000000,15.500000,88.000000,0.000000,0.000000,0.000000,1770023759.342210,0.000000
212.000000,7247.530788,-9610.266639,-2731.472579,-2755.232484,-2616.137578,-11375.763878,-1828.886787,1449.488276,-4150.204855,-16138.786511,-2500.534356,-2795.532679,729.203311,13104.537201,891.476976,-5002.141595,-0.000656,-0.010063,1.012781,192.000000,0.000000,0.000000,0.000000,0.000000,0.000000,0.000000,0.000000,0.000000,0.000000,1770023759.342228,0.000000
214.000000,7250.235349,-9598.777842,-2722.241309,-2738.043992,-2607.040418,-11350.573462,-1819.901385,1461.759384,-4127.026096,-16110.824479,-2466.626759,-2760.149868,755.623073,13135.583775,922.702363,-4969.418641,-0.000656,-0.010063,1.012781,192.000000,0.000000,0.000000,0.000000,0.000000,0.000000,0.000000,0.000000,0.000000,0.000000,1770023759.342245,0.000000
216.000000,7243.306308,-9612.591220,-2741.530864,-2748.795181,-2615.511729,-11360.251768,-1839.459162,1449.890608,-4149.131971,-16130.114034,-2497.628629,-2784.759138,730.678526,13125.212565,900.082397,-4975.051281,-0.000656,-0.010063,1.012781,192.000000,0.000000,0.000000,0.000000,0.000000,0.000000,0.000000,0.000000,0.000000,0.000000,1770023759.342263,0.000000
218.000000,7291.854297,-9559.148199,-2696.805024,-2709.031428,-2571.568200,-11311.837889,-1808.546699,1487.016855,-4113.413884,-16096.809935,-2464.592751,-2751.991481,763.289721,13164.395173,922.568252,-4962.847228,-0.000656,-0.010063,1.012781,192.000000,0.000000,0.000000,0.000000,0.000000,0.000000,0.000000,0.000000,0.000000,0.000000,1770023759.342283,0.000000
220.000000,7271.290692,-9579.398880,-2725.102332,-2736.568777,-2597.518575,-11334.457855,-1832.194845,1455.210323,-4097.320628,-16070.524284,-2453.215713,-2732.701925,785.686169,13190.770232,935.152285,-4955.851132,-0.000656,-0.010063,1.012781,192.000000,0.000000,0.000000,0.000000,0.000000,0.000000,0.000000,0.000000,0.000000,0.000000,1770023759.342301,0.000000
222.000000,7272.050652,-9575.889656,-2715.200509,-2735.428838,-2592.355322,-11329.093436,-1824.081162,1457.065518,-4124.053314,-16101.079118,-2493.180632,-2769.090565,749.476343,13153.375763,910.185386,-4978.962836,-0.006000,-0.010000,1.010000,192.000000,127.500000,104.000000,127.500000,88.000000,15.500000,72.000000,0.000000,0.000000,0.000000,1770023759.342319,0.000000
224.000000,7282.064233,-9570.815810,-2713.345315,-2730.556158,-2589.762520,-11325.360695,-1815.453388,1459.971244,-4102.193308,-16073.161790,-2458.937759,-2745.285957,770.241114,13178.007385,935.241691,-4969.262179,-0.006000,-0.010000,1.010000,192.000000,0.000000,0.000000,0.000000,0.000000,0.000000,0.000000,0.000000,0.000000,0.000000,1770023759.342336,0.000000
226.000000,7256.247968,-9608.702017,-2727.896300,-2758.764059,-2613.410665,-11361.458762,-1834.564130,1437.865369,-4121.751085,-16108.164621,-2490.923106,-2780.959342,756.919474,13138.444798,904.329229,-4988.887011,-0.006000,-0.010000,1.010000,192.000000,0.000000,0.000000,0.000000,0.000000,0.000000,0.000000,0.000000,0.000000,0.000000,1770023759.342354,0.000000
228.000000,7286.579285,-9566.121944,-2696.492099,-2730.086771,-2571.098813,-11332.736770,-1811.117150,1471.884724,-4110.262288,-16103.470755,-2468.236085,-2773.247990,768.520030,13141.752856,925.183406,-4983.768461,-0.006000,-0.010000,1.010000,192.000000,0.000000,0.000000,0.000000,0.000000,0.000000,0.000000,0.000000,0.000000,0.000000,1770023759.342371,0.000000
230.000000,7264.048727,-9590.261828,-2719.000306,-2745.755344,-2586.141537,-11348.204177,-1831.457237,1456.931407,-4090.548049,-16087.533961,-2450.332338,-2755.612463,793.486928,13160.707135,932.939462,-4964.613016,-0.006000,-0.010000,1.010000,192.000000,0.000000,0.000000,0.000000,0.000000,0.000000,0.000000,0.000000,0.000000,0.000000,1770023759.342388,0.000000
232.000000,7281.997178,-9573.922703,-2706.505681,-2731.897263,-2569.221266,-11333.809654,-1823.812941,1477.606771,-4112.341000,-16110.846831,-2478.406129,-2777.360711,772.364530,13139.025943,909.246613,-4972.234961,0.002000,-0.006000,1.004000,192.000000,0.000000,8.000000,127.500000,104.000000,15.500000,48.000000,0.000000,0.000000,0.000000,1770023759.342476,0.000000
234.000000,7293.530678,-9568.647691,-2695.195698,-2723.001268,-2555.743165,-11322.410264,-1817.308583,1483.373521,-4079.908619,-16074.145266,-2428.584090,-2734.825341,807.412065,13179.527304,950.396174,-4949.704403,0.002000,-0.006000,1.004000,192.000000,0.000000,0.000000,0.000000,0.000000,0.000000,0.000000,0.000000,0.000000,0.000000,1770023759.342499,0.000000
