Sample_index,EXG Channel 0,EXG Channel 1,EXG Channel 2,EXG Channel 3,EXG Channel 4,EXG Channel 5,EXG Channel 6,EXG Channel 7,EXG Channel 8,EXG Channel 9,EXG Channel 10,EXG Channel 11,EXG Channel 12,EXG Channel 13,EXG Channel 14,EXG Channel 15,Accel Channel 0,Accel Channel 1,Accel Channel 2,Not Used,Digital Channel 0 (D11),Digital Channel 1 (D12),Digital Channel 2 (D13),Digital Channel 3 (D17),Not Used,Digital Channel 4 (D18),Analog Channel 0,Analog Channel 1,Analog Channel 2,Timestamp,Marker Channel
210.000000,7208.862270,11893.095004,1591.868888,3004.186214,-18713.729824,-13012.805642,1808.725513,-1646.787124,-18773.453685,-1059.092708,-1783.825670,3727.533368,11378.423736,-17707.409585,-3672.637483,1118.280127,-0.006000,-0.012000,1.004000,192.000000,0.000000,0.000000,0.000000,0.000000,0.000000,0.000000,0.000000,0.000000,0.000000,1770298624.772802,101.000000
212.000000,7227.280107,11916.452577,1610.376133,3024.392191,-18695.669615,-12990.565656,1825.869301,-1629.755095,-18719.004836,-1027.420286,-1746.386498,3761.865647,11422.031989,-17675.759515,-3641.345041,1159.429688,-0.006000,-0.012000,1.004000,192.000000,0.000000,0.000000,0.000000,0.000000,0.000000,0.000000,0.000000,0.000000,0.000000,1770298624.772890,0.000000
214.000000,7203.162575,11886.724757,1579.821298,2986.103652,-18729.487804,-13027.066055,1792.788719,-1654.856104,-18758.008630,-1045.301681,-1772.515687,3741.257339,11387.744413,-17694.579684,-3667.653044,1130.908862,-0.006000,-0.012000,1.004000,192.000000,0.000000,0.000000,0.000000,0.000000,0.000000,0.000000,0.000000,0.000000,0.000000,1770298624.772937,0.000000
216.000000,7235.438494,11926.399103,1615.248813,3033.288185,-18700.341129,-12991.862058,1831.703106,-1621.328488,-18739.680200,-1037.232701,-1759.216399,3751.114458,11398.003864,-17685.348414,-3662.668605,1135.625081,-0.004000,-0.016000,1.006000,192.000000,127.500000,112.000000,127.500000,64.000000,15.500000,56.000000,0.000000,0.000000,0.000000,1770298624.772987,0.000000
218.000000,7215.903069,11902.438033,1592.472385,3000.453472,-18722.022321,-13018.326523,1808.054961,-1641.534465,-18720.055368,-1020.178320,-1743.190198,3768.928798,11427.105835,-17671.602091,-3647.648233,1147.426802,-0.004000,-0.016000,1.006000,192.000000,0.000000,0.000000,0.000000,0.000000,0.000000,0.000000,0.000000,0.000000,0.000000,1770298624.773036,0.000000
220.000000,7219.993439,11904.203821,1599.155557,3009.975315,-18711.874629,-13010.101081,1814.738132,-1635.097162,-18762.456627,-1045.771068,-1773.499164,3739.111571,11377.753184,-17695.406699,-3677.152536,1110.613478,-0.004000,-0.016000,1.006000,192.000000,0.000000,0.000000,0.000000,0.000000,0.000000,0.000000,0.000000,0.000000,0.000000,1770298624.773057,0.000000
222.000000,7232.264546,11918.799510,1615.114703,3027.812007,-18701.548124,-12998.344064,1830.317298,-1621.574357,-18704.319740,-1014.433922,-1732.304899,3773.577961,11430.793873,-17664.851864,-3634.997146,1143.224674,-0.004000,-0.016000,1.006000,192.000000,0.000000,0.000000,0.000000,0.000000,0.000000,0.000000,0.000000,0.000000,0.000000,1770298624.773077,0.000000
224.000000,7198.267543,11876.264140,1578.748414,2985.857783,-18726.157394,-13035.067980,1793.951010,-1656.957168,-18758.478017,-1050.084955,-1769.945236,3739.670365,11396.416890,-17698.647702,-3668.323597,1121.342316,-0.004000,-0.016000,1.006000,192.000000,0.000000,0.000000,0.000000,0.000000,0.000000,0.000000,0.000000,0.000000,0.000000,1770298624.773098,0.000000
226.000000,7230.811683,11913.569202,1612.588955,3029.331926,-18694.842600,-12995.304226,1829.043249,-1627.586976,-18740.306048,-1042.574768,-1760.870428,3745.392411,11409.604419,-17689.930521,-3664.926131,1131.244139,-0.004000,-0.018000,1.002000,192.000000,127.500000,112.000000,127.500000,56.000000,15.500000,40.000000,0.000000,0.000000,0.000000,1770298624.773118,0.000000
228.000000,7207.431758,11886.434184,1590.773653,2993.502080,-18711.986388,-13018.974724,1802.578783,-1652.710337,-18723.743406,-1032.158855,-1748.509914,3757.015319,11417.449882,-17678.598187,-3641.054468,1147.091525,-0.004000,-0.018000,1.002000,192.000000,0.000000,0.000000,0.000000,0.000000,0.000000,0.000000,0.000000,0.000000,0.000000,1770298624.773138,0.000000
230.000000,7208.325828,11886.836515,1593.075883,3002.196908,-18715.875592,-13017.767729,1803.875185,-1649.849313,-18773.252520,-1063.406594,-1785.658513,3723.219481,11372.098192,-17706.940199,-3663.808544,1117.095484,-0.004000,-0.018000,1.002000,192.000000,0.000000,0.000000,0.000000,0.000000,0.000000,0.000000,0.000000,0.000000,0.000000,1770298624.773157,0.000000
232.000000,7228.174177,11910.395254,1609.280897,3025.934461,-18704.029167,-12999.305189,1823.410609,-1632.370249,-18718.446042,-1031.398896,-1748.755783,3757.283539,11419.126263,-17675.871274,-3634.036021,1160.279055,-0.004000,-0.018000,1.002000,192.000000,0.000000,0.000000,0.000000,0.000000,0.000000,0.000000,0.000000,0.000000,0.000000,1770298624.773177,0.000000
234.000000,7203.319037,11879.035756,1577.273199,2989.367007,-18729.756025,-13028.943602,1793.548679,-1658.275921,-18761.473150,-1052.789516,-1775.734338,3735.088257,11389.599608,-17697.373652,-3667.809506,1131.020621,-0.004000,-0.018000,1.002000,192.000000,0.000000,0.000000,0.000000,0.000000,0.000000,0.000000,0.000000,0.000000,0.000000,1770298624.773196,0.000000
236.000000,7229.537634,11913.546850,1609.079732,3030.203644,-18704.677368,-12998.746395,1826.808074,-1630.425648,-18746.363371,-1045.502847,-1768.358263,3742.084353,11391.208934,-17688.209437,-3664.792021,1135.513322,-0.004000,-0.014000,1.003000,192.000000,127.500000,112.000000,127.500000,88.000000,15.500000,48.000000,0.000000,0.000000,0.000000,1770298624.773216,0.000000
238.000000,7210.940982,11891.686844,1585.208069,2996.541917,-18720.323589,-13021.142843,1802.377618,-1649.759907,-18728.303162,-1035.019879,-1754.701347,3756.210656,11427.910498,-17679.760478,-3645.077782,1147.404450,-0.004000,-0.014000,1.003000,192.000000,0.000000,0.000000,0.000000,0.000000,0.000000,0.000000,0.000000,0.000000,0.000000,1770298624.773236,0.000000
240.000000,7220.663991,11900.135803,1594.439339,3007.158996,-18714.869763,-13014.549078,1808.591403,-1638.919310,-18769.340964,-1057.393975,-1781.009350,3731.154350,11379.563675,-17701.642835,-3676.437280,1112.021638,-0.004000,-0.014000,1.003000,192.000000,0.000000,0.000000,0.000000,0.000000,0.000000,0.000000,0.000000,0.000000,0.000000,1770298624.773256,0.000000
242.000000,7244.200378,11927.226118,1615.494682,3031.880025,-18699.290597,-12991.258561,1831.010202,-1616.679325,-18707.136060,-1016.959669,-1735.121219,3771.812173,11422.255507,-17664.874216,-3643.200236,1150.109011,-0.004000,-0.014000,1.003000,192.000000,0.000000,0.000000,0.000000,0.000000,0.000000,0.000000,0.000000,0.000000,0.000000,1770298624.773290,0.000000
244.000000,7209.286953,11883.930789,1580.760071,2988.271771,-18727.230278,-13030.597631,1795.962667,-1650.028127,-18751.101941,-1035.891597,-1763.977321,3749.214560,11394.964027,-17683.381460,-3669.083556,1116.313173,-0.004000,-0.014000,1.003000,192.000000,0.000000,0.000000,0.000000,0.000000,0.000000,0.000000,0.000000,0.000000,0.000000,1770298624.773310,0.000000
246.000000,7236.287860,11913.904478,1614.757075,3030.404810,-18701.615179,-13004.513145,1831.837217,-1620.724990,-18743.658810,-1042.798286,-1761.384518,3744.543045,11391.074823,-17690.265797,-3658.712346,1123.890415,-0.004000,-0.013000,1.001500,192.000000,127.500000,112.000000,127.500000,80.000000,15.500000,32.000000,0.000000,0.000000,0.000000,1770298624.773329,0.000000
248.000000,7213.444378,11888.445841,1588.270258,2997.078359,-18725.173917,-13030.575279,1806.043304,-1643.166142,-18721.575287,-1028.023783,-1741.737335,3761.910351,11418.343952,-17679.246387,-3644.630747,1141.078906,-0.004000,-0.013000,1.001500,192.000000,0.000000,0.000000,0.000000,0.000000,0.000000,0.000000,0.000000,0.000000,0.000000,1770298624.773349,0.000000
250.000000,7212.595011,11886.791812,1591.377150,3005.594373,-18730.515984,-13028.295401,1809.753693,-1640.975671,-18771.576139,-1059.360928,-1776.829574,3731.355516,11378.602550,-17708.884801,-3684.997998,1101.404560,-0.004000,-0.013000,1.001500,192.000000,0.000000,0.000000,0.000000,0.000000,0.000000,0.000000,0.000000,0.000000,0.000000,1770298624.773368,0.000000
252.000000,7229.627041,11910.328199,1608.632697,3024.906281,-18715.719130,-13014.839651,1826.562205,-1626.938775,-18716.702606,-1032.427076,-1739.189236,3763.586731,11416.466405,-17681.950948,-3649.324614,1140.698927,-0.004000,-0.013000,1.001500,192.000000,0.000000,0.000000,0.000000,0.000000,0.000000,0.000000,0.000000,0.000000,0.000000,1770298624.773388,0.000000
254.000000,7206.649447,11881.740318,1575.350949,2988.405882,-18739.881365,-13037.459616,1792.118167,-1654.006738,-18762.389572,-1055.695242,-1770.325216,3738.530426,11375.093326,-17706.001426,-3680.862925,1118.883624,-0.004000,-0.013000,1.001500,192.000000,0.000000,0.000000,0.000000,0.000000,0.000000,0.000000,0.000000,0.000000,0.000000,1770298624.773408,0.000000
0.000000,7235.997288,11915.446748,1610.376133,3032.416467,-18711.204077,-13001.070976,1829.177359,-1624.793008,-18743.636458,-1044.497018,-1759.976358,3748.231083,11385.531591,-17690.042280,-3678.784213,1133.076982,-0.004000,-0.014500,1.001750,192.000000,127.500000,112.000000,127.500000,64.000000,15.500000,40.000000,0.000000,0.000000,0.000000,1770298624.773428,0.000000
2.000000,7213.131453,11888.512896,1585.968028,2999.872327,-18729.152528,-13026.261392,1802.310562,-1647.658843,-18727.230278,-1035.377507,-1747.861713,3759.518714,11416.041722,-17683.984957,-3648.855227,1150.600749,-0.004000,-0.014500,1.001750,192.000000,0.000000,0.000000,0.000000,0.000000,0.000000,0.000000,0.000000,0.000000,0.000000,1770298624.773447,0.000000
4.000000,7237.517206,11913.658609,1597.881508,3012.255193,-18716.032054,-13012.917401,1810.647763,-1632.504360,-18760.646136,-1055.985815,-1773.409757,3736.071734,11371.829971,-17705.040300,-3678.046605,1112.423970,-0.004000,-0.014500,1.001750,192.000000,0.000000,0.000000,0.000000,0.000000,0.000000,0.000000,0.000000,0.000000,0.000000,1770298624.773467,0.000000
6.000000,7237.226634,11920.610001,1609.057380,3030.807141,-18711.718167,-13006.815375,1827.165702,-1624.457732,-18707.784260,-1016.043248,-1735.121219,3774.874362,11413.359512,-17667.824646,-3648.564654,1152.500648,-0.004000,-0.014500,1.001750,192.000000,0.000000,0.000000,0.000000,0.000000,0.000000,0.000000,0.000000,0.000000,0.000000,1770298624.773488,0.000000
8.000000,7216.640677,11894.100832,1580.044816,2991.333960,-18737.780301,-13037.817244,1793.369865,-1649.402279,-18764.758857,-1044.497018,-1769.475850,3745.615929,11382.871733,-17694.222056,-3664.769669,1121.476426,-0.004000,-0.014500,1.001750,192.000000,0.000000,0.000000,0.000000,0.000000,0.000000,0.000000,0.000000,0.000000,0.000000,1770298624.773508,0.000000
10.000000,7242.501645,11927.583745,1613.438322,3037.758534,-18709.862972,-12998.455822,1829.311470,-1618.400409,-18744.910508,-1035.757486,-1758.299978,3752.992005,11390.605437,-17685.840152,-3660.388727,1132.942871,-0.003000,-0.011250,1.003875,192.000000,127.500000,120.000000,127.500000,96.000000,15.500000,56.000000,0.000000,0.000000,0.000000,1770298624.773527,0.000000
12.000000,7219.032314,11901.879239,1590.639542,3005.996705,-18730.806557,-13026.954296,1805.842138,-1640.573340,-18726.291505,-1018.054905,-1740.597396,3771.812173,11417.248716,-17668.606957,-3646.061259,1151.316005,-0.003000,-0.011250,1.003875,192.000000,0.000000,0.000000,0.000000,0.000000,0.000000,0.000000,0.000000,0.000000,0.000000,1770298624.773546,0.000000
14.000000,7215.321924,11896.984207,1593.701731,3014.780940,-18728.213755,-13022.796872,1810.536004,-1637.175874,-18781.388555,-1047.872132,-1779.422376,3738.217501,11358.396573,-17698.267722,-3680.170021,1113.452150,-0.003000,-0.011250,1.003875,192.000000,0.000000,0.000000,0.000000,0.000000,0.000000,0.000000,0.000000,0.000000,0.000000,1770298624.773565,0.000000
16.000000,7231.526939,11919.604173,1609.236194,3034.495179,-18714.310970,-13005.608381,1827.433923,-1622.021392,-18727.230278,-1013.070466,-1741.960852,3774.874362,11405.111719,-17665.656527,-3649.369317,1149.393755,-0.003000,-0.011250,1.003875,192.000000,0.000000,0.000000,0.000000,0.000000,0.000000,0.000000,0.000000,0.000000,0.000000,1770298624.773584,0.000000
18.000000,7201.419139,11884.131954,1576.580295,2994.351446,-18738.428502,-13033.726875,1795.336818,-1649.849313,-18771.643194,-1035.779838,-1771.018120,3749.862760,11373.573407,-17686.935387,-3674.827954,1113.429798,-0.003000,-0.011250,1.003875,192.000000,0.000000,0.000000,0.000000,0.000000,0.000000,0.000000,0.000000,0.000000,0.000000,1770298624.773604,0.000000
20.000000,7225.871948,11916.251411,1607.604516,3035.769228,-18714.758005,-13003.216744,1829.624394,-1621.037915,-18759.014459,-1028.783742,-1763.664396,3756.121249,11386.425660,-17677.704117,-3671.654006,1125.857368,-0.000500,-0.010625,1.003937,192.000000,0.000000,8.000000,127.500000,88.000000,15.500000,48.000000,0.000000,0.000000,0.000000,1770298624.773623,0.000000
22.000000,7202.670837,11890.859829,1583.174060,3003.001571,-18734.919278,-13027.043703,1804.702199,-1643.344956,-18739.613144,-1017.294945,-1747.839361,3770.940455,11399.724948,-17668.919881,-3658.019442,1147.024470,-0.000500,-0.010625,1.003937,192.000000,0.000000,0.000000,0.000000,0.000000,0.000000,0.000000,0.000000,0.000000,0.000000,1770298624.773642,0.000000
24.000000,7211.522128,11899.197030,1591.623019,3014.803292,-18725.486842,-13014.437320,1810.245432,-1634.091334,-18788.339947,-1042.999452,-1781.076405,3742.173760,11367.046698,-17693.596207,-3682.159326,1110.993458,-0.000500,-0.010625,1.003937,192.000000,0.000000,0.000000,0.000000,0.000000,0.000000,0.000000,0.000000,0.000000,0.000000,1770298624.773662,0.000000
26.000000,7232.376305,11923.247507,1609.504415,3038.227920,-18707.516039,-12993.851363,1829.378525,-1615.941717,-18727.498499,-1003.950954,-1738.138704,3781.043444,11411.839594,-17656.201739,-3647.000032,1150.600749,-0.000500,-0.010625,1.003937,192.000000,0.000000,0.000000,0.000000,0.000000,0.000000,0.000000,0.000000,0.000000,0.000000,1770298624.773681,0.000000
28.000000,7198.267543,11883.528457,1573.473403,2994.977295,-18737.780301,-13026.887241,1790.352379,-1649.648148,-18775.241825,-1027.800265,-1769.855829,3753.461391,11380.681262,-17677.927634,-3676.191411,1123.890415,-0.000500,-0.010625,1.003937,192.000000,0.000000,0.000000,0.000000,0.000000,0.000000,0.000000,0.000000,0.000000,0.000000,1770298624.773700,0.000000
30.000000,7236.600785,11926.220289,1612.678362,3045.000499,-18701.324606,-12982.921360,1829.646746,-1612.790121,-18755.125255,-1018.233719,-1760.199876,3761.709185,11381.150649,-17668.025812,-3665.373166,1131.869987,-0.000500,-0.010625,1.003937,192.000000,0.000000,0.000000,127.500000,80.000000,15.500000,32.000000,0.000000,0.000000,0.000000,1770298624.773720,0.000000
32.000000,7209.577526,11897.051263,1588.002037,3010.444702,-18721.329417,-13007.664741,1802.064693,-1638.047592,-18735.366313,-1006.879032,-1744.397193,3777.601275,11413.158347,-17652.603108,-3653.035003,1156.166334,-0.000500,-0.010625,1.003937,192.000000,0.000000,0.000000,0.000000,0.000000,0.000000,0.000000,0.000000,0.000000,0.000000,1770298624.773739,0.000000
34.000000,7211.946811,11899.822879,1594.774615,3013.149263,-18715.316798,-13009.832860,1805.216289,-1635.074810,-18781.880293,-1034.997527,-1778.863582,3745.750039,11370.935902,-17682.688556,-3671.855172,1117.073133,-0.000500,-0.010625,1.003937,192.000000,0.000000,0.000000,0.000000,0.000000,0.000000,0.000000,0.000000,0.000000,0.000000,1770298624.773793,0.000000
36.000000,7222.698000,11916.541984,1611.113740,3031.768266,-18703.515077,-12998.120546,1825.936356,-1621.149674,-18732.974676,-1011.639954,-1743.793695,3773.980293,11409.939696,-17663.086076,-3641.434448,1151.181895,-0.000500,-0.010625,1.003937,192.000000,0.000000,0.000000,0.000000,0.000000,0.000000,0.000000,0.000000,0.000000,0.000000,1770298624.773820,0.000000
38.000000,7194.624209,11879.102812,1577.161441,2987.712978,-18738.137929,-13032.184605,1791.313504,-1651.592750,-18776.940558,-1032.985870,-1770.995768,3749.348670,11375.719175,-17685.683690,-3668.792983,1125.075057,-0.000500,-0.010625,1.003937,192.000000,0.000000,0.000000,0.000000,0.000000,0.000000,0.000000,0.000000,0.000000,0.000000,1770298624.773836,0.000000
40.000000,7222.675648,11914.284457,1610.890223,3033.176426,-18708.678330,-12999.036968,1827.210406,-1619.987383,-18767.999860,-1035.310451,-1766.123088,3750.242740,11399.412024,-17685.415469,-3669.172963,1127.220825,-0.000500,-0.010625,1.003937,192.000000,0.000000,0.000000,127.500000,64.000000,15.500000,48.000000,0.000000,0.000000,0.000000,1770298624.773853,0.000000
42.000000,7204.213107,11893.027949,1588.024388,3001.995743,-18728.504327,-13021.209898,1802.735246,-1640.707450,-18744.217604,-1017.026724,-1747.101754,3769.599351,11399.993169,-17668.517550,-3652.833838,1143.492895,-0.000500,-0.010625,1.003937,192.000000,0.000000,0.000000,0.000000,0.000000,0.000000,0.000000,0.000000,0.000000,0.000000,1770298624.773869,0.000000
44.000000,7209.443415,11897.051263,1592.606496,3010.467054,-18722.402301,-13017.387750,1808.054961,-1635.857121,-18785.590683,-1037.970309,-1777.433071,3745.258301,11357.681317,-17690.556370,-3681.667588,1107.081903,-0.000500,-0.010625,1.003937,192.000000,0.000000,0.000000,0.000000,0.000000,0.000000,0.000000,0.000000,0.000000,0.000000,1770298624.773885,0.000000
46.000000,7225.335506,11917.838385,1609.683229,3033.087019,-18712.321664,-12999.148726,1827.322164,-1621.306136,-18735.589830,-1012.757541,-1743.123143,3774.963769,11399.546134,-17665.924748,-3651.470381,1147.985595,-0.000500,-0.010625,1.003937,192.000000,0.000000,0.000000,0.000000,0.000000,0.000000,0.000000,0.000000,0.000000,0.000000,1770298624.773901,0.000000
48.000000,7192.076110,11878.164038,1575.663874,2991.266905,-18739.300220,-13032.117549,1791.872298,-1654.185552,-18780.561540,-1036.830370,-1773.722681,3746.934682,11372.768745,-17687.449478,-3675.476155,1127.176121,-0.000500,-0.010625,1.003937,192.000000,0.000000,0.000000,0.000000,0.000000,0.000000,0.000000,0.000000,0.000000,0.000000,1770298624.773917,0.000000
50.000000,7220.909860,11914.642085,1609.191490,3035.880987,-18707.158411,-12991.996168,1825.712839,-1623.228386,-18767.441066,-1032.047097,-1767.710062,3752.679080,11373.908684,-17681.258044,-3667.720099,1132.697002,-0.000500,-0.010625,1.003937,192.000000,0.000000,0.000000,0.000000,0.000000,0.000000,0.000000,0.000000,0.000000,0.000000,1770298624.773935,0.000000
52.000000,7205.889488,11895.866620,1585.565696,3005.393208,-18725.062159,-13014.437320,1799.740112,-1646.228331,-18741.177766,-1012.019934,-1749.336928,3771.342787,11402.585972,-17664.673050,-3654.756088,1148.879665,-0.004000,-0.010000,1.008000,192.000000,127.500000,112.000000,127.500000,88.000000,15.500000,64.000000,0.000000,0.000000,0.000000,1770298624.773953,0.000000
54.000000,7208.392883,11896.224248,1591.824185,3008.701266,-18722.022321,-13012.448014,1803.361094,-1646.340090,-18794.151401,-1044.318204,-1790.285324,3733.657746,11363.358660,-17695.294940,-3683.880411,1121.007040,-0.004000,-0.010000,1.008000,192.000000,0.000000,0.000000,0.000000,0.000000,0.000000,0.000000,0.000000,0.000000,0.000000,1770298624.773971,0.000000
56.000000,7224.329677,11915.782024,1612.499548,3032.215301,-18706.376100,-12992.443203,1823.365906,-1630.157427,-18732.684104,-1010.030628,-1747.548788,3770.739290,11400.216687,-17662.102599,-3645.636576,1157.641549,-0.004000,-0.010000,1.008000,192.000000,0.000000,0.000000,0.000000,0.000000,0.000000,0.000000,0.000000,0.000000,0.000000,1770298624.773989,0.000000
58.000000,7198.960447,11884.578989,1581.296513,2991.468071,-18732.885269,-13027.244869,1790.419434,-1655.146677,-18777.141723,-1034.349326,-1775.734338,3746.040612,11384.704576,-17687.136553,-3667.608341,1126.617328,-0.004000,-0.010000,1.008000,192.000000,0.000000,0.000000,0.000000,0.000000,0.000000,0.000000,0.000000,0.000000,0.000000,1770298624.774007,0.000000
60.000000,7229.515282,11920.967629,1614.600612,3037.199740,-18705.526734,-12989.917456,1826.584557,-1623.362496,-18758.098037,-1027.487341,-1764.200838,3752.232045,11384.637521,-17679.268739,-3670.044681,1127.131418,-0.004000,-0.010000,1.008000,192.000000,0.000000,0.000000,0.000000,0.000000,0.000000,0.000000,0.000000,0.000000,0.000000,1770298624.774025,0.000000
62.000000,7198.066377,11887.842344,1584.761034,3003.023923,-18732.527641,-13022.036913,1798.913097,-1652.308005,-18745.692819,-1016.691448,-1752.980262,3766.045423,11394.226419,-17669.098695,-3649.235207,1148.432630,-0.004000,-0.010000,1.008000,192.000000,0.000000,0.000000,127.500000,88.000000,15.500000,64.000000,0.000000,0.000000,0.000000,1770298624.774043,0.000000
64.000000,7196.412348,11886.836515,1586.012731,3008.611859,-18727.587906,-13018.505337,1801.438844,-1650.475162,-18795.626616,-1043.602949,-1790.754711,3734.261243,11351.959270,-17695.898437,-3681.086443,1110.792292,-0.004000,-0.010000,1.008000,192.000000,0.000000,0.000000,0.000000,0.000000,0.000000,0.000000,0.000000,0.000000,0.000000,1770298624.774061,0.000000
66.000000,7207.856441,11906.886030,1601.100159,3029.935423,-18712.679292,-12996.958255,1819.722571,-1637.511151,-18750.341982,-1013.986887,-1760.401042,3763.653787,11386.336253,-17666.841169,-3649.905759,1148.767906,-0.004000,-0.010000,1.008000,192.000000,0.000000,0.000000,0.000000,0.000000,0.000000,0.000000,0.000000,0.000000,0.000000,1770298624.774079,0.000000
68.000000,7176.519296,11866.898759,1568.108984,2988.785862,-18744.016438,-13030.552927,1786.396120,-1667.507192,-18792.095040,-1034.975175,-1786.105548,3740.676193,11372.522875,-17687.293015,-3675.923190,1125.835016,-0.004000,-0.010000,1.008000,192.000000,0.000000,0.000000,0.000000,0.000000,0.000000,0.000000,0.000000,0.000000,0.000000,1770298624.774097,0.000000
70.000000,7201.843822,11897.230076,1603.268278,3031.142417,-18714.400377,-12996.980607,1821.913042,-1638.762848,-18785.255407,-1040.205483,-1782.596324,3740.184455,11351.266366,-17691.383385,-3674.872658,1127.824322,-0.004000,-0.010000,1.008000,192.000000,0.000000,0.000000,0.000000,0.000000,0.000000,0.000000,0.000000,0.000000,0.000000,1770298624.774115,0.000000
72.000000,7178.061566,11873.358413,1577.809641,2997.972429,-18735.098092,-13020.829918,1795.359170,-1661.919255,-18758.656831,-1020.625355,-1762.725623,3760.658653,11392.147707,-17673.345527,-3647.469419,1146.756249,-0.002000,-0.012000,1.004000,192.000000,127.500000,120.000000,127.500000,80.000000,15.500000,48.000000,0.000000,0.000000,0.000000,1770298624.774133,0.000000
74.000000,7174.239418,11871.480867,1581.810603,3005.817891,-18729.376045,-13016.583087,1798.890746,-1660.533447,-18817.531326,-1054.823524,-1804.858661,3724.761751,11339.419942,-17705.822612,-3685.713254,1113.452150,-0.002000,-0.012000,1.004000,192.000000,0.000000,0.000000,0.000000,0.000000,0.000000,0.000000,0.000000,0.000000,0.000000,1770298625.253656,0.000000
76.000000,7190.690302,11889.608132,1601.256621,3026.895586,-18716.143813,-13001.182735,1817.867377,-1645.133095,-18757.159264,-1021.228852,-1764.737280,3759.764583,11388.347910,-17673.501989,-3648.430544,1158.110935,-0.002000,-0.012000,1.004000,192.000000,0.000000,0.000000,0.000000,0.000000,0.000000,0.000000,0.000000,0.000000,0.000000,1770298625.253717,0.000000
78.000000,7163.711746,11854.806465,1567.863115,2988.025902,-18741.535394,-13028.161291,1782.953952,-1671.642264,-18801.840401,-1041.412478,-1792.766368,3738.239853,11361.011727,-17691.048108,-3673.755070,1122.772827,-0.002000,-0.012000,1.004000,192.000000,0.000000,0.000000,0.000000,0.000000,0.000000,0.000000,0.000000,0.000000,0.000000,1770298625.253771,0.000000
80.000000,7189.907991,11888.691710,1601.726008,3034.986917,-18714.735653,-12992.957293,1820.013144,-1641.467409,-18788.518761,-1034.975175,-1787.446652,3745.012432,11371.874675,-17684.677861,-3673.263332,1133.166389,-0.002000,-0.012000,1.004000,192.000000,0.000000,0.000000,0.000000,0.000000,0.000000,0.000000,0.000000,0.000000,0.000000,1770298625.253827,0.000000
82.000000,7161.945958,11855.812294,1575.127432,2996.765434,-18737.489729,-13024.629715,1790.285324,-1669.585904,-18775.733563,-1026.347402,-1773.789736,3755.718917,11394.114661,-17672.496161,-3653.593797,1150.243121,-0.006000,-0.014000,1.006000,192.000000,127.500000,104.000000,127.500000,72.000000,15.500000,56.000000,0.000000,0.000000,0.000000,1770298625.253883,0.000000
84.000000,7168.427964,11859.612091,1580.849478,3002.308667,-18734.896926,-13016.828956,1793.794548,-1661.852200,-18823.096910,-1055.114097,-1807.764388,3722.057190,11348.427695,-17702.849830,-3686.808489,1106.612516,-0.006000,-0.014000,1.006000,192.000000,0.000000,0.000000,0.000000,0.000000,0.000000,0.000000,0.000000,0.000000,0.000000,1770298625.253922,0.000000
86.000000,7183.649502,11881.896780,1604.095293,3027.476731,-18713.126327,-12994.499564,1818.426170,-1641.445058,-18766.479941,-1022.368791,-1766.883047,3758.758755,11384.302245,-17671.266815,-3654.197294,1143.492895,-0.006000,-0.014000,1.006000,192.000000,0.000000,0.000000,0.000000,0.000000,0.000000,0.000000,0.000000,0.000000,0.000000,1770298625.253939,0.000000
88.000000,7160.783668,11851.185483,1573.562810,2989.165841,-18735.433368,-13026.931945,1788.698350,-1663.752099,-18805.461384,-1037.657385,-1789.435958,3743.045478,11376.434431,-17686.600111,-3675.923190,1117.877795,-0.006000,-0.014000,1.006000,192.000000,0.000000,0.000000,0.000000,0.000000,0.000000,0.000000,0.000000,0.000000,0.000000,1770298625.253955,0.000000
90.000000,7188.969217,11887.037681,1606.509281,3033.176426,-18707.381929,-12993.516087,1823.298850,-1633.577244,-18788.518761,-1037.210350,-1779.109452,3748.633414,11360.832913,-17685.281358,-3675.744376,1126.527921,-0.006000,-0.014000,1.006000,192.000000,0.000000,0.000000,0.000000,0.000000,0.000000,0.000000,0.000000,0.000000,0.000000,1770298625.253970,0.000000
92.000000,7170.104345,11866.116448,1588.538478,3006.331981,-18727.409092,-13011.621000,1802.310562,-1651.883322,-18767.150494,-1018.189015,-1760.311635,3769.845220,11400.283742,-17665.611823,-3647.692936,1148.656148,-0.004000,-0.012000,1.006000,192.000000,127.500000,112.000000,127.500000,80.000000,15.500000,56.000000,0.000000,0.000000,0.000000,1770298625.253987,0.000000
94.000000,7165.455182,11860.595567,1586.750339,3008.254231,-18732.170013,-13016.963067,1799.762464,-1655.325491,-18816.190221,-1045.301681,-1798.041379,3736.943452,11347.041887,-17692.746841,-3673.978588,1102.633906,-0.004000,-0.012000,1.006000,192.000000,0.000000,0.000000,0.000000,0.000000,0.000000,0.000000,0.000000,0.000000,0.000000,1770298625.254005,0.000000
96.000000,7183.537744,11881.248579,1607.246889,3032.058839,-18712.656941,-12995.773613,1821.398952,-1638.069944,-18765.094133,-1022.413495,-1764.223190,3763.296159,11386.358605,-17669.210454,-3648.564654,1165.352901,-0.004000,-0.012000,1.006000,192.000000,0.000000,0.000000,0.000000,0.000000,0.000000,0.000000,0.000000,0.000000,0.000000,1770298625.254024,0.000000
98.000000,7159.464915,11847.117465,1576.736757,2990.574001,-18741.691857,-13024.897936,1786.865507,-1665.383776,-18805.461384,-1041.792457,-1787.267838,3742.576092,11362.531646,-17685.996614,-3670.223495,1135.401563,-0.004000,-0.012000,1.006000,192.000000,0.000000,0.000000,0.000000,0.000000,0.000000,0.000000,0.000000,0.000000,0.000000,1770298625.254037,0.000000
100.000000,7192.746662,11888.043509,1610.443188,3034.673993,-18711.159374,-12989.448069,1822.896519,-1633.174912,-18788.854037,-1036.986832,-1777.991864,3746.487647,11370.488867,-17685.907207,-3665.820201,1133.233444,-0.004000,-0.012000,1.006000,192.000000,0.000000,0.000000,0.000000,0.000000,0.000000,0.000000,0.000000,0.000000,0.000000,1770298625.254055,0.000000
102.000000,7167.802115,11858.472152,1585.677455,2998.955905,-18733.891098,-13018.058302,1797.326123,-1658.968825,-18767.910453,-1022.391143,-1761.809201,3762.267978,11395.858097,-17670.395097,-3650.442201,1149.863142,-0.004000,-0.012000,1.006000,192.000000,0.000000,0.000000,127.500000,80.000000,15.500000,64.000000,0.000000,0.000000,0.000000,1770298625.254071,0.000000
104.000000,7170.819601,11859.880311,1591.555964,3006.331981,-18726.447967,-13013.766767,1803.226984,-1650.966901,-18813.060977,-1053.705937,-1794.755673,3729.299155,11359.894140,-17701.106393,-3683.433376,1117.676630,-0.004000,-0.012000,1.006000,192.000000,0.000000,0.000000,0.000000,0.000000,0.000000,0.000000,0.000000,0.000000,0.000000,1770298625.254088,0.000000
106.000000,7184.476517,11879.706309,1612.231328,3032.036487,-18711.137022,-12995.550096,1824.975231,-1631.006793,-18758.433313,-1023.352268,-1755.796582,3766.984197,11406.184603,-17671.065649,-3647.380012,1151.293653,-0.004000,-0.012000,1.006000,192.000000,0.000000,0.000000,0.000000,0.000000,0.000000,0.000000,0.000000,0.000000,0.000000,1770298625.254103,0.000000
108.000000,7157.274444,11848.257404,1578.077862,2992.898583,-18737.579136,-13026.820186,1790.151213,-1659.192343,-18800.521648,-1038.685565,-1783.758615,3748.119324,11369.214817,-17689.416431,-3670.603474,1124.091580,-0.004000,-0.012000,1.006000,192.000000,0.000000,0.000000,0.000000,0.000000,0.000000,0.000000,0.000000,0.000000,0.000000,1770298625.254121,0.000000
110.000000,7190.958523,11885.875390,1614.466502,3037.982051,-18703.336263,-12987.861095,1825.556377,-1628.771618,-18782.394383,-1033.477608,-1775.332007,3752.857894,11392.281817,-17681.839190,-3663.473268,1130.551235,-0.004000,-0.012000,1.006000,192.000000,0.000000,0.000000,0.000000,0.000000,0.000000,0.000000,0.000000,0.000000,0.000000,1770298625.254140,0.000000
112.000000,7170.461973,11863.836570,1590.818356,3007.270754,-18724.391606,-13008.491756,1801.707065,-1652.732689,-18758.768589,-1017.987849,-1758.456440,3769.331130,11410.498489,-17664.583643,-3644.809561,1154.914636,-0.002000,-0.016000,1.004000,192.000000,127.500000,120.000000,127.500000,64.000000,15.500000,48.000000,0.000000,0.000000,0.000000,1770298625.254154,0.000000
114.000000,7171.311339,11864.529474,1592.785310,3012.411655,-18721.597638,-13002.836764,1803.919888,-1650.005776,-18810.646988,-1044.005280,-1794.778025,3738.105743,11365.795000,-17689.170562,-3676.861963,1119.442418,-0.002000,-0.016000,1.004000,192.000000,0.000000,0.000000,0.000000,0.000000,0.000000,0.000000,0.000000,0.000000,0.000000,1770298625.254176,0.000000
116.000000,7186.152898,11880.242751,1614.555909,3034.361069,-18707.784260,-12987.347005,1825.265804,-1635.432438,-18754.588813,-1013.316335,-1757.629425,3769.509944,11388.280855,-17657.296974,-3644.675451,1155.987520,-0.002000,-0.016000,1.004000,192.000000,0.000000,0.000000,0.000000,0.000000,0.000000,0.000000,0.000000,0.000000,0.000000,1770298625.254194,0.000000
118.000000,7155.329842,11847.922128,1579.575429,2992.205678,-18730.694798,-13021.142843,1790.061806,-1664.154430,-18798.532343,-1045.256978,-1787.312542,3743.470161,11370.868846,-17688.589417,-3670.402309,1127.779618,-0.002000,-0.016000,1.004000,192.000000,0.000000,0.000000,0.000000,0.000000,0.000000,0.000000,0.000000,0.000000,0.000000,1770298625.254208,0.000000
120.000000,7180.922589,11880.466268,1610.107912,3039.837246,-18703.112746,-12985.357700,1825.623432,-1634.583072,-18788.496409,-1036.025707,-1782.931600,3749.929816,11383.519934,-17680.766306,-3667.250713,1135.513322,-0.002000,-0.016000,1.004000,192.000000,0.000000,0.000000,0.000000,0.000000,0.000000,0.000000,0.000000,0.000000,0.000000,1770298625.254227,0.000000
122.000000,7158.123810,11851.431352,1584.358702,3003.739179,-18721.240010,-13010.682227,1797.080254,-1661.651035,-18770.302089,-1024.089876,-1768.894704,3764.190228,11393.108832,-17665.701230,-3653.079707,1160.077889,0.000000,-0.016000,1.003000,192.000000,0.000000,8.000000,127.500000,64.000000,15.500000,40.000000,0.000000,0.000000,0.000000,1770298625.254244,0.000000
124.000000,7164.941092,11853.197140,1590.348970,3005.661429,-18721.552935,-13009.095253,1800.321257,-1657.068927,-18814.849116,-1049.347347,-1802.645839,3732.294289,11357.770724,-17692.098640,-3675.945541,1109.786464,0.000000,-0.016000,1.003000,192.000000,0.000000,0.000000,0.000000,0.000000,0.000000,0.000000,0.000000,0.000000,0.000000,1770298625.254259,0.000000
126.000000,7178.598008,11870.430335,1606.553984,3030.427162,-18709.550048,-12990.878581,1819.677868,-1642.272072,-18762.456627,-1023.955765,-1768.559428,3763.184400,11400.462556,-17665.812989,-3644.720154,1150.578398,0.000000,-0.016000,1.003000,192.000000,0.000000,0.000000,0.000000,0.000000,0.000000,0.000000,0.000000,0.000000,0.000000,1770298625.254277,0.000000
128.000000,7155.374545,11840.277832,1578.234324,2994.463205,-18728.817252,-13018.035950,1787.938391,-1665.987273,-18798.465288,-1045.212274,-1794.196879,3742.799609,11389.241980,-17686.108373,-3672.302207,1129.366592,0.000000,-0.016000,1.003000,192.000000,0.000000,0.000000,0.000000,0.000000,0.000000,0.000000,0.000000,0.000000,0.000000,1770298625.254292,0.000000
130.000000,7179.715595,11872.084364,1610.532595,3035.769228,-18703.604484,-12989.939808,1821.778932,-1641.065078,-18786.596511,-1040.250187,-1787.625466,3745.325356,11379.116640,-17682.509742,-3668.703576,1134.798066,0.000000,-0.016000,1.003000,192.000000,0.000000,0.000000,0.000000,0.000000,0.000000,0.000000,0.000000,0.000000,0.000000,1770298625.254310,0.000000
132.000000,7157.520313,11847.631556,1587.465595,3004.767359,-18719.988313,-13013.364436,1799.650705,-1662.813325,-18766.144665,-1027.822617,-1772.046300,3759.384603,11408.710350,-17666.885873,-3653.504390,1156.948645,0.001000,-0.015000,1.005500,192.000000,0.000000,8.000000,127.500000,72.000000,15.500000,64.000000,0.000000,0.000000,0.000000,1770298625.254324,0.000000
134.000000,7155.933339,11847.542149,1586.817394,3006.644905,-18725.933877,-13008.491756,1798.600173,-1661.651035,-18819.274762,-1058.422155,-1810.290135,3725.924042,11365.683242,-17698.424184,-3682.829879,1120.582357,0.001000,-0.015000,1.005500,192.000000,0.000000,0.000000,0.000000,0.000000,0.000000,0.000000,0.000000,0.000000,0.000000,1770298625.254344,0.000000
136.000000,7171.981892,11869.558617,1607.760979,3031.164769,-18707.203115,-12987.972854,1820.326068,-1645.691889,-18768.268081,-1030.705992,-1774.281475,3757.104725,11393.309998,-17671.847960,-3647.804695,1159.653206,0.001000,-0.015000,1.005500,192.000000,0.000000,0.000000,0.000000,0.000000,0.000000,0.000000,0.000000,0.000000,0.000000,1770298625.254362,0.000000
138.000000,7146.277386,11836.299221,1576.915571,2990.596353,-18732.907621,-13020.114663,1787.245487,-1673.676273,-18808.501221,-1048.945016,-1799.002504,3736.429362,11362.509294,-17688.231789,-3666.870733,1133.546368,0.001000,-0.015000,1.005500,192.000000,0.000000,0.000000,0.000000,0.000000,0.000000,0.000000,0.000000,0.000000,0.000000,1770298625.254376,0.000000
140.000000,7171.713671,11868.016346,1607.269240,3032.997612,-18709.192420,-12990.498601,1819.633164,-1646.228331,-18796.230113,-1050.487286,-1794.710969,3736.317603,11380.278931,-17688.164733,-3667.273065,1133.412258,0.001000,-0.015000,1.005500,192.000000,0.000000,0.000000,0.000000,0.000000,0.000000,0.000000,0.000000,0.000000,0.000000,1770298625.254394,0.000000
142.000000,7152.692336,11846.581024,1585.185717,3004.722655,-18730.538336,-13012.805642,1798.220193,-1665.428479,-18773.565444,-1035.511617,-1775.913152,3754.489571,11386.559771,-17674.060783,-3654.845495,1153.931159,0.001500,-0.015500,1.007750,192.000000,0.000000,8.000000,127.500000,64.000000,15.500000,72.000000,0.000000,0.000000,0.000000,1770298625.254414,0.000000
144.000000,7153.944034,11848.950308,1587.689112,3011.025847,-18726.805595,-13005.876601,1801.014161,-1661.561628,-18820.481756,-1059.651501,-1809.150196,3724.292365,11346.237224,-17698.334777,-3689.624809,1119.107141,0.001500,-0.015500,1.007750,192.000000,0.000000,0.000000,0.000000,0.000000,0.000000,0.000000,0.000000,0.000000,0.000000,1770298625.254431,0.000000
146.000000,7166.706880,11866.474076,1604.139996,3031.276528,-18715.920295,-12994.745433,1818.560281,-1647.949415,-18772.269043,-1033.030573,-1776.315484,3754.936606,11390.292512,-17672.607919,-3657.773573,1155.093450,0.001500,-0.015500,1.007750,192.000000,0.000000,0.000000,0.000000,0.000000,0.000000,0.000000,0.000000,0.000000,0.000000,1770298625.254452,0.000000
148.000000,7139.795380,11829.683105,1573.674568,2989.903449,-18740.060179,-13028.563622,1785.613809,-1674.324474,-18812.233962,-1053.303606,-1800.321257,3735.736458,11368.678375,-17691.986882,-3670.245847,1122.996345,0.001500,-0.015500,1.007750,192.000000,0.000000,0.000000,0.000000,0.000000,0.000000,0.000000,0.000000,0.000000,0.000000,1770298625.254470,0.000000
150.000000,7171.020767,11863.121314,1607.269240,3035.411601,-18712.053443,-12994.879543,1821.018973,-1643.032031,-18803.159154,-1054.890580,-1795.046245,3735.825865,11363.939806,-17689.841114,-3677.018425,1123.353973,0.001500,-0.015500,1.007750,192.000000,0.000000,0.000000,0.000000,0.000000,0.000000,0.000000,0.000000,0.000000,0.000000,1770298625.254487,0.000000
152.000000,7155.598063,11843.809407,1587.599705,3006.667257,-18733.354656,-13020.695808,1800.678885,-1660.019357,-18769.832703,-1034.394030,-1768.537077,3758.110554,11395.478117,-17673.524341,-3652.587968,1146.398621,0.001750,-0.014750,1.008875,192.000000,0.000000,8.000000,127.500000,72.000000,15.500000,72.000000,0.000000,0.000000,0.000000,1770298625.254506,0.000000
154.000000,7156.112153,11842.267137,1586.571525,3008.924783,-18730.918316,-13020.204070,1799.807167,-1658.499439,-18825.376788,-1063.227780,-1806.803263,3727.980402,11358.106000,-17702.983940,-3681.131146,1109.205319,0.001750,-0.014750,1.008875,192.000000,0.000000,0.000000,0.000000,0.000000,0.000000,0.000000,0.000000,0.000000,0.000000,1770298625.254524,0.000000
156.000000,7180.944941,11870.966777,1609.772636,3035.501007,-18712.366368,-12994.924247,1821.823635,-1637.757020,-18766.234072,-1033.723478,-1767.374786,3762.111516,11405.782271,-17673.434934,-3652.453858,1143.179970,0.001750,-0.014750,1.008875,192.000000,0.000000,0.000000,0.000000,0.000000,0.000000,0.000000,0.000000,0.000000,0.000000,1770298625.254543,0.000000
158.000000,7146.612662,11832.186500,1573.942789,2990.685760,-18743.770569,-13027.624849,1785.524402,-1671.754023,-18802.913285,-1054.018862,-1790.173565,3740.095048,11356.787247,-17693.193876,-3678.851268,1127.265528,0.001750,-0.014750,1.008875,192.000000,0.000000,0.000000,0.000000,0.000000,0.000000,0.000000,0.000000,0.000000,0.000000,1770298625.254559,0.000000
160.000000,7171.199581,11862.003727,1605.950487,3035.568063,-18716.546144,-12996.131241,1821.220138,-1644.060212,-18802.712119,-1057.751603,-1793.369865,3735.512940,11356.831951,-17694.244408,-3672.369262,1130.774752,0.001750,-0.014750,1.008875,192.000000,0.000000,0.000000,0.000000,0.000000,0.000000,0.000000,0.000000,0.000000,0.000000,1770298625.254577,0.000000
162.000000,7155.888636,11843.697648,1585.520993,3004.789711,-18728.906659,-13017.343046,1799.270725,-1664.579113,-18775.085363,-1037.724440,-1773.052129,3755.987138,11387.856172,-17674.753687,-3650.621015,1153.595883,-0.000125,-0.013375,1.009438,192.000000,127.500000,120.000000,127.500000,80.000000,15.500000,72.000000,0.000000,0.000000,0.000000,1770298625.254595,0.000000
164.000000,7155.307490,11838.802616,1585.118662,3006.354333,-18725.777415,-13015.465500,1797.527289,-1663.953264,-18821.979323,-1070.380338,-1808.613754,3720.827844,11356.586082,-17707.297827,-3682.449899,1112.736894,-0.000125,-0.013375,1.009438,192.000000,0.000000,0.000000,0.000000,0.000000,0.000000,0.000000,0.000000,0.000000,0.000000,1770298625.254612,0.000000
166.000000,7178.642711,11870.676204,1610.666705,3032.237653,-18711.382891,-12993.404328,1822.136560,-1641.713278,-18769.363316,-1038.886731,-1768.872353,3756.300063,11390.158402,-17674.776039,-3649.749297,1149.617273,-0.000125,-0.013375,1.009438,192.000000,0.000000,0.000000,0.000000,0.000000,0.000000,0.000000,0.000000,0.000000,0.000000,1770298625.254632,0.000000
168.000000,7155.776877,11841.037791,1576.200315,2990.797519,-18739.836662,-13027.289573,1787.424301,-1669.116517,-18801.303959,-1053.616530,-1791.380559,3737.725763,11377.708480,-17692.746841,-3673.866829,1122.638717,-0.000125,-0.013375,1.009438,192.000000,0.000000,0.000000,0.000000,0.000000,0.000000,0.000000,0.000000,0.000000,0.000000,1770298625.254650,0.000000
170.000000,7183.560095,11873.134896,1610.510243,3036.551539,-18712.701644,-12991.213857,1824.036458,-1638.092296,-18790.373956,-1047.872132,-1783.713911,3744.252472,11368.678375,-17688.142382,-3673.598608,1125.164464,-0.000125,-0.013375,1.009438,192.000000,0.000000,0.000000,0.000000,0.000000,0.000000,0.000000,0.000000,0.000000,0.000000,1770298625.254669,0.000000
172.000000,7160.537798,11849.576157,1584.939848,3004.856766,-18733.332304,-13014.839651,1798.443711,-1660.689910,-18765.451761,-1034.125809,-1765.743108,3760.882170,11400.261390,-17672.317347,-3656.276006,1148.052650,0.000937,-0.010687,1.010719,192.000000,0.000000,8.000000,127.500000,96.000000,15.500000,80.000000,0.000000,0.000000,0.000000,1770298625.254682,0.000000
174.000000,7161.342461,11850.157303,1584.381054,3008.567155,-18729.331342,-13013.342084,1797.370827,-1658.924122,-18820.504108,-1066.088804,-1804.836310,3724.046495,11342.795055,-17703.252161,-3694.832765,1105.696095,0.000937,-0.010687,1.010719,192.000000,0.000000,0.000000,0.000000,0.000000,0.000000,0.000000,0.000000,0.000000,0.000000,1770298625.254700,0.000000
176.000000,7187.672816,11880.287454,1610.309078,3038.943176,-18707.493688,-12986.743508,1822.427132,-1636.013584,-18761.026116,-1029.297832,-1763.329120,3763.564380,11397.378015,-17666.572948,-3655.270178,1156.143982,0.000937,-0.010687,1.010719,192.000000,0.000000,0.000000,0.000000,0.000000,0.000000,0.000000,0.000000,0.000000,0.000000,1770298625.254714,0.000000
178.000000,7159.509618,11845.776361,1575.842688,2996.094882,-18732.013551,-13016.650142,1787.089024,-1664.109726,-18790.597473,-1045.525199,-1782.059882,3747.471124,11382.804678,-17684.454344,-3675.274989,1132.942871,0.000937,-0.010687,1.010719,192.000000,0.000000,0.000000,0.000000,0.000000,0.000000,0.000000,0.000000,0.000000,0.000000,1770298625.254735,0.000000
180.000000,7185.817621,11878.007576,1608.722104,3038.943176,-18703.805650,-12981.423793,1821.845987,-1634.493665,-18791.133915,-1045.771068,-1782.551620,3745.772391,11381.217704,-17681.682728,-3673.285684,1128.807798,0.000937,-0.010687,1.010719,192.000000,0.000000,0.000000,0.000000,0.000000,0.000000,0.000000,0.000000,0.000000,0.000000,1770298625.254750,0.000000
182.000000,7165.321072,11848.972660,1583.464632,3004.968525,-18728.772548,-13010.414006,1797.862565,-1657.650072,-18762.389572,-1029.409591,-1763.150306,3764.816077,11425.876489,-17667.221149,-3657.907684,1155.428726,0.000937,-0.010687,1.010719,192.000000,0.000000,0.000000,0.000000,0.000000,0.000000,0.000000,0.000000,0.000000,0.000000,1770298625.254767,0.000000
184.000000,7171.557208,11853.443009,1588.002037,3006.846071,-18728.213755,-13009.788157,1799.069559,-1653.067965,-18814.826764,-1067.742833,-1800.812996,3727.041629,11350.640518,-17704.749728,-3693.804585,1120.470598,0.004000,-0.014000,1.004000,192.000000,0.000000,16.000000,127.500000,72.000000,15.500000,48.000000,0.000000,0.000000,0.000000,1770298625.254781,0.000000
186.000000,7194.177174,11881.650911,1608.878566,3035.478656,-18710.153545,-12986.855267,1821.689525,-1631.789104,-18753.851206,-1029.834274,-1759.819896,3765.576037,11407.033969,-17667.735239,-3660.947521,1152.277130,0.004000,-0.014000,1.004000,192.000000,0.000000,0.000000,0.000000,0.000000,0.000000,0.000000,0.000000,0.000000,0.000000,1770298625.254799,0.000000
188.000000,7163.532932,11841.954212,1571.528801,2993.256210,-18741.893022,-13028.027180,1784.071539,-1664.757927,-18794.754898,-1045.145219,-1785.680865,3747.940510,11379.049585,-17685.683690,-3679.477117,1132.115857,0.004000,-0.014000,1.004000,192.000000,0.000000,0.000000,0.000000,0.000000,0.000000,0.000000,0.000000,0.000000,0.000000,1770298625.254817,0.000000
190.000000,7194.668912,11879.147515,1603.514147,3037.311499,-18712.232257,-12991.996168,1817.353286,-1635.477142,-18790.172790,-1051.627225,-1786.530231,3742.084353,11374.601588,-17688.656472,-3675.252637,1124.628022,0.004000,-0.014000,1.004000,192.000000,0.000000,0.000000,0.000000,0.000000,0.000000,0.000000,0.000000,0.000000,0.000000,1770298625.254833,0.000000
192.000000,7179.872057,11860.617919,1582.637618,3008.388341,-18729.040769,-13010.704578,1796.610868,-1654.096145,-18756.019325,-1028.068486,-1761.295111,3764.771374,11398.495602,-17669.098695,-3655.672509,1154.892284,0.004000,-0.014000,1.004000,192.000000,0.000000,0.000000,0.000000,0.000000,0.000000,0.000000,0.000000,0.000000,0.000000,1770298625.254851,0.000000
194.000000,7171.154877,11853.912396,1578.279028,3006.443740,-18725.620952,-13009.251715,1792.408740,-1658.611197,-18814.536192,-1059.606798,-1799.941277,3730.595557,11358.687146,-17697.641873,-3689.155422,1117.050781,-0.004000,-0.010000,1.004000,192.000000,127.500000,112.000000,127.500000,88.000000,15.500000,48.000000,0.000000,0.000000,0.000000,1770298625.734743,0.000000
196.000000,7193.819546,11881.270931,1603.558851,3036.126856,-18714.556839,-12985.692976,1818.940260,-1638.539331,-18760.735543,-1031.130675,-1765.564295,3761.306853,11393.019425,-17670.372745,-3652.431506,1156.568665,-0.004000,-0.010000,1.004000,192.000000,0.000000,0.000000,0.000000,0.000000,0.000000,0.000000,0.000000,0.000000,0.000000,1770298625.734812,0.000000
198.000000,7161.342461,11840.680163,1567.103156,2993.591487,-18740.753083,-13020.785215,1783.736263,-1671.172878,-18798.465288,-1052.163667,-1792.431091,3740.877359,11366.554960,-17693.305635,-3681.801698,1136.340336,-0.004000,-0.010000,1.004000,192.000000,0.000000,0.000000,0.000000,0.000000,0.000000,0.000000,0.000000,0.000000,0.000000,1770298625.734866,0.000000
200.000000,7191.047930,11875.504181,1599.312019,3035.098676,-18712.478127,-12987.704633,1816.727438,-1642.182665,-18794.419622,-1053.482420,-1792.811071,3740.251510,11368.387803,-17691.986882,-3679.901800,1132.205264,-0.004000,-0.010000,1.004000,192.000000,0.000000,0.000000,0.000000,0.000000,0.000000,0.000000,0.000000,0.000000,0.000000,1770298625.734918,0.000000
202.000000,7180.430851,11862.786038,1579.150746,3006.846071,-18728.727845,-13010.861040,1797.527289,-1656.666596,-18760.422618,-1029.990736,-1766.793640,3764.257284,11403.860021,-17666.371783,-3660.388727,1154.892284,-0.004000,-0.010000,1.004000,192.000000,0.000000,0.000000,0.000000,0.000000,0.000000,0.000000,0.000000,0.000000,0.000000,1770298625.734970,0.000000
204.000000,7176.161668,11860.059125,1578.144917,3006.153167,-18728.169051,-13011.196317,1795.135652,-1654.833752,-18808.367110,-1055.337614,-1798.913097,3732.987193,11358.195407,-17696.636045,-3697.067940,1117.229595,-0.004000,-0.008000,1.000000,192.000000,127.500000,112.000000,127.500000,96.000000,15.500000,32.000000,0.000000,0.000000,0.000000,1770298625.735023,0.000000
206.000000,7197.753453,11889.786946,1602.597726,3033.712868,-18712.723996,-12988.241075,1819.253185,-1632.772581,-18753.068895,-1029.007259,-1757.361204,3766.313644,11408.375073,-17667.109390,-3665.507277,1151.360709,-0.004000,-0.008000,1.000000,192.000000,0.000000,0.000000,0.000000,0.000000,0.000000,0.000000,0.000000,0.000000,0.000000,1770298625.735043,0.000000
208.000000,7161.878903,11849.754971,1568.421908,2993.189155,-18743.837624,-13021.232250,1785.591458,-1663.036843,-18794.643139,-1044.117039,-1783.691559,3748.923987,11388.951408,-17681.950948,-3686.897896,1123.018697,-0.004000,-0.008000,1.000000,192.000000,0.000000,0.000000,0.000000,0.000000,0.000000,0.000000,0.000000,0.000000,0.000000,1770298625.735061,0.000000
210.000000,7190.466784,11883.394347,1601.860118,3034.606938,-18713.886286,-12989.135145,1817.688563,-1635.410087,-18790.731584,-1044.429963,-1784.339760,3750.667423,11365.415021,-17679.916940,-3686.540268,1128.472522,-0.004000,-0.008000,1.000000,192.000000,0.000000,0.000000,0.000000,0.000000,0.000000,0.000000,0.000000,0.000000,0.000000,1770298625.735090,0.000000
212.000000,7167.735060,11857.376916,1580.380092,3004.387379,-18728.817252,-13015.957238,1796.163833,-1657.180686,-18756.980450,-1026.481512,-1761.943312,3769.934627,11395.433413,-17665.924748,-3660.433431,1140.028374,-0.004000,-0.008000,1.000000,192.000000,0.000000,0.000000,0.000000,0.000000,0.000000,0.000000,0.000000,0.000000,0.000000,1770298625.735109,0.000000
214.000000,7165.164610,11852.236015,1577.027330,3006.130815,-18726.045635,-13017.991247,1794.822728,-1659.147639,-18816.257276,-1068.279274,-1804.143405,3729.790894,11351.713401,-17702.760423,-3687.411986,1110.971106,-0.006000,-0.010000,1.006000,192.000000,127.500000,104.000000,127.500000,88.000000,15.500000,56.000000,0.000000,0.000000,0.000000,1770298625.735124,0.000000
216.000000,7182.151935,11873.693690,1595.668685,3033.109371,-18717.529621,-12995.080709,1818.694391,-1642.048555,-18763.864787,-1040.518408,-1769.788774,3759.228141,11391.119527,-17678.642890,-3662.154515,1152.701813,-0.006000,-0.010000,1.006000,192.000000,0.000000,0.000000,0.000000,0.000000,0.000000,0.000000,0.000000,0.000000,0.000000,1770298625.735139,0.000000
218.000000,7153.340537,11834.980468,1561.962254,2989.545821,-18749.827892,-13030.552927,1784.295056,-1672.469279,-18801.795697,-1058.645673,-1790.061806,3743.201940,11365.437372,-17692.769193,-3690.094196,1136.317985,-0.006000,-0.010000,1.006000,192.000000,0.000000,0.000000,0.000000,0.000000,0.000000,0.000000,0.000000,0.000000,0.000000,1770298625.735157,0.000000
220.000000,7175.535819,11864.708288,1593.209993,3027.834359,-18725.084510,-12997.271180,1816.079237,-1646.451848,-18804.455555,-1066.893466,-1796.007370,3733.143655,11367.359622,-17699.340606,-3687.814318,1129.031316,-0.006000,-0.010000,1.006000,192.000000,0.000000,0.000000,0.000000,0.000000,0.000000,0.000000,0.000000,0.000000,0.000000,1770298625.735176,0.000000
222.000000,7159.464915,11846.782189,1572.489926,3000.028789,-18740.395455,-13017.164232,1794.420397,-1665.137907,-18777.566406,-1048.006242,-1776.539001,3753.595502,11376.814410,-17679.805181,-3666.446050,1155.406374,-0.006000,-0.010000,1.006000,192.000000,0.000000,0.000000,0.000000,0.000000,0.000000,0.000000,0.000000,0.000000,0.000000,1770298625.735190,0.000000
224.000000,7161.074240,11850.313765,1573.361644,2998.531222,-18737.623839,-13017.186584,1793.548679,-1664.377947,-18821.778157,-1074.537763,-1809.686638,3722.347763,11346.773666,-17707.722510,-3698.945486,1119.777694,-0.008000,-0.008000,1.006000,192.000000,127.500000,96.000000,127.500000,96.000000,15.500000,56.000000,0.000000,0.000000,0.000000,1770298625.735208,0.000000
226.000000,7186.890505,11883.126126,1598.663819,3025.688592,-18714.087452,-12996.019482,1818.113246,-1639.433401,-18766.032906,-1043.155914,-1771.621617,3754.534275,11398.450899,-17676.742992,-3666.043719,1156.434555,-0.008000,-0.008000,1.006000,192.000000,0.000000,0.000000,0.000000,0.000000,0.000000,0.000000,0.000000,0.000000,0.000000,1770298625.735223,0.000000
228.000000,7161.320110,11848.838550,1569.427737,2988.539992,-18737.467377,-13022.483948,1787.267838,-1664.243837,-18802.622712,-1056.186981,-1790.218269,3742.576092,11367.717250,-17695.652568,-3682.651065,1129.455999,-0.008000,-0.008000,1.006000,192.000000,0.000000,0.000000,0.000000,0.000000,0.000000,0.000000,0.000000,0.000000,0.000000,1770298625.735241,0.000000
230.000000,7191.338502,11885.160134,1601.860118,3036.484484,-18711.896981,-12993.426680,1822.158911,-1636.885302,-18795.805430,-1053.974158,-1786.150251,3744.096010,11361.794038,-17688.276492,-3682.516954,1124.739781,-0.008000,-0.008000,1.006000,192.000000,0.000000,0.000000,0.000000,0.000000,0.000000,0.000000,0.000000,0.000000,0.000000,1770298625.735257,0.000000
232.000000,7169.858476,11859.880311,1580.558906,3006.823719,-18731.119481,-13013.297381,1801.103568,-1660.265226,-18766.502293,-1032.538835,-1764.580818,3767.878266,11403.167117,-17669.366916,-3657.125373,1148.834962,-0.008000,-0.008000,1.006000,192.000000,0.000000,0.000000,0.000000,0.000000,0.000000,0.000000,0.000000,0.000000,0.000000,1770298625.735276,0.000000
234.000000,7169.992586,11861.333175,1580.737720,3008.790673,-18731.298295,-13009.184660,1801.595307,-1659.952302,-18821.912267,-1067.049929,-1806.646801,3730.237929,11365.057393,-17701.888705,-3685.690902,1110.792292,-0.004000,-0.014000,1.004000,192.000000,127.500000,112.000000,127.500000,72.000000,15.500000,48.000000,0.000000,0.000000,0.000000,1770298625.735295,0.000000
236.000000,7189.975046,11887.305902,1601.211918,3035.053973,-18712.142850,-12982.519028,1823.187092,-1640.662747,-18765.138837,-1033.276443,-1768.402966,3764.927836,11378.960178,-17669.746896,-3655.806620,1151.651281,-0.004000,-0.014000,1.004000,192.000000,0.000000,0.000000,0.000000,0.000000,0.000000,0.000000,0.000000,0.000000,0.000000,1770298625.735312,0.000000
238.000000,7167.735060,11858.293338,1565.560885,2997.190118,-18741.334229,-13014.571430,1788.720702,-1667.104860,-18800.052261,-1048.855609,-1794.286286,3743.894845,11365.795000,-17686.153076,-3685.377978,1133.255796,-0.004000,-0.014000,1.004000,192.000000,0.000000,0.000000,0.000000,0.000000,0.000000,0.000000,0.000000,0.000000,0.000000,1770298625.735330,0.000000
240.000000,7188.075148,11884.646044,1591.868888,3040.038412,-18717.708435,-12985.290645,1821.711877,-1640.126305,-18795.537209,-1048.073298,-1794.465100,3743.380754,11364.498599,-17687.896512,-3686.562620,1146.264511,-0.004000,-0.014000,1.004000,192.000000,0.000000,0.000000,0.000000,0.000000,0.000000,0.000000,0.000000,0.000000,0.000000,1770298625.735348,0.000000
242.000000,7171.691319,11864.507123,1568.019577,3012.299897,-18743.927031,-13011.486889,1800.812996,-1659.259398,-18768.379839,-1028.515521,-1773.409757,3766.447755,11393.064129,-17668.674012,-3664.747317,1171.991369,-0.004000,-0.014000,1.004000,192.000000,0.000000,0.000000,0.000000,0.000000,0.000000,0.000000,0.000000,0.000000,0.000000,1770298625.735375,0.000000
244.000000,7170.640787,11863.322480,1569.405385,3012.389304,-18741.401284,-13009.497584,1800.857699,-1656.174857,-18818.559506,-1060.657330,-1805.104530,3735.691754,11342.638593,-17700.078213,-3702.611173,1124.560967,-0.004000,-0.014000,1.004000,192.000000,0.000000,0.000000,127.500000,80.000000,15.500000,40.000000,0.000000,0.000000,0.000000,1770298625.735394,0.000000
246.000000,7181.302569,11880.533323,1591.555964,3032.260005,-18730.247763,-12995.460689,1819.141426,-1645.021337,-18770.212683,-1037.992661,-1771.912190,3763.586731,11391.164230,-17676.184198,-3680.527649,1160.010834,-0.004000,-0.014000,1.004000,192.000000,0.000000,0.000000,0.000000,0.000000,0.000000,0.000000,0.000000,0.000000,0.000000,1770298625.735412,0.000000
248.000000,7150.948900,11843.317669,1564.689167,2984.919010,-18750.721961,-13032.206956,1781.054053,-1678.504250,-18811.205782,-1060.500867,-1800.276554,3737.725763,11355.110866,-17700.078213,-3688.663684,1134.999232,-0.004000,-0.014000,1.004000,192.000000,0.000000,0.000000,0.000000,0.000000,0.000000,0.000000,0.000000,0.000000,0.000000,1770298625.735431,0.000000
250.000000,7187.002264,11884.891914,1604.095293,3030.024830,-18713.483955,-12995.840668,1818.828502,-1640.863912,-18800.208724,-1057.550437,-1795.470929,3736.429362,11357.860131,-17699.161792,-3683.969818,1125.164464,-0.004000,-0.014000,1.004000,192.000000,0.000000,0.000000,0.000000,0.000000,0.000000,0.000000,0.000000,0.000000,0.000000,1770298625.735450,0.000000
252.000000,7172.361871,11866.854056,1586.482118,3003.090978,-18726.336208,-13016.851308,1801.707065,-1652.330357,-18761.741371,-1031.957690,-1763.284417,3763.810249,11401.624847,-17670.953890,-3652.744431,1148.745555,-0.004000,-0.014000,1.004000,192.000000,0.000000,0.000000,0.000000,0.000000,0.000000,0.000000,0.000000,0.000000,0.000000,1770298625.735469,0.000000
254.000000,7174.082956,11866.451724,1582.816432,3003.917993,-18726.649133,-13019.555869,1800.500071,-1652.039784,-18812.189259,-1062.177248,-1799.002504,3730.863778,11361.503465,-17701.329911,-3686.160289,1106.076074,-0.008000,-0.014000,1.002000,192.000000,127.500000,80.000000,127.500000,72.000000,15.500000,32.000000,0.000000,0.000000,0.000000,1770298625.735488,0.000000
0.000000,7193.350159,11890.256332,1603.804720,3032.282356,-18718.468394,-13000.467479,1824.662307,-1633.286671,-18759.528549,-1033.209387,-1762.122126,3764.950188,11397.355663,-17674.664280,-3658.891160,1143.135267,-0.008000,-0.014000,1.002000,192.000000,0.000000,0.000000,0.000000,0.000000,0.000000,0.000000,0.000000,0.000000,0.000000,1770298625.735507,0.000000
2.000000,7167.936226,11858.069820,1570.813545,2992.183327,-18744.731694,-13031.469349,1790.508841,-1662.299235,-18796.453631,-1049.257940,-1786.150251,3748.745173,11375.674471,-17693.305635,-3682.315789,1120.112970,-0.008000,-0.014000,1.002000,192.000000,0.000000,0.000000,0.000000,0.000000,0.000000,0.000000,0.000000,0.000000,0.000000,1770298625.735527,0.000000
4.000000,7191.740834,11886.456536,1602.307153,3037.356202,-18722.782281,-12996.332407,1823.857644,-1634.292499,-18794.509029,-1051.738984,-1785.613809,3748.879284,11370.600625,-17693.104469,-3682.561658,1124.426857,-0.008000,-0.014000,1.002000,192.000000,0.000000,0.000000,0.000000,0.000000,0.000000,0.000000,0.000000,0.000000,0.000000,1770298625.735546,0.000000
6.000000,7177.547476,11870.922073,1581.877659,3016.233804,-18737.936764,-13006.614209,1805.216289,-1648.865837,-18764.155360,-1032.918815,-1762.099774,3772.750947,11402.943600,-17671.646794,-3668.234190,1157.820363,-0.008000,-0.014000,1.002000,192.000000,0.000000,0.000000,0.000000,0.000000,0.000000,0.000000,0.000000,0.000000,0.000000,1770298625.735565,0.000000
8.000000,7166.036328,11858.449800,1577.675531,3015.362086,-18738.830833,-13005.675436,1799.427187,-1654.744346,-18818.179526,-1065.194734,-1799.807167,3738.530426,11352.227491,-17699.340606,-3702.857042,1125.902072,-0.005000,-0.012000,1.001000,192.000000,127.500000,120.000000,127.500000,88.000000,15.500000,32.000000,0.000000,0.000000,0.000000,1770298625.735585,0.000000
10.000000,7181.503735,11876.532361,1596.830976,3038.853769,-18724.346903,-12993.650197,1821.443656,-1640.238063,-18774.101886,-1040.987795,-1771.107527,3762.826772,11396.461594,-17674.083134,-3662.579198,1162.536581,-0.005000,-0.012000,1.001000,192.000000,0.000000,0.000000,0.000000,0.000000,0.000000,0.000000,0.000000,0.000000,0.000000,1770298625.735604,0.000000
12.000000,7157.117982,11842.602413,1564.443298,2993.390321,-18751.817197,-13027.244869,1787.580763,-1668.043633,-18804.120279,-1059.070356,-1792.542850,3742.084353,11361.749335,-17693.752670,-3685.400329,1144.297557,-0.005000,-0.012000,1.001000,192.000000,0.000000,0.000000,0.000000,0.000000,0.000000,0.000000,0.000000,0.000000,0.000000,1770298625.735624,0.000000
14.000000,7181.481383,11872.441992,1600.094330,3030.673031,-18726.313856,-13005.138994,1822.941223,-1638.919310,-18801.683939,-1064.323016,-1792.945181,3736.228196,11361.168189,-17699.497068,-3689.736568,1134.328679,-0.005000,-0.012000,1.001000,192.000000,0.000000,0.000000,0.000000,0.000000,0.000000,0.000000,0.000000,0.000000,0.000000,1770298625.735643,0.000000
16.000000,7170.819601,11861.132009,1586.549173,3008.343638,-18737.087397,-13022.148671,1807.697333,-1650.050479,-18770.726773,-1043.446486,-1766.279550,3759.630473,11396.014559,-17682.085059,-3654.554922,1151.427764,-0.005000,-0.012000,1.001000,192.000000,0.000000,0.000000,0.000000,0.000000,0.000000,0.000000,0.000000,0.000000,0.000000,1770298625.735662,0.000000
18.000000,7167.757412,11856.572253,1581.497679,3004.901469,-18744.150548,-13029.055360,1801.237679,-1652.665633,-18813.396253,-1068.860420,-1796.901440,3733.054248,11361.235244,-17708.013083,-3692.217611,1116.693153,-0.003500,-0.011000,1.002500,192.000000,127.500000,120.000000,127.500000,88.000000,15.500000,48.000000,0.000000,0.000000,0.000000,1770298625.735687,0.000000
20.000000,7184.297703,11880.600379,1604.587031,3032.528225,-18721.709397,-13003.261447,1825.064638,-1633.644299,-18768.379839,-1045.681661,-1766.883047,3761.262150,11396.796870,-17683.515571,-3660.500486,1146.733898,-0.003500,-0.011000,1.002500,192.000000,0.000000,0.000000,0.000000,0.000000,0.000000,0.000000,0.000000,0.000000,0.000000,1770298625.735706,0.000000
22.000000,7156.693298,11848.167997,1567.416080,2990.015208,-18749.202043,-13035.984401,1788.787757,-1661.606331,-18805.148459,-1058.600969,-1790.128862,3745.660632,11389.174925,-17696.904266,-3679.790041,1122.370496,-0.003500,-0.011000,1.002500,192.000000,0.000000,0.000000,0.000000,0.000000,0.000000,0.000000,0.000000,0.000000,0.000000,1770298625.735727,0.000000
24.000000,7185.236476,11879.818068,1599.893165,3035.322194,-18720.591810,-13001.562715,1823.634127,-1631.699697,-18799.091136,-1059.919722,-1788.273667,3745.526522,11372.813448,-17692.925655,-3685.892068,1120.068266,-0.003500,-0.011000,1.002500,192.000000,0.000000,0.000000,0.000000,0.000000,0.000000,0.000000,0.000000,0.000000,0.000000,1770298625.735747,0.000000
26.000000,7163.778801,11856.549902,1576.803813,3007.315458,-18742.273002,-13026.529613,1800.991809,-1654.431421,-18772.000822,-1040.429001,-1767.553600,3766.201885,11395.522820,-17672.965547,-3662.892123,1142.352956,-0.003500,-0.011000,1.002500,192.000000,0.000000,0.000000,0.000000,0.000000,0.000000,0.000000,0.000000,0.000000,0.000000,1770298625.735766,0.000000
28.000000,7156.536836,11848.458570,1574.658045,3007.047237,-18746.676296,-13023.176852,1798.734283,-1658.454735,-18829.355398,-1076.638827,-1809.083141,3727.265147,11338.369410,-17706.023777,-3699.057245,1107.998324,-0.003500,-0.011000,1.002500,192.000000,0.000000,0.000000,127.500000,88.000000,15.500000,64.000000,0.000000,0.000000,0.000000,1770298625.735785,0.000000
30.000000,7173.770031,11871.704384,1601.301325,3037.780885,-18724.972752,-12997.874677,1823.991755,-1640.126305,-18774.906549,-1047.402745,-1772.359225,3759.518714,11385.777460,-17678.844056,-3664.300283,1155.093450,-0.003500,-0.011000,1.002500,192.000000,0.000000,0.000000,0.000000,0.000000,0.000000,0.000000,0.000000,0.000000,0.000000,1770298625.735805,0.000000
32.000000,7143.595176,11834.399323,1566.969045,2995.536088,-18752.241880,-13026.395503,1788.921867,-1671.239933,-18812.032796,-1066.111155,-1797.639048,3737.703411,11365.727945,-17696.189010,-3681.488774,1138.866083,-0.003500,-0.011000,1.002500,192.000000,0.000000,0.000000,0.000000,0.000000,0.000000,0.000000,0.000000,0.000000,0.000000,1770298625.735824,0.000000
34.000000,7183.403633,11882.388518,1603.380037,3042.340641,-18721.038845,-12982.653139,1826.003412,-1633.867816,-18798.889971,-1062.110193,-1792.587554,3739.849179,11370.868846,-17692.724489,-3683.522783,1142.464714,-0.003500,-0.011000,1.002500,192.000000,0.000000,0.000000,0.000000,0.000000,0.000000,0.000000,0.000000,0.000000,0.000000,1770298625.735843,0.000000
36.000000,7158.950825,11857.220454,1581.944714,3013.059856,-18736.349790,-13002.948523,1804.992772,-1653.827924,-18764.781209,-1035.913949,-1766.167792,3766.224237,11392.728852,-17667.377611,-3671.452841,1170.694968,-0.003500,-0.011000,1.002500,192.000000,0.000000,0.000000,0.000000,0.000000,0.000000,0.000000,0.000000,0.000000,0.000000,1770298625.735862,0.000000
38.000000,7162.437697,11856.482846,1584.202240,3015.496196,-18730.337170,-13000.780404,1804.992772,-1652.151543,-18820.794680,-1066.222914,-1803.115225,3734.797685,11354.261500,-17696.971321,-3695.168042,1127.600804,-0.000750,-0.009500,1.007250,192.000000,0.000000,8.000000,127.500000,96.000000,15.500000,80.000000,0.000000,0.000000,0.000000,1770298625.735881,0.000000
40.000000,7183.805964,11885.115431,1607.224537,3039.814894,-18711.159374,-12987.369357,1828.193882,-1634.761886,-18761.003764,-1033.723478,-1767.464193,3767.632397,11416.689922,-17664.941271,-3663.696785,1167.945703,-0.000750,-0.009500,1.007250,192.000000,0.000000,0.000000,0.000000,0.000000,0.000000,0.000000,0.000000,0.000000,0.000000,1770298625.735901,0.000000
42.000000,7149.406630,11844.345849,1573.942789,2995.469033,-18738.495557,-13024.652067,1792.095815,-1664.757927,-18797.548866,-1050.934321,-1790.061806,3749.415725,11380.278931,-17684.566103,-3670.938751,1138.128476,-0.000750,-0.009500,1.007250,192.000000,0.000000,0.000000,0.000000,0.000000,0.000000,0.000000,0.000000,0.000000,0.000000,1770298625.735920,0.000000
44.000000,7174.284121,11875.794754,1604.296458,3035.031621,-18712.679292,-12995.684206,1823.477664,-1639.299290,-18801.371014,-1056.790478,-1794.330990,3742.084353,11369.348928,-17690.712832,-3673.173925,1125.723258,-0.000750,-0.009500,1.007250,192.000000,0.000000,0.000000,0.000000,0.000000,0.000000,0.000000,0.000000,0.000000,0.000000,1770298625.735940,0.000000
46.000000,7165.522237,11864.149495,1588.560830,3014.982106,-18725.732711,-13012.827994,1807.853795,-1652.129191,-18767.083438,-1029.320184,-1766.748937,3768.302949,11410.923172,-17666.081210,-3652.789134,1151.383060,-0.000750,-0.009500,1.007250,192.000000,0.000000,0.000000,0.000000,0.000000,0.000000,0.000000,0.000000,0.000000,0.000000,1770298625.735959,0.000000
48.000000,7155.463952,11854.784114,1581.005941,3010.623516,-18731.454758,-13021.209898,1800.701237,-1660.220523,-18823.007503,-1059.673853,-1804.299868,3736.094086,11368.901893,-17694.646739,-3684.461556,1112.379266,-0.000750,-0.009500,1.007250,192.000000,0.000000,0.000000,127.500000,96.000000,15.500000,48.000000,0.000000,0.000000,0.000000,1770298625.735979,0.000000
50.000000,7174.909970,11878.678129,1600.586069,3039.121990,-18717.239048,-12998.947561,1824.170568,-1642.182665,-18775.465342,-1031.421248,-1772.828611,3765.710147,11387.051509,-17669.903358,-3658.220608,1152.143020,-0.000750,-0.009500,1.007250,192.000000,0.000000,0.000000,0.000000,0.000000,0.000000,0.000000,0.000000,0.000000,0.000000,1770298625.736001,0.000000
52.000000,7142.388182,11842.311840,1565.449126,2995.401978,-18741.960078,-13029.412988,1789.055978,-1673.340997,-18810.401119,-1052.521295,-1797.460234,3743.850141,11363.313957,-17687.874161,-3677.666626,1131.579415,-0.000750,-0.009500,1.007250,192.000000,0.000000,0.000000,0.000000,0.000000,0.000000,0.000000,0.000000,0.000000,0.000000,1770298625.736021,0.000000
54.000000,7164.024671,11869.625672,1594.953429,3034.249310,-18719.720092,-12997.628808,1821.622470,-1646.585959,-18815.698482,-1058.690376,-1801.997638,3738.865702,11361.391707,-17694.155001,-3681.175850,1132.294671,-0.000750,-0.009500,1.007250,192.000000,0.000000,0.000000,0.000000,0.000000,0.000000,0.000000,0.000000,0.000000,0.000000,1770298625.736040,0.000000
56.000000,7154.815752,11855.320556,1577.273199,3011.137606,-18739.881365,-13007.463575,1803.495205,-1661.114593,-18783.422563,-1038.104419,-1777.455423,3760.904522,11386.135088,-17674.172541,-3662.176867,1159.899075,-0.000750,-0.009500,1.007250,192.000000,0.000000,0.000000,0.000000,0.000000,0.000000,0.000000,0.000000,0.000000,0.000000,1770298625.736060,0.000000
58.000000,7155.173380,11855.119390,1577.295551,3014.244499,-18733.824043,-13000.713348,1801.371789,-1660.868723,-18829.221288,-1061.998434,-1809.016086,3733.769504,11353.725058,-17696.568989,-3693.514013,1132.875816,0.001625,-0.006750,1.005625,192.000000,0.000000,16.000000,127.500000,112.000000,15.500000,48.000000,0.000000,0.000000,0.000000,1770298626.215665,0.000000
60.000000,7170.372566,11875.973567,1598.976743,3042.117124,-18713.863935,-12975.679395,1823.164740,-1643.322604,-18776.538226,-1035.936300,-1774.192068,3764.793726,11397.601533,-17667.712887,-3662.981530,1173.444232,0.001625,-0.006750,1.005625,192.000000,0.000000,0.000000,0.000000,0.000000,0.000000,0.000000,0.000000,0.000000,0.000000,1770298626.215732,0.000000
62.000000,7151.105362,11851.185483,1568.466612,3000.945211,-18736.774473,-13004.043758,1790.419434,-1667.551895,-18812.479831,-1053.772992,-1796.253240,3745.817095,11378.200218,-17684.454344,-3686.406158,1147.471505,0.001625,-0.006750,1.005625,192.000000,0.000000,0.000000,0.000000,0.000000,0.000000,0.000000,0.000000,0.000000,0.000000,1770298626.215780,0.000000
64.000000,7173.412403,11879.862771,1598.775577,3040.753667,-18715.741481,-12981.669662,1822.203615,-1641.869741,-18805.416680,-1050.777859,-1791.447615,3746.509999,11365.526779,-17682.018004,-3683.746300,1144.521075,0.001625,-0.006750,1.005625,192.000000,0.000000,0.000000,0.000000,0.000000,0.000000,0.000000,0.000000,0.000000,0.000000,1770298626.215829,0.000000
66.000000,7161.208351,11866.675242,1582.279990,3015.026810,-18731.097130,-13000.109851,1803.137577,-1656.823058,-18779.019270,-1030.773047,-1771.711024,3766.961845,11397.400367,-17667.332908,-3661.975701,1168.191572,0.001625,-0.006750,1.005625,192.000000,0.000000,0.000000,0.000000,0.000000,0.000000,0.000000,0.000000,0.000000,0.000000,1770298626.215877,0.000000
68.000000,7153.742868,11856.102867,1575.730929,3005.348504,-18738.003819,-13012.090386,1793.325161,-1665.227314,-18825.354436,-1061.685510,-1807.540871,3732.584862,11354.753239,-17698.580646,-3689.356588,1119.934156,0.001625,-0.006750,1.005625,192.000000,0.000000,0.000000,0.000000,0.000000,0.000000,0.000000,0.000000,0.000000,0.000000,1770298626.215925,0.000000
70.000000,7178.642711,11885.651873,1603.380037,3039.881949,-18709.907676,-12984.418927,1821.845987,-1638.785200,-18774.481866,-1039.512579,-1772.582742,3759.250493,11393.801736,-17675.223073,-3659.114678,1154.489953,-0.004000,-0.004000,1.006000,192.000000,127.500000,112.000000,127.500000,112.000000,15.500000,56.000000,0.000000,0.000000,0.000000,1770298626.215957,0.000000
72.000000,7150.345403,11852.213663,1572.959313,2995.245516,-18734.762816,-13023.713294,1786.664341,-1667.484840,-18806.131936,-1050.353175,-1789.547716,3745.191246,11386.582123,-17686.778925,-3671.095213,1131.154732,-0.004000,-0.004000,1.006000,192.000000,0.000000,0.000000,0.000000,0.000000,0.000000,0.000000,0.000000,0.000000,0.000000,1770298626.215974,0.000000
74.000000,7179.693243,11886.568294,1605.615211,3038.652603,-18705.124403,-12993.717252,1821.175435,-1636.684136,-18804.656721,-1053.124792,-1790.017103,3742.218464,11403.971780,-17692.568027,-3663.987358,1129.366592,-0.004000,-0.004000,1.006000,192.000000,0.000000,0.000000,0.000000,0.000000,0.000000,0.000000,0.000000,0.000000,0.000000,1770298626.215990,0.000000
76.000000,7163.152953,11868.686899,1583.799909,3014.490368,-18728.370217,-13013.364436,1802.288211,-1651.905674,-18771.419677,-1031.734172,-1765.653702,3768.168839,11399.568486,-17673.859617,-3648.341137,1155.004043,-0.004000,-0.004000,1.006000,192.000000,0.000000,0.000000,0.000000,0.000000,0.000000,0.000000,0.000000,0.000000,0.000000,1770298626.216009,0.000000
78.000000,7155.620415,11857.309861,1576.155612,3010.042371,-18739.344923,-13020.472291,1796.186184,-1658.722956,-18828.461329,-1059.070356,-1805.395103,3734.194187,11346.594852,-17700.614655,-3691.144728,1111.529900,-0.004000,-0.004000,1.006000,192.000000,0.000000,0.000000,0.000000,0.000000,0.000000,0.000000,0.000000,0.000000,0.000000,1770298626.216028,0.000000
80.000000,7178.083918,11881.226227,1601.211918,3043.614691,-18719.407167,-12992.957293,1823.410609,-1636.058287,-18776.381764,-1037.433867,-1769.744071,3763.139696,11388.794945,-17675.044259,-3661.796887,1151.181895,-0.010000,-0.004000,1.006000,192.000000,127.500000,88.000000,127.500000,112.000000,15.500000,56.000000,0.000000,0.000000,0.000000,1770298626.216047,0.000000
82.000000,7145.942109,11843.541186,1568.220743,3003.627420,-18746.698647,-13019.935849,1790.598248,-1664.556761,-18807.003654,-1052.901274,-1789.570068,3748.119324,11371.248826,-17692.858600,-3686.629675,1141.123610,-0.010000,-0.004000,1.006000,192.000000,0.000000,0.000000,0.000000,0.000000,0.000000,0.000000,0.000000,0.000000,0.000000,1770298626.216076,0.000000
84.000000,7173.971197,11876.889989,1602.776540,3045.648699,-18716.680255,-12977.758107,1825.846949,-1633.800761,-18809.931732,-1055.449373,-1791.201745,3745.727688,11364.453896,-17687.963568,-3685.422681,1135.625081,-0.010000,-0.004000,1.006000,192.000000,0.000000,0.000000,0.000000,0.000000,0.000000,0.000000,0.000000,0.000000,0.000000,1770298626.216096,0.000000
86.000000,7159.375508,11858.136875,1580.938885,3015.339734,-18737.981467,-13006.055415,1803.338743,-1655.146677,-18773.565444,-1030.415419,-1764.647873,3769.755813,11402.004826,-17669.188102,-3658.555884,1161.374290,-0.010000,-0.004000,1.006000,192.000000,0.000000,0.000000,0.000000,0.000000,0.000000,0.000000,0.000000,0.000000,0.000000,1770298626.216113,0.000000
88.000000,7149.652499,11842.937689,1577.720234,3010.958792,-18744.038790,-13008.849383,1798.823690,-1659.505267,-18833.199898,-1069.083937,-1807.026780,3729.835597,11365.683242,-17705.040300,-3699.571335,1126.080886,-0.010000,-0.004000,1.006000,192.000000,0.000000,0.000000,0.000000,0.000000,0.000000,0.000000,0.000000,0.000000,0.000000,1770298626.216128,0.000000
90.000000,7179.782650,11876.889989,1606.777502,3040.284281,-18722.692874,-12988.911627,1827.232757,-1633.621947,-18776.672337,-1039.356117,-1767.061861,3762.066813,11386.179791,-17676.765344,-3663.629730,1161.106069,-0.006000,-0.006000,1.006000,192.000000,127.500000,104.000000,127.500000,104.000000,15.500000,56.000000,0.000000,0.000000,0.000000,1770298626.216141,0.000000
92.000000,7151.105362,11842.669468,1572.646388,2995.424330,-18750.744313,-13024.830881,1788.608943,-1661.740442,-18805.528439,-1053.616530,-1786.150251,3746.442943,11368.253692,-17692.925655,-3684.550963,1132.249967,-0.006000,-0.006000,1.006000,192.000000,0.000000,0.000000,0.000000,0.000000,0.000000,0.000000,0.000000,0.000000,0.000000,1770298626.216153,0.000000
94.000000,7178.687415,11877.269969,1607.537461,3037.982051,-18721.687045,-12994.633674,1822.091856,-1632.102028,-18803.047395,-1054.935283,-1784.295056,3745.191246,11370.354756,-17693.193876,-3687.456690,1121.610537,-0.006000,-0.006000,1.006000,192.000000,0.000000,0.000000,0.000000,0.000000,0.000000,0.000000,0.000000,0.000000,0.000000,1770298626.216166,0.000000
96.000000,7161.923607,11855.968756,1586.772691,3009.461225,-18734.896926,-13018.460634,1800.187147,-1651.346880,-18770.235034,-1034.148161,-1761.228056,3765.486630,11403.167117,-17675.938329,-3654.957253,1152.791220,-0.006000,-0.006000,1.006000,192.000000,0.000000,0.000000,0.000000,0.000000,0.000000,0.000000,0.000000,0.000000,0.000000,1770298626.216182,0.000000
98.000000,7157.766182,11850.783151,1579.396615,3009.416522,-18734.047560,-13017.499509,1796.789682,-1656.756003,-18824.013331,-1065.731176,-1800.611830,3731.713144,11359.402401,-17705.263818,-3688.887201,1109.607650,-0.006000,-0.006000,1.006000,192.000000,0.000000,0.000000,0.000000,0.000000,0.000000,0.000000,0.000000,0.000000,0.000000,1770298626.216194,0.000000
100.000000,7173.591217,11871.525570,1597.702694,3036.663298,-18713.238086,-12994.253694,1820.482531,-1641.176837,-18776.538226,-1038.819675,-1772.068652,3758.669348,11415.594687,-17677.480600,-3653.549093,1145.146924,-0.002000,-0.012000,1.006000,192.000000,127.500000,120.000000,127.500000,80.000000,15.500000,56.000000,0.000000,0.000000,0.000000,1770298626.216207,0.000000
102.000000,7138.722496,11829.616049,1562.118716,2992.831527,-18746.989220,-13029.636506,1783.646856,-1673.117479,-18818.537154,-1054.443545,-1797.460234,3739.513903,11375.965044,-17697.999501,-3678.560695,1125.142112,-0.002000,-0.012000,1.006000,192.000000,0.000000,0.000000,0.000000,0.000000,0.000000,0.000000,0.000000,0.000000,0.000000,1770298626.216220,0.000000
104.000000,7165.321072,11859.299166,1596.830976,3035.568063,-18716.166164,-12997.405290,1816.526272,-1644.820171,-18818.715968,-1060.679681,-1800.187147,3733.724801,11348.450047,-17702.514553,-3683.031044,1125.253871,-0.002000,-0.012000,1.006000,192.000000,0.000000,0.000000,0.000000,0.000000,0.000000,0.000000,0.000000,0.000000,0.000000,1770298626.216232,0.000000
106.000000,7152.781743,11841.283660,1578.927228,3009.282411,-18734.963982,-13021.433416,1799.069559,-1661.718090,-18783.623729,-1039.780800,-1773.834440,3758.669348,11396.305131,-17679.112277,-3650.173980,1153.752345,-0.002000,-0.012000,1.006000,192.000000,0.000000,0.000000,0.000000,0.000000,0.000000,0.000000,0.000000,0.000000,0.000000,1770298626.216245,0.000000
108.000000,7150.390106,11840.814273,1575.529763,3008.097769,-18735.992162,-13014.593782,1796.297943,-1660.958130,-18832.551698,-1071.386167,-1808.725513,3726.236966,11347.935956,-17710.717644,-3687.322579,1114.994420,-0.002000,-0.012000,1.006000,192.000000,0.000000,0.000000,0.000000,0.000000,0.000000,0.000000,0.000000,0.000000,0.000000,1770298626.216258,0.000000
110.000000,7177.301607,11870.787963,1599.848461,3041.826551,-18723.564592,-12985.804735,1824.461141,-1637.131171,-18775.755915,-1035.981004,-1768.447670,3763.989063,11395.321655,-17672.384402,-3665.775498,1144.722241,-0.002000,-0.012000,1.006000,192.000000,0.000000,0.000000,127.500000,72.000000,15.500000,56.000000,0.000000,0.000000,0.000000,1770298626.216270,0.000000
112.000000,7148.780781,11836.746256,1562.565751,2997.704208,-18756.309897,-13026.082578,1784.295056,-1669.317683,-18811.272837,-1051.135486,-1792.051112,3745.839446,11373.886332,-17691.495143,-3688.797794,1142.129438,-0.002000,-0.012000,1.006000,192.000000,0.000000,0.000000,0.000000,0.000000,0.000000,0.000000,0.000000,0.000000,0.000000,1770298626.216283,0.000000
114.000000,7175.826392,11871.503219,1597.903859,3038.786714,-18727.096167,-12998.120546,1817.196824,-1639.321642,-18811.697520,-1052.565998,-1795.113301,3743.045478,11369.125410,-17692.545675,-3690.027140,1133.501665,-0.002000,-0.012000,1.006000,192.000000,0.000000,0.000000,0.000000,0.000000,0.000000,0.000000,0.000000,0.000000,0.000000,1770298626.216298,0.000000
116.000000,7170.461973,11860.237939,1585.163365,3019.251289,-18737.757950,-13011.688055,1804.143405,-1647.591787,-18773.923072,-1025.788608,-1763.887914,3773.220333,11400.283742,-17668.495198,-3664.747317,1158.647377,-0.002000,-0.012000,1.006000,192.000000,0.000000,0.000000,0.000000,0.000000,0.000000,0.000000,0.000000,0.000000,0.000000,1770298626.216311,0.000000
118.000000,7162.661214,11848.659736,1579.240153,3009.930612,-18737.780301,-13027.267221,1798.086083,-1653.649110,-18823.700407,-1060.165591,-1797.393179,3737.524597,11356.451971,-17702.626312,-3694.922172,1113.049819,-0.002000,-0.012000,1.006000,192.000000,0.000000,0.000000,0.000000,0.000000,0.000000,0.000000,0.000000,0.000000,0.000000,1770298626.216323,0.000000
120.000000,7186.152898,11880.443916,1604.184700,3041.893606,-18719.764795,-12999.014616,1825.534025,-1631.967918,-18772.090229,-1033.030573,-1761.988015,3767.766508,11404.463518,-17674.418411,-3661.618073,1146.733898,-0.002000,-0.014000,1.008000,192.000000,127.500000,120.000000,127.500000,72.000000,15.500000,64.000000,0.000000,0.000000,0.000000,1770298626.216336,0.000000
122.000000,7156.738002,11844.681125,1567.594894,2999.335885,-18746.184557,-13033.793930,1789.458309,-1664.199133,-18800.409889,-1043.424135,-1781.299923,3754.757792,11382.000015,-17688.030623,-3677.420757,1128.025487,-0.002000,-0.014000,1.008000,192.000000,0.000000,0.000000,0.000000,0.000000,0.000000,0.000000,0.000000,0.000000,0.000000,1770298626.216348,0.000000
124.000000,7166.729232,11862.271948,1590.796005,3035.121028,-18728.705493,-13009.430529,1816.168644,-1647.547084,-18812.748052,-1057.461030,-1794.308638,3743.313699,11374.623939,-17696.658396,-3685.288571,1115.530862,-0.002000,-0.014000,1.008000,192.000000,0.000000,0.000000,0.000000,0.000000,0.000000,0.000000,0.000000,0.000000,0.000000,1770298626.216361,0.000000
126.000000,7146.769124,11844.882291,1574.009845,3010.265888,-18744.485825,-13029.345933,1798.600173,-1666.210790,-18792.050337,-1042.708879,-1780.383501,3760.256321,11381.776498,-17683.783792,-3664.702614,1148.142057,-0.002000,-0.014000,1.008000,192.000000,0.000000,0.000000,0.000000,0.000000,0.000000,0.000000,0.000000,0.000000,0.000000,1770298626.216373,0.000000
128.000000,7145.852702,11838.601451,1570.657083,3005.259097,-18746.542185,-13028.094235,1792.364036,-1669.921180,-18844.107550,-1070.626208,-1817.599156,3728.025106,11337.765913,-17710.784699,-3698.140824,1109.294726,-0.002000,-0.014000,1.008000,192.000000,0.000000,0.000000,0.000000,0.000000,0.000000,0.000000,0.000000,0.000000,0.000000,1770298626.216386,0.000000
130.000000,7172.630092,11869.245692,1595.691037,3038.272624,-18723.050502,-12996.175944,1820.191958,-1646.496552,-18782.908473,-1039.825504,-1777.902457,3759.474010,11392.058300,-17677.190027,-3674.380919,1149.192589,-0.002000,-0.014000,1.006000,192.000000,127.500000,120.000000,127.500000,72.000000,15.500000,56.000000,0.000000,0.000000,0.000000,1770298626.216398,0.000000
132.000000,7135.839121,11824.564555,1557.268388,2989.925801,-18755.594642,-13029.323581,1780.294094,-1682.058177,-18820.727625,-1058.355100,-1800.097740,3739.290385,11361.078782,-17695.205533,-3680.684111,1129.612461,-0.002000,-0.014000,1.006000,192.000000,0.000000,0.000000,0.000000,0.000000,0.000000,0.000000,0.000000,0.000000,0.000000,1770298626.216411,0.000000
134.000000,7159.934301,11856.594605,1585.900973,3033.444647,-18729.845432,-12994.186639,1811.698295,-1655.437250,-18832.082311,-1068.279274,-1810.468949,3728.338030,11341.811578,-17700.324082,-3688.686036,1140.967147,-0.002000,-0.014000,1.006000,192.000000,0.000000,0.000000,0.000000,0.000000,0.000000,0.000000,0.000000,0.000000,0.000000,1770298626.216423,0.000000
136.000000,7147.752601,11841.551881,1570.970007,3013.082208,-18734.986333,-13003.596724,1795.940315,-1670.278808,-18793.547904,-1038.640861,-1781.948123,3757.216484,11388.683187,-17671.132704,-3662.623902,1171.678444,-0.002000,-0.014000,1.006000,192.000000,0.000000,0.000000,0.000000,0.000000,0.000000,0.000000,0.000000,0.000000,0.000000,1770298626.216435,0.000000
138.000000,7145.785647,11835.047523,1564.532705,3006.890775,-18744.172900,-13007.284761,1788.921867,-1675.151488,-18848.175567,-1071.207353,-1822.091856,3720.984306,11336.245994,-17702.089870,-3697.514975,1129.232482,-0.002000,-0.014000,1.006000,192.000000,0.000000,0.000000,0.000000,0.000000,0.000000,0.000000,0.000000,0.000000,0.000000,1770298626.216448,0.000000
140.000000,7160.850723,11853.755933,1593.053531,3034.584586,-18724.391606,-12993.091404,1818.314411,-1653.537351,-18789.926921,-1045.100515,-1782.417510,3751.785010,11387.811469,-17674.507818,-3667.161306,1160.279055,-0.002000,-0.011000,1.006000,192.000000,127.500000,120.000000,127.500000,96.000000,15.500000,56.000000,0.000000,0.000000,0.000000,1770298626.216464,0.000000
142.000000,7130.854682,11817.255535,1559.078879,2987.534164,-18755.281717,-13037.996058,1783.065710,-1683.689855,-18835.144500,-1072.391995,-1808.256126,3728.449789,11375.629768,-17700.301731,-3681.712291,1132.473485,-0.002000,-0.011000,1.006000,192.000000,0.000000,0.000000,0.000000,0.000000,0.000000,0.000000,0.000000,0.000000,0.000000,1770298626.216482,0.000000
144.000000,7169.411441,11859.008593,1595.355760,3027.744952,-18726.984409,-13010.414006,1818.269708,-1649.670500,-18827.008465,-1069.307455,-1804.009295,3728.874472,11349.679393,-17702.000463,-3687.836669,1127.265528,-0.002000,-0.011000,1.006000,192.000000,0.000000,0.000000,0.000000,0.000000,0.000000,0.000000,0.000000,0.000000,0.000000,1770298626.216499,0.000000
146.000000,7153.005261,11842.289489,1577.161441,3001.056969,-18745.044618,-13034.129206,1799.270725,-1665.853163,-18789.859866,-1046.888655,-1777.276609,3751.986176,11388.839649,-17688.276492,-3664.792021,1146.398621,-0.002000,-0.011000,1.006000,192.000000,0.000000,0.000000,0.000000,0.000000,0.000000,0.000000,0.000000,0.000000,0.000000,1770298626.216517,0.000000
148.000000,7144.757467,11830.241898,1573.026368,2994.239687,-18746.899813,-13039.672439,1793.213402,-1670.323511,-18840.374808,-1079.455147,-1813.128807,3717.720952,11342.817407,-17722.206440,-3694.117510,1102.231574,-0.002000,-0.011000,1.006000,192.000000,0.000000,0.000000,0.000000,0.000000,0.000000,0.000000,0.000000,0.000000,0.000000,1770298626.216535,0.000000
150.000000,7158.727307,11850.626689,1596.294534,3024.079266,-18732.505290,-13018.706503,1817.643859,-1653.313834,-18797.593569,-1057.148106,-1784.563277,3744.028955,11378.513143,-17694.736146,-3665.775498,1132.138208,-0.005000,-0.010500,1.006000,192.000000,127.500000,96.000000,127.500000,88.000000,15.500000,56.000000,0.000000,0.000000,0.000000,1770298626.216553,0.000000
152.000000,7144.377487,11827.447930,1565.225609,2987.712978,-18757.203967,-13040.007715,1784.987960,-1674.235067,-18824.259201,-1064.635940,-1802.556432,3732.674269,11368.454858,-17705.375577,-3679.879448,1116.626098,-0.005000,-0.010500,1.006000,192.000000,0.000000,0.000000,0.000000,0.000000,0.000000,0.000000,0.000000,0.000000,0.000000,1770298626.216569,0.000000
154.000000,7173.457107,11860.930843,1597.590935,3032.371763,-18730.963019,-13002.948523,1818.604984,-1642.473238,-18819.386520,-1062.892504,-1797.884917,3734.730629,11372.187599,-17700.726414,-3690.183603,1110.658182,-0.005000,-0.010500,1.006000,192.000000,0.000000,0.000000,0.000000,0.000000,0.000000,0.000000,0.000000,0.000000,0.000000,1770298626.216601,0.000000
156.000000,7161.029537,11848.145646,1578.234324,3010.936440,-18750.520796,-13019.757035,1801.617658,-1656.063098,-18786.194180,-1039.981966,-1770.459327,3761.172743,11387.722062,-17678.218207,-3669.619998,1145.884531,-0.005000,-0.010500,1.006000,192.000000,0.000000,0.000000,0.000000,0.000000,0.000000,0.000000,0.000000,0.000000,0.000000,1770298626.216616,0.000000
158.000000,7156.492133,11840.613108,1576.177964,3012.881042,-18752.621860,-13016.203107,1800.075388,-1655.638415,-18840.888898,-1069.709786,-1806.199766,3731.042591,11348.047715,-17705.375577,-3704.354609,1119.509473,-0.005000,-0.010500,1.006000,192.000000,0.000000,0.000000,0.000000,0.000000,0.000000,0.000000,0.000000,0.000000,0.000000,1770298626.216635,0.000000
160.000000,7178.039214,11870.653852,1600.496662,3043.212359,-18731.320647,-12990.364491,1825.534025,-1636.684136,-18787.088250,-1035.869245,-1769.140574,3764.458449,11391.432451,-17674.440762,-3671.698710,1152.835924,-0.005500,-0.010250,1.005000,192.000000,127.500000,104.000000,127.500000,88.000000,15.500000,48.000000,0.000000,0.000000,0.000000,1770298626.216653,0.000000
162.000000,7143.125790,11829.280773,1564.219780,2999.402940,-18760.869653,-13021.925154,1788.385426,-1672.871610,-18824.415663,-1054.398841,-1794.062769,3741.346746,11354.037983,-17691.785716,-3691.189431,1148.432630,-0.005500,-0.010250,1.005000,192.000000,0.000000,0.000000,0.000000,0.000000,0.000000,0.000000,0.000000,0.000000,0.000000,1770298626.216667,0.000000
164.000000,7169.143220,11860.372050,1598.976743,3038.630252,-18728.951362,-12987.570523,1819.409647,-1646.340090,-18820.414701,-1062.356062,-1794.956838,3734.887092,11357.569558,-17693.886780,-3691.368245,1143.895226,-0.005500,-0.010250,1.005000,192.000000,0.000000,0.000000,0.000000,0.000000,0.000000,0.000000,0.000000,0.000000,0.000000,1770298626.216685,0.000000
166.000000,7147.439676,11839.316707,1579.150746,3011.495234,-18747.615069,-13012.693884,1800.276554,-1664.310892,-18788.339947,-1043.044155,-1773.722681,3755.294234,11397.310960,-17674.820742,-3666.490753,1163.430651,-0.005500,-0.010250,1.005000,192.000000,0.000000,0.000000,0.000000,0.000000,0.000000,0.000000,0.000000,0.000000,0.000000,1770298626.216704,0.000000
168.000000,7143.572824,11832.208852,1575.641522,3004.968525,-18745.514005,-13016.605439,1796.230888,-1667.127212,-18850.410742,-1077.801118,-1814.492263,3718.659725,11347.824198,-17708.236600,-3692.105853,1120.716467,-0.005500,-0.010250,1.005000,192.000000,0.000000,0.000000,0.000000,0.000000,0.000000,0.000000,0.000000,0.000000,0.000000,1770298626.216719,0.000000
170.000000,7178.732118,11874.632463,1603.760016,3042.385345,-18721.441176,-12990.319787,1829.020897,-1635.030107,-18791.156267,-1038.819675,-1772.269818,3757.395298,11377.619073,-17674.798390,-3661.729832,1151.316005,-0.004750,-0.010125,1.003500,192.000000,127.500000,112.000000,127.500000,88.000000,15.500000,40.000000,0.000000,0.000000,0.000000,1770298626.216737,0.000000
172.000000,7151.194769,11838.132064,1566.589065,2995.781958,-18751.928956,-13030.865852,1791.671132,-1666.300197,-18816.458442,-1049.436754,-1788.452481,3745.325356,11380.167172,-17687.985919,-3684.461556,1126.572624,-0.004750,-0.010125,1.003500,192.000000,0.000000,0.000000,0.000000,0.000000,0.000000,0.000000,0.000000,0.000000,0.000000,1770298626.216754,0.000000
174.000000,7174.529990,11871.592626,1597.099197,3037.959699,-18728.929011,-13003.552020,1824.662307,-1641.556816,-18818.224230,-1052.230722,-1793.079292,3740.162103,11354.395611,-17692.746841,-3690.988265,1118.391886,-0.004750,-0.010125,1.003500,192.000000,0.000000,0.000000,0.000000,0.000000,0.000000,0.000000,0.000000,0.000000,0.000000,1770298626.216772,0.000000
176.000000,7155.128676,11850.894910,1576.870868,3012.970449,-18748.218566,-13023.020389,1806.847967,-1660.376985,-18795.179581,-1035.936300,-1777.120146,3760.189266,11380.904780,-17677.413544,-3662.489791,1147.873837,-0.004750,-0.010125,1.003500,192.000000,0.000000,0.000000,0.000000,0.000000,0.000000,0.000000,0.000000,0.000000,0.000000,1770298626.216788,0.000000
178.000000,7156.782705,11850.380820,1570.992359,3009.572984,-18748.486787,-13026.216689,1800.187147,-1659.661729,-18845.716875,-1061.998434,-1809.798397,3732.003716,11337.676506,-17699.832344,-3698.163175,1109.987630,-0.004750,-0.010125,1.003500,192.000000,0.000000,0.000000,0.000000,0.000000,0.000000,0.000000,0.000000,0.000000,0.000000,1770298626.696558,0.000000
180.000000,7178.709767,11876.174733,1596.585106,3040.887778,-18727.945534,-13002.099157,1825.958708,-1639.031069,-18790.776287,-1033.544664,-1773.834440,3763.162048,11379.876599,-17675.893626,-3671.899876,1143.738764,-0.003375,-0.008063,1.001750,192.000000,127.500000,120.000000,127.500000,104.000000,15.500000,32.000000,0.000000,0.000000,0.000000,1770298626.696628,0.000000
182.000000,7145.919758,11838.690858,1561.157591,2999.090016,-18757.405133,-13029.256526,1790.017103,-1671.284636,-18824.370959,-1052.096612,-1796.454405,3743.626624,11374.825105,-17694.847905,-3691.256486,1140.564816,-0.003375,-0.008063,1.001750,192.000000,0.000000,0.000000,0.000000,0.000000,0.000000,0.000000,0.000000,0.000000,0.000000,1770298626.696688,0.000000
184.000000,7170.506676,11867.658719,1592.852365,3036.126856,-18731.499461,-12999.193430,1819.342592,-1646.317738,-18826.784948,-1056.298739,-1799.516594,3736.898749,11342.504483,-17696.323120,-3697.291457,1138.776677,-0.003375,-0.008063,1.001750,192.000000,0.000000,0.000000,0.000000,0.000000,0.000000,0.000000,0.000000,0.000000,0.000000,1770298626.696742,0.000000
186.000000,7157.073278,11856.169922,1578.077862,3015.272679,-18743.904679,-13011.173965,1802.779949,-1662.522753,-18793.212628,-1037.724440,-1776.382539,3757.618816,11382.648216,-17675.871274,-3665.999015,1164.794107,-0.003375,-0.008063,1.001750,192.000000,0.000000,0.000000,0.000000,0.000000,0.000000,0.000000,0.000000,0.000000,0.000000,1770298626.696799,0.000000
188.000000,7156.179208,11849.620861,1573.898086,3010.064722,-18745.514005,-13011.419834,1797.773158,-1664.489706,-18841.246526,-1062.512524,-1812.324144,3727.332202,11351.020497,-17700.055861,-3704.444016,1127.757266,-0.003375,-0.008063,1.001750,192.000000,0.000000,0.000000,0.000000,0.000000,0.000000,0.000000,0.000000,0.000000,0.000000,1770298626.696854,0.000000
190.000000,7179.357967,11878.722832,1599.669647,3041.334813,-18724.972752,-12983.703671,1825.355211,-1640.908616,-18785.434220,-1036.785667,-1774.884972,3759.071679,11402.295399,-17671.088001,-3671.497544,1160.659034,-0.000687,-0.009031,1.000875,192.000000,0.000000,8.000000,127.500000,88.000000,15.500000,32.000000,0.000000,0.000000,0.000000,1770298626.696882,0.000000
192.000000,7150.703031,11842.021268,1565.382071,2996.452510,-18754.007668,-13020.181718,1789.882992,-1671.217581,-18824.929753,-1051.828391,-1797.214365,3742.509036,11365.929111,-17689.751707,-3684.796832,1136.362688,-0.000687,-0.009031,1.000875,192.000000,0.000000,0.000000,0.000000,0.000000,0.000000,0.000000,0.000000,0.000000,0.000000,1770298626.696902,0.000000
194.000000,7181.481383,11881.092117,1594.886374,3036.596243,-18725.956228,-12988.911627,1821.108379,-1644.283729,-18824.639180,-1051.426059,-1800.410664,3738.575129,11354.440314,-17689.885818,-3687.300228,1127.801970,-0.000687,-0.009031,1.000875,192.000000,0.000000,0.000000,0.000000,0.000000,0.000000,0.000000,0.000000,0.000000,0.000000,1770298626.696921,0.000000
196.000000,7169.366738,11866.362317,1579.307208,3014.065685,-18740.775435,-13008.961142,1805.551565,-1659.125287,-18784.048412,-1020.111265,-1773.901495,3766.805383,11390.247809,-17663.108428,-3669.843515,1153.037089,-0.000687,-0.009031,1.000875,192.000000,0.000000,0.000000,0.000000,0.000000,0.000000,0.000000,0.000000,0.000000,0.000000,1770298626.696941,0.000000
198.000000,7160.135467,11854.158265,1569.360682,3007.136644,-18750.878424,-13018.237116,1798.287248,-1664.288540,-18839.458387,-1061.149068,-1812.815882,3728.136865,11336.089532,-17699.944103,-3701.895917,1118.637755,-0.000687,-0.009031,1.000875,192.000000,0.000000,0.000000,0.000000,0.000000,0.000000,0.000000,0.000000,0.000000,0.000000,1770298626.696960,0.000000
200.000000,7172.764203,11872.978434,1593.344103,3035.635118,-18728.772548,-13001.830936,1824.394086,-1647.390622,-18794.866657,-1037.836199,-1780.137632,3757.797630,11375.808582,-17677.212379,-3668.413003,1154.266435,0.001656,-0.010516,1.002438,192.000000,0.000000,16.000000,127.500000,80.000000,15.500000,48.000000,0.000000,0.000000,0.000000,1770298626.696980,0.000000
202.000000,7145.048040,11838.444989,1558.095402,2991.602181,-18755.460531,-13036.498491,1788.363074,-1675.419709,-18828.774253,-1056.924588,-1802.958763,3738.530426,11363.291605,-17701.396966,-3681.891105,1124.225691,0.001656,-0.010516,1.002438,192.000000,0.000000,0.000000,0.000000,0.000000,0.000000,0.000000,0.000000,0.000000,0.000000,1770298626.696999,0.000000
204.000000,7171.914836,11870.117410,1590.013694,3031.902377,-18729.443101,-13005.854250,1821.689525,-1649.022299,-18829.936544,-1063.853629,-1804.657496,3733.143655,11348.785323,-17707.387234,-3694.788062,1129.098371,0.001656,-0.010516,1.002438,192.000000,0.000000,0.000000,0.000000,0.000000,0.000000,0.000000,0.000000,0.000000,0.000000,1770298626.697019,0.000000
206.000000,7156.223912,11851.677221,1573.160478,3008.924783,-18744.709342,-13021.701637,1802.601135,-1665.987273,-18793.592607,-1043.446486,-1778.058920,3756.858856,11383.721099,-17684.990786,-3664.993187,1160.457869,0.001656,-0.010516,1.002438,192.000000,0.000000,0.000000,0.000000,0.000000,0.000000,0.000000,0.000000,0.000000,0.000000,1770298626.697040,0.000000
208.000000,7153.474647,11847.899776,1569.830068,3003.314495,-18747.615069,-13021.053436,1796.633219,-1669.272979,-18845.985096,-1074.135432,-1816.794493,3721.185472,11350.372297,-17713.153984,-3702.745283,1125.365630,0.001656,-0.010516,1.002438,192.000000,0.000000,0.000000,0.000000,0.000000,0.000000,0.000000,0.000000,0.000000,0.000000,1770298626.697062,0.000000
210.000000,7181.324921,11881.360338,1598.015618,3037.490313,-18724.525717,-12989.202200,1825.511673,-1642.562645,-18787.043546,-1037.925606,-1777.164850,3756.300063,11389.398442,-17677.614710,-3668.591817,1161.508401,0.001656,-0.010516,1.002438,192.000000,0.000000,0.000000,0.000000,0.000000,0.000000,0.000000,0.000000,0.000000,0.000000,1770298626.697101,0.000000
212.000000,7149.294871,11841.931861,1558.676548,2991.535126,-18757.963927,-13022.774520,1785.658513,-1675.531468,-18818.224230,-1054.488248,-1795.493280,3741.167932,11371.651157,-17694.691443,-3691.681169,1140.743630,0.001656,-0.010516,1.002438,192.000000,0.000000,0.000000,127.500000,88.000000,15.500000,32.000000,0.000000,0.000000,0.000000,1770298626.697121,0.000000
214.000000,7175.871095,11873.716041,1590.751301,3032.975260,-18736.126272,-12989.403366,1818.895557,-1647.860008,-18824.214497,-1059.048004,-1800.388312,3735.624699,11362.755163,-17697.351300,-3703.661704,1134.462790,0.001656,-0.010516,1.002438,192.000000,0.000000,0.000000,0.000000,0.000000,0.000000,0.000000,0.000000,0.000000,0.000000,1770298626.697141,0.000000
216.000000,7166.863342,11861.511989,1580.469499,3013.551594,-18745.871633,-13007.463575,1806.155062,-1659.192343,-18786.216532,-1037.813847,-1770.973417,3762.044461,11383.251713,-17677.480600,-3671.206972,1168.728014,0.001656,-0.010516,1.002438,192.000000,0.000000,0.000000,0.000000,0.000000,0.000000,0.000000,0.000000,0.000000,0.000000,1770298626.697160,0.000000
218.000000,7160.716612,11852.839512,1571.171173,3006.220222,-18748.598546,-13013.632657,1795.403873,-1666.613122,-18838.743131,-1066.871115,-1807.317353,3729.053286,11352.920395,-17709.130670,-3698.833728,1120.604708,0.001656,-0.010516,1.002438,192.000000,0.000000,0.000000,0.000000,0.000000,0.000000,0.000000,0.000000,0.000000,0.000000,1770298626.697180,0.000000
220.000000,7186.510526,11886.702405,1595.959258,3038.876121,-18725.486842,-12991.459726,1823.030630,-1643.680232,-18787.647043,-1039.803152,-1777.947161,3756.188304,11385.866867,-17676.988861,-3671.117565,1162.447174,0.001656,-0.010516,1.002438,192.000000,0.000000,0.000000,0.000000,0.000000,0.000000,0.000000,0.000000,0.000000,0.000000,1770298626.697199,0.000000
222.000000,7152.893502,11850.470227,1559.123583,2992.183327,-18754.432351,-13033.212785,1783.982132,-1677.230200,-18819.542983,-1051.962501,-1796.722626,3740.475028,11359.044773,-17696.770155,-3684.327446,1140.475409,-0.004000,-0.008000,0.996000,192.000000,127.500000,112.000000,127.500000,96.000000,15.500000,16.000000,0.000000,0.000000,0.000000,1770298626.697218,0.000000
224.000000,7176.027557,11880.086288,1590.527784,3032.125894,-18730.515984,-13005.362511,1816.570975,-1650.452811,-18825.935581,-1060.724385,-1801.729417,3731.802551,11350.685221,-17702.894533,-3689.736568,1131.199435,-0.004000,-0.008000,0.996000,192.000000,0.000000,0.000000,0.000000,0.000000,0.000000,0.000000,0.000000,0.000000,0.000000,1770298626.697237,0.000000
226.000000,7161.923607,11863.747163,1573.316940,3014.289202,-18742.518871,-13018.952372,1801.930583,-1666.054328,-18792.922055,-1040.697222,-1777.723644,3755.160124,11385.956274,-17682.353280,-3668.502410,1155.764002,-0.004000,-0.008000,0.996000,192.000000,0.000000,0.000000,0.000000,0.000000,0.000000,0.000000,0.000000,0.000000,0.000000,1770298626.697257,0.000000
228.000000,7152.982909,11848.704439,1564.286836,3006.555498,-18754.007668,-13026.686076,1792.386388,-1673.810384,-18851.014239,-1072.034368,-1819.834330,3721.274879,11342.146855,-17710.762347,-3706.522728,1115.262641,-0.004000,-0.008000,0.996000,192.000000,0.000000,0.000000,0.000000,0.000000,0.000000,0.000000,0.000000,0.000000,0.000000,1770298626.697276,0.000000
230.000000,7183.224819,11883.506105,1593.321752,3036.462133,-18735.053388,-13003.417910,1819.476702,-1647.077697,-18797.370052,-1045.167571,-1782.953952,3753.304929,11379.898951,-17681.235693,-3673.017463,1151.628930,-0.004000,-0.008000,0.996000,192.000000,0.000000,0.000000,0.000000,0.000000,0.000000,0.000000,0.000000,0.000000,0.000000,1770298626.697296,0.000000
232.000000,7154.480476,11848.726791,1557.402498,2992.585658,-18762.031944,-13035.559718,1782.015178,-1676.894924,-18825.421491,-1059.472687,-1799.024856,3739.089219,11363.246901,-17695.674920,-3688.864850,1137.055592,-0.002000,-0.010000,0.998000,192.000000,127.500000,120.000000,127.500000,88.000000,15.500000,24.000000,0.000000,0.000000,0.000000,1770298626.697315,0.000000
234.000000,7186.242305,11886.277722,1591.801833,3037.624423,-18734.159319,-12996.779441,1817.777970,-1643.859046,-18826.717892,-1059.249170,-1800.410664,3734.887092,11347.131294,-17693.976187,-3698.856079,1134.373383,-0.002000,-0.010000,0.998000,192.000000,0.000000,0.000000,0.000000,0.000000,0.000000,0.000000,0.000000,0.000000,0.000000,1770298626.697334,0.000000
236.000000,7173.278293,11872.062012,1575.663874,3016.189100,-18752.823025,-13015.979590,1805.149234,-1658.544142,-18789.166962,-1037.500922,-1772.850963,3760.591598,11389.934884,-17673.189065,-3676.437280,1162.156601,-0.002000,-0.010000,0.998000,192.000000,0.000000,0.000000,0.000000,0.000000,0.000000,0.000000,0.000000,0.000000,0.000000,1770298626.697354,0.000000
238.000000,7167.109211,11862.517817,1571.059414,3008.388341,-18754.789979,-13021.299305,1797.884917,-1663.752099,-18840.933602,-1065.753527,-1808.859624,3728.516844,11346.997183,-17703.050995,-3713.049437,1119.598880,-0.002000,-0.010000,0.998000,192.000000,0.000000,0.000000,0.000000,0.000000,0.000000,0.000000,0.000000,0.000000,0.000000,1770298626.697373,0.000000
240.000000,7194.043063,11893.810260,1599.535537,3042.608862,-18730.717150,-12989.492773,1824.394086,-1638.941662,-18791.692709,-1038.797324,-1774.080309,3759.429307,11367.493733,-17677.480600,-3677.912495,1147.359746,-0.002000,-0.010000,0.998000,192.000000,0.000000,0.000000,0.000000,0.000000,0.000000,0.000000,0.000000,0.000000,0.000000,1770298626.697392,0.000000
242.000000,7167.489191,11859.366221,1565.605589,2999.067664,-18757.002802,-13022.662762,1787.580763,-1669.720014,-18816.659607,-1046.419268,-1790.441786,3749.616891,11359.715326,-17683.984957,-3685.713254,1144.565778,-0.002000,-0.010000,0.998000,192.000000,0.000000,0.000000,127.500000,80.000000,15.500000,56.000000,0.000000,0.000000,0.000000,1770298626.697416,0.000000
244.000000,7185.348235,11886.367129,1591.846537,3030.404810,-18734.092263,-12999.841630,1812.771179,-1649.961072,-18820.705273,-1052.476591,-1798.153138,3741.033821,11357.502503,-17692.188047,-3695.793890,1128.830150,-0.002000,-0.010000,0.998000,192.000000,0.000000,0.000000,0.000000,0.000000,0.000000,0.000000,0.000000,0.000000,0.000000,1770298626.697436,0.000000
246.000000,7171.691319,11871.816143,1575.105080,3010.779978,-18746.251612,-13021.187546,1797.795510,-1665.540238,-18787.110601,-1036.360983,-1777.947161,3759.831638,11402.541268,-17679.693422,-3660.992224,1159.519095,-0.002000,-0.010000,0.998000,192.000000,0.000000,0.000000,0.000000,0.000000,0.000000,0.000000,0.000000,0.000000,0.000000,1770298626.697455,0.000000
248.000000,7169.567903,11865.200027,1568.891295,3006.734312,-18749.269098,-13025.344971,1794.107472,-1666.926046,-18839.570146,-1068.212219,-1816.481568,3726.460484,11354.641480,-17706.761385,-3702.186489,1120.492950,-0.002000,-0.010000,0.998000,192.000000,0.000000,0.000000,0.000000,0.000000,0.000000,0.000000,0.000000,0.000000,0.000000,1770298626.697475,0.000000
250.000000,7188.969217,11889.228152,1594.618153,3039.591377,-18734.338133,-13005.496622,1821.845987,-1644.641357,-18786.909436,-1039.579635,-1778.729472,3758.378775,11380.457745,-17680.274568,-3672.413966,1148.343223,-0.002000,-0.010000,0.998000,192.000000,0.000000,0.000000,0.000000,0.000000,0.000000,0.000000,0.000000,0.000000,0.000000,1770298626.697493,0.000000
252.000000,7163.152953,11855.812294,1562.498696,2994.418501,-18762.098999,-13033.950392,1786.686693,-1672.737500,-18817.821898,-1055.203504,-1795.962667,3744.051307,11361.190541,-17693.238579,-3683.366321,1126.572624,-0.002000,-0.010000,0.998000,192.000000,0.000000,0.000000,127.500000,80.000000,15.500000,64.000000,0.000000,0.000000,0.000000,1770298626.697511,0.000000
254.000000,7185.571752,11882.880257,1588.203202,3031.053010,-18740.238993,-13007.396520,1814.246394,-1649.871665,-18824.549773,-1063.585408,-1801.640010,3735.043554,11349.880558,-17704.146231,-3699.526632,1119.867101,-0.002000,-0.010000,0.998000,192.000000,0.000000,0.000000,0.000000,0.000000,0.000000,0.000000,0.000000,0.000000,0.000000,1770298626.697530,0.000000
0.000000,7179.939113,11876.755879,1575.395653,3015.496196,-18746.922165,-13015.621962,1801.438844,-1658.812363,-18785.121296,-1039.490228,-1772.783908,3760.815115,11386.202143,-17678.218207,-3670.111736,1158.021528,-0.002000,-0.010000,0.998000,192.000000,0.000000,0.000000,0.000000,0.000000,0.000000,0.000000,0.000000,0.000000,0.000000,1770298626.697549,0.000000
2.000000,7176.586351,11870.586797,1568.891295,3010.802330,-18751.236051,-13017.343046,1794.532155,-1661.338110,-18836.284439,-1065.597065,-1809.708990,3728.852121,11341.006916,-17704.570914,-3706.008638,1123.756304,-0.002000,-0.010000,0.998000,192.000000,0.000000,0.000000,0.000000,0.000000,0.000000,0.000000,0.000000,0.000000,0.000000,1770298626.697568,0.000000
4.000000,7201.799119,11902.348626,1596.227479,3044.955795,-18731.655923,-12987.369357,1824.483493,-1637.242930,-18781.813238,-1035.310451,-1769.475850,3761.977406,11387.878524,-17676.251254,-3671.564599,1161.843677,-0.002000,-0.010000,0.998000,192.000000,0.000000,0.000000,0.000000,0.000000,0.000000,0.000000,0.000000,0.000000,0.000000,1770298626.697586,0.000000
6.000000,7173.635921,11869.469210,1560.442336,3000.766397,-18760.467322,-13028.943602,1789.055978,-1666.121383,-18813.284494,-1047.648614,-1789.301847,3749.169856,11388.414966,-17689.304672,-3692.865812,1140.609520,-0.004000,-0.008000,1.008000,192.000000,127.500000,112.000000,127.500000,96.000000,15.500000,64.000000,0.000000,0.000000,0.000000,1770298626.697603,0.000000
8.000000,7198.178136,11899.129975,1590.684246,3039.479618,-18737.020342,-13003.864944,1819.499054,-1640.908616,-18817.441919,-1051.984853,-1795.716798,3744.587749,11349.835855,-17695.630216,-3702.097082,1127.421990,-0.004000,-0.008000,1.008000,192.000000,0.000000,0.000000,0.000000,0.000000,0.000000,0.000000,0.000000,0.000000,0.000000,1770298626.697620,0.000000
10.000000,7181.749604,11879.996881,1574.076900,3017.574908,-18750.543147,-13024.316791,1802.690542,-1657.046575,-18783.020232,-1033.321146,-1771.688673,3769.062909,11386.246846,-17678.553483,-3671.072861,1158.692081,-0.004000,-0.008000,1.008000,192.000000,0.000000,0.000000,0.000000,0.000000,0.000000,0.000000,0.000000,0.000000,0.000000,1770298626.697638,0.000000
12.000000,7175.602874,11867.926939,1564.264484,3009.975315,-18755.237014,-13028.116587,1793.325161,-1662.612160,-18835.725646,-1064.412423,-1808.501996,3734.596519,11345.209044,-17706.001426,-3704.376960,1116.760208,-0.004000,-0.008000,1.008000,192.000000,0.000000,0.000000,0.000000,0.000000,0.000000,0.000000,0.000000,0.000000,0.000000,1770298626.697654,0.000000
14.000000,7208.683456,11904.360283,1596.205127,3043.525284,-18725.285676,-12993.672549,1821.935394,-1633.554892,-18778.326366,-1036.293928,-1769.118222,3765.129002,11392.304169,-17677.145323,-3676.280818,1152.545351,-0.004000,-0.008000,1.008000,192.000000,0.000000,0.000000,0.000000,0.000000,0.000000,0.000000,0.000000,0.000000,0.000000,1770298626.697672,0.000000
16.000000,7180.475555,11870.877370,1560.509391,2997.659504,-18752.778322,-13024.674419,1783.713911,-1664.288540,-18800.611055,-1045.882827,-1782.037530,3752.030880,11380.144820,-17687.985919,-3680.550001,1135.870950,-0.004000,-0.011000,1.006000,192.000000,127.500000,112.000000,127.500000,72.000000,15.500000,48.000000,0.000000,0.000000,0.000000,1770298626.697689,0.000000
18.000000,7204.481328,11901.141632,1590.058397,3037.803237,-18734.405188,-12999.104023,1815.699257,-1637.153523,-18810.378767,-1051.761335,-1791.805243,3745.057135,11372.299358,-17696.457231,-3697.805547,1128.494874,-0.004000,-0.011000,1.006000,192.000000,0.000000,0.000000,0.000000,0.000000,0.000000,0.000000,0.000000,0.000000,0.000000,1770298626.697712,0.000000
20.000000,7191.696130,11887.775289,1575.261542,3018.066647,-18751.414865,-13016.806604,1803.495205,-1651.033956,-18772.671374,-1027.397934,-1762.680919,3774.293217,11397.087443,-17669.679841,-3672.838649,1152.388889,-0.004000,-0.011000,1.006000,192.000000,0.000000,0.000000,0.000000,0.000000,0.000000,0.000000,0.000000,0.000000,0.000000,1770298626.697731,0.000000
22.000000,7183.649502,11877.381727,1563.348062,3010.087074,-18764.669450,-13028.384808,1795.113301,-1659.259398,-18830.964724,-1060.322053,-1803.025818,3740.340917,11340.537529,-17706.761385,-3709.048475,1112.848653,-0.004000,-0.011000,1.006000,192.000000,0.000000,0.000000,0.000000,0.000000,0.000000,0.000000,0.000000,0.000000,0.000000,1770298626.697749,0.000000
24.000000,7200.860345,11902.862716,1588.829051,3039.792542,-18744.619935,-13000.735700,1821.153083,-1642.003851,-18784.428392,-1034.841065,-1773.856792,3766.738327,11376.568541,-17682.062707,-3688.529574,1156.702776,-0.004000,-0.011000,1.006000,192.000000,0.000000,0.000000,0.000000,0.000000,0.000000,0.000000,0.000000,0.000000,0.000000,1770298626.697767,0.000000
26.000000,7167.019804,11862.942500,1549.624091,2990.886926,-18772.604319,-13040.186529,1781.948123,-1678.750119,-18816.369035,-1055.829353,-1795.336818,3743.380754,11370.242997,-17700.413489,-3695.592725,1131.668822,-0.005000,-0.012500,1.005000,192.000000,127.500000,104.000000,127.500000,72.000000,15.500000,48.000000,0.000000,0.000000,0.000000,1770298626.697785,0.000000
28.000000,7193.573677,11892.737376,1583.330522,3028.169635,-18747.212737,-13011.933924,1813.329972,-1651.704508,-18823.521593,-1065.485306,-1804.165757,3731.668440,11351.623994,-17710.717644,-3712.065960,1123.577490,-0.005000,-0.012500,1.005000,192.000000,0.000000,0.000000,0.000000,0.000000,0.000000,0.000000,0.000000,0.000000,0.000000,1770298626.697801,0.000000
30.000000,7178.530953,11874.297187,1567.058452,3004.253269,-18759.327383,-13031.894032,1795.068597,-1669.675311,-18788.138782,-1045.569902,-1777.343664,3754.869551,11384.279893,-17691.606902,-3667.429527,1152.970034,-0.005000,-0.012500,1.005000,192.000000,0.000000,0.000000,0.000000,0.000000,0.000000,0.000000,0.000000,0.000000,0.000000,1770298626.697820,0.000000
32.000000,7175.334653,11868.150457,1563.884504,2998.486519,-18763.037773,-13035.000924,1790.128862,-1672.066947,-18839.056055,-1076.035330,-1812.458254,3720.269051,11328.199366,-17719.948914,-3703.348780,1116.134359,-0.005000,-0.012500,1.005000,192.000000,0.000000,0.000000,0.000000,0.000000,0.000000,0.000000,0.000000,0.000000,0.000000,1770298626.697836,0.000000
34.000000,7200.569773,11898.638236,1594.461691,3032.461170,-18737.377970,-13004.043758,1819.521406,-1649.849313,-18784.964834,-1049.168533,-1776.181373,3751.606196,11377.306149,-17693.372690,-3677.040777,1148.030299,-0.005000,-0.012500,1.005000,192.000000,0.000000,0.000000,0.000000,0.000000,0.000000,0.000000,0.000000,0.000000,0.000000,1770298626.697854,0.000000
36.000000,7165.790458,11859.813256,1558.453030,2985.611914,-18766.614052,-13043.628698,1782.529269,-1681.007645,-18815.430262,-1063.786574,-1796.297943,3733.523635,11367.650195,-17707.789565,-3693.201088,1128.204301,-0.003500,-0.015250,1.004500,192.000000,127.500000,120.000000,127.500000,56.000000,15.500000,48.000000,0.000000,0.000000,0.000000,1770298626.697873,0.000000
38.000000,7198.692226,11896.693635,1591.980647,3029.287223,-18737.959115,-13010.816337,1817.688563,-1645.669537,-18817.285456,-1068.346330,-1799.293077,3728.360382,11353.389782,-17711.231734,-3696.062111,1120.560005,-0.003500,-0.015250,1.004500,192.000000,0.000000,0.000000,0.000000,0.000000,0.000000,0.000000,0.000000,0.000000,0.000000,1770298626.697890,0.000000
40.000000,7190.466784,11889.764594,1577.519068,3009.841205,-18753.717095,-13027.468387,1802.422321,-1654.207904,-18775.688860,-1037.031536,-1765.944274,3761.396260,11405.223478,-17687.114201,-3670.894047,1150.041956,-0.003500,-0.015250,1.004500,192.000000,0.000000,0.000000,0.000000,0.000000,0.000000,0.000000,0.000000,0.000000,0.000000,1770298626.697907,0.000000
42.000000,7185.527049,11879.594550,1568.801888,3002.845109,-18758.008630,-13032.139901,1793.503975,-1659.259398,-18828.438977,-1065.619417,-1800.477719,3730.886129,11364.543303,-17715.098585,-3705.941582,1105.964316,-0.003500,-0.015250,1.004500,192.000000,0.000000,0.000000,0.000000,0.000000,0.000000,0.000000,0.000000,0.000000,0.000000,1770298627.176030,0.000000
44.000000,7207.498814,11906.506050,1597.546231,3037.892644,-18736.394493,-13000.355721,1821.957746,-1637.332337,-18778.371069,-1040.786629,-1765.921922,3759.496362,11369.617149,-17684.946082,-3677.957198,1146.175104,-0.003500,-0.015250,1.004500,192.000000,0.000000,0.000000,0.000000,0.000000,0.000000,0.000000,0.000000,0.000000,0.000000,1770298627.176095,0.000000
46.000000,7182.017825,11874.252483,1563.012786,2994.597315,-18763.417752,-13033.123378,1785.814975,-1666.076680,-18806.690729,-1052.543646,-1784.675036,3744.855970,11363.716288,-17699.966455,-3695.995056,1130.439476,-0.003500,-0.015250,1.004500,192.000000,0.000000,0.000000,127.500000,72.000000,15.500000,56.000000,0.000000,0.000000,0.000000,1770298627.176143,0.000000
48.000000,7211.745645,11906.863678,1593.835842,3034.584586,-18737.757950,-13002.501488,1818.672039,-1637.399392,-18809.238828,-1054.801173,-1787.401949,3741.145580,11355.066163,-17701.441670,-3699.683094,1117.654278,-0.003500,-0.015250,1.004500,192.000000,0.000000,0.000000,0.000000,0.000000,0.000000,0.000000,0.000000,0.000000,0.000000,1770298627.176192,0.000000
50.000000,7200.458014,11894.614922,1576.714406,3017.887833,-18749.962002,-13017.991247,1804.970420,-1650.095183,-18771.531435,-1032.315318,-1759.976358,3767.319473,11394.896972,-17680.296919,-3665.730794,1152.165371,-0.003500,-0.015250,1.004500,192.000000,0.000000,0.000000,0.000000,0.000000,0.000000,0.000000,0.000000,0.000000,0.000000,1770298627.176254,0.000000
52.000000,7195.272409,11886.501239,1567.214914,3012.881042,-18748.486787,-13021.880450,1796.230888,-1655.414898,-18824.974456,-1060.612626,-1799.337780,3736.541121,11356.988413,-17708.236600,-3707.930888,1127.980784,-0.003500,-0.015250,1.004500,192.000000,0.000000,0.000000,0.000000,0.000000,0.000000,0.000000,0.000000,0.000000,0.000000,1770298627.176303,0.000000
54.000000,7218.317058,11915.871431,1595.400464,3045.268720,-18729.577211,-12995.259523,1824.595252,-1633.376078,-18770.905587,-1032.337669,-1765.497239,3769.062909,11408.509184,-17679.872236,-3670.447012,1158.848543,-0.003500,-0.015250,1.004500,192.000000,0.000000,0.000000,0.000000,0.000000,0.000000,0.000000,0.000000,0.000000,0.000000,1770298627.176324,0.000000
56.000000,7191.718482,11884.646044,1561.626978,3005.169690,-18759.573252,-13027.535442,1789.905344,-1662.433346,-18798.375881,-1041.837161,-1783.289228,3756.836505,11367.024346,-17690.288149,-3682.829879,1139.134304,-0.003500,-0.015250,1.004500,192.000000,0.000000,0.000000,127.500000,96.000000,15.500000,72.000000,0.000000,0.000000,0.000000,1770298627.176340,0.000000
58.000000,7222.273317,11918.777158,1592.673551,3044.508761,-18731.812386,-12995.259523,1820.750752,-1631.520883,-18803.248561,-1046.955710,-1789.726530,3749.549836,11359.760029,-17694.177353,-3699.169004,1130.215958,-0.003500,-0.015250,1.004500,192.000000,0.000000,0.000000,0.000000,0.000000,0.000000,0.000000,0.000000,0.000000,0.000000,1770298627.176356,0.000000
60.000000,7210.292782,11904.382635,1579.307208,3020.614746,-18747.838586,-13011.531593,1805.059827,-1646.630662,-18759.349735,-1023.352268,-1757.115335,3774.941418,11398.741472,-17670.685669,-3671.296379,1162.111898,-0.003500,-0.015250,1.004500,192.000000,0.000000,0.000000,0.000000,0.000000,0.000000,0.000000,0.000000,0.000000,0.000000,1770298627.176375,0.000000
62.000000,7201.866174,11890.345739,1570.165344,3009.215356,-18751.347810,-13018.371227,1795.515632,-1654.073793,-18813.575067,-1056.388146,-1796.812033,3739.245682,11366.174980,-17701.911056,-3700.063074,1120.247080,-0.003500,-0.015250,1.004500,192.000000,0.000000,0.000000,0.000000,0.000000,0.000000,0.000000,0.000000,0.000000,0.000000,1770298627.176394,0.000000
64.000000,7219.233479,11915.044417,1596.585106,3041.066592,-18729.644266,-12993.359625,1821.041324,-1634.516017,-18765.898796,-1030.393068,-1765.050204,3767.721804,11395.925152,-17678.754649,-3671.944579,1151.494819,-0.003500,-0.015250,1.004500,192.000000,0.000000,0.000000,0.000000,0.000000,0.000000,0.000000,0.000000,0.000000,0.000000,1770298627.176410,0.000000
66.000000,7188.321017,11879.415736,1562.029310,2999.000609,-18759.394438,-13025.568488,1786.910210,-1664.824982,-18799.426413,-1047.805077,-1785.479699,3750.846237,11374.780402,-17693.350338,-3688.641332,1130.998269,-0.002750,-0.012625,1.005250,192.000000,127.500000,120.000000,127.500000,88.000000,15.500000,56.000000,0.000000,0.000000,0.000000,1770298627.176428,0.000000
68.000000,7202.559078,11900.113451,1585.118662,3032.684688,-18740.015476,-13001.003921,1812.972345,-1647.323566,-18812.792756,-1060.411460,-1797.326123,3737.077562,11354.932052,-17704.839135,-3690.921210,1120.805874,-0.002750,-0.012625,1.005250,192.000000,0.000000,0.000000,0.000000,0.000000,0.000000,0.000000,0.000000,0.000000,0.000000,1770298627.176446,0.000000
70.000000,7192.590200,11890.166925,1569.830068,3014.468016,-18754.745275,-13016.247811,1800.723589,-1658.164162,-18778.259311,-1038.797324,-1772.627446,3761.016281,11379.586027,-17683.023832,-3666.200181,1159.921427,-0.002750,-0.012625,1.005250,192.000000,0.000000,0.000000,0.000000,0.000000,0.000000,0.000000,0.000000,0.000000,0.000000,1770298627.176466,0.000000
72.000000,7190.355026,11885.361300,1563.996263,3006.108464,-18758.098037,-13019.310000,1792.788719,-1660.108764,-18831.031779,-1064.881809,-1805.529214,3732.875435,11341.141026,-17707.141364,-3702.789986,1122.392848,-0.002750,-0.012625,1.005250,192.000000,0.000000,0.000000,0.000000,0.000000,0.000000,0.000000,0.000000,0.000000,0.000000,1770298627.176483,0.000000
74.000000,7216.663029,11916.631391,1593.142938,3042.362993,-18732.505290,-12989.783345,1823.589423,-1634.583072,-18780.002747,-1041.904216,-1770.884010,3760.770412,11380.658910,-17682.487390,-3668.882390,1157.574494,-0.002750,-0.012625,1.005250,192.000000,0.000000,0.000000,0.000000,0.000000,0.000000,0.000000,0.000000,0.000000,0.000000,1770298627.176500,0.000000
76.000000,7186.778746,11878.186390,1558.028347,2997.748911,-18760.780246,-13025.389674,1787.446652,-1664.802631,-18801.549828,-1047.738021,-1781.411681,3752.790839,11372.120544,-17690.198742,-3685.422681,1141.861217,-0.007375,-0.011312,1.004625,192.000000,127.500000,80.000000,127.500000,88.000000,15.500000,48.000000,0.000000,0.000000,0.000000,1770298627.176520,0.000000
78.000000,7214.137282,11910.484661,1589.276086,3038.183217,-18733.824043,-12996.488869,1821.689525,-1636.102991,-18817.486622,-1063.607760,-1795.828557,3736.339955,11350.171131,-17707.051957,-3692.351722,1127.086714,-0.007375,-0.011312,1.004625,192.000000,0.000000,0.000000,0.000000,0.000000,0.000000,0.000000,0.000000,0.000000,0.000000,1770298627.176538,0.000000
80.000000,7211.209203,11903.510917,1576.848516,3021.799388,-18747.883290,-13007.217706,1810.178376,-1644.149619,-18768.446895,-1033.410553,-1758.970530,3770.806345,11395.053434,-17679.447553,-3666.669567,1162.760098,-0.007375,-0.011312,1.004625,192.000000,0.000000,0.000000,0.000000,0.000000,0.000000,0.000000,0.000000,0.000000,0.000000,1770298627.176555,0.000000
82.000000,7207.007075,11895.508992,1566.052624,3011.115254,-18759.237976,-13021.187546,1798.555469,-1650.743383,-18823.186317,-1064.971216,-1794.800376,3739.826827,11353.523893,-17711.969341,-3705.561603,1118.146016,-0.007375,-0.011312,1.004625,192.000000,0.000000,0.000000,0.000000,0.000000,0.000000,0.000000,0.000000,0.000000,0.000000,1770298627.176574,0.000000
84.000000,7232.644526,11929.461292,1596.875679,3049.046165,-18736.238031,-12994.387805,1830.250243,-1625.172988,-18769.452723,-1032.874111,-1758.389385,3772.058043,11378.960178,-17681.034527,-3681.220553,1146.264511,-0.007375,-0.011312,1.004625,192.000000,0.000000,0.000000,0.000000,0.000000,0.000000,0.000000,0.000000,0.000000,0.000000,1770298627.176596,0.000000
86.000000,7197.596991,11887.730585,1559.727080,3003.649772,-18772.313746,-13036.006753,1792.587554,-1659.974654,-18801.259256,-1047.939187,-1778.997693,3755.338938,11355.289680,-17696.434879,-3691.345893,1126.840845,-0.007375,-0.011312,1.004625,192.000000,0.000000,0.000000,0.000000,0.000000,0.000000,0.000000,0.000000,0.000000,0.000000,1770298627.176752,0.000000
88.000000,7224.195567,11917.190184,1588.136147,3041.178351,-18750.118464,-13002.389729,1821.398952,-1633.756057,-18808.791793,-1055.538780,-1785.949085,3745.772391,11348.293584,-17705.017949,-3705.047513,1116.536691,-0.008000,-0.016000,1.004000,192.000000,127.500000,96.000000,127.500000,64.000000,15.500000,48.000000,0.000000,0.000000,0.000000,1770298627.176778,0.000000
90.000000,7217.870023,11909.434129,1578.860173,3023.475769,-18756.756932,-13015.845479,1811.340667,-1642.205017,-18768.737467,-1031.689469,-1755.796582,3773.376795,11388.996111,-17681.302748,-3672.101041,1149.773735,-0.008000,-0.016000,1.004000,192.000000,0.000000,0.000000,0.000000,0.000000,0.000000,0.000000,0.000000,0.000000,0.000000,1770298627.176795,0.000000
92.000000,7206.023598,11892.759728,1566.946693,3010.109426,-18763.730677,-13024.473253,1796.946144,-1654.699642,-18819.051244,-1057.975120,-1791.402911,3740.430324,11353.523893,-17707.387234,-3702.454710,1108.937098,-0.008000,-0.016000,1.004000,192.000000,0.000000,0.000000,0.000000,0.000000,0.000000,0.000000,0.000000,0.000000,0.000000,1770298627.176813,0.000000
