Sample_index,EXG Channel 0,EXG Channel 1,EXG Channel 2,EXG Channel 3,EXG Channel 4,EXG Channel 5,EXG Channel 6,EXG Channel 7,EXG Channel 8,EXG Channel 9,EXG Channel 10,EXG Channel 11,EXG Channel 12,EXG Channel 13,EXG Channel 14,EXG Channel 15,Accel Channel 0,Accel Channel 1,Accel Channel 2,Not Used,Digital Channel 0 (D11),Digital Channel 1 (D12),Digital Channel 2 (D13),Digital Channel 3 (D17),Not Used,Digital Channel 4 (D18),Analog Channel 0,Analog Channel 1,Analog Channel 2,Timestamp,Marker Channel
210.000000,16249.986440,19152.047533,-16229.109911,1000.709951,-15510.031940,-1470.163640,479.489622,-9230.666963,11023.343923,16451.733285,-4120.208814,2354.398650,-19159.200091,16470.396992,542.812114,-1415.290107,0.006000,-0.018000,1.008000,192.000000,0.000000,0.000000,0.000000,0.000000,0.000000,0.000000,0.000000,0.000000,0.000000,1775738093.795191,101.000000
212.000000,16247.706562,19154.908556,-16242.342143,996.373713,-15516.603353,-1465.514477,477.209744,-9242.848664,11076.295206,16451.286251,-4150.763649,2348.877770,-19204.261208,16470.084068,684.924505,-1176.796994,0.006000,-0.018000,1.008000,192.000000,0.000000,0.000000,0.000000,0.000000,0.000000,0.000000,0.000000,0.000000,0.000000,1775738093.795266,0.000000
214.000000,16263.218673,19163.066943,-16204.522992,1015.238585,-15490.183591,-1460.261817,485.770462,-9215.691294,11052.088267,16465.367850,-4126.221433,2354.979796,-19171.314737,16479.002414,578.664312,-1359.410746,0.006000,-0.018000,1.008000,192.000000,0.000000,0.000000,0.000000,0.000000,0.000000,0.000000,0.000000,0.000000,0.000000,1775738093.795336,0.000000
216.000000,16242.006867,19153.410989,-16246.991306,987.723587,-15526.125196,-1472.667035,475.063977,-9240.971117,11039.034848,16452.247376,-4129.149512,2352.185828,-19181.261263,16468.318280,616.729333,-1297.250545,0.012000,-0.010000,1.008000,192.000000,0.000000,48.000000,127.500000,88.000000,15.500000,64.000000,0.000000,0.000000,0.000000,1775738093.795398,0.000000
218.000000,16264.336260,19167.403181,-16212.994303,1007.706047,-15503.482879,-1466.497954,490.620791,-9212.942030,11080.653796,16466.038402,-4137.218492,2356.253845,-19196.326339,16470.486399,651.776868,-1233.995108,0.012000,-0.010000,1.008000,192.000000,0.000000,0.000000,0.000000,0.000000,0.000000,0.000000,0.000000,0.000000,0.000000,1775738093.795439,0.000000
220.000000,16248.444170,19150.169987,-16229.311076,996.507823,-15517.989161,-1479.663131,483.915267,-9224.788454,11022.628668,16457.589442,-4113.346829,2358.600778,-19163.178702,16468.854722,538.140600,-1421.548596,0.012000,-0.010000,1.008000,192.000000,0.000000,0.000000,0.000000,0.000000,0.000000,0.000000,0.000000,0.000000,0.000000,1775738093.795515,0.000000
222.000000,16236.173062,19143.352704,-16245.270222,994.451463,-15530.394379,-1477.673826,486.083387,-9239.697068,11064.471133,16447.531157,-4153.557617,2348.318976,-19214.073624,16462.797399,664.763232,-1183.547221,0.012000,-0.010000,1.008000,192.000000,0.000000,0.000000,0.000000,0.000000,0.000000,0.000000,0.000000,0.000000,0.000000,1775738093.795556,0.000000
224.000000,16245.963126,19142.257469,-16212.368454,1010.879995,-15510.411919,-1477.964399,487.469195,-9221.860376,11038.252537,16453.141445,-4131.094114,2352.051717,-19182.065926,16467.066582,561.632283,-1367.390319,0.012000,-0.010000,1.008000,192.000000,0.000000,0.000000,0.000000,0.000000,0.000000,0.000000,0.000000,0.000000,0.000000,1775738093.795597,0.000000
226.000000,16227.053550,19134.255544,-16251.774579,989.332913,-15537.189309,-1485.899268,474.683997,-9252.415210,11026.562575,16439.819806,-4139.408963,2344.697993,-19188.011490,16464.205559,598.512661,-1309.633411,0.008000,-0.010000,1.010000,192.000000,0.000000,32.000000,127.500000,88.000000,15.500000,72.000000,0.000000,0.000000,0.000000,1775738093.795638,0.000000
228.000000,16250.120550,19152.785141,-16216.034140,1007.884861,-15509.897829,-1480.937181,486.351608,-9226.017800,11073.009500,16456.583614,-4147.120314,2348.587197,-19197.712147,16469.368812,649.564046,-1236.118524,0.008000,-0.010000,1.010000,192.000000,0.000000,0.000000,0.000000,0.000000,0.000000,0.000000,0.000000,0.000000,0.000000,1775738093.795679,0.000000
230.000000,16243.012696,19146.124321,-16227.992323,994.697332,-15518.972638,-1487.776814,475.689825,-9232.991544,11023.120406,16451.487416,-4116.230204,2353.348118,-19154.059190,16466.977175,547.751850,-1424.499026,0.008000,-0.010000,1.010000,192.000000,0.000000,0.000000,0.000000,0.000000,0.000000,0.000000,0.000000,0.000000,0.000000,1775738093.795721,0.000000
232.000000,16242.923289,19154.461521,-16241.828053,998.474777,-15522.593620,-1470.230695,482.037721,-9239.138274,11074.797639,16449.788684,-4149.847227,2347.983700,-19200.886095,16463.669117,686.086796,-1182.608447,0.008000,-0.010000,1.010000,192.000000,0.000000,0.000000,0.000000,0.000000,0.000000,0.000000,0.000000,0.000000,0.000000,1775738093.795762,0.000000
234.000000,16250.545234,19152.561623,-16210.312094,1017.786684,-15496.956169,-1463.905151,486.597477,-9221.838024,11047.170883,16465.546663,-4129.440085,2359.181924,-19171.560606,16478.711841,576.764414,-1353.331072,0.008000,-0.010000,1.010000,192.000000,0.000000,0.000000,0.000000,0.000000,0.000000,0.000000,0.000000,0.000000,0.000000,1775738093.795776,0.000000
236.000000,16236.709504,19146.303135,-16249.785274,991.344570,-15522.414806,-1469.738957,474.348721,-9251.655251,11033.648078,16450.034553,-4140.526550,2347.603720,-19181.484780,16469.368812,619.031563,-1294.411873,0.010000,-0.010000,1.002000,192.000000,0.000000,40.000000,127.500000,88.000000,15.500000,40.000000,0.000000,0.000000,0.000000,1775738093.795787,0.000000
238.000000,16252.266318,19154.729742,-16214.648332,1011.528195,-15496.687948,-1458.518381,486.262201,-9227.269498,11084.095965,16466.239568,-4144.371050,2354.108078,-19187.497400,16473.950919,663.735052,-1222.014573,0.010000,-0.010000,1.002000,192.000000,0.000000,0.000000,0.000000,0.000000,0.000000,0.000000,0.000000,0.000000,0.000000,1775738093.795798,0.000000
240.000000,16252.981574,19154.305059,-16220.593896,1003.906250,-15503.415823,-1465.067442,480.227230,-9226.978925,11030.719999,16461.992736,-4115.313782,2357.550246,-19148.135978,16474.085030,547.550684,-1411.400904,0.010000,-0.010000,1.002000,192.000000,0.000000,0.000000,0.000000,0.000000,0.000000,0.000000,0.000000,0.000000,0.000000,1775738093.795809,0.000000
242.000000,16253.205091,19160.943527,-16233.759073,999.391198,-15519.911411,-1468.487259,484.272895,-9229.437617,11089.438032,16463.110323,-4138.559596,2356.924398,-19192.101859,16477.035460,691.227697,-1181.848488,0.010000,-0.010000,1.002000,192.000000,0.000000,0.000000,0.000000,0.000000,0.000000,0.000000,0.000000,0.000000,0.000000,1775738093.795820,0.000000
244.000000,16259.083600,19160.898824,-16202.623093,1018.993678,-15502.387643,-1469.806012,492.923020,-9207.532907,11057.430334,16470.441696,-4114.911451,2364.389880,-19170.375963,16480.254111,578.999588,-1355.946226,0.010000,-0.010000,1.002000,192.000000,0.000000,0.000000,0.000000,0.000000,0.000000,0.000000,0.000000,0.000000,0.000000,1775738093.795831,0.000000
246.000000,16228.417007,19144.135016,-16251.595766,996.798396,-15539.446835,-1484.625218,480.517802,-9242.982774,11032.329325,16450.123960,-4129.238919,2356.186790,-19187.206827,16470.732268,606.849862,-1302.749074,0.010000,-0.012000,1.004000,192.000000,0.000000,40.000000,127.500000,80.000000,15.500000,48.000000,0.000000,0.000000,0.000000,1775738093.795842,0.000000
248.000000,16239.838748,19151.242870,-16221.867945,1018.479588,-15522.325399,-1479.953704,491.425454,-9224.810806,11065.476962,16457.924719,-4148.707288,2358.220799,-19210.564400,16471.447524,645.384269,-1226.641384,0.010000,-0.012000,1.004000,192.000000,0.000000,0.000000,0.000000,0.000000,0.000000,0.000000,0.000000,0.000000,0.000000,1775738093.795852,0.000000
250.000000,16232.328562,19143.620925,-16229.244021,1004.822672,-15522.683027,-1488.022684,481.367169,-9233.907966,11008.748234,16449.676925,-4123.159244,2356.343252,-19173.818132,16466.597195,538.073544,-1423.090866,0.010000,-0.012000,1.004000,192.000000,0.000000,0.000000,0.000000,0.000000,0.000000,0.000000,0.000000,0.000000,0.000000,1775738093.795863,0.000000
252.000000,16235.457806,19150.639373,-16241.515129,997.156024,-15528.181556,-1481.741843,479.824898,-9243.653326,11061.833627,16446.525329,-4154.027004,2348.274272,-19213.760699,16464.540835,681.527040,-1183.837793,0.010000,-0.012000,1.004000,192.000000,0.000000,0.000000,0.000000,0.000000,0.000000,0.000000,0.000000,0.000000,0.000000,1775738093.795873,0.000000
254.000000,16252.512187,19155.512053,-16204.768861,1012.824597,-15495.503306,-1473.561105,485.390483,-9217.188861,11048.355526,16462.663288,-4126.556710,2358.556075,-19173.684022,16475.806114,584.945152,-1355.499191,0.010000,-0.012000,1.004000,192.000000,0.000000,0.000000,0.000000,0.000000,0.000000,0.000000,0.000000,0.000000,0.000000,1775738093.795884,0.000000
0.000000,16229.109911,19142.905670,-16246.991306,988.505899,-15524.649981,-1477.003274,475.265142,-9248.950690,11037.470226,16444.200748,-4132.658736,2348.184865,-19176.880321,16465.725477,616.304650,-1300.737417,0.006000,-0.012000,1.000000,192.000000,0.000000,24.000000,127.500000,80.000000,15.500000,32.000000,0.000000,0.000000,0.000000,1775738093.795895,0.000000
2.000000,16240.039914,19146.213728,-16215.430643,1007.303716,-15501.582980,-1468.710776,484.652875,-9232.030419,11075.892875,16454.639012,-4147.008556,2350.911778,-19191.274845,16468.966480,664.383252,-1216.203119,0.006000,-0.012000,1.000000,192.000000,0.000000,0.000000,0.000000,0.000000,0.000000,0.000000,0.000000,0.000000,0.000000,1775738093.795906,0.000000
4.000000,16231.032161,19135.686056,-16227.746454,1003.146291,-15508.892001,-1475.930390,478.863773,-9237.573652,11018.158319,16449.788684,-4123.628631,2352.632863,-19155.914385,16468.564149,553.675062,-1413.814892,0.006000,-0.012000,1.000000,192.000000,0.000000,0.000000,0.000000,0.000000,0.000000,0.000000,0.000000,0.000000,0.000000,1775738093.795917,0.000000
6.000000,16227.344123,19141.721027,-16244.532614,1006.364942,-15518.033864,-1469.381329,480.987189,-9248.995393,11063.577064,16447.933489,-4160.263140,2347.201389,-19205.468202,16468.318280,690.512441,-1172.304293,0.006000,-0.012000,1.000000,192.000000,0.000000,0.000000,0.000000,0.000000,0.000000,0.000000,0.000000,0.000000,0.000000,1775738093.795929,0.000000
8.000000,16244.979649,19150.214690,-16208.322788,1025.296870,-15490.943550,-1463.838096,488.005637,-9224.363771,11054.234034,16464.138504,-4134.156303,2356.298549,-19164.139827,16484.366832,587.157975,-1343.742173,0.006000,-0.012000,1.000000,192.000000,0.000000,0.000000,0.000000,0.000000,0.000000,0.000000,0.000000,0.000000,0.000000,1775738093.795940,0.000000
10.000000,16225.377169,19142.682152,-16250.388771,997.580707,-15522.481861,-1471.191820,476.650951,-9249.733001,11035.279755,16448.693448,-4139.297204,2350.420040,-19173.728725,16478.667137,614.494159,-1296.714103,0.008000,-0.015000,1.000000,192.000000,0.000000,40.000000,127.500000,56.000000,15.500000,32.000000,0.000000,0.000000,0.000000,1775738093.795951,0.000000
12.000000,16246.678382,19155.377943,-16216.682341,1012.198748,-15503.773451,-1471.057710,489.726721,-9222.687390,11081.816087,16462.149198,-4145.980376,2354.242188,-19188.950263,16482.936321,663.198610,-1220.561709,0.008000,-0.015000,1.000000,192.000000,0.000000,0.000000,0.000000,0.000000,0.000000,0.000000,0.000000,0.000000,0.000000,1775738093.795962,0.000000
14.000000,16235.569565,19146.705466,-16228.059379,1000.039399,-15517.877402,-1485.429881,484.049378,-9226.710704,11021.935764,16457.634146,-4117.034866,2356.231494,-19157.099027,16476.789591,543.974405,-1423.157921,0.008000,-0.015000,1.000000,192.000000,0.000000,0.000000,0.000000,0.000000,0.000000,0.000000,0.000000,0.000000,0.000000,1775738093.795972,0.000000
16.000000,16228.796986,19145.163196,-16248.108893,991.903364,-15535.490577,-1487.665056,481.478927,-9242.178111,11064.582892,16450.325125,-4152.238864,2347.201389,-19208.329226,16466.753658,675.916752,-1187.950514,0.008000,-0.015000,1.000000,192.000000,0.000000,0.000000,0.000000,0.000000,0.000000,0.000000,0.000000,0.000000,0.000000,1775738093.795990,0.000000
18.000000,16239.458768,19145.498472,-16215.207126,1017.049076,-15508.847297,-1479.506669,487.960933,-9218.820538,11037.961964,16461.165722,-4135.810332,2353.571636,-19184.345804,16471.514579,577.613780,-1354.471011,0.008000,-0.015000,1.000000,192.000000,0.000000,0.000000,0.000000,0.000000,0.000000,0.000000,0.000000,0.000000,0.000000,1775738093.796001,0.000000
20.000000,16218.336370,19137.317733,-16259.776504,998.586535,-15541.234975,-1479.394910,478.327331,-9248.257786,11020.169976,16445.765370,-4145.667451,2349.682432,-19194.292330,16467.424210,603.474749,-1304.336048,0.006000,-0.013500,0.999000,192.000000,0.000000,16.000000,127.500000,80.000000,15.500000,24.000000,0.000000,0.000000,0.000000,1775738093.796013,0.000000
22.000000,16227.142957,19138.591783,-16228.305248,1012.109341,-15515.999856,-1471.817669,486.172794,-9233.438579,11060.894854,16458.550567,-4159.972568,2350.934130,-19215.928819,16472.967443,654.950816,-1216.717209,0.006000,-0.013500,0.999000,192.000000,0.000000,0.000000,0.000000,0.000000,0.000000,0.000000,0.000000,0.000000,0.000000,1775738093.796024,0.000000
24.000000,16227.679399,19140.156405,-16231.143919,1003.705085,-15509.361387,-1468.263742,479.400215,-9237.350135,11004.032016,16448.402875,-4132.234053,2348.922473,-19174.734554,16472.900387,552.043385,-1413.010229,0.006000,-0.013500,0.999000,192.000000,0.000000,0.000000,0.000000,0.000000,0.000000,0.000000,0.000000,0.000000,0.000000,1775738093.796036,0.000000
26.000000,16226.382998,19146.012562,-16247.438341,993.669152,-15520.939591,-1469.113108,477.075634,-9250.135332,11061.721869,16452.202672,-4158.229131,2344.161551,-19209.335054,16471.939262,687.785529,-1175.724110,0.006000,-0.013500,0.999000,192.000000,0.000000,0.000000,0.000000,0.000000,0.000000,0.000000,0.000000,0.000000,0.000000,1775738093.796048,0.000000
28.000000,16245.694905,19152.651030,-16208.613361,1010.298849,-15488.842486,-1466.565009,485.390483,-9222.486224,11044.131046,16460.741038,-4136.078553,2349.145991,-19176.746211,16474.286196,594.332885,-1345.686775,0.006000,-0.013500,0.999000,192.000000,0.000000,0.000000,0.000000,0.000000,0.000000,0.000000,0.000000,0.000000,0.000000,1775738093.796060,0.000000
30.000000,16215.587105,19133.853213,-16254.121513,984.951971,-15525.588754,-1478.903172,471.845325,-9256.080896,11027.680162,16444.536024,-4140.817123,2345.100325,-19182.959996,16466.932472,615.321173,-1311.287440,0.004000,-0.011750,1.000500,192.000000,0.000000,8.000000,127.500000,88.000000,15.500000,40.000000,0.000000,0.000000,0.000000,1775738093.796072,0.000000
32.000000,16231.568603,19143.643277,-16222.314980,1005.381466,-15508.221448,-1471.817669,484.652875,-9234.220890,11065.320500,16452.068562,-4158.385594,2343.088668,-19203.992987,16467.983004,661.276360,-1216.896023,0.004000,-0.011750,1.000500,192.000000,0.000000,0.000000,0.000000,0.000000,0.000000,0.000000,0.000000,0.000000,0.000000,1775738093.796084,0.000000
34.000000,16225.779501,19134.568469,-16227.008847,1000.911117,-15513.719978,-1478.813765,480.249581,-9237.551300,11018.873575,16453.521425,-4123.583928,2349.347156,-19160.474141,16474.532065,539.369945,-1417.279412,0.004000,-0.011750,1.000500,192.000000,0.000000,0.000000,0.000000,0.000000,0.000000,0.000000,0.000000,0.000000,0.000000,1775738093.796095,0.000000
36.000000,16214.246001,19130.321637,-16244.152635,992.350399,-15532.316629,-1487.150966,481.948314,-9249.554187,11055.932767,16440.445654,-4159.302015,2337.836008,-19210.318531,16460.025783,683.493994,-1188.174032,0.004000,-0.011750,1.000500,192.000000,0.000000,0.000000,0.000000,0.000000,0.000000,0.000000,0.000000,0.000000,0.000000,1775738093.796106,0.000000
38.000000,16227.835861,19132.512108,-16210.602666,1010.276498,-15510.769547,-1487.173317,490.061997,-9222.575631,11040.979450,16453.499073,-4134.625689,2348.274272,-19181.373022,16465.569015,580.072472,-1359.030766,0.004000,-0.011750,1.000500,192.000000,0.000000,0.000000,0.000000,0.000000,0.000000,0.000000,0.000000,0.000000,0.000000,1775738093.796118,0.000000
40.000000,16206.936980,19124.331370,-16255.194396,989.779948,-15543.470149,-1495.734035,479.534326,-9249.733001,11017.755987,16439.171605,-4141.308861,2341.412287,-19192.057156,16460.092838,593.192946,-1320.071676,0.005000,-0.011875,1.003250,192.000000,0.000000,24.000000,127.500000,80.000000,15.500000,56.000000,0.000000,0.000000,0.000000,1775738093.796130,0.000000
42.000000,16213.776614,19126.633600,-16225.935963,1003.034532,-15524.448815,-1489.743768,486.888049,-9235.539643,11057.765610,16448.626393,-4155.882198,2343.915682,-19215.370025,16465.077277,649.653453,-1227.177826,0.005000,-0.011875,1.003250,192.000000,0.000000,0.000000,0.000000,0.000000,0.000000,0.000000,0.000000,0.000000,0.000000,1775738093.796142,0.000000
44.000000,16212.346102,19125.091329,-16229.176966,997.245431,-15519.754949,-1489.006160,481.277762,-9237.640707,11003.383816,16447.352343,-4128.501311,2346.843761,-19172.454676,16468.072411,539.057021,-1427.114180,0.005000,-0.011875,1.003250,192.000000,0.000000,0.000000,0.000000,0.000000,0.000000,0.000000,0.000000,0.000000,0.000000,1775738093.796154,0.000000
46.000000,16203.673625,19123.839632,-16247.170120,991.232811,-15527.756873,-1481.205402,480.249581,-9249.911815,11049.517816,16438.031666,-4161.671300,2338.640671,-19214.677121,16461.255129,678.666017,-1187.972866,0.005000,-0.011875,1.003250,192.000000,0.000000,0.000000,0.000000,0.000000,0.000000,0.000000,0.000000,0.000000,0.000000,1775738093.796166,0.000000
48.000000,16220.012751,19128.399387,-16214.357759,1010.254146,-15499.884248,-1473.069367,485.971628,-9225.906041,11033.558671,16452.493245,-4140.683012,2347.626072,-19182.803533,16471.603986,585.928629,-1347.586673,0.005000,-0.011875,1.003250,192.000000,0.000000,0.000000,0.000000,0.000000,0.000000,0.000000,0.000000,0.000000,0.000000,1775738093.796177,0.000000
50.000000,16193.995320,19117.290570,-16262.369306,988.751768,-15534.127120,-1482.390044,473.141727,-9257.064373,11006.468356,16434.723608,-4151.724774,2339.691203,-19197.108650,16463.624413,610.426141,-1307.062961,0.006500,-0.011938,1.005625,192.000000,0.000000,32.000000,127.500000,80.000000,15.500000,64.000000,0.000000,0.000000,0.000000,1775738093.796189,0.000000
52.000000,16219.543364,19136.736588,-16230.316905,1009.337724,-15511.730672,-1474.768099,485.077558,-9231.672791,11052.423543,16454.102570,-4163.414736,2347.201389,-19220.533278,16475.806114,663.176258,-1208.447064,0.006500,-0.011938,1.005625,192.000000,0.000000,0.000000,0.000000,0.000000,0.000000,0.000000,0.000000,0.000000,0.000000,1775738093.796207,0.000000
54.000000,16218.492832,19133.987324,-16228.506414,1006.029666,-15520.850184,-1478.545544,483.602343,-9228.118864,11004.367292,16454.728419,-4125.684992,2355.829162,-19178.333185,16475.604948,546.455448,-1414.217223,0.006500,-0.011938,1.005625,192.000000,0.000000,0.000000,0.000000,0.000000,0.000000,0.000000,0.000000,0.000000,0.000000,1775738093.796218,0.000000
56.000000,16220.795062,19142.480986,-16240.151672,1000.821710,-15531.646077,-1476.712701,486.195145,-9236.567823,11059.397287,16459.578748,-4145.443934,2356.611473,-19213.984217,16476.789591,673.972151,-1184.106014,0.006500,-0.011938,1.005625,192.000000,0.000000,0.000000,0.000000,0.000000,0.000000,0.000000,0.000000,0.000000,0.000000,1775738093.796228,0.000000
58.000000,16231.434492,19141.452806,-16206.154669,1014.277460,-15506.992103,-1479.193745,488.899706,-9217.144158,11043.996935,16469.033536,-4123.986259,2362.914665,-19184.703432,16479.583559,581.413577,-1346.402031,0.006500,-0.011938,1.005625,192.000000,0.000000,0.000000,0.000000,0.000000,0.000000,0.000000,0.000000,0.000000,0.000000,1775738093.796241,0.000000
60.000000,16208.993341,19128.399387,-16252.601594,987.857698,-15537.569289,-1489.900230,476.382730,-9247.363716,11018.113615,16445.854777,-4135.586814,2348.453086,-19192.012452,16467.647727,599.920821,-1319.892862,0.007250,-0.012969,1.004812,192.000000,0.000000,32.000000,127.500000,72.000000,15.500000,48.000000,0.000000,0.000000,0.000000,1775738093.796253,0.000000
62.000000,16218.001094,19130.679265,-16229.691056,1003.906250,-15519.911411,-1486.100434,485.412834,-9231.762198,11064.560540,16453.096742,-4151.165980,2348.497790,-19210.474993,16468.251225,656.291921,-1222.886291,0.007250,-0.012969,1.004812,192.000000,0.000000,0.000000,0.000000,0.000000,0.000000,0.000000,0.000000,0.000000,0.000000,1775738093.796263,0.000000
64.000000,16210.580314,19118.631675,-16239.369361,995.122015,-15526.058141,-1496.404588,475.756881,-9242.200463,11006.401301,16440.512710,-4131.161169,2343.334537,-19175.673327,16461.724515,532.865588,-1423.604956,0.007250,-0.012969,1.004812,192.000000,0.000000,0.000000,0.000000,0.000000,0.000000,0.000000,0.000000,0.000000,0.000000,1775738093.796274,0.000000
66.000000,16201.974893,19117.737605,-16256.423742,991.232811,-15537.390475,-1491.241335,475.376901,-9258.494885,11049.964851,16428.733340,-4168.667396,2333.499769,-19218.834545,16453.432018,679.425976,-1189.336322,0.007250,-0.012969,1.004812,192.000000,0.000000,0.000000,0.000000,0.000000,0.000000,0.000000,0.000000,0.000000,0.000000,1775738093.796285,0.000000
68.000000,16220.906820,19125.136033,-16214.916553,1012.444617,-15504.779280,-1481.920657,483.065901,-9231.359867,11034.139816,16444.536024,-4145.108657,2344.519179,-19187.117420,16465.278443,591.270696,-1345.083278,0.007250,-0.012969,1.004812,192.000000,0.000000,0.000000,0.000000,0.000000,0.000000,0.000000,0.000000,0.000000,0.000000,1775738093.796296,0.000000
70.000000,16205.528820,19117.268219,-16248.511225,986.650704,-15532.182519,-1488.045035,471.845325,-9259.232492,11015.699627,16430.767349,-4142.269986,2337.590139,-19189.821981,16461.188073,610.292031,-1315.802493,0.004625,-0.014484,1.006406,192.000000,0.000000,8.000000,127.500000,64.000000,15.500000,64.000000,0.000000,0.000000,0.000000,1775738093.796307,0.000000
72.000000,16216.145899,19124.688998,-16219.610419,1002.587498,-15511.998893,-1480.110166,482.194183,-9239.473550,11063.241787,16442.546718,-4152.283567,2337.008993,-19208.977426,16464.585538,673.480412,-1212.000991,0.004625,-0.014484,1.006406,192.000000,0.000000,0.000000,0.000000,0.000000,0.000000,0.000000,0.000000,0.000000,0.000000,1775738093.796318,0.000000
74.000000,16213.642503,19121.224477,-16227.098254,996.261954,-15509.651960,-1484.245239,475.890991,-9239.250033,11003.897906,16441.540890,-4125.215605,2342.082839,-19173.639318,16462.238605,556.737251,-1413.211395,0.004625,-0.014484,1.006406,192.000000,0.000000,0.000000,0.000000,0.000000,0.000000,0.000000,0.000000,0.000000,0.000000,1775738094.275856,0.000000
76.000000,16213.351931,19128.712312,-16248.667687,989.757596,-15521.900716,-1481.071291,476.069805,-9251.677603,11058.413811,16440.825634,-4158.899684,2336.718421,-19211.927856,16456.225986,693.373465,-1179.546258,0.004625,-0.014484,1.006406,192.000000,0.000000,0.000000,0.000000,0.000000,0.000000,0.000000,0.000000,0.000000,0.000000,1775738094.275969,0.000000
78.000000,16222.694960,19129.226402,-16216.525878,1011.885823,-15496.464431,-1475.729224,485.032855,-9226.129559,11040.711229,16459.198768,-4139.319556,2348.989528,-19183.339975,16468.139466,592.701208,-1338.489513,0.004625,-0.014484,1.006406,192.000000,0.000000,0.000000,0.000000,0.000000,0.000000,0.000000,0.000000,0.000000,0.000000,1775738094.276064,0.000000
80.000000,16204.500640,19119.391634,-16259.329469,989.981114,-15533.009533,-1490.861355,475.645122,-9253.979832,11012.056293,16443.530195,-4147.075611,2343.915682,-19192.101859,16456.784780,612.013115,-1318.462350,0.004625,-0.014484,1.006406,192.000000,0.000000,0.000000,0.000000,0.000000,0.000000,0.000000,0.000000,0.000000,0.000000,1775738094.276153,0.000000
82.000000,16227.299419,19133.853213,-16225.913611,1011.125864,-15517.475071,-1486.301599,490.330218,-9228.163568,11066.080459,16451.509768,-4156.485695,2350.017709,-19213.023092,16458.192940,665.657302,-1220.181730,0.002000,-0.016000,1.006000,192.000000,0.000000,8.000000,127.500000,64.000000,15.500000,56.000000,0.000000,0.000000,0.000000,1775738094.276258,0.000000
84.000000,16219.297495,19124.152556,-16228.282896,1004.353285,-15521.833661,-1497.253954,482.708273,-9228.834120,11015.789034,16448.604041,-4120.409980,2355.538589,-19172.298214,16463.333841,541.001623,-1427.449456,0.002000,-0.016000,1.006000,192.000000,0.000000,0.000000,0.000000,0.000000,0.000000,0.000000,0.000000,0.000000,0.000000,1775738094.276345,0.000000
86.000000,16216.280009,19129.293457,-16243.236213,998.765349,-15539.312725,-1497.142195,486.373959,-9236.746637,11053.742296,16439.484529,-4152.395326,2348.944825,-19221.472051,16457.030649,675.559124,-1198.232317,0.002000,-0.016000,1.006000,192.000000,0.000000,0.000000,0.000000,0.000000,0.000000,0.000000,0.000000,0.000000,0.000000,1775738094.276423,0.000000
88.000000,16231.322733,19134.657876,-16209.350969,1018.546643,-15520.716074,-1494.884669,492.811262,-9213.746692,11042.991107,16460.673983,-4126.981393,2361.305339,-19187.162124,16469.346460,581.368873,-1352.816981,0.002000,-0.016000,1.006000,192.000000,0.000000,0.000000,0.000000,0.000000,0.000000,0.000000,0.000000,0.000000,0.000000,1775738094.276450,0.000000
90.000000,16209.798003,19123.414948,-16255.775542,994.786739,-15554.914243,-1502.618373,482.015369,-9241.149931,11012.771548,16445.251280,-4134.871559,2353.549284,-19197.108650,16462.439771,596.903336,-1334.354440,0.002000,-0.016000,1.006000,192.000000,0.000000,0.000000,0.000000,0.000000,0.000000,0.000000,0.000000,0.000000,0.000000,1775738094.276476,0.000000
92.000000,16219.230440,19127.371207,-16232.663838,1007.594288,-15536.898737,-1495.510518,490.061997,-9227.403608,11063.510008,16461.813922,-4150.093097,2356.700880,-19218.342807,16469.435867,657.454211,-1227.244881,0.002000,-0.016000,1.006000,192.000000,0.000000,8.000000,127.500000,64.000000,15.500000,56.000000,0.000000,0.000000,0.000000,1775738094.276503,0.000000
94.000000,16205.841745,19110.696806,-16237.000076,995.010256,-15532.718960,-1507.289887,479.221401,-9239.093571,10999.762833,16440.579765,-4130.624727,2347.268444,-19182.155333,16455.644841,536.374812,-1429.192892,0.002000,-0.016000,1.006000,192.000000,0.000000,0.000000,0.000000,0.000000,0.000000,0.000000,0.000000,0.000000,0.000000,1775738094.276530,0.000000
96.000000,16191.849553,19099.945617,-16252.892167,981.576858,-15540.899699,-1502.283097,474.661645,-9258.718402,11036.285584,16423.771253,-4167.035719,2330.951671,-19226.478842,16444.781893,678.509555,-1190.252744,0.002000,-0.016000,1.006000,192.000000,0.000000,0.000000,0.000000,0.000000,0.000000,0.000000,0.000000,0.000000,0.000000,1775738094.276556,0.000000
98.000000,16211.429681,19105.310035,-16209.239210,999.368846,-15504.108727,-1494.459986,481.769500,-9233.438579,11021.198156,16429.381541,-4146.136838,2333.119790,-19195.521676,16449.967498,603.921783,-1341.819923,0.002000,-0.016000,1.006000,192.000000,0.000000,0.000000,0.000000,0.000000,0.000000,0.000000,0.000000,0.000000,0.000000,1775738094.276583,0.000000
100.000000,16198.689186,19101.174963,-16250.165254,978.626427,-15527.913335,-1492.783605,469.811317,-9260.126562,11004.009665,16423.435977,-4147.030908,2328.649441,-19192.526542,16449.296945,616.125836,-1319.222309,0.002000,-0.016000,1.006000,192.000000,0.000000,0.000000,0.000000,0.000000,0.000000,0.000000,0.000000,0.000000,0.000000,1775738094.276609,0.000000
102.000000,16222.784367,19117.715254,-16222.180870,1001.671076,-15503.572286,-1481.898306,480.853078,-9239.093571,11070.908436,16442.993753,-4154.921073,2335.712592,-19204.261208,16462.305661,683.069311,-1209.028209,0.002000,-0.014000,1.006000,192.000000,0.000000,8.000000,127.500000,72.000000,15.500000,56.000000,0.000000,0.000000,0.000000,1775738094.276635,0.000000
104.000000,16219.945695,19117.089405,-16226.293591,1002.654553,-15503.773451,-1483.686445,478.997884,-9235.539643,11024.036828,16440.557413,-4122.533396,2342.552226,-19160.451789,16465.658422,560.090013,-1414.261927,0.002000,-0.014000,1.006000,192.000000,0.000000,0.000000,0.000000,0.000000,0.000000,0.000000,0.000000,0.000000,0.000000,1775738094.276661,0.000000
106.000000,16210.200335,19116.418852,-16248.913556,995.300829,-15523.599449,-1483.731149,480.920134,-9247.631937,11062.303014,16438.858681,-4156.217474,2340.898197,-19208.128060,16463.959690,689.126633,-1186.072968,0.002000,-0.014000,1.006000,192.000000,0.000000,0.000000,0.000000,0.000000,0.000000,0.000000,0.000000,0.000000,0.000000,1775738094.276688,0.000000
108.000000,16229.735759,19123.906687,-16207.808698,1011.081160,-15500.733614,-1487.776814,488.430320,-9220.139291,11050.702459,16453.454370,-4133.016364,2350.062412,-19178.914330,16472.229835,590.242516,-1342.266958,0.002000,-0.014000,1.006000,192.000000,0.000000,0.000000,0.000000,0.000000,0.000000,0.000000,0.000000,0.000000,0.000000,1775738094.276714,0.000000
110.000000,16210.982646,19116.530611,-16248.287707,986.449538,-15533.993010,-1497.343361,477.455613,-9246.223777,11026.339057,16437.808149,-4132.703439,2342.887502,-19185.128115,16460.204597,604.055894,-1331.135789,0.002000,-0.014000,1.006000,192.000000,0.000000,0.000000,0.000000,0.000000,0.000000,0.000000,0.000000,0.000000,0.000000,1775738094.276741,0.000000
112.000000,16224.952486,19126.879469,-16221.890297,1001.492262,-15526.885155,-1495.354056,488.184451,-9229.102341,11075.311729,16451.509768,-4145.063954,2348.207217,-19209.469165,16462.439771,658.817668,-1220.517006,0.006000,-0.012000,1.004000,192.000000,0.000000,24.000000,127.500000,80.000000,15.500000,48.000000,0.000000,0.000000,0.000000,1775738094.276777,0.000000
114.000000,16215.475347,19114.138974,-16229.065207,988.617657,-15535.155301,-1513.436617,478.148517,-9237.663059,11010.581077,16441.920870,-4123.203948,2345.547360,-19178.534350,16448.984021,545.136696,-1433.775000,0.006000,-0.012000,1.004000,192.000000,0.000000,0.000000,0.000000,0.000000,0.000000,0.000000,0.000000,0.000000,0.000000,1775738094.276828,0.000000
116.000000,16208.456899,19112.999035,-16251.193434,980.772195,-15554.534263,-1510.530890,477.209744,-9252.571673,11052.691764,16429.426244,-4157.826800,2335.824351,-19228.669313,16436.087064,678.464851,-1204.110826,0.006000,-0.012000,1.004000,192.000000,0.000000,0.000000,0.000000,0.000000,0.000000,0.000000,0.000000,0.000000,0.000000,1775738094.276866,0.000000
118.000000,16221.107986,19111.903800,-16214.357759,1000.486434,-15525.633457,-1508.295716,484.786985,-9230.085818,11038.029020,16437.517576,-4138.090210,2340.272348,-19203.255380,16442.166739,589.147280,-1349.486571,0.006000,-0.012000,1.004000,192.000000,0.000000,0.000000,0.000000,0.000000,0.000000,0.000000,0.000000,0.000000,0.000000,1775738094.276893,0.000000
120.000000,16196.744585,19099.297416,-16257.541330,982.269762,-15550.488597,-1506.596983,473.633465,-9257.332594,11011.117519,16416.842212,-4142.180579,2331.309298,-19205.579961,16433.449558,599.518490,-1334.957938,0.006000,-0.012000,1.004000,192.000000,0.000000,0.000000,0.000000,0.000000,0.000000,0.000000,0.000000,0.000000,0.000000,1775738094.276919,0.000000
122.000000,16213.888373,19114.407195,-16231.210975,1006.521405,-15524.091187,-1488.559125,484.764634,-9234.466759,11059.553750,16433.963649,-4159.793754,2338.931243,-19226.411787,16447.240585,667.668959,-1210.995163,0.008000,-0.016000,1.004000,192.000000,0.000000,32.000000,127.500000,64.000000,15.500000,48.000000,0.000000,0.000000,0.000000,1775738094.276945,0.000000
124.000000,16215.028312,19112.753166,-16231.859175,1004.889727,-15520.067873,-1487.508594,479.847250,-9233.997373,11010.223449,16442.457311,-4128.478960,2347.938996,-19182.200036,16460.092838,548.332995,-1416.340639,0.008000,-0.016000,1.004000,192.000000,0.000000,0.000000,0.000000,0.000000,0.000000,0.000000,0.000000,0.000000,0.000000,1775738094.276972,0.000000
126.000000,16214.782442,19117.044701,-16251.215786,997.290134,-15533.545975,-1482.993541,479.981360,-9244.525045,11056.223340,16438.188128,-4155.435163,2341.412287,-19220.555630,16460.226948,683.605752,-1179.456851,0.008000,-0.016000,1.004000,192.000000,0.000000,0.000000,0.000000,0.000000,0.000000,0.000000,0.000000,0.000000,0.000000,1775738094.276998,0.000000
128.000000,16234.004943,19124.800757,-16210.446204,1012.779893,-15505.248666,-1480.512497,487.335084,-9217.635896,11052.557653,16454.080219,-4129.395381,2350.285929,-19189.732574,16467.178341,597.171557,-1329.302946,0.008000,-0.016000,1.004000,192.000000,0.000000,0.000000,0.000000,0.000000,0.000000,0.000000,0.000000,0.000000,0.000000,1775738094.277024,0.000000
130.000000,16212.279047,19114.586009,-16251.707524,983.700273,-15537.457530,-1496.762216,476.226267,-9247.050792,11025.824967,16437.875204,-4130.423561,2343.379240,-19190.023147,16455.354268,602.804196,-1325.436094,0.008000,-0.016000,1.004000,192.000000,0.000000,0.000000,0.000000,0.000000,0.000000,0.000000,0.000000,0.000000,0.000000,1775738094.277051,0.000000
132.000000,16228.327600,19125.180736,-16224.505451,1000.687599,-15521.788957,-1492.694198,488.855003,-9225.168434,11076.764593,16447.464102,-4145.488637,2344.183903,-19215.146508,16451.353306,668.339511,-1218.773570,0.006000,-0.016000,1.002000,192.000000,0.000000,24.000000,127.500000,64.000000,15.500000,40.000000,0.000000,0.000000,0.000000,1775738094.277077,0.000000
134.000000,16220.817413,19116.865887,-16229.512242,999.502957,-15523.375931,-1498.684466,484.384654,-9223.156777,11016.481938,16442.770236,-4118.666544,2346.888464,-19179.808400,16450.548643,545.069640,-1430.154017,0.006000,-0.016000,1.002000,192.000000,0.000000,0.000000,0.000000,0.000000,0.000000,0.000000,0.000000,0.000000,0.000000,1775738094.277103,0.000000
136.000000,16212.279047,19116.061224,-16253.048629,989.623486,-15539.648001,-1497.455120,482.171831,-9240.904062,11059.218473,16440.847986,-4151.210684,2340.987604,-19220.309761,16448.693448,674.374482,-1198.142910,0.006000,-0.016000,1.002000,192.000000,0.000000,0.000000,0.000000,0.000000,0.000000,0.000000,0.000000,0.000000,0.000000,1775738094.277130,0.000000
138.000000,16225.891259,19118.721082,-16216.324713,1010.410608,-15516.581001,-1495.085835,489.927887,-9219.066408,11047.684973,16449.609870,-4135.676221,2345.189732,-19195.208752,16452.225024,592.857670,-1346.111458,0.006000,-0.016000,1.002000,192.000000,0.000000,0.000000,0.000000,0.000000,0.000000,0.000000,0.000000,0.000000,0.000000,1775738094.277145,0.000000
140.000000,16202.690149,19108.081652,-16260.670574,986.248372,-15549.773341,-1505.568803,475.667474,-9251.163513,11012.302162,16424.330047,-4142.359393,2335.198502,-19202.629531,16443.865471,592.768263,-1336.231987,0.006000,-0.016000,1.002000,192.000000,0.000000,0.000000,0.000000,0.000000,0.000000,0.000000,0.000000,0.000000,0.000000,1775738094.277158,0.000000
142.000000,16223.007884,19123.280838,-16231.479196,1009.114207,-15532.495443,-1492.336570,489.883183,-9230.532852,11066.393383,16445.407742,-4156.195123,2343.893331,-19225.830641,16456.114227,661.097546,-1210.101093,0.010000,-0.014000,1.002000,192.000000,0.000000,40.000000,127.500000,72.000000,15.500000,40.000000,0.000000,0.000000,0.000000,1775738094.277171,0.000000
144.000000,16217.107024,19116.284742,-16229.154614,1001.425207,-15532.361332,-1501.232565,485.546945,-9230.979887,11011.475147,16450.369829,-4125.953212,2349.548322,-19187.430345,16463.222082,541.314547,-1419.760456,0.010000,-0.014000,1.002000,192.000000,0.000000,0.000000,0.000000,0.000000,0.000000,0.000000,0.000000,0.000000,0.000000,1775738094.277184,0.000000
146.000000,16209.730948,19116.016521,-16249.785274,989.243506,-15547.784036,-1499.712646,482.954142,-9243.072181,11048.668450,16434.991829,-4157.759745,2338.618319,-19227.238801,16449.922794,684.700988,-1195.125424,0.010000,-0.014000,1.002000,192.000000,0.000000,0.000000,0.000000,0.000000,0.000000,0.000000,0.000000,0.000000,0.000000,1775738094.277200,0.000000
148.000000,16231.188623,19127.930001,-16208.613361,1013.606908,-15508.087338,-1482.725320,493.034779,-9211.288000,11045.561557,16452.716762,-4133.575157,2350.710613,-19193.644129,16460.852797,602.178347,-1335.024993,0.010000,-0.014000,1.002000,192.000000,0.000000,0.000000,0.000000,0.000000,0.000000,0.000000,0.000000,0.000000,0.000000,1775738094.277211,0.000000
150.000000,16207.763995,19111.993207,-16251.573414,989.042340,-15537.055199,-1491.934239,477.813241,-9248.280138,11015.163185,16437.361114,-4136.950271,2342.999261,-19193.107688,16453.856701,599.607897,-1323.983231,0.010000,-0.014000,1.002000,192.000000,0.000000,0.000000,0.000000,0.000000,0.000000,0.000000,0.000000,0.000000,0.000000,1775738094.277223,0.000000
152.000000,16230.942754,19128.265277,-16225.176004,1008.622469,-15514.748158,-1485.049902,486.977456,-9231.024591,11071.109601,16444.245451,-4155.122239,2338.819485,-19213.917162,16456.382448,681.862316,-1201.987410,0.009000,-0.013000,1.003000,192.000000,0.000000,32.000000,127.500000,80.000000,15.500000,48.000000,0.000000,0.000000,0.000000,1775738094.277236,0.000000
154.000000,16233.267335,19121.850326,-16223.343161,1007.527233,-15510.367216,-1486.569820,482.887087,-9227.805940,11022.628668,16447.262937,-4120.365276,2347.760182,-19167.939623,16462.864454,556.625492,-1411.847939,0.009000,-0.013000,1.003000,192.000000,0.000000,0.000000,0.000000,0.000000,0.000000,0.000000,0.000000,0.000000,0.000000,1775738094.277248,0.000000
156.000000,16227.075902,19124.219611,-16244.979649,996.060788,-15527.823928,-1486.659227,481.411872,-9242.312222,11066.058107,16436.467044,-4149.355489,2342.306357,-19206.652845,16457.142408,683.628104,-1185.178898,0.009000,-0.013000,1.003000,192.000000,0.000000,0.000000,0.000000,0.000000,0.000000,0.000000,0.000000,0.000000,0.000000,1775738094.277261,0.000000
158.000000,16242.744475,19129.941658,-16206.735814,1014.657440,-15501.091242,-1485.184012,489.458500,-9213.322009,11054.189331,16447.531157,-4129.708306,2347.581368,-19183.608196,16462.618585,604.815853,-1332.923929,0.009000,-0.013000,1.003000,192.000000,0.000000,0.000000,0.000000,0.000000,0.000000,0.000000,0.000000,0.000000,0.000000,1775738094.277273,0.000000
160.000000,16224.036065,19118.944600,-16249.494702,991.501032,-15531.646077,-1495.622277,479.623733,-9239.361792,11024.372104,16430.096797,-4126.802579,2344.318014,-19181.663594,16458.103533,601.083112,-1331.135789,0.009000,-0.013000,1.003000,192.000000,0.000000,0.000000,0.000000,0.000000,0.000000,0.000000,0.000000,0.000000,0.000000,1775738094.277288,0.000000
162.000000,16236.642449,19127.773539,-16226.382998,1008.354248,-15516.983332,-1487.821518,489.883183,-9222.799149,11080.474982,16442.479663,-4144.616919,2346.866113,-19208.128060,16460.048134,668.965360,-1209.475244,0.006500,-0.014500,1.006500,192.000000,0.000000,16.000000,127.500000,64.000000,15.500000,72.000000,0.000000,0.000000,0.000000,1775738094.277300,0.000000
164.000000,16230.942754,19119.324579,-16224.840727,1005.984963,-15515.083434,-1494.415283,485.859869,-9223.872033,11026.696685,16439.462178,-4115.537300,2352.074069,-19168.677231,16459.802265,542.946225,-1423.269680,0.006500,-0.014500,1.006500,192.000000,0.000000,0.000000,0.000000,0.000000,0.000000,0.000000,0.000000,0.000000,0.000000,1775738094.277312,0.000000
166.000000,16224.930134,19119.123413,-16243.817358,996.261954,-15531.623725,-1498.013913,484.608172,-9240.345268,11071.131953,16433.069579,-4146.203893,2343.178075,-19206.988121,16454.460198,674.732110,-1199.685180,0.006500,-0.014500,1.006500,192.000000,0.000000,0.000000,0.000000,0.000000,0.000000,0.000000,0.000000,0.000000,0.000000,1775738094.277324,0.000000
168.000000,16232.797948,19117.737605,-16206.869925,1013.785722,-15509.495498,-1491.062521,490.509032,-9219.759312,11063.621767,16441.540890,-4127.741352,2345.279139,-19181.753001,16456.181283,596.679818,-1339.987080,0.006500,-0.014500,1.006500,192.000000,0.000000,0.000000,0.000000,0.000000,0.000000,0.000000,0.000000,0.000000,0.000000,1775738094.277336,0.000000
170.000000,16207.808698,19101.890218,-16249.092370,988.729416,-15544.051295,-1503.892422,478.975532,-9248.458952,11024.349752,16422.050169,-4133.686916,2336.159627,-19190.179609,16445.608907,592.298876,-1340.747039,0.006500,-0.014500,1.006500,192.000000,0.000000,0.000000,0.000000,0.000000,0.000000,0.000000,0.000000,0.000000,0.000000,1775738094.277348,0.000000
172.000000,16228.171137,19114.608361,-16221.867945,1006.588460,-15528.270963,-1490.928410,492.677151,-9223.939088,11072.942444,16433.337800,-4150.786001,2336.718421,-19219.460394,16447.933489,667.467793,-1207.642401,0.004250,-0.013250,1.005250,192.000000,0.000000,8.000000,127.500000,80.000000,15.500000,48.000000,0.000000,0.000000,0.000000,1775738094.277359,0.000000
174.000000,16225.198355,19110.160364,-16222.225573,999.234736,-15521.990123,-1500.562012,487.178622,-9221.569803,11019.052389,16430.074445,-4119.337096,2341.300528,-19181.484780,16447.933489,542.901521,-1422.487369,0.004250,-0.013250,1.005250,192.000000,0.000000,0.000000,0.000000,0.000000,0.000000,0.000000,0.000000,0.000000,0.000000,1775738094.277378,0.000000
176.000000,16218.448129,19114.429547,-16242.766826,990.606963,-15536.876385,-1494.907021,486.753939,-9237.037210,11057.363279,16427.459291,-4148.193198,2338.707726,-19222.522583,16445.139521,681.772909,-1197.874689,0.004250,-0.013250,1.005250,192.000000,0.000000,0.000000,0.000000,0.000000,0.000000,0.000000,0.000000,0.000000,0.000000,1775738094.277389,0.000000
178.000000,16223.633733,19112.954332,-16211.139108,1006.744922,-15519.866707,-1501.344323,489.704369,-9222.262707,11047.349697,16444.558375,-4133.217529,2343.200426,-19196.929836,16448.581689,606.313420,-1334.019164,0.004250,-0.013250,1.005250,192.000000,0.000000,0.000000,0.000000,0.000000,0.000000,0.000000,0.000000,0.000000,0.000000,1775738094.277403,0.000000
180.000000,16200.030291,19094.357681,-16251.551062,986.002503,-15542.754894,-1505.166472,480.026064,-9252.862245,11007.429481,16423.458329,-4143.633442,2330.459932,-19201.623702,16437.696390,598.646772,-1338.288348,0.004250,-0.013250,1.005250,192.000000,0.000000,0.000000,0.000000,0.000000,0.000000,0.000000,0.000000,0.000000,0.000000,1775738094.277414,0.000000
182.000000,16213.061358,19102.426660,-16226.673570,1003.928602,-15524.337056,-1493.722378,492.028951,-9233.930318,11067.332157,16433.360151,-4158.363242,2332.538644,-19220.689740,16443.709009,670.731148,-1206.927145,0.004125,-0.012625,1.000625,192.000000,0.000000,16.000000,127.500000,80.000000,15.500000,16.000000,0.000000,0.000000,0.000000,1775738094.277426,0.000000
184.000000,16208.389844,19093.329500,-16224.751320,999.346495,-15518.793824,-1501.657248,486.485718,-9229.459969,11006.602467,16431.728474,-4130.110637,2336.941938,-19179.651937,16446.592384,550.031728,-1421.369782,0.004125,-0.012625,1.000625,192.000000,0.000000,0.000000,0.000000,0.000000,0.000000,0.000000,0.000000,0.000000,0.000000,1775738094.277439,0.000000
186.000000,16209.574486,19099.453878,-16244.465559,987.969457,-15530.796710,-1497.924506,485.256372,-9242.401629,11052.200026,16422.564259,-4156.016309,2331.622223,-19217.001702,16440.378599,679.470680,-1199.484014,0.004125,-0.012625,1.000625,192.000000,0.000000,0.000000,0.000000,0.000000,0.000000,0.000000,0.000000,0.000000,0.000000,1775738094.277451,0.000000
188.000000,16224.639562,19106.226457,-16205.998207,1007.951916,-15505.025149,-1495.287001,492.766558,-9216.741826,11049.853092,16437.584631,-4133.306936,2343.155723,-19188.525580,16447.866434,609.353257,-1337.193112,0.004125,-0.012625,1.000625,192.000000,0.000000,0.000000,0.000000,0.000000,0.000000,0.000000,0.000000,0.000000,0.000000,1775738094.277463,0.000000
190.000000,16207.585181,19100.549114,-16245.359629,985.488413,-15535.222356,-1505.613507,481.836555,-9241.105228,11015.587868,16423.033646,-4132.345811,2338.327746,-19189.330243,16441.451483,598.870289,-1346.223217,0.004125,-0.012625,1.000625,192.000000,0.000000,0.000000,0.000000,0.000000,0.000000,0.000000,0.000000,0.000000,0.000000,1775738094.277475,0.000000
192.000000,16225.801852,19115.524783,-16220.392730,1006.499053,-15520.291390,-1495.287001,494.509994,-9223.134425,11072.718927,16438.858681,-4147.366184,2342.753392,-19212.218429,16445.765370,671.066424,-1211.509253,0.005063,-0.012313,0.998312,192.000000,0.000000,24.000000,127.500000,80.000000,15.500000,16.000000,0.000000,0.000000,0.000000,1775738094.277487,0.000000
194.000000,16218.962219,19106.025291,-16219.900992,1007.594288,-15519.799652,-1499.422073,492.006599,-9222.910908,11019.834700,16442.099684,-4118.979468,2348.095459,-19172.231158,16449.900442,545.986062,-1422.844997,0.005063,-0.012313,0.998312,192.000000,0.000000,0.000000,0.000000,0.000000,0.000000,0.000000,0.000000,0.000000,0.000000,1775738094.757476,0.000000
196.000000,16206.869925,19097.598684,-16247.125417,995.949029,-15539.513891,-1501.098454,488.855003,-9239.272385,11046.433276,16426.162890,-4155.166942,2339.065354,-19220.354464,16441.585593,679.135404,-1197.785282,0.005063,-0.012313,0.998312,192.000000,0.000000,0.000000,0.000000,0.000000,0.000000,0.000000,0.000000,0.000000,0.000000,1775738094.757543,0.000000
198.000000,16229.042855,19108.998073,-16206.735814,1018.501940,-15507.707358,-1493.945896,499.539137,-9211.288000,11047.327345,16437.718742,-4134.871559,2345.770877,-19193.152391,16445.899480,605.352295,-1325.592557,0.005063,-0.012313,0.998312,192.000000,0.000000,0.000000,0.000000,0.000000,0.000000,0.000000,0.000000,0.000000,0.000000,1775738094.757590,0.000000
200.000000,16203.159535,19092.569541,-16251.260489,991.635143,-15545.884138,-1506.507576,484.161137,-9243.943899,11012.592734,16423.994771,-4134.692745,2337.500732,-19190.559589,16438.568108,591.471862,-1338.087182,0.005063,-0.012313,0.998312,192.000000,0.000000,0.000000,0.000000,0.000000,0.000000,0.000000,0.000000,0.000000,0.000000,1775738094.757634,0.000000
202.000000,16226.852384,19113.200201,-16226.785329,1006.677867,-15527.041617,-1495.041131,493.571221,-9226.621297,11067.734488,16436.176471,-4153.468210,2338.975947,-19219.885077,16439.953916,669.859430,-1204.513157,0.006531,-0.013156,0.999156,192.000000,0.000000,32.000000,127.500000,72.000000,15.500000,32.000000,0.000000,0.000000,0.000000,1775738094.757684,0.000000
204.000000,16227.008847,19110.763861,-16223.097291,1003.414512,-15522.615972,-1498.684466,489.637314,-9220.027533,11022.852185,16444.468968,-4117.593660,2350.352985,-19176.947376,16446.458274,545.069640,-1420.095732,0.006531,-0.013156,0.999156,192.000000,0.000000,0.000000,0.000000,0.000000,0.000000,0.000000,0.000000,0.000000,0.000000,1775738094.757732,0.000000
206.000000,16219.878640,19110.786213,-16247.125417,993.445634,-15541.682010,-1497.544527,490.464329,-9234.243242,11059.397287,16436.042361,-4145.510989,2345.614415,-19222.209659,16440.088027,672.563991,-1202.814424,0.006531,-0.013156,0.999156,192.000000,0.000000,0.000000,0.000000,0.000000,0.000000,0.000000,0.000000,0.000000,0.000000,1775738094.757750,0.000000
208.000000,16229.981629,19112.417890,-16205.864096,1014.456274,-15511.641265,-1494.571745,499.092102,-9207.801128,11053.027040,16446.771198,-4127.026096,2352.699918,-19199.567342,16447.732323,598.914993,-1336.299042,0.006531,-0.013156,0.999156,192.000000,0.000000,0.000000,0.000000,0.000000,0.000000,0.000000,0.000000,0.000000,0.000000,1775738094.757766,0.000000
210.000000,16208.032216,19103.097213,-16244.957297,991.456329,-15538.105731,-1500.763178,485.189317,-9236.053733,11016.794862,16429.314486,-4126.288489,2344.563883,-19196.393394,16439.998620,599.026751,-1356.661481,0.006531,-0.013156,0.999156,192.000000,0.000000,0.000000,0.000000,0.000000,0.000000,0.000000,0.000000,0.000000,0.000000,1775738094.757795,0.000000
212.000000,16220.526841,19110.674454,-16222.314980,1007.147253,-15519.576135,-1487.285076,493.928849,-9224.453178,11066.952177,16440.512710,-4147.410887,2345.077973,-19221.807327,16444.893652,679.314217,-1212.693895,0.006266,-0.012578,0.999578,192.000000,0.000000,24.000000,127.500000,80.000000,15.500000,32.000000,0.000000,0.000000,0.000000,1775738094.757813,0.000000
214.000000,16227.165309,19112.842573,-16216.280009,1009.248317,-15511.708321,-1493.990599,492.520689,-9216.384198,11020.371141,16441.227966,-4115.850224,2349.391860,-19174.600443,16450.459236,554.725594,-1429.438761,0.006266,-0.012578,0.999578,192.000000,0.000000,0.000000,0.000000,0.000000,0.000000,0.000000,0.000000,0.000000,0.000000,1775738094.757830,0.000000
216.000000,16216.391768,19109.713329,-16241.872757,995.189070,-15533.925955,-1500.427902,490.218459,-9235.874919,11067.443915,16435.058884,-4140.124218,2344.943863,-19206.384624,16444.200748,682.018779,-1205.764855,0.006266,-0.012578,0.999578,192.000000,0.000000,0.000000,0.000000,0.000000,0.000000,0.000000,0.000000,0.000000,0.000000,1775738094.757848,0.000000
218.000000,16226.248887,19103.991282,-16207.071091,1013.897480,-15510.411919,-1496.359884,497.639239,-9216.697123,11055.776305,16439.551585,-4129.641250,2344.988566,-19194.404089,16442.367904,611.990763,-1331.895749,0.006266,-0.012578,0.999578,192.000000,0.000000,0.000000,0.000000,0.000000,0.000000,0.000000,0.000000,0.000000,0.000000,1775738094.757865,0.000000
220.000000,16205.126489,19091.071974,-16249.360591,989.109396,-15539.156263,-1505.725265,485.591648,-9245.441466,11021.756950,16419.278552,-4133.619861,2335.377316,-19194.001757,16433.874242,596.031618,-1348.436039,0.006266,-0.012578,0.999578,192.000000,0.000000,0.000000,0.000000,0.000000,0.000000,0.000000,0.000000,0.000000,0.000000,1775738094.757882,0.000000
222.000000,16211.407329,19095.095288,-16228.305248,1001.045227,-15534.395341,-1496.136367,496.186375,-9226.688352,11072.070726,16430.655590,-4153.535265,2336.271386,-19224.623647,16433.941297,677.771947,-1207.463587,0.006266,-0.012578,0.999578,192.000000,0.000000,0.000000,0.000000,0.000000,0.000000,0.000000,0.000000,0.000000,0.000000,1775738094.757898,0.000000
224.000000,16217.397597,19095.005881,-16220.929172,1002.341628,-15522.727731,-1492.895364,493.839442,-9219.982829,11012.279810,16429.359189,-4121.594622,2337.970118,-19186.759792,16436.042361,547.126001,-1423.426142,0.010000,-0.012000,1.002000,192.000000,0.000000,40.000000,127.500000,80.000000,15.500000,40.000000,0.000000,0.000000,0.000000,1775738094.757911,0.000000
226.000000,16214.357759,19098.090422,-16243.392675,991.992771,-15538.172786,-1491.755425,488.765596,-9238.802998,11059.486694,16423.368922,-4146.405059,2333.097438,-19219.393339,16431.840233,676.073215,-1202.233279,0.010000,-0.012000,1.002000,192.000000,0.000000,0.000000,0.000000,0.000000,0.000000,0.000000,0.000000,0.000000,0.000000,1775738094.757923,0.000000
228.000000,16238.229422,19112.417890,-16200.432622,1015.797379,-15504.064024,-1484.535811,496.141672,-9210.326875,11064.940520,16444.178396,-4125.886157,2345.457953,-19189.151429,16443.463140,607.676877,-1328.699449,0.010000,-0.012000,1.002000,192.000000,0.000000,0.000000,0.000000,0.000000,0.000000,0.000000,0.000000,0.000000,0.000000,1775738094.757936,0.000000
230.000000,16215.318884,19097.531628,-16240.822225,994.831442,-15531.668428,-1494.951724,484.697579,-9239.406495,11028.864804,16430.923811,-4123.226300,2341.009956,-19183.831714,16440.646820,600.658429,-1349.397165,0.010000,-0.012000,1.002000,192.000000,0.000000,0.000000,0.000000,0.000000,0.000000,0.000000,0.000000,0.000000,0.000000,1775738094.757948,0.000000
232.000000,16238.519995,19116.910591,-16216.972913,1014.746847,-15512.222411,-1482.770024,496.499300,-9217.345323,11086.040567,16444.357210,-4142.292338,2344.832104,-19206.250513,16448.112303,682.979904,-1206.658924,0.010000,-0.012000,1.002000,192.000000,0.000000,0.000000,0.000000,0.000000,0.000000,0.000000,0.000000,0.000000,0.000000,1775738094.757961,0.000000
234.000000,16232.395617,19108.573390,-16213.709559,1010.768236,-15509.964885,-1489.542602,492.610096,-9212.115015,11031.770531,16449.811035,-4108.161224,2352.543456,-19162.955184,16454.013163,553.339786,-1425.482503,0.012000,-0.016000,1.002000,192.000000,0.000000,48.000000,127.500000,64.000000,15.500000,40.000000,0.000000,0.000000,0.000000,1775738094.757974,0.000000
236.000000,16228.372303,19114.965989,-16238.475292,997.625410,-15531.556670,-1491.554259,492.408930,-9228.454140,11066.862770,16438.791625,-4138.090210,2345.346194,-19205.423499,16445.206576,675.670883,-1210.168148,0.012000,-0.016000,1.002000,192.000000,0.000000,0.000000,0.000000,0.000000,0.000000,0.000000,0.000000,0.000000,0.000000,1775738094.757987,0.000000
238.000000,16246.588975,19119.928076,-16201.013768,1014.858605,-15504.198134,-1490.280210,499.405026,-9204.761291,11069.857904,16456.248338,-4119.381800,2355.695052,-19182.244740,16451.889748,598.289144,-1334.712068,0.012000,-0.016000,1.002000,192.000000,0.000000,0.000000,0.000000,0.000000,0.000000,0.000000,0.000000,0.000000,0.000000,1775738094.758000,0.000000
240.000000,16219.230440,19102.538419,-16243.124454,987.567125,-15537.479882,-1502.953649,484.854041,-9236.344306,11030.071799,16431.795529,-4121.505215,2343.669813,-19183.854065,16435.975306,596.813929,-1361.400051,0.012000,-0.016000,1.002000,192.000000,0.000000,0.000000,0.000000,0.000000,0.000000,0.000000,0.000000,0.000000,0.000000,1775738094.758012,0.000000
242.000000,16225.555983,19105.935884,-16224.416044,1003.503919,-15523.800614,-1494.057655,494.666457,-9226.733056,11081.324349,16438.881032,-4146.159189,2344.049793,-19215.727653,16435.014181,680.968247,-1210.950459,0.012000,-0.016000,1.002000,192.000000,0.000000,0.000000,0.000000,0.000000,0.000000,0.000000,0.000000,0.000000,0.000000,1775738094.758027,0.000000
244.000000,16214.402463,19090.691995,-16221.778538,1002.363980,-15514.502289,-1495.845794,489.212631,-9226.375428,11022.025171,16426.207593,-4123.986259,2340.093534,-19178.355536,16434.433035,551.126963,-1426.622442,0.010000,-0.018000,1.006000,192.000000,0.000000,40.000000,127.500000,56.000000,15.500000,56.000000,0.000000,0.000000,0.000000,1775738094.758040,0.000000
246.000000,16209.261562,19093.553018,-16247.974783,988.014160,-15532.070760,-1495.197594,487.536250,-9242.066353,11055.150456,16412.416567,-4155.368108,2327.084819,-19216.912295,16426.408759,676.162622,-1204.714323,0.010000,-0.018000,1.006000,192.000000,0.000000,0.000000,0.000000,0.000000,0.000000,0.000000,0.000000,0.000000,0.000000,1775738094.758052,0.000000
248.000000,16233.267335,19107.344044,-16208.278085,1009.002448,-15494.922160,-1485.049902,494.219422,-9217.188861,11060.514875,16433.114282,-4136.480884,2336.919586,-19186.580978,16438.568108,608.481539,-1320.898690,0.010000,-0.018000,1.006000,192.000000,0.000000,0.000000,0.000000,0.000000,0.000000,0.000000,0.000000,0.000000,0.000000,1775738094.758065,0.000000
250.000000,16210.826184,19094.894122,-16250.321716,985.622524,-15524.895850,-1489.386140,478.215573,-9246.827274,11021.667543,16421.379616,-4135.631518,2332.292775,-19181.596539,16438.501053,599.183214,-1354.940397,0.010000,-0.018000,1.006000,192.000000,0.000000,0.000000,0.000000,0.000000,0.000000,0.000000,0.000000,0.000000,0.000000,1775738094.758078,0.000000
252.000000,16235.323696,19114.206030,-16227.165309,1005.560280,-15508.221448,-1482.613561,489.391445,-9227.448312,11083.514820,16439.193957,-4152.775306,2337.053697,-19205.714071,16447.374695,687.807880,-1200.288677,0.010000,-0.018000,1.006000,192.000000,0.000000,0.000000,0.000000,0.000000,0.000000,0.000000,0.000000,0.000000,0.000000,1775738094.758092,0.000000
254.000000,16234.787254,19107.455803,-16220.213916,1009.941221,-15498.274922,-1480.356035,488.430320,-9221.167472,11040.353601,16443.910175,-4117.168977,2343.915682,-19159.513016,16454.504902,555.485553,-1418.084075,0.008000,-0.014000,1.006000,192.000000,0.000000,32.000000,127.500000,72.000000,15.500000,56.000000,0.000000,0.000000,0.000000,1775738094.758106,0.000000
0.000000,16218.202259,19102.672530,-16248.243004,993.982076,-15527.108673,-1485.541640,484.652875,-9241.418152,11072.830686,16431.840233,-4149.377841,2333.879749,-19200.237894,16443.932527,678.956590,-1207.016552,0.008000,-0.014000,1.006000,192.000000,0.000000,0.000000,0.000000,0.000000,0.000000,0.000000,0.000000,0.000000,0.000000,1775738094.758120,0.000000
2.000000,16234.474329,19109.579219,-16207.875753,1015.998544,-15505.539239,-1484.558163,494.912326,-9213.344361,11062.571235,16448.268765,-4134.245710,2341.546397,-19183.317624,16450.369829,611.946060,-1328.699449,0.008000,-0.014000,1.006000,192.000000,0.000000,0.000000,0.000000,0.000000,0.000000,0.000000,0.000000,0.000000,0.000000,1775738094.758133,0.000000
4.000000,16213.866021,19097.956311,-16247.483045,992.015122,-15540.162091,-1500.517309,482.037721,-9242.178111,11029.311839,16434.030704,-4130.088285,2336.204330,-19168.252548,16442.144387,588.409673,-1362.383528,0.008000,-0.014000,1.006000,192.000000,0.000000,0.000000,0.000000,0.000000,0.000000,0.000000,0.000000,0.000000,0.000000,1775738094.758145,0.000000
6.000000,16225.310114,19106.807602,-16226.338294,1008.421303,-15529.209736,-1495.443463,493.727683,-9226.755408,11081.190238,16443.306678,-4149.579006,2337.746601,-19216.912295,16446.748846,675.134441,-1212.872709,0.008000,-0.014000,1.006000,192.000000,0.000000,0.000000,0.000000,0.000000,0.000000,0.000000,0.000000,0.000000,0.000000,1775738094.758156,0.000000
8.000000,16217.956390,19099.587989,-16222.650256,1006.253184,-15522.481861,-1504.160643,489.726721,-9223.559108,11026.339057,16442.323201,-4119.717076,2341.188769,-19180.858932,16443.463140,541.493361,-1429.327003,0.012000,-0.014000,1.004000,192.000000,0.000000,48.000000,127.500000,72.000000,15.500000,48.000000,0.000000,0.000000,0.000000,1775738094.758169,0.000000
10.000000,16197.415137,19085.975776,-16251.238138,985.421358,-15539.782112,-1509.927393,484.205840,-9251.409382,11051.417715,16422.228983,-4152.909416,2325.363734,-19221.650865,16427.347532,673.748633,-1219.354715,0.012000,-0.014000,1.004000,192.000000,0.000000,0.000000,0.000000,0.000000,0.000000,0.000000,0.000000,0.000000,0.000000,1775738094.758181,0.000000
12.000000,16216.458823,19093.061279,-16212.502564,1005.493224,-15508.802594,-1499.064445,492.610096,-9225.883690,11048.534339,16426.967553,-4140.973585,2323.486188,-19200.059080,16427.883974,613.868310,-1331.225196,0.012000,-0.014000,1.004000,192.000000,0.000000,0.000000,0.000000,0.000000,0.000000,0.000000,0.000000,0.000000,0.000000,1775738094.758194,0.000000
14.000000,16189.413212,19075.962195,-16255.239100,980.883954,-15537.703399,-1500.919640,480.048416,-9250.537664,11003.808499,16407.901515,-4139.587777,2316.154816,-19197.555685,16423.972419,591.158937,-1359.097822,0.012000,-0.014000,1.004000,192.000000,0.000000,0.000000,0.000000,0.000000,0.000000,0.000000,0.000000,0.000000,0.000000,1775738094.758206,0.000000
16.000000,16209.798003,19095.251750,-16230.272201,1001.671076,-15522.146585,-1487.463890,494.130015,-9231.873957,11064.314671,16426.319352,-4156.284530,2324.179092,-19221.740272,16433.494262,670.641741,-1203.104997,0.012000,-0.014000,1.004000,192.000000,0.000000,0.000000,0.000000,0.000000,0.000000,0.000000,0.000000,0.000000,0.000000,1775738094.758218,0.000000
18.000000,16211.496736,19092.167210,-16222.471443,1003.369809,-15514.010550,-1497.075140,489.033817,-9227.828291,11015.096130,16428.509823,-4126.579061,2331.778685,-19178.914330,16439.261012,555.999643,-1424.431971,0.008000,-0.014000,1.006000,192.000000,0.000000,32.000000,127.500000,72.000000,15.500000,56.000000,0.000000,0.000000,0.000000,1775738094.758232,0.000000
20.000000,16204.657102,19094.558846,-16247.617155,994.518518,-15526.840452,-1495.644628,486.128090,-9244.569748,11053.965813,16424.911192,-4149.847227,2331.733982,-19213.648941,16436.087064,681.482337,-1211.956288,0.008000,-0.014000,1.006000,192.000000,0.000000,0.000000,0.000000,0.000000,0.000000,0.000000,0.000000,0.000000,0.000000,1775738094.758245,0.000000
22.000000,16228.305248,19105.399442,-16205.260599,1017.138483,-15493.245780,-1481.630085,494.241773,-9216.473605,11058.302052,16444.200748,-4133.508102,2340.182941,-19183.474086,16449.051076,621.043220,-1322.396257,0.008000,-0.014000,1.006000,192.000000,0.000000,0.000000,0.000000,0.000000,0.000000,0.000000,0.000000,0.000000,0.000000,1775738094.758257,0.000000
24.000000,16205.998207,19091.116678,-16245.314925,991.098701,-15522.839489,-1491.844832,481.769500,-9244.078010,11025.266174,16428.889803,-4130.200044,2333.589176,-19171.202978,16443.507843,595.606935,-1359.678967,0.008000,-0.014000,1.006000,192.000000,0.000000,0.000000,0.000000,0.000000,0.000000,0.000000,0.000000,0.000000,0.000000,1775738094.758270,0.000000
26.000000,16214.916553,19093.620073,-16227.366475,1000.374675,-15516.849222,-1492.180108,488.989113,-9234.198539,11079.178581,16433.091931,-4152.618844,2331.331650,-19202.338958,16442.837291,688.433729,-1206.770683,0.008000,-0.014000,1.006000,192.000000,0.000000,0.000000,0.000000,0.000000,0.000000,0.000000,0.000000,0.000000,0.000000,1775738094.758282,0.000000
28.000000,16218.246963,19091.966044,-16222.985533,1003.302753,-15514.278771,-1497.723341,486.508070,-9228.364733,11026.696685,16433.650724,-4123.248651,2332.940976,-19165.570338,16442.747884,552.356309,-1429.751686,0.010000,-0.008000,1.002000,192.000000,0.000000,40.000000,127.500000,96.000000,15.500000,40.000000,0.000000,0.000000,0.000000,1775738094.758295,0.000000
30.000000,16206.400538,19089.395593,-16255.932004,989.534079,-15545.660620,-1506.172300,482.372997,-9251.319975,11058.637328,16424.195936,-4153.803486,2323.776761,-19209.804441,16433.583669,670.105299,-1220.695820,0.010000,-0.008000,1.002000,192.000000,0.000000,0.000000,0.000000,0.000000,0.000000,0.000000,0.000000,0.000000,0.000000,1775738094.758307,0.000000
32.000000,16226.137129,19097.978663,-16216.950562,1009.740056,-15517.653885,-1499.019742,492.252468,-9223.246184,11060.201950,16437.696390,-4138.291375,2331.152836,-19192.683004,16440.713875,601.865423,-1332.342783,0.010000,-0.008000,1.002000,192.000000,0.000000,0.000000,0.000000,0.000000,0.000000,0.000000,0.000000,0.000000,0.000000,1775738094.758319,0.000000
34.000000,16203.718329,19085.886369,-16252.892167,984.549640,-15542.218452,-1508.429826,481.814203,-9247.833103,11022.271040,16424.888840,-4132.256404,2326.883653,-19188.413821,16435.930602,581.502984,-1372.642979,0.010000,-0.008000,1.002000,192.000000,0.000000,0.000000,0.000000,0.000000,0.000000,0.000000,0.000000,0.000000,0.000000,1775738094.758332,0.000000
36.000000,16209.954466,19091.653120,-16236.016600,994.630277,-15526.996914,-1496.426940,489.637314,-9235.830216,11072.406003,16431.124977,-4156.418640,2325.319031,-19223.260191,16435.774140,679.515383,-1210.279907,0.010000,-0.008000,1.002000,192.000000,0.000000,0.000000,0.000000,0.000000,0.000000,0.000000,0.000000,0.000000,0.000000,1775738094.758344,0.000000
38.000000,16212.770785,19091.004919,-16227.925268,995.904326,-15513.161184,-1489.654361,486.530422,-9227.627126,11015.386702,16428.599230,-4129.127160,2330.012897,-19182.535312,16440.602117,555.262036,-1427.740029,0.011000,-0.010000,1.003000,192.000000,0.000000,48.000000,127.500000,80.000000,15.500000,48.000000,0.000000,0.000000,0.000000,1775738094.758357,0.000000
40.000000,16200.946713,19087.495695,-16259.240062,985.264896,-15535.267059,-1492.805957,482.931791,-9248.727172,11044.935709,16420.977285,-4160.151382,2322.748580,-19224.310723,16435.841195,677.056691,-1217.119541,0.011000,-0.010000,1.003000,192.000000,0.000000,0.000000,0.000000,0.000000,0.000000,0.000000,0.000000,0.000000,0.000000,1775738094.758369,0.000000
42.000000,16220.996227,19094.871771,-16217.375245,1009.963573,-15505.271018,-1485.921620,493.258297,-9220.988658,11048.444933,16438.098721,-4142.672317,2334.617357,-19202.115441,16445.273631,613.533034,-1318.082371,0.011000,-0.010000,1.003000,192.000000,0.000000,0.000000,0.000000,0.000000,0.000000,0.000000,0.000000,0.000000,0.000000,1775738094.758382,0.000000
44.000000,16200.499678,19084.366451,-16254.523844,988.684712,-15532.249574,-1496.069312,480.070767,-9248.861283,11009.575249,16425.045303,-4137.732582,2330.661098,-19192.705356,16441.049152,584.408711,-1365.579827,0.011000,-0.010000,1.003000,192.000000,0.000000,0.000000,0.000000,0.000000,0.000000,0.000000,0.000000,0.000000,0.000000,1775738094.758408,0.000000
46.000000,16221.018579,19099.520934,-16232.596783,1003.995657,-15512.356521,-1484.401701,490.933715,-9233.662097,11077.166924,16443.329029,-4154.317576,2335.667889,-19211.458470,16450.638050,673.145136,-1204.736674,0.011000,-0.010000,1.003000,192.000000,0.000000,0.000000,0.000000,0.000000,0.000000,0.000000,0.000000,0.000000,0.000000,1775738094.758421,0.000000
48.000000,16218.559887,19090.915512,-16225.891259,1001.112282,-15507.707358,-1495.219945,486.150442,-9228.878823,11026.942554,16438.478701,-4124.969736,2335.064392,-19167.447885,16445.072466,556.871361,-1429.595224,0.009500,-0.013000,1.000500,192.000000,0.000000,32.000000,127.500000,64.000000,15.500000,24.000000,0.000000,0.000000,0.000000,1775738094.758433,0.000000
50.000000,16197.750413,19081.214855,-16258.658917,984.236715,-15536.317591,-1504.942954,480.808375,-9255.835027,11046.410924,16417.915096,-4158.251483,2321.943918,-19213.268961,16432.644896,679.537735,-1223.489788,0.009500,-0.013000,1.000500,192.000000,0.000000,0.000000,0.000000,0.000000,0.000000,0.000000,0.000000,0.000000,0.000000,1775738094.758447,0.000000
52.000000,16217.576410,19091.451954,-16218.828108,1005.515576,-15513.585867,-1500.137329,490.017294,-9231.426922,11046.567386,16435.237698,-4147.388535,2327.733019,-19202.160144,16440.736227,617.578699,-1327.984193,0.009500,-0.013000,1.000500,192.000000,0.000000,0.000000,0.000000,0.000000,0.000000,0.000000,0.000000,0.000000,0.000000,1775738094.758459,0.000000
54.000000,16201.550210,19082.466553,-16253.160388,986.762462,-15539.022152,-1504.339457,481.098948,-9254.002184,11010.066987,16420.194974,-4140.638309,2322.346249,-19189.933740,16434.768311,585.146318,-1374.587581,0.009500,-0.013000,1.000500,192.000000,0.000000,0.000000,0.000000,0.000000,0.000000,0.000000,0.000000,0.000000,0.000000,1775738094.758471,0.000000
56.000000,16221.242097,19099.923265,-16235.480158,1001.827538,-15523.800614,-1489.386140,488.989113,-9240.345268,11079.782078,16433.874242,-4158.072669,2328.403572,-19213.470127,16441.831463,681.281171,-1205.317820,0.009500,-0.013000,1.000500,192.000000,0.000000,0.000000,0.000000,0.000000,0.000000,0.000000,0.000000,0.000000,0.000000,1775738094.758483,0.000000
58.000000,16212.949599,19088.590931,-16226.785329,1004.219175,-15514.859917,-1490.056692,488.519727,-9232.924489,11018.873575,16435.707085,-4131.407038,2333.477418,-19176.656804,16444.245451,553.630358,-1424.789599,0.008750,-0.013500,1.000250,192.000000,0.000000,32.000000,127.500000,72.000000,15.500000,32.000000,0.000000,0.000000,0.000000,1775738095.238385,0.000000
60.000000,16210.133280,19094.335329,-16252.534539,991.076349,-15529.410902,-1492.336570,486.597477,-9245.866149,11045.963889,16429.426244,-4160.106678,2327.218929,-19211.749042,16440.535061,679.068348,-1214.124407,0.008750,-0.013500,1.000250,192.000000,0.000000,0.000000,0.000000,0.000000,0.000000,0.000000,0.000000,0.000000,0.000000,1775738095.238464,0.000000
62.000000,16231.166271,19102.404309,-16209.485079,1011.505844,-15495.860934,-1483.150003,495.784044,-9215.668942,11058.346755,16447.464102,-4137.911396,2337.634842,-19188.525580,16450.615698,625.379458,-1316.964783,0.008750,-0.013500,1.000250,192.000000,0.000000,0.000000,0.000000,0.000000,0.000000,0.000000,0.000000,0.000000,0.000000,1775738095.238507,0.000000
64.000000,16211.407329,19090.312015,-16247.505396,989.802300,-15521.699550,-1487.598000,483.200012,-9244.390934,11016.437234,16430.119149,-4132.725791,2331.644575,-19179.495475,16445.340686,597.462129,-1366.473897,0.008750,-0.013500,1.000250,192.000000,0.000000,0.000000,0.000000,0.000000,0.000000,0.000000,0.000000,0.000000,0.000000,1775738095.238550,0.000000
66.000000,16232.015637,19108.640445,-16227.925268,1009.136559,-15509.897829,-1476.422128,493.548869,-9230.756370,11079.536209,16447.955841,-4153.244692,2334.751467,-19209.469165,16455.600137,691.786491,-1199.528718,0.008750,-0.013500,1.000250,192.000000,0.000000,0.000000,0.000000,0.000000,0.000000,0.000000,0.000000,0.000000,0.000000,1775738095.238593,0.000000
68.000000,16225.444225,19098.828029,-16221.733835,1011.930527,-15508.154393,-1481.786547,490.039645,-9228.364733,11026.406112,16450.660402,-4121.862843,2340.004127,-19171.337089,16463.110323,560.939379,-1416.340639,0.007375,-0.014750,1.002125,192.000000,0.000000,24.000000,127.500000,64.000000,15.500000,48.000000,0.000000,0.000000,0.000000,1775738095.238636,0.000000
70.000000,16215.430643,19099.297416,-16253.272146,997.491300,-15534.149472,-1485.541640,486.955105,-9245.664983,11051.529473,16437.562279,-4153.647024,2331.219891,-19215.191211,16450.995678,677.347264,-1214.973773,0.007375,-0.014750,1.002125,192.000000,0.000000,0.000000,0.000000,0.000000,0.000000,0.000000,0.000000,0.000000,0.000000,1775738095.238678,0.000000
72.000000,16231.568603,19103.946579,-16212.971951,1018.881919,-15506.165088,-1477.137384,499.226212,-9211.913849,11058.011479,16456.069524,-4136.302070,2345.592063,-19198.315644,16459.288175,613.354220,-1317.702391,0.007375,-0.014750,1.002125,192.000000,0.000000,0.000000,0.000000,0.000000,0.000000,0.000000,0.000000,0.000000,0.000000,1775738095.238720,0.000000
74.000000,16207.875753,19086.869846,-16250.791103,992.260992,-15535.870556,-1499.824405,486.239849,-9240.904062,11015.185537,16432.287268,-4131.809370,2336.360793,-19190.626644,16448.447579,580.206583,-1374.341711,0.007375,-0.014750,1.002125,192.000000,0.000000,0.000000,0.000000,0.000000,0.000000,0.000000,0.000000,0.000000,0.000000,1775738095.238763,0.000000
76.000000,16222.672608,19096.861076,-16235.927193,1003.749788,-15524.359408,-1499.377370,493.303000,-9231.404571,11073.478886,16437.517576,-4153.714079,2334.036211,-19224.176612,16446.391218,679.001293,-1210.905756,0.007375,-0.014750,1.002125,192.000000,0.000000,0.000000,0.000000,0.000000,0.000000,0.000000,0.000000,0.000000,0.000000,1775738095.238806,0.000000
78.000000,16223.566678,19090.423774,-16223.499623,1005.180300,-15519.062045,-1500.606716,490.106701,-9226.666001,11020.035865,16437.025838,-4124.992087,2334.438543,-19183.205865,16447.464102,545.874303,-1429.014078,0.005687,-0.014375,1.003062,192.000000,0.000000,16.000000,127.500000,72.000000,15.500000,48.000000,0.000000,0.000000,0.000000,1775738095.238849,0.000000
80.000000,16221.219745,19094.335329,-16247.706562,992.663323,-15532.048408,-1491.911887,488.072692,-9242.379277,11056.469209,16429.135672,-4149.064916,2328.448275,-19211.592580,16443.709009,675.514421,-1226.082590,0.005687,-0.014375,1.003062,192.000000,0.000000,0.000000,0.000000,0.000000,0.000000,0.000000,0.000000,0.000000,0.000000,1775738095.238891,0.000000
82.000000,16230.830995,19094.715309,-16212.033178,1013.048114,-15503.326416,-1485.854564,497.192204,-9219.513442,11069.992014,16448.648745,-4130.602375,2340.585272,-19184.994004,16458.371753,618.361010,-1314.863719,0.005687,-0.014375,1.003062,192.000000,0.000000,0.000000,0.000000,0.000000,0.000000,0.000000,0.000000,0.000000,0.000000,1775738095.238954,0.000000
84.000000,16210.960294,19081.863055,-16251.506359,993.467986,-15524.828795,-1487.642704,485.345779,-9242.848664,11018.493595,16425.402930,-4133.865730,2330.906967,-19184.166990,16446.458274,597.059798,-1368.597313,0.005687,-0.014375,1.003062,192.000000,0.000000,0.000000,0.000000,0.000000,0.000000,0.000000,0.000000,0.000000,0.000000,1775738095.239010,0.000000
86.000000,16226.830033,19094.782364,-16234.295515,1005.068541,-15509.026111,-1478.277323,491.559564,-9229.862300,11078.172753,16437.361114,-4156.485695,2331.443409,-19214.185383,16452.537948,696.145081,-1194.544279,0.005687,-0.014375,1.003062,192.000000,0.000000,0.000000,0.000000,0.000000,0.000000,0.000000,0.000000,0.000000,0.000000,1775738095.239040,0.000000
88.000000,16226.405350,19090.580236,-16226.651219,1004.710913,-15500.174820,-1481.607733,486.128090,-9225.257841,11024.059179,16441.518538,-4124.299183,2336.718421,-19173.102876,16457.432980,568.203696,-1416.921785,0.004844,-0.015187,1.005531,192.000000,0.000000,16.000000,127.500000,64.000000,15.500000,64.000000,0.000000,0.000000,0.000000,1775738095.239054,0.000000
90.000000,16217.017617,19091.787230,-16255.417914,991.635143,-15525.164071,-1482.479451,483.557640,-9244.972079,11049.718982,16432.890765,-4153.557617,2329.163531,-19210.497345,16448.246413,680.163584,-1218.371239,0.004844,-0.015187,1.005531,192.000000,0.000000,0.000000,0.000000,0.000000,0.000000,0.000000,0.000000,0.000000,0.000000,1775738095.239067,0.000000
92.000000,16233.513204,19099.208009,-16216.235306,1014.120998,-15500.398338,-1483.753500,494.420587,-9220.116940,11057.005651,16446.122998,-4139.028983,2337.545435,-19183.295272,16457.500035,620.998516,-1314.349629,0.004844,-0.015187,1.005531,192.000000,0.000000,0.000000,0.000000,0.000000,0.000000,0.000000,0.000000,0.000000,0.000000,1775738095.239080,0.000000
94.000000,16200.097346,19076.766858,-16256.624908,990.495204,-15534.372989,-1499.265611,479.981360,-9252.079934,11007.585944,16426.319352,-4138.559596,2327.822426,-19195.231103,16448.000544,586.420368,-1371.905371,0.004844,-0.015187,1.005531,192.000000,0.000000,0.000000,0.000000,0.000000,0.000000,0.000000,0.000000,0.000000,0.000000,1775738095.239092,0.000000
96.000000,16211.519088,19084.925244,-16241.515129,1000.799358,-15524.895850,-1491.733073,487.960933,-9241.820483,11054.792828,16427.146366,-4168.890914,2322.055676,-19233.676104,16446.167701,689.081930,-1202.009762,0.004844,-0.015187,1.005531,192.000000,0.000000,0.000000,0.000000,0.000000,0.000000,0.000000,0.000000,0.000000,0.000000,1775738095.239105,0.000000
98.000000,16215.520050,19082.243035,-16230.138091,1003.280402,-15515.888097,-1491.822480,487.156270,-9229.549376,11010.849298,16433.114282,-4137.464361,2327.576557,-19188.726746,16447.508806,555.016167,-1427.851788,0.004422,-0.016594,1.006766,192.000000,0.000000,16.000000,127.500000,56.000000,15.500000,64.000000,0.000000,0.000000,0.000000,1775738095.239117,0.000000
100.000000,16206.378187,19083.673547,-16262.637527,987.388311,-15541.838472,-1499.109149,482.104776,-9248.123675,11043.125217,16420.731416,-4162.543018,2322.390952,-19222.790804,16438.299887,667.288979,-1229.815332,0.004422,-0.016594,1.006766,192.000000,0.000000,0.000000,0.000000,0.000000,0.000000,0.000000,0.000000,0.000000,0.000000,1775738095.239130,0.000000
102.000000,16228.014675,19096.861076,-16221.532669,1008.510710,-15509.137870,-1490.794300,491.179584,-9220.072236,11047.595566,16437.227003,-4149.422544,2332.806865,-19206.071699,16446.301811,613.734199,-1321.837464,0.004422,-0.016594,1.006766,192.000000,0.000000,0.000000,0.000000,0.000000,0.000000,0.000000,0.000000,0.000000,0.000000,1775738095.239142,0.000000
104.000000,16206.601704,19082.108925,-16256.759019,987.544774,-15528.673295,-1499.131501,479.981360,-9248.034268,11011.385740,16427.056960,-4140.168922,2333.477418,-19188.302063,16443.932527,581.055949,-1381.896601,0.004422,-0.016594,1.006766,192.000000,0.000000,0.000000,0.000000,0.000000,0.000000,0.000000,0.000000,0.000000,0.000000,1775738095.239154,0.000000
106.000000,16217.263486,19089.820276,-16239.749341,1001.581669,-15517.519774,-1484.580515,487.491547,-9239.607661,11067.130991,16431.259087,-4166.566332,2326.682487,-19220.242705,16443.776064,685.125671,-1205.340171,0.004422,-0.016594,1.006766,192.000000,0.000000,0.000000,0.000000,0.000000,0.000000,0.000000,0.000000,0.000000,0.000000,1775738095.239167,0.000000
108.000000,16214.290704,19083.114753,-16227.835861,1000.575841,-15506.187440,-1487.866221,483.244715,-9234.690277,11020.862880,16438.255183,-4134.290413,2331.733982,-19176.679155,16451.822692,557.541914,-1422.822645,0.004422,-0.016594,1.006766,192.000000,0.000000,0.000000,0.000000,0.000000,0.000000,0.000000,0.000000,0.000000,0.000000,1775738095.239179,0.000000
110.000000,16209.552134,19085.707555,-16256.200225,986.158965,-15522.280696,-1480.646608,480.875430,-9251.007050,11044.622784,16426.788739,-4164.733489,2319.753447,-19214.543011,16444.446617,682.622276,-1218.550052,0.004422,-0.016594,1.006766,192.000000,0.000000,0.000000,127.500000,64.000000,15.500000,56.000000,0.000000,0.000000,0.000000,1775738095.239191,0.000000
112.000000,16226.628867,19090.580236,-16217.464652,1005.403817,-15491.144716,-1474.298713,489.570259,-9225.414303,11057.922072,16436.399989,-4146.740335,2327.911833,-19193.174743,16452.962631,627.927557,-1302.905536,0.004422,-0.016594,1.006766,192.000000,0.000000,0.000000,0.000000,0.000000,0.000000,0.000000,0.000000,0.000000,0.000000,1775738095.239203,0.000000
114.000000,16209.328617,19079.538474,-16252.825111,985.957800,-15516.201021,-1488.380312,477.768538,-9250.515312,11015.118482,16420.284381,-4141.040640,2324.626127,-19181.641243,16446.234756,597.618592,-1369.580790,0.004422,-0.016594,1.006766,192.000000,0.000000,0.000000,0.000000,0.000000,0.000000,0.000000,0.000000,0.000000,0.000000,1775738095.239217,0.000000
116.000000,16218.291666,19089.507352,-16239.704637,999.927640,-15515.195193,-1487.486242,486.463366,-9242.312222,11067.890950,16431.750826,-4168.555637,2326.123694,-19221.270886,16445.407742,699.788415,-1198.545241,0.004422,-0.016594,1.006766,192.000000,0.000000,0.000000,0.000000,0.000000,0.000000,0.000000,0.000000,0.000000,0.000000,1775738095.239230,0.000000
118.000000,16217.397597,19080.298433,-16230.138091,1002.878070,-15510.702492,-1495.219945,485.301076,-9235.964326,11014.917316,16434.388332,-4138.269024,2331.219891,-19183.339975,16451.152140,562.034614,-1426.801256,0.004422,-0.016594,1.006766,192.000000,0.000000,0.000000,0.000000,0.000000,0.000000,0.000000,0.000000,0.000000,0.000000,1775738095.239242,0.000000
120.000000,16208.300437,19082.734773,-16259.888263,988.371788,-15534.618859,-1491.129576,482.730625,-9252.392859,11042.253499,16413.355340,-4163.615902,2321.072199,-19220.354464,16440.780931,670.217057,-1227.356640,0.004422,-0.016594,1.006766,192.000000,0.000000,0.000000,127.500000,80.000000,15.500000,64.000000,0.000000,0.000000,0.000000,1775738095.239254,0.000000
122.000000,16225.913611,19090.133201,-16221.912649,1006.789626,-15511.328341,-1491.688370,491.268991,-9226.397780,11050.501293,16433.918945,-4150.115448,2331.778685,-19205.959941,16449.453407,620.484426,-1315.198995,0.004422,-0.016594,1.006766,192.000000,0.000000,0.000000,0.000000,0.000000,0.000000,0.000000,0.000000,0.000000,0.000000,1775738095.239267,0.000000
124.000000,16211.362626,19081.036041,-16253.965050,984.951971,-15532.718960,-1495.331704,481.613038,-9248.280138,11005.730749,16420.418491,-4143.231111,2326.838950,-19196.706318,16441.049152,583.134661,-1382.187174,0.004422,-0.016594,1.006766,192.000000,0.000000,0.000000,0.000000,0.000000,0.000000,0.000000,0.000000,0.000000,0.000000,1775738095.239280,0.000000
126.000000,16228.707579,19098.403346,-16233.490853,999.234736,-15518.279733,-1485.228716,492.408930,-9233.259765,11074.015328,16430.320314,-4159.838457,2331.465761,-19218.432214,16444.938355,688.210212,-1203.529680,0.004422,-0.016594,1.006766,192.000000,0.000000,0.000000,0.000000,0.000000,0.000000,0.000000,0.000000,0.000000,0.000000,1775738095.239292,0.000000
128.000000,16223.633733,19088.680338,-16224.214879,1003.660381,-15514.524640,-1493.521213,489.436148,-9227.604774,11026.741389,16439.797454,-4128.568367,2339.780610,-19177.930853,16450.883919,554.703242,-1426.287165,0.004422,-0.016594,1.006766,192.000000,0.000000,0.000000,0.000000,0.000000,0.000000,0.000000,0.000000,0.000000,0.000000,1775738095.239305,0.000000
130.000000,16206.579352,19082.600663,-16259.195359,984.527288,-15543.626612,-1501.769006,481.344817,-9255.857379,11040.487711,16424.262991,-4161.336024,2329.096476,-19223.997798,16438.009314,669.635912,-1234.218625,0.006000,-0.016000,1.004000,192.000000,0.000000,24.000000,127.500000,64.000000,15.500000,48.000000,0.000000,0.000000,0.000000,1775738095.239317,0.000000
132.000000,16224.952486,19088.456820,-16217.844631,1010.924698,-15507.997931,-1488.156794,493.347704,-9226.598945,11051.395363,16438.389294,-4151.344794,2331.555168,-19203.836525,16444.491320,626.139417,-1313.902594,0.006000,-0.016000,1.004000,192.000000,0.000000,0.000000,0.000000,0.000000,0.000000,0.000000,0.000000,0.000000,0.000000,1775738095.239329,0.000000
134.000000,16207.160498,19077.884445,-16254.814417,987.209497,-15527.376893,-1494.482338,477.969703,-9252.862245,11008.927048,16423.883012,-4142.515855,2327.911833,-19188.592635,16441.697352,589.259039,-1382.231877,0.006000,-0.016000,1.004000,192.000000,0.000000,0.000000,0.000000,0.000000,0.000000,0.000000,0.000000,0.000000,0.000000,1775738095.239341,0.000000
136.000000,16224.237230,19093.508314,-16239.570527,999.502957,-15509.540201,-1479.886649,485.189317,-9244.949728,11072.383651,16435.081236,-4169.181486,2327.017763,-19220.265057,16443.083160,700.526023,-1197.137081,0.006000,-0.016000,1.004000,192.000000,0.000000,0.000000,0.000000,0.000000,0.000000,0.000000,0.000000,0.000000,0.000000,1775738095.239354,0.000000
138.000000,16227.969972,19088.747393,-16228.238193,1000.508785,-15498.900771,-1481.719492,481.903610,-9237.886576,11028.842453,16440.311544,-4137.464361,2330.214063,-19175.226292,16451.554471,570.215353,-1411.289145,0.006000,-0.016000,1.004000,192.000000,0.000000,0.000000,0.000000,0.000000,0.000000,0.000000,0.000000,0.000000,0.000000,1775738095.239366,0.000000
140.000000,16216.123547,19087.830971,-16263.330431,984.951971,-15528.002742,-1485.631047,478.215573,-9258.159609,11051.350659,16426.900497,-4162.855943,2321.586290,-19214.922990,16446.033591,679.962418,-1218.326535,0.004000,-0.016000,1.008000,192.000000,0.000000,16.000000,127.500000,64.000000,15.500000,64.000000,0.000000,0.000000,0.000000,1775738095.239378,0.000000
142.000000,16232.730893,19094.089460,-16225.801852,1007.326067,-15506.299198,-1485.876916,489.704369,-9228.700009,11057.966776,16442.502015,-4150.942463,2328.627089,-19205.535258,16453.879053,626.452342,-1302.190280,0.004000,-0.016000,1.008000,192.000000,0.000000,0.000000,0.000000,0.000000,0.000000,0.000000,0.000000,0.000000,0.000000,1775738095.239390,0.000000
144.000000,16216.078844,19081.728945,-16263.285728,983.744977,-15536.451702,-1496.628105,477.522669,-9251.319975,11010.201098,16426.788739,-4142.225282,2325.050810,-19199.902618,16445.027762,576.339731,-1383.885906,0.004000,-0.016000,1.008000,192.000000,0.000000,0.000000,0.000000,0.000000,0.000000,0.000000,0.000000,0.000000,0.000000,1775738095.239403,0.000000
146.000000,16226.964143,19092.055451,-16248.377114,994.764387,-15528.092149,-1487.016855,486.172794,-9239.160626,11069.187351,16435.796492,-4165.113469,2326.458970,-19234.413711,16446.525329,679.738901,-1201.316857,0.004000,-0.016000,1.008000,192.000000,0.000000,0.000000,0.000000,0.000000,0.000000,0.000000,0.000000,0.000000,0.000000,1775738095.239416,0.000000
148.000000,16242.498606,19105.667663,-16227.411178,1002.833367,-15512.557687,-1489.408492,488.922058,-9218.552317,11028.060142,16442.323201,-4127.786056,2338.931243,-19187.452696,16451.509768,546.567207,-1426.957718,0.004000,-0.016000,1.008000,192.000000,0.000000,0.000000,0.000000,0.000000,0.000000,0.000000,0.000000,0.000000,0.000000,1775738095.239429,0.000000
150.000000,16235.748379,19104.572428,-16257.898957,986.449538,-15535.915260,-1492.962419,484.764634,-9237.059562,11056.737430,16439.395122,-4146.449762,2336.114923,-19218.856897,16449.989849,658.504743,-1241.080611,0.004000,-0.018000,1.004000,192.000000,0.000000,16.000000,127.500000,56.000000,15.500000,48.000000,0.000000,0.000000,0.000000,1775738095.239441,0.000000
152.000000,16256.468446,19111.255599,-16214.648332,1007.303716,-15504.578114,-1485.765157,495.761692,-9208.404625,11076.451668,16457.880015,-4128.948346,2345.525008,-19199.299121,16460.025783,619.366839,-1318.954089,0.004000,-0.018000,1.004000,192.000000,0.000000,0.000000,0.000000,0.000000,0.000000,0.000000,0.000000,0.000000,0.000000,1775738095.239454,0.000000
154.000000,16226.025370,19089.417945,-16251.014620,983.543811,-15529.902641,-1499.109149,483.557640,-9237.417190,11026.361409,16434.164814,-4122.801617,2335.265557,-19188.972615,16449.006373,577.859649,-1399.822700,0.004000,-0.018000,1.004000,192.000000,0.000000,0.000000,0.000000,0.000000,0.000000,0.000000,0.000000,0.000000,0.000000,1775738095.239466,0.000000
156.000000,16227.701751,19091.697823,-16243.504434,991.746901,-15528.315667,-1493.118881,487.804471,-9237.283079,11075.602302,16435.483567,-4158.922036,2327.464798,-19229.138700,16446.793550,687.159680,-1205.071951,0.004000,-0.018000,1.004000,192.000000,0.000000,0.000000,0.000000,0.000000,0.000000,0.000000,0.000000,0.000000,0.000000,1775738095.239478,0.000000
158.000000,16218.537535,19079.158494,-16235.256640,997.379541,-15519.687893,-1498.930335,483.088253,-9236.277251,11017.085435,16431.124977,-4137.866692,2326.526025,-19190.827810,16444.983059,561.207600,-1424.521378,0.004000,-0.018000,1.004000,192.000000,0.000000,0.000000,0.000000,0.000000,0.000000,0.000000,0.000000,0.000000,0.000000,1775738095.239491,0.000000
160.000000,16204.880620,19075.761029,-16270.840618,981.554506,-15546.688801,-1496.292829,476.539192,-9260.059507,11030.831758,16412.461270,-4169.360300,2314.232566,-19234.726636,16436.154120,667.937180,-1227.714268,0.004000,-0.016000,1.004000,192.000000,0.000000,16.000000,127.500000,64.000000,15.500000,48.000000,0.000000,0.000000,0.000000,1775738095.239504,0.000000
162.000000,16225.958315,19084.657024,-16230.316905,1003.123939,-15515.865745,-1488.872050,486.061035,-9232.455102,11046.701496,16429.962686,-4153.848190,2324.380258,-19221.002665,16446.212405,624.552444,-1294.434225,0.004000,-0.016000,1.004000,192.000000,0.000000,0.000000,0.000000,0.000000,0.000000,0.000000,0.000000,0.000000,0.000000,1775738095.239516,0.000000
164.000000,16202.936018,19067.088552,-16267.331394,975.899515,-15541.369085,-1503.311277,472.001788,-9259.724231,10995.739519,16409.488488,-4148.640233,2312.287964,-19212.799574,16435.729436,581.055949,-1376.196906,0.004000,-0.016000,1.004000,192.000000,0.000000,0.000000,0.000000,0.000000,0.000000,0.000000,0.000000,0.000000,0.000000,1775738095.239528,0.000000
166.000000,16217.509355,19082.310090,-16249.584109,990.048169,-15525.119367,-1489.162623,485.077558,-9246.961385,11054.166979,16415.255238,-4173.405966,2312.802054,-19244.896680,16437.651686,688.947819,-1190.319799,0.004000,-0.016000,1.004000,192.000000,0.000000,0.000000,0.000000,0.000000,0.000000,0.000000,0.000000,0.000000,0.000000,1775738095.239540,0.000000
168.000000,16222.158518,19084.657024,-16233.893184,996.954858,-15513.384701,-1492.224812,485.390483,-9233.818559,11008.748234,16423.301866,-4140.951233,2325.274327,-19198.337996,16448.559338,549.897617,-1416.117122,0.004000,-0.016000,1.004000,192.000000,0.000000,0.000000,0.000000,0.000000,0.000000,0.000000,0.000000,0.000000,0.000000,1775738095.239552,0.000000
170.000000,16215.475347,19086.668681,-16265.856179,983.499108,-15539.200966,-1495.197594,481.814203,-9254.002184,11030.809406,16414.092948,-4165.739318,2320.066371,-19233.519642,16440.043323,668.630084,-1238.644271,0.004000,-0.014000,1.006000,192.000000,0.000000,16.000000,127.500000,72.000000,15.500000,56.000000,0.000000,0.000000,0.000000,1775738095.239565,0.000000
172.000000,16236.307172,19096.034061,-16223.857251,1007.504881,-15513.474108,-1494.884669,492.744207,-9223.670867,11047.260290,16435.997657,-4151.143628,2330.325822,-19218.231048,16450.950974,627.346412,-1307.867623,0.004000,-0.014000,1.006000,192.000000,0.000000,0.000000,0.000000,0.000000,0.000000,0.000000,0.000000,0.000000,0.000000,1775738095.239577,0.000000
174.000000,16216.548230,19081.751297,-16254.948527,987.500070,-15539.983277,-1504.294754,483.132956,-9242.401629,11007.049502,16417.870393,-4135.519759,2327.353040,-19202.406013,16444.066637,576.675007,-1394.234764,0.004000,-0.014000,1.006000,192.000000,0.000000,0.000000,0.000000,0.000000,0.000000,0.000000,0.000000,0.000000,0.000000,1775738095.239590,0.000000
176.000000,16223.432568,19090.602588,-16242.252736,997.290134,-15534.596507,-1501.366675,491.045474,-9235.338478,11068.226226,16425.760558,-4159.100850,2325.654307,-19237.162976,16445.072466,684.812747,-1203.440273,0.004000,-0.014000,1.006000,192.000000,0.000000,0.000000,0.000000,0.000000,0.000000,0.000000,0.000000,0.000000,0.000000,1775738095.239603,0.000000
178.000000,16222.940829,19083.070050,-16229.109911,1001.827538,-15525.745216,-1507.736922,488.810299,-9227.716533,11015.789034,16427.794567,-4131.071762,2330.974022,-19197.421574,16448.358172,554.323262,-1430.533997,0.004000,-0.014000,1.006000,192.000000,0.000000,0.000000,0.000000,0.000000,0.000000,0.000000,0.000000,0.000000,0.000000,1775738095.718624,0.000000
180.000000,16205.953503,19074.464628,-16264.827998,981.353340,-15556.054182,-1512.341382,481.166003,-9256.438524,11031.032924,16412.662436,-4161.537190,2318.278231,-19236.939458,16437.986963,658.974130,-1247.629672,0.004000,-0.014000,1.006000,192.000000,0.000000,0.000000,127.500000,72.000000,15.500000,64.000000,0.000000,0.000000,0.000000,1775738095.718687,0.000000
182.000000,16229.847518,19088.255654,-16224.192527,1006.320239,-15527.667466,-1504.607678,490.643143,-9227.582422,11040.554767,16422.944239,-4154.630501,2322.480359,-19226.300028,16441.563242,622.451380,-1313.299097,0.004000,-0.014000,1.006000,192.000000,0.000000,0.000000,0.000000,0.000000,0.000000,0.000000,0.000000,0.000000,0.000000,1775738095.718738,0.000000
184.000000,16207.026387,19075.649270,-16259.910614,985.957800,-15552.410847,-1517.571690,477.410910,-9249.889463,10995.493650,16411.902477,-4143.141704,2322.815636,-19209.670330,16437.875204,576.496193,-1397.252249,0.004000,-0.014000,1.006000,192.000000,0.000000,0.000000,0.000000,0.000000,0.000000,0.000000,0.000000,0.000000,0.000000,1775738095.718777,0.000000
186.000000,16214.782442,19081.728945,-16249.025315,995.747864,-15540.854995,-1504.764140,485.032855,-9242.423981,11051.641232,16417.713930,-4170.701405,2321.653345,-19248.584717,16436.824672,688.947819,-1200.489843,0.004000,-0.014000,1.006000,192.000000,0.000000,0.000000,0.000000,0.000000,0.000000,0.000000,0.000000,0.000000,0.000000,1775738095.718817,0.000000
188.000000,16213.329579,19074.352869,-16232.932059,996.910154,-15528.069798,-1506.485225,482.998846,-9234.578518,11006.110729,16414.383520,-4142.605262,2322.413304,-19204.864705,16438.433997,557.653672,-1419.849863,0.004000,-0.014000,1.006000,192.000000,0.000000,0.000000,0.000000,0.000000,0.000000,0.000000,0.000000,0.000000,0.000000,1775738095.718853,0.000000
190.000000,16199.158573,19071.402439,-16270.035955,978.112337,-15552.477902,-1505.904079,476.785061,-9260.148914,11026.339057,16400.704253,-4170.768460,2310.008086,-19235.665409,16425.715855,665.254970,-1235.447971,0.003000,-0.011000,1.006000,192.000000,0.000000,8.000000,127.500000,96.000000,15.500000,56.000000,0.000000,0.000000,0.000000,1775738095.718882,0.000000
192.000000,16215.810623,19081.907759,-16233.200280,998.161852,-15522.861841,-1496.158719,484.608172,-9236.657230,11040.577118,16420.105567,-4162.922998,2319.060542,-19225.093034,16437.942259,621.669069,-1293.450748,0.003000,-0.011000,1.006000,192.000000,0.000000,0.000000,0.000000,0.000000,0.000000,0.000000,0.000000,0.000000,0.000000,1775738095.718894,0.000000
194.000000,16196.051681,19070.441314,-16265.610309,974.670169,-15545.124179,-1506.932259,472.158250,-9261.378260,10997.192382,16404.548753,-4153.155285,2312.265612,-19207.502211,16433.158986,572.562286,-1379.929647,0.003000,-0.011000,1.006000,192.000000,0.000000,0.000000,0.000000,0.000000,0.000000,0.000000,0.000000,0.000000,0.000000,1775738095.718906,0.000000
196.000000,16212.904896,19086.400460,-16252.355725,985.130785,-15532.584850,-1499.600887,480.070767,-9250.560016,11061.096020,16412.394215,-4176.959893,2311.393894,-19239.666371,16435.327105,687.517308,-1189.828061,0.003000,-0.011000,1.006000,192.000000,0.000000,0.000000,0.000000,0.000000,0.000000,0.000000,0.000000,0.000000,0.000000,1775738095.718918,0.000000
198.000000,16217.978742,19085.439335,-16232.149748,990.741073,-15519.039693,-1502.327800,481.903610,-9236.187844,11015.520813,16421.178451,-4144.125181,2319.194653,-19195.342862,16442.054980,555.798478,-1417.569985,0.003000,-0.011000,1.006000,192.000000,0.000000,0.000000,0.000000,0.000000,0.000000,0.000000,0.000000,0.000000,0.000000,1775738095.718930,0.000000
200.000000,16205.126489,19082.108925,-16267.979594,973.105547,-15551.159150,-1510.396780,477.165041,-9259.120734,11034.966831,16408.348549,-4167.058071,2312.019743,-19229.742197,16432.063750,659.734089,-1247.719079,0.004500,-0.013500,1.006000,192.000000,0.000000,24.000000,127.500000,64.000000,15.500000,56.000000,0.000000,0.000000,0.000000,1775738095.718942,0.000000
202.000000,16220.660951,19088.792096,-16229.825166,998.027742,-15524.895850,-1506.619335,488.855003,-9231.896309,11047.170883,16423.972419,-4156.776268,2320.982792,-19221.695569,16439.193957,621.847882,-1313.433208,0.004500,-0.013500,1.006000,192.000000,0.000000,0.000000,0.000000,0.000000,0.000000,0.000000,0.000000,0.000000,0.000000,1775738095.718954,0.000000
204.000000,16198.108041,19075.805733,-16264.515074,976.726529,-15550.488597,-1518.733981,474.996921,-9257.287891,10994.957208,16405.353416,-4148.014384,2315.528967,-19209.692682,16434.008352,565.119155,-1407.198776,0.004500,-0.013500,1.006000,192.000000,0.000000,0.000000,0.000000,0.000000,0.000000,0.000000,0.000000,0.000000,0.000000,1775738095.718966,0.000000
206.000000,16212.077881,19089.485000,-16250.522882,990.606963,-15539.983277,-1505.702913,482.730625,-9246.402591,11056.513912,16416.998675,-4173.025986,2315.953650,-19245.187252,16439.417474,679.984770,-1208.938802,0.004500,-0.013500,1.006000,192.000000,0.000000,0.000000,0.000000,0.000000,0.000000,0.000000,0.000000,0.000000,0.000000,1775738095.718978,0.000000
208.000000,16217.174079,19086.042832,-16233.960239,998.318314,-15527.555707,-1503.177166,482.015369,-9233.237414,11018.448891,16426.386407,-4135.966794,2325.989583,-19198.740327,16451.286251,551.573998,-1427.225939,0.004500,-0.013500,1.006000,192.000000,0.000000,0.000000,0.000000,0.000000,0.000000,0.000000,0.000000,0.000000,0.000000,1775738095.718991,0.000000
210.000000,16198.108041,19077.683279,-16268.426629,982.403872,-15551.986164,-1504.227698,477.746186,-9255.969138,11030.317668,16409.890820,-4162.833591,2313.785531,-19235.933630,16442.054980,658.817668,-1247.607320,0.007250,-0.014750,1.005000,192.000000,0.000000,40.000000,127.500000,64.000000,15.500000,48.000000,0.000000,0.000000,0.000000,1775738095.719011,0.000000
212.000000,16221.532669,19092.703652,-16225.958315,1007.884861,-15518.458547,-1493.342399,491.000770,-9223.648515,11048.959023,16425.268820,-4151.367146,2322.055676,-19220.533278,16450.839216,624.105409,-1302.659667,0.007250,-0.014750,1.005000,192.000000,0.000000,0.000000,0.000000,0.000000,0.000000,0.000000,0.000000,0.000000,0.000000,1775738095.719023,0.000000
214.000000,16199.382090,19077.236244,-16262.972803,984.661398,-15540.296202,-1503.847719,477.075634,-9248.637765,11008.412958,16417.669227,-4137.307899,2323.575595,-19199.522638,16451.286251,562.973388,-1393.631267,0.007250,-0.014750,1.005000,192.000000,0.000000,0.000000,0.000000,0.000000,0.000000,0.000000,0.000000,0.000000,0.000000,1775738095.719035,0.000000
216.000000,16206.825221,19082.824180,-16257.027239,988.125919,-15539.648001,-1499.265611,480.204878,-9247.050792,11057.475037,16414.696445,-4173.249504,2315.998353,-19243.466168,16442.144387,687.785529,-1194.298410,0.007250,-0.014750,1.005000,192.000000,0.000000,0.000000,0.000000,0.000000,0.000000,0.000000,0.000000,0.000000,0.000000,1775738095.719046,0.000000
218.000000,16213.016655,19081.818352,-16239.525824,990.785776,-15521.788957,-1496.605753,478.059110,-9238.378315,11013.017418,16418.049207,-4146.494466,2319.127598,-19200.059080,16445.273631,558.950074,-1415.603032,0.007250,-0.014750,1.005000,192.000000,0.000000,0.000000,0.000000,0.000000,0.000000,0.000000,0.000000,0.000000,0.000000,1775738095.719058,0.000000
220.000000,16201.527858,19078.465590,-16273.545179,970.378634,-15543.313687,-1499.511480,469.252523,-9263.769896,11033.379857,16404.861677,-4168.354472,2309.181071,-19231.351522,16436.847024,657.320101,-1238.979547,0.006625,-0.013375,1.005500,192.000000,0.000000,24.000000,127.500000,80.000000,15.500000,56.000000,0.000000,0.000000,0.000000,1775738095.719070,0.000000
222.000000,16225.176004,19091.295492,-16231.479196,992.730378,-15511.618914,-1492.649495,480.964837,-9233.192710,11056.178636,16422.541907,-4155.412812,2315.998353,-19215.325322,16443.083160,626.541749,-1299.776292,0.006625,-0.013375,1.005500,192.000000,0.000000,0.000000,0.000000,0.000000,0.000000,0.000000,0.000000,0.000000,0.000000,1775738095.719082,0.000000
224.000000,16203.740681,19078.577349,-16266.638490,974.290189,-15541.547899,-1509.301544,470.303055,-9253.398687,11001.193345,16407.834459,-4143.991070,2310.119845,-19203.858877,16434.813015,568.203696,-1397.431063,0.006625,-0.013375,1.005500,192.000000,0.000000,0.000000,0.000000,0.000000,0.000000,0.000000,0.000000,0.000000,0.000000,1775738095.719094,0.000000
226.000000,16212.368454,19087.830971,-16261.519940,985.667227,-15544.118350,-1510.530890,476.673302,-9245.687335,11058.324404,16412.148346,-4174.054167,2311.572708,-19247.176557,16432.823710,682.443462,-1201.696837,0.006625,-0.013375,1.005500,192.000000,0.000000,0.000000,0.000000,0.000000,0.000000,0.000000,0.000000,0.000000,0.000000,1775738095.719105,0.000000
228.000000,16217.665817,19085.618149,-16244.353800,996.038436,-15531.579021,-1512.654306,478.483794,-9231.248108,11011.564554,16419.010332,-4142.247634,2322.525063,-19209.513868,16438.903384,546.366041,-1425.035468,0.006625,-0.013375,1.005500,192.000000,0.000000,0.000000,0.000000,0.000000,0.000000,0.000000,0.000000,0.000000,0.000000,1775738095.719117,0.000000
230.000000,16205.148841,19082.555960,-16275.512132,978.715834,-15556.970603,-1514.353039,474.281666,-9254.784495,11023.232165,16405.018139,-4167.035719,2312.578537,-19245.343714,16431.348494,648.021775,-1256.413908,0.007313,-0.013688,1.005750,192.000000,0.000000,32.000000,127.500000,72.000000,15.500000,56.000000,0.000000,0.000000,0.000000,1775738095.719129,0.000000
232.000000,16233.222632,19099.275064,-16229.109911,1001.402855,-15526.192251,-1504.406512,487.469195,-9221.033361,11049.294299,16427.794567,-4150.786001,2324.871996,-19227.261153,16442.524367,617.355182,-1311.868586,0.007313,-0.013688,1.005750,192.000000,0.000000,0.000000,0.000000,0.000000,0.000000,0.000000,0.000000,0.000000,0.000000,1775738095.719140,0.000000
234.000000,16220.593896,19093.553018,-16255.104989,982.985018,-15547.716981,-1512.430789,479.869602,-9233.148007,11006.423653,16421.513727,-4132.301108,2327.665964,-19204.104746,16442.122035,561.922856,-1413.457264,0.007313,-0.013688,1.005750,192.000000,0.000000,0.000000,0.000000,0.000000,0.000000,0.000000,0.000000,0.000000,0.000000,1775738095.719152,0.000000
236.000000,16230.294553,19102.784288,-16244.979649,994.943201,-15545.347696,-1505.568803,490.509032,-9222.262707,11068.427392,16430.946163,-4152.082402,2331.845740,-19237.721770,16442.658477,682.309351,-1212.828006,0.007313,-0.013688,1.005750,192.000000,0.000000,0.000000,0.000000,0.000000,0.000000,0.000000,0.000000,0.000000,0.000000,1775738095.719164,0.000000
238.000000,16232.417969,19099.208009,-16232.797948,1004.979134,-15535.579984,-1507.759274,490.777253,-9211.533870,11022.919240,16434.455387,-4124.522701,2337.411325,-19198.717975,16446.726495,545.427268,-1432.143322,0.007313,-0.013688,1.005750,192.000000,0.000000,0.000000,0.000000,0.000000,0.000000,0.000000,0.000000,0.000000,0.000000,1775738095.719175,0.000000
240.000000,16211.362626,19086.243997,-16269.946548,981.062768,-15559.496350,-1512.497844,479.579029,-9244.905024,11040.286546,16419.323256,-4151.702422,2326.302508,-19233.005551,16436.556451,642.009156,-1253.865809,0.008656,-0.014844,1.005875,192.000000,0.000000,40.000000,127.500000,64.000000,15.500000,56.000000,0.000000,0.000000,0.000000,1775738095.719187,0.000000
242.000000,16229.601649,19095.162343,-16230.205146,997.580707,-15525.432292,-1505.613507,484.608172,-9224.967268,11054.614014,16429.470948,-4150.249559,2325.073162,-19224.936572,16436.176471,626.944080,-1299.642181,0.008656,-0.014844,1.005875,192.000000,0.000000,0.000000,0.000000,0.000000,0.000000,0.000000,0.000000,0.000000,0.000000,1775738095.719200,0.000000
244.000000,16212.010826,19082.690070,-16261.162312,970.646855,-15544.766551,-1518.175187,469.386634,-9248.034268,11010.782243,16415.925791,-4135.385649,2317.764141,-19197.019243,16429.247430,566.639074,-1404.471863,0.008656,-0.014844,1.005875,192.000000,0.000000,0.000000,0.000000,0.000000,0.000000,0.000000,0.000000,0.000000,0.000000,1775738095.719212,0.000000
246.000000,16219.029274,19087.495695,-16254.792065,978.000579,-15543.872481,-1511.380257,477.120337,-9240.367620,11065.387555,16410.583724,-4165.851076,2311.528005,-19240.895717,16422.810128,689.506613,-1197.315895,0.008656,-0.014844,1.005875,192.000000,0.000000,0.000000,0.000000,0.000000,0.000000,0.000000,0.000000,0.000000,0.000000,1775738095.719224,0.000000
248.000000,16222.024408,19084.366451,-16236.463635,987.969457,-15531.467263,-1514.017762,479.891953,-9224.810806,11018.515947,16411.746015,-4134.648041,2318.792322,-19204.842353,16425.425282,557.228989,-1421.258023,0.008656,-0.014844,1.005875,192.000000,0.000000,0.000000,0.000000,0.000000,0.000000,0.000000,0.000000,0.000000,0.000000,1775738095.719236,0.000000
250.000000,16208.211030,19080.991337,-16271.622929,972.457346,-15558.199949,-1516.901137,474.728700,-9249.509484,11033.133988,16400.279570,-4158.609111,2313.114978,-19239.576964,16419.412663,649.698156,-1258.000881,0.008656,-0.014844,1.005875,192.000000,0.000000,0.000000,0.000000,0.000000,0.000000,0.000000,0.000000,0.000000,0.000000,1775738095.719248,0.000000
252.000000,16231.635658,19091.384899,-16227.768806,994.250297,-15525.119367,-1509.681524,485.189317,-9224.564937,11054.904587,16417.110433,-4149.668413,2320.960441,-19227.417615,16429.828576,621.534958,-1306.012429,0.010000,-0.012000,1.010000,192.000000,0.000000,40.000000,127.500000,80.000000,15.500000,72.000000,0.000000,0.000000,0.000000,1775738095.719260,0.000000
254.000000,16225.198355,19090.669643,-16252.825111,976.301846,-15543.358391,-1520.522120,475.756881,-9238.154797,11011.586906,16410.449613,-4131.943480,2321.720400,-19202.093089,16425.090006,568.986007,-1418.128779,0.010000,-0.012000,1.010000,192.000000,0.000000,0.000000,0.000000,0.000000,0.000000,0.000000,0.000000,0.000000,0.000000,1775738095.719271,0.000000
0.000000,16247.952431,19113.021387,-16237.938850,989.221154,-15530.640248,-1508.407475,487.312733,-9220.206347,11083.403061,16428.062788,-4147.053259,2331.778685,-19229.183403,16431.549660,692.032360,-1214.258518,0.010000,-0.012000,1.010000,192.000000,0.000000,0.000000,0.000000,0.000000,0.000000,0.000000,0.000000,0.000000,0.000000,1775738095.719283,0.000000
2.000000,16253.138036,19114.653065,-16216.123547,1000.955820,-15514.994027,-1506.440521,490.799605,-9203.710759,11045.852130,16440.266840,-4107.468320,2346.620243,-19182.825885,16443.954878,561.744042,-1435.339622,0.010000,-0.012000,1.010000,192.000000,0.000000,0.000000,0.000000,0.000000,0.000000,0.000000,0.000000,0.000000,0.000000,1775738095.719294,0.000000
4.000000,16222.694960,19096.950483,-16259.307117,984.907268,-15546.755856,-1513.190748,483.758805,-9240.345268,11054.301090,16424.285343,-4134.335117,2337.344269,-19216.867592,16439.886861,650.927502,-1268.506201,0.010000,-0.012000,1.010000,192.000000,0.000000,0.000000,0.000000,0.000000,0.000000,0.000000,0.000000,0.000000,0.000000,1775738095.719306,0.000000
6.000000,16227.142957,19096.458745,-16227.120605,1008.980096,-15526.236954,-1504.093588,494.331180,-9220.027533,11054.301090,16432.220212,-4144.013422,2334.662060,-19220.913258,16441.987925,628.307537,-1309.633411,0.002000,-0.018000,1.012000,192.000000,0.000000,8.000000,127.500000,56.000000,15.500000,80.000000,0.000000,0.000000,0.000000,1775738095.719317,0.000000
8.000000,16202.690149,19075.895140,-16261.430533,985.980151,-15553.416676,-1515.381219,480.383692,-9244.525045,10995.605409,16416.484584,-4136.927919,2328.716496,-19206.496383,16438.009314,561.453469,-1412.004401,0.002000,-0.018000,1.012000,192.000000,0.000000,0.000000,0.000000,0.000000,0.000000,0.000000,0.000000,0.000000,0.000000,1775738095.719329,0.000000
10.000000,16212.368454,19085.260521,-16254.367382,988.394140,-15545.593565,-1508.094550,483.423529,-9241.954594,11052.557653,16415.366997,-4168.175658,2319.261708,-19248.852938,16435.729436,683.024607,-1201.585078,0.002000,-0.018000,1.012000,192.000000,0.000000,0.000000,0.000000,0.000000,0.000000,0.000000,0.000000,0.000000,0.000000,1775738095.719340,0.000000
12.000000,16215.117719,19079.538474,-16233.781425,992.663323,-15527.242783,-1506.373466,482.641218,-9227.671829,11011.966886,16420.910230,-4136.883216,2321.519234,-19208.061005,16439.730399,554.502076,-1416.653564,0.002000,-0.018000,1.012000,192.000000,0.000000,0.000000,0.000000,0.000000,0.000000,0.000000,0.000000,0.000000,0.000000,1775738095.719352,0.000000
14.000000,16194.084727,19066.887387,-16273.880455,968.344625,-15558.423466,-1516.968193,471.755918,-9258.941920,11017.219546,16398.334968,-4162.163039,2308.756388,-19234.614877,16427.124015,649.407583,-1249.663681,0.002000,-0.018000,1.012000,192.000000,0.000000,0.000000,0.000000,0.000000,0.000000,0.000000,0.000000,0.000000,0.000000,1775738095.719370,0.000000
16.000000,16217.464652,19077.795038,-16235.502510,992.216288,-15526.482824,-1509.279193,481.814203,-9234.913794,11043.236976,16416.417529,-4157.849152,2312.913813,-19227.127043,16433.091931,626.005307,-1291.684960,0.002000,-0.012000,1.010000,192.000000,0.000000,8.000000,127.500000,80.000000,15.500000,72.000000,0.000000,0.000000,0.000000,1775738095.719382,0.000000
18.000000,16194.241189,19061.701782,-16268.091353,973.977265,-15548.521644,-1519.605699,469.990131,-9257.109077,10993.370234,16403.140593,-4148.170846,2308.264650,-19208.731557,16428.442768,559.352405,-1405.991781,0.002000,-0.012000,1.010000,192.000000,0.000000,0.000000,0.000000,0.000000,0.000000,0.000000,0.000000,0.000000,0.000000,1775738095.719395,0.000000
20.000000,16205.864096,19076.968023,-16255.104989,983.812032,-15538.642173,-1508.295716,480.070767,-9244.346231,11047.103828,16410.248448,-4176.155231,2308.331705,-19249.299973,16430.208555,683.248125,-1203.350866,0.002000,-0.012000,1.010000,192.000000,0.000000,0.000000,0.000000,0.000000,0.000000,0.000000,0.000000,0.000000,0.000000,1775738095.719406,0.000000
22.000000,16224.550155,19088.166247,-16227.232364,994.764387,-15518.726768,-1505.814672,484.205840,-9219.647553,11017.755987,16428.286305,-4133.172826,2323.799112,-19195.700490,16446.413570,557.027824,-1427.918843,0.002000,-0.012000,1.010000,192.000000,0.000000,0.000000,0.000000,0.000000,0.000000,0.000000,0.000000,0.000000,0.000000,1775738095.719418,0.000000
24.000000,16215.944733,19091.407250,-16259.351821,978.917000,-15544.207757,-1505.479396,482.060073,-9236.031382,11037.134950,16421.625486,-4149.713117,2321.496883,-19220.868554,16442.077332,649.720508,-1266.293379,0.002000,-0.012000,1.010000,192.000000,0.000000,0.000000,0.000000,0.000000,0.000000,0.000000,0.000000,0.000000,0.000000,1775738095.719429,0.000000
26.000000,16241.358667,19106.360567,-16217.710521,1002.207518,-15517.743292,-1504.853547,496.298134,-9206.080044,11066.594549,16448.849910,-4135.251538,2340.071182,-19207.859839,16457.030649,624.127760,-1307.599402,0.008000,-0.012000,1.016000,192.000000,0.000000,32.000000,127.500000,80.000000,15.500000,96.000000,0.000000,0.000000,0.000000,1775738095.719441,0.000000
28.000000,16224.639562,19095.318806,-16247.348934,987.030683,-15544.945365,-1519.896271,485.524593,-9224.676695,11009.932877,16435.125939,-4124.030962,2337.120752,-19193.755888,16444.871300,562.951036,-1422.800293,0.008000,-0.012000,1.016000,192.000000,0.000000,0.000000,0.000000,0.000000,0.000000,0.000000,0.000000,0.000000,0.000000,1775738095.719453,0.000000
30.000000,16236.173062,19104.572428,-16240.464597,1001.536966,-15540.765588,-1508.183957,495.024084,-9218.127634,11073.210665,16444.111341,-4146.740335,2343.401592,-19231.619743,16448.425227,679.180107,-1211.330439,0.008000,-0.012000,1.016000,192.000000,0.000000,0.000000,0.000000,0.000000,0.000000,0.000000,0.000000,0.000000,0.000000,1775738095.719464,0.000000
32.000000,16235.144882,19096.101117,-16224.013713,1007.303716,-15529.723827,-1514.978887,494.666457,-9208.583439,11027.255479,16443.217271,-4121.505215,2346.553188,-19192.906522,16451.867396,555.910236,-1428.947023,0.008000,-0.012000,1.016000,192.000000,0.000000,0.000000,0.000000,0.000000,0.000000,0.000000,0.000000,0.000000,0.000000,1775738095.719476,0.000000
34.000000,16214.625980,19089.328538,-16263.397487,985.868393,-15553.036696,-1514.733018,486.105738,-9233.304469,11031.636421,16427.168718,-4149.579006,2336.539607,-19226.814118,16440.870338,654.637892,-1262.337120,0.008000,-0.012000,1.016000,192.000000,0.000000,0.000000,0.000000,0.000000,0.000000,0.000000,0.000000,0.000000,0.000000,1775738095.719488,0.000000
36.000000,16240.866928,19104.840649,-16223.410216,1006.879032,-15519.039693,-1497.611582,494.577050,-9204.895402,11055.977470,16445.094817,-4142.314689,2344.653290,-19217.538144,16450.772160,632.889644,-1293.338989,0.006000,-0.014000,1.014000,192.000000,0.000000,24.000000,127.500000,72.000000,15.500000,88.000000,0.000000,0.000000,0.000000,1775738095.719500,0.000000
38.000000,16222.806719,19088.345061,-16253.316850,983.364997,-15540.162091,-1509.145082,480.406044,-9230.957536,11007.228316,16433.158986,-4126.556710,2338.618319,-19195.432269,16446.570032,567.488440,-1403.711904,0.006000,-0.014000,1.014000,192.000000,0.000000,0.000000,0.000000,0.000000,0.000000,0.000000,0.000000,0.000000,0.000000,1775738095.719511,0.000000
40.000000,16230.830995,19093.597721,-16250.835806,988.707064,-15536.563460,-1498.528004,484.496413,-9231.963364,11066.303976,16435.438864,-4156.731565,2331.063429,-19238.392322,16442.792588,694.423997,-1186.788224,0.006000,-0.014000,1.014000,192.000000,0.000000,0.000000,0.000000,0.000000,0.000000,0.000000,0.000000,0.000000,0.000000,1775738095.719523,0.000000
42.000000,16236.977725,19091.519009,-16228.953448,999.145329,-15520.269039,-1500.696123,486.172794,-9217.233565,11022.695723,16442.524367,-4129.596547,2336.651365,-19197.600388,16448.961669,562.526353,-1401.990819,0.006000,-0.014000,1.014000,192.000000,0.000000,0.000000,0.000000,0.000000,0.000000,0.000000,0.000000,0.000000,0.000000,1775738096.199478,0.000000
44.000000,16224.460748,19088.881503,-16266.906710,979.185221,-15548.901623,-1508.318068,480.294285,-9239.540605,11038.453703,16429.873279,-4148.729640,2329.767028,-19226.210621,16439.372771,654.570836,-1248.769611,0.006000,-0.014000,1.014000,192.000000,0.000000,0.000000,0.000000,0.000000,0.000000,0.000000,0.000000,0.000000,0.000000,1775738096.199609,0.000000
46.000000,16245.985478,19103.857172,-16225.757149,1001.514614,-15521.341922,-1499.422073,493.191241,-9207.354093,11059.129066,16446.033591,-4142.247634,2337.567787,-19224.020150,16443.664306,633.403734,-1285.918210,0.008000,-0.012000,1.006000,192.000000,0.000000,32.000000,127.500000,80.000000,15.500000,56.000000,0.000000,0.000000,0.000000,1775738096.199685,0.000000
48.000000,16235.748379,19100.549114,-16247.795969,986.069558,-15536.496405,-1505.926431,484.541116,-9221.078065,11009.307028,16439.864509,-4120.119407,2341.769915,-19198.762679,16445.988887,567.779013,-1408.785750,0.008000,-0.012000,1.006000,192.000000,0.000000,0.000000,0.000000,0.000000,0.000000,0.000000,0.000000,0.000000,0.000000,1775738096.199763,0.000000
50.000000,16254.143864,19119.883373,-16236.173062,996.641934,-15529.232088,-1494.571745,492.744207,-9214.081969,11077.658663,16453.566128,-4140.951233,2346.374374,-19231.418578,16454.348439,691.182994,-1201.249802,0.008000,-0.012000,1.006000,192.000000,0.000000,0.000000,0.000000,0.000000,0.000000,0.000000,0.000000,0.000000,0.000000,1775738096.199856,0.000000
52.000000,16262.816341,19119.302227,-16210.289742,1007.214309,-15512.982370,-1496.426940,494.867622,-9200.246239,11046.165055,16463.423248,-4103.690875,2356.075031,-19181.373022,16464.742001,560.492344,-1423.202625,0.008000,-0.012000,1.006000,192.000000,0.000000,0.000000,0.000000,0.000000,0.000000,0.000000,0.000000,0.000000,0.000000,1775738096.199934,0.000000
54.000000,16242.498606,19112.909628,-16245.471388,986.158965,-15546.107655,-1510.285021,487.983285,-9226.353076,11058.860845,16449.922794,-4125.036791,2347.044927,-19207.323397,16455.197806,650.994557,-1270.227286,0.008000,-0.012000,1.006000,192.000000,0.000000,0.000000,0.000000,0.000000,0.000000,0.000000,0.000000,0.000000,0.000000,1775738096.199980,0.000000
56.000000,16257.742495,19118.788137,-16207.093442,1009.673001,-15518.905582,-1503.423036,499.293268,-9200.626218,11077.233979,16463.579710,-4123.829797,2351.716441,-19204.440022,16459.221120,640.399830,-1303.911365,0.014000,-0.014000,1.008000,192.000000,0.000000,56.000000,127.500000,72.000000,15.500000,64.000000,0.000000,0.000000,0.000000,1775738096.200027,0.000000
58.000000,16230.406312,19100.929093,-16240.442245,987.678884,-15538.217490,-1513.078989,484.965799,-9225.481358,11022.762778,16449.900442,-4113.480939,2346.419078,-19183.697603,16454.236681,570.371815,-1421.794465,0.014000,-0.014000,1.008000,192.000000,0.000000,0.000000,0.000000,0.000000,0.000000,0.000000,0.000000,0.000000,0.000000,1775738096.200040,0.000000
60.000000,16229.936925,19103.968931,-16240.732818,995.434939,-15535.043542,-1497.835099,491.268991,-9227.224794,11071.064898,16445.921832,-4153.356451,2335.310261,-19232.849089,16447.575861,695.183956,-1200.892174,0.014000,-0.014000,1.008000,192.000000,0.000000,0.000000,0.000000,0.000000,0.000000,0.000000,0.000000,0.000000,0.000000,1775738096.200052,0.000000
62.000000,16233.379094,19098.783326,-16224.885431,1003.682733,-15516.916277,-1496.650457,490.196108,-9218.194690,11024.908546,16452.359134,-4127.920166,2340.384107,-19194.605254,16453.677887,568.337806,-1411.825587,0.014000,-0.014000,1.008000,192.000000,0.000000,0.000000,0.000000,0.000000,0.000000,0.000000,0.000000,0.000000,0.000000,1775738096.200065,0.000000
64.000000,16214.737739,19088.859151,-16266.303213,980.392215,-15544.632440,-1499.556184,478.126166,-9248.503655,11029.647115,16427.638105,-4155.837495,2324.804941,-19228.915182,16436.355285,652.983863,-1253.575236,0.014000,-0.014000,1.008000,192.000000,0.000000,0.000000,0.000000,0.000000,0.000000,0.000000,0.000000,0.000000,0.000000,1775738096.200078,0.000000
66.000000,16232.462672,19096.950483,-16226.315943,999.190032,-15517.363312,-1497.209251,486.910401,-9222.955611,11058.234997,16443.977230,-4148.595530,2331.264595,-19220.712092,16441.362076,643.394964,-1278.765652,0.011000,-0.015000,1.008000,192.000000,0.000000,32.000000,127.500000,64.000000,15.500000,64.000000,0.000000,0.000000,0.000000,1775738096.200090,0.000000
68.000000,16216.615285,19085.394631,-16249.941736,980.235753,-15534.171824,-1506.082893,476.718006,-9238.400667,11004.076720,16429.135672,-4132.837550,2326.078990,-19201.042557,16433.561317,571.891734,-1405.589450,0.011000,-0.015000,1.008000,192.000000,0.000000,0.000000,0.000000,0.000000,0.000000,0.000000,0.000000,0.000000,0.000000,1775738096.200103,0.000000
70.000000,16233.535556,19101.174963,-16240.732818,989.131747,-15531.914298,-1499.802053,487.133919,-9228.834120,11069.276758,16436.109416,-4154.608149,2327.353040,-19238.749950,16434.298925,694.602811,-1189.805709,0.011000,-0.015000,1.008000,192.000000,0.000000,0.000000,0.000000,0.000000,0.000000,0.000000,0.000000,0.000000,0.000000,1775738096.200115,0.000000
72.000000,16245.538443,19103.588951,-16219.141033,1001.268745,-15514.010550,-1498.662114,487.625657,-9212.807919,11029.557708,16444.580727,-4125.439122,2336.114923,-19191.520714,16440.669172,567.823716,-1407.176424,0.011000,-0.015000,1.008000,192.000000,0.000000,0.000000,0.000000,0.000000,0.000000,0.000000,0.000000,0.000000,0.000000,1775738096.200128,0.000000
74.000000,16235.144882,19105.153573,-16254.076809,986.136614,-15538.217490,-1497.633934,483.378826,-9235.807864,11043.929880,16444.245451,-4144.281643,2335.086743,-19211.972560,16443.418436,651.955682,-1261.264236,0.011000,-0.015000,1.008000,192.000000,0.000000,0.000000,0.000000,0.000000,0.000000,0.000000,0.000000,0.000000,0.000000,1775738096.200140,0.000000
76.000000,16257.407219,19116.776480,-16212.994303,1006.208480,-15508.064986,-1494.080006,494.174718,-9207.599963,11077.792773,16463.669117,-4135.117428,2345.480304,-19199.433231,16455.242509,641.204493,-1286.901687,0.008500,-0.015500,1.007000,192.000000,0.000000,24.000000,127.500000,64.000000,15.500000,56.000000,0.000000,0.000000,0.000000,1775738096.200152,0.000000
78.000000,16255.730838,19116.843536,-16234.049646,991.031646,-15524.538222,-1501.545489,487.178622,-9216.227736,11038.118427,16454.773123,-4111.983372,2346.642595,-19168.341955,16453.789646,565.186210,-1419.291069,0.008500,-0.015500,1.007000,192.000000,0.000000,0.000000,0.000000,0.000000,0.000000,0.000000,0.000000,0.000000,0.000000,1775738096.200166,0.000000
80.000000,16258.658917,19120.464518,-16231.412140,991.456329,-15527.823928,-1506.328762,491.157233,-9213.701989,11100.613904,16458.841140,-4134.558634,2345.904988,-19208.463336,16448.022896,698.693180,-1207.016552,0.008500,-0.015500,1.007000,192.000000,0.000000,0.000000,0.000000,0.000000,0.000000,0.000000,0.000000,0.000000,0.000000,1775738096.200192,0.000000
82.000000,16256.043763,19109.243942,-16213.933076,1000.687599,-15518.324437,-1507.513405,490.933715,-9203.599000,11052.132970,16454.862530,-4108.809424,2347.871941,-19180.277786,16447.397047,572.338769,-1423.403790,0.008500,-0.015500,1.007000,192.000000,0.000000,0.000000,0.000000,0.000000,0.000000,0.000000,0.000000,0.000000,0.000000,1775738096.200208,0.000000
84.000000,16235.323696,19102.694881,-16254.501492,981.778023,-15547.024077,-1509.256841,483.423529,-9231.002239,11049.853092,16434.745960,-4135.586814,2334.550301,-19218.208697,16436.288230,661.209304,-1269.892009,0.008500,-0.015500,1.007000,192.000000,0.000000,0.000000,0.000000,0.000000,0.000000,0.000000,0.000000,0.000000,0.000000,1775738096.200220,0.000000
86.000000,16253.719181,19113.356663,-16218.671646,1006.633163,-15515.195193,-1493.297695,492.990076,-9204.828346,11072.629520,16454.191977,-4133.329288,2340.674679,-19216.420557,16443.910175,647.887665,-1285.046492,0.007250,-0.014750,1.004500,192.000000,0.000000,24.000000,127.500000,72.000000,15.500000,40.000000,0.000000,0.000000,0.000000,1775738096.200233,0.000000
88.000000,16231.859175,19095.654082,-16249.628812,987.835346,-15535.334114,-1501.769006,478.640256,-9231.069294,11014.023246,16440.870338,-4124.969736,2333.991508,-19195.946359,16437.986963,569.209524,-1405.745912,0.007250,-0.014750,1.004500,192.000000,0.000000,0.000000,0.000000,0.000000,0.000000,0.000000,0.000000,0.000000,0.000000,1775738096.200246,0.000000
90.000000,16239.726989,19102.739585,-16245.314925,990.964590,-15530.886117,-1498.215079,485.032855,-9229.147044,11074.194142,16442.591422,-4157.804448,2328.940014,-19237.520604,16437.495224,698.939049,-1187.078796,0.007250,-0.014750,1.004500,192.000000,0.000000,0.000000,0.000000,0.000000,0.000000,0.000000,0.000000,0.000000,0.000000,1775738096.200258,0.000000
92.000000,16249.941736,19105.041814,-16219.588067,999.301791,-15511.015417,-1497.522175,487.804471,-9209.477509,11039.213662,16448.291117,-4128.098980,2334.304432,-19191.073679,16441.406779,573.545763,-1401.566136,0.007250,-0.014750,1.004500,192.000000,0.000000,0.000000,0.000000,0.000000,0.000000,0.000000,0.000000,0.000000,0.000000,1775738096.200271,0.000000
94.000000,16233.468501,19099.342120,-16259.888263,979.475794,-15539.536242,-1502.327800,480.629561,-9236.053733,11048.757857,16437.830500,-4144.303995,2327.733019,-19214.073624,16438.746922,655.017871,-1259.029062,0.007250,-0.014750,1.004500,192.000000,0.000000,0.000000,0.000000,0.000000,0.000000,0.000000,0.000000,0.000000,0.000000,1775738096.200284,0.000000
96.000000,16258.077771,19113.826050,-16218.023445,1006.722570,-15506.857992,-1488.290905,494.398236,-9203.621352,11078.508029,16457.254166,-4138.403134,2337.903063,-19208.508040,16449.095780,643.394964,-1271.858963,0.005625,-0.014375,1.006250,192.000000,0.000000,16.000000,127.500000,72.000000,15.500000,64.000000,0.000000,0.000000,0.000000,1775738096.200296,0.000000
98.000000,16243.571489,19101.219666,-16242.722123,986.427186,-15528.047446,-1503.467739,482.842384,-9222.307411,11026.562575,16447.709971,-4118.375971,2338.953595,-19184.971653,16446.771198,570.193001,-1405.567098,0.005625,-0.014375,1.006250,192.000000,0.000000,0.000000,0.000000,0.000000,0.000000,0.000000,0.000000,0.000000,0.000000,1775738096.200308,0.000000
