Sample_index,EXG Channel 0,EXG Channel 1,EXG Channel 2,EXG Channel 3,EXG Channel 4,EXG Channel 5,EXG Channel 6,EXG Channel 7,EXG Channel 8,EXG Channel 9,EXG Channel 10,EXG Channel 11,EXG Channel 12,EXG Channel 13,EXG Channel 14,EXG Channel 15,Accel Channel 0,Accel Channel 1,Accel Channel 2,Not Used,Digital Channel 0 (D11),Digital Channel 1 (D12),Digital Channel 2 (D13),Digital Channel 3 (D17),Not Used,Digital Channel 4 (D18),Analog Channel 0,Analog Channel 1,Analog Channel 2,Timestamp,Marker Channel
90.000000,8371.778831,14758.320422,3395.297038,4464.828010,-19153.701562,-9286.523972,1574.188658,903.412807,-18569.672831,-3419.883957,-701.665962,4266.568037,12898.923504,-18482.612787,-535.525445,1773.566219,-0.002000,-0.004000,1.002000,192.000000,0.000000,0.000000,0.000000,0.000000,0.000000,0.000000,0.000000,0.000000,0.000000,1770299855.511441,101.000000
92.000000,8399.249124,14788.808201,3427.349440,4497.103929,-19131.103948,-9257.779629,1603.469444,930.793694,-18588.872980,-3435.306661,-715.948727,4249.737173,12883.858428,-18485.652624,-555.843181,1760.646911,-0.002000,-0.004000,1.002000,192.000000,0.000000,0.000000,0.000000,0.000000,0.000000,0.000000,0.000000,0.000000,0.000000,1770299855.511501,0.000000
94.000000,8386.151002,14776.112411,3417.782893,4483.692883,-19148.717123,-9272.308263,1592.673551,919.148435,-18543.297773,-3405.221213,-680.007122,4282.281313,12940.609508,-18462.049182,-514.648916,1787.781929,0.000000,-0.005000,1.004000,192.000000,0.000000,8.000000,127.500000,104.000000,15.500000,56.000000,0.000000,0.000000,0.000000,1770299855.511549,0.000000
96.000000,8374.170467,14757.649870,3403.276611,4463.598664,-19161.256452,-9290.234362,1574.993321,904.128063,-18606.486154,-3443.710916,-723.213044,4240.975289,12876.169428,-18499.264836,-555.127925,1745.157152,0.000000,-0.005000,1.004000,192.000000,0.000000,0.000000,0.000000,0.000000,0.000000,0.000000,0.000000,0.000000,0.000000,1770299855.511593,0.000000
98.000000,8405.954648,14796.027815,3441.051059,4507.564546,-19127.862946,-9254.762143,1613.639487,937.923901,-18549.198633,-3411.300887,-686.578534,4276.358101,12921.766987,-18474.297938,-521.175625,1763.798507,0.000000,-0.005000,1.004000,192.000000,0.000000,0.000000,0.000000,0.000000,0.000000,0.000000,0.000000,0.000000,0.000000,1770299855.511636,0.000000
100.000000,8363.352223,14746.496349,3397.152233,4455.373222,-19166.062077,-9305.992342,1570.724138,897.579002,-18571.282157,-3425.606003,-702.716494,4265.383394,12915.754368,-18484.423278,-530.965690,1759.372861,0.000000,-0.005000,1.004000,192.000000,0.000000,0.000000,0.000000,0.000000,0.000000,0.000000,0.000000,0.000000,0.000000,1770299855.511680,0.000000
102.000000,8389.257895,14776.850018,3426.745942,4494.555830,-19139.329390,-9270.162495,1599.714351,924.378744,-18599.445355,-3449.835294,-725.001183,4240.461199,12877.912864,-18498.840153,-546.298986,1733.958928,0.000000,-0.005000,1.004000,192.000000,0.000000,0.000000,0.000000,0.000000,0.000000,0.000000,0.000000,0.000000,0.000000,1770299855.511703,0.000000
104.000000,8390.107261,14776.134762,3422.901442,4487.850307,-19140.916364,-9271.190676,1597.009790,923.551729,-18546.158796,-3411.591460,-682.711683,4280.604932,12947.024458,-18469.604071,-513.106646,1776.114318,0.000000,-0.005000,1.004000,192.000000,0.000000,0.000000,127.500000,96.000000,15.500000,48.000000,0.000000,0.000000,0.000000,1770299855.511719,0.000000
106.000000,8369.834229,14751.860768,3402.963686,4465.498563,-19158.797760,-9291.866039,1574.993321,903.613973,-18603.692186,-3441.341632,-722.274270,4242.852836,12873.666033,-18491.575836,-558.078356,1727.588681,0.000000,-0.005000,1.004000,192.000000,0.000000,0.000000,0.000000,0.000000,0.000000,0.000000,0.000000,0.000000,0.000000,1770299855.511735,0.000000
108.000000,8401.394892,14788.964664,3439.799361,4512.638392,-19127.572373,-9257.578463,1613.170101,937.476866,-18553.356058,-3415.324201,-687.919639,4270.524296,12916.268458,-18468.911167,-524.036649,1772.336873,0.000000,-0.005000,1.004000,192.000000,0.000000,0.000000,0.000000,0.000000,0.000000,0.000000,0.000000,0.000000,0.000000,1770299855.511749,0.000000
110.000000,8360.692365,14742.271869,3393.531250,4460.044737,-19166.710277,-9301.253772,1566.790231,896.081435,-18579.552302,-3429.249338,-705.666924,4258.163781,12903.907943,-18488.960682,-534.854893,1760.132821,0.000000,-0.005000,1.004000,192.000000,0.000000,0.000000,0.000000,0.000000,0.000000,0.000000,0.000000,0.000000,0.000000,1770299855.511763,0.000000
112.000000,8390.867220,14778.884027,3424.443713,4504.904688,-19137.205975,-9264.082821,1600.608420,927.843264,-18600.339425,-3442.459219,-723.391858,4244.417458,12883.836077,-18494.816839,-550.858742,1741.580873,0.000000,-0.005000,1.004000,192.000000,0.000000,0.000000,0.000000,0.000000,0.000000,0.000000,0.000000,0.000000,0.000000,1770299855.511780,0.000000
114.000000,8383.222924,14776.335928,3415.324201,4494.734644,-19145.476120,-9265.088649,1591.913592,919.997802,-18551.478511,-3401.577878,-686.779700,4287.645732,12945.415133,-18444.547766,-522.963765,1787.044321,-0.001000,-0.008500,1.003000,192.000000,127.500000,120.000000,127.500000,80.000000,15.500000,40.000000,0.000000,0.000000,0.000000,1770299855.511798,0.000000
116.000000,8368.269607,14756.912262,3398.716855,4473.947522,-19155.735571,-9283.618246,1572.467574,904.284525,-18609.727157,-3436.290137,-732.757238,4245.915025,12882.137344,-18497.074365,-558.704204,1741.223245,-0.001000,-0.008500,1.003000,192.000000,0.000000,0.000000,0.000000,0.000000,0.000000,0.000000,0.000000,0.000000,0.000000,1770299855.511815,0.000000
118.000000,8405.462909,14799.402928,3441.162818,4518.695714,-19122.766748,-9236.456065,1614.488854,941.544883,-18557.737000,-3405.020047,-695.519232,4278.816793,12904.466737,-18453.913147,-529.624585,1776.784870,-0.001000,-0.008500,1.003000,192.000000,0.000000,0.000000,0.000000,0.000000,0.000000,0.000000,0.000000,0.000000,0.000000,1770299855.511832,0.000000
120.000000,8368.359014,14755.928785,3403.254259,4468.672510,-19157.031972,-9276.845667,1573.227533,903.681028,-18571.997413,-3412.641992,-701.263631,4269.585522,12916.447272,-18466.228958,-543.057983,1775.756690,-0.001000,-0.008500,1.003000,192.000000,0.000000,0.000000,0.000000,0.000000,0.000000,0.000000,0.000000,0.000000,0.000000,1770299855.511849,0.000000
122.000000,8387.581514,14775.866541,3429.405800,4498.556793,-19138.681190,-9255.745620,1599.066150,922.858825,-18596.807849,-3434.367887,-721.246090,4245.758563,12914.972057,-18487.373708,-549.070603,1749.806315,-0.001000,-0.008500,1.003000,192.000000,0.000000,0.000000,0.000000,0.000000,0.000000,0.000000,0.000000,0.000000,0.000000,1770299855.511865,0.000000
124.000000,8384.362863,14771.731469,3423.996678,4486.956237,-19144.693809,-9273.403498,1593.344103,917.516758,-18549.086875,-3408.417512,-685.706816,4276.827488,12929.008952,-18466.050144,-513.687791,1777.231905,-0.001000,-0.008500,1.003000,192.000000,0.000000,0.000000,127.500000,96.000000,15.500000,72.000000,0.000000,0.000000,0.000000,1770299855.511881,0.000000
126.000000,8375.757441,14763.058992,3407.657553,4473.098156,-19143.710332,-9278.298530,1578.301379,908.687819,-18603.379262,-3436.983041,-724.330631,4242.629319,12883.053766,-18494.548618,-542.521541,1737.155227,-0.001000,-0.008500,1.003000,192.000000,0.000000,0.000000,0.000000,0.000000,0.000000,0.000000,0.000000,0.000000,0.000000,1770299855.511897,0.000000
128.000000,8402.199555,14795.603132,3434.390239,4509.486796,-19128.734664,-9249.487132,1605.481101,934.504084,-18556.194729,-3402.740169,-691.630029,4279.666159,12920.604696,-18457.087094,-526.405934,1765.363129,-0.001000,-0.008500,1.003000,192.000000,0.000000,0.000000,0.000000,0.000000,0.000000,0.000000,0.000000,0.000000,0.000000,1770299855.511914,0.000000
130.000000,8369.096621,14754.274756,3398.783910,4461.922283,-19163.446923,-9292.223667,1567.751356,899.814177,-18577.741811,-3418.073466,-706.695104,4265.763374,12899.415243,-18470.386382,-532.440905,1764.156135,-0.001000,-0.008500,1.003000,192.000000,0.000000,0.000000,0.000000,0.000000,0.000000,0.000000,0.000000,0.000000,0.000000,1770299855.511930,0.000000
132.000000,8395.426976,14786.550675,3426.522425,4500.903726,-19138.860004,-9256.371469,1597.345066,928.580872,-18594.103288,-3429.562262,-722.318974,4251.637072,12887.725280,-18476.153132,-544.980233,1742.094963,-0.001000,-0.008500,1.003000,192.000000,0.000000,0.000000,0.000000,0.000000,0.000000,0.000000,0.000000,0.000000,0.000000,1770299855.511948,0.000000
134.000000,8384.049938,14777.028832,3418.587556,4491.985380,-19143.375056,-9265.915664,1591.131281,921.450665,-18547.254032,-3398.873317,-686.533831,4285.611723,12937.726133,-18451.543862,-515.945317,1781.165812,-0.003500,-0.007250,1.003500,192.000000,127.500000,104.000000,127.500000,104.000000,15.500000,48.000000,0.000000,0.000000,0.000000,1770299855.511965,0.000000
136.000000,8371.264740,14759.639175,3402.404893,4473.545191,-19159.356553,-9276.689205,1573.898086,909.715999,-18606.776727,-3433.987908,-727.169302,4245.222121,12883.612559,-18491.754650,-550.389355,1748.286396,-0.003500,-0.007250,1.003500,192.000000,0.000000,0.000000,0.000000,0.000000,0.000000,0.000000,0.000000,0.000000,0.000000,1770299855.511981,0.000000
138.000000,8411.877860,14805.549658,3442.302757,4518.963935,-19124.197259,-9240.859358,1611.404313,946.641081,-18551.210290,-3405.243564,-689.506613,4277.810964,12911.485185,-18462.786789,-524.371925,1783.110414,-0.003500,-0.007250,1.003500,192.000000,0.000000,0.000000,0.000000,0.000000,0.000000,0.000000,0.000000,0.000000,0.000000,1770299855.511998,0.000000
140.000000,8373.924598,14761.114390,3405.422378,4469.991263,-19148.560661,-9275.415155,1572.042891,911.302973,-18566.208311,-3407.009352,-696.525061,4273.832354,12919.174185,-18455.947155,-532.127980,1774.214420,-0.003500,-0.007250,1.003500,192.000000,0.000000,0.000000,0.000000,0.000000,0.000000,0.000000,0.000000,0.000000,0.000000,1770299855.512014,0.000000
142.000000,8403.205383,14791.848039,3434.725515,4502.758921,-19127.304152,-9249.934167,1600.340200,936.180465,-18589.699994,-3429.115227,-716.887500,4249.424249,12892.575609,-18475.482580,-541.582768,1750.208646,-0.003500,-0.007250,1.003500,192.000000,0.000000,0.000000,0.000000,0.000000,0.000000,0.000000,0.000000,0.000000,0.000000,1770299855.512031,0.000000
144.000000,8400.970209,14790.328120,3432.579748,4496.053397,-19131.014542,-9254.695088,1597.188604,934.749953,-18535.429959,-3392.883050,-676.207325,4287.869249,12936.295621,-18453.846091,-512.681963,1794.330990,-0.003500,-0.007250,1.003500,192.000000,0.000000,0.000000,127.500000,96.000000,15.500000,72.000000,0.000000,0.000000,0.000000,1770299855.512048,0.000000
146.000000,8373.835191,14760.555596,3407.679904,4469.655987,-19154.059190,-9278.030309,1572.333464,909.805406,-18597.344291,-3428.489379,-719.949689,4248.776048,12886.138306,-18482.188103,-543.795591,1748.956948,-0.003500,-0.007250,1.003500,192.000000,0.000000,0.000000,0.000000,0.000000,0.000000,0.000000,0.000000,0.000000,0.000000,1770299855.512074,0.000000
148.000000,8409.665037,14803.336835,3446.571940,4516.751113,-19123.482004,-9235.159664,1613.728894,942.729526,-18552.551395,-3402.337837,-692.747616,4275.553438,12936.250917,-18453.309650,-522.695544,1780.070577,-0.003500,-0.007250,1.003500,192.000000,0.000000,0.000000,0.000000,0.000000,0.000000,0.000000,0.000000,0.000000,0.000000,1770299855.512092,0.000000
150.000000,8372.427031,14761.449666,3408.328105,4469.276007,-19147.018391,-9279.259655,1576.893220,908.285488,-18565.917738,-3409.110416,-697.486186,4271.954807,12923.644534,-18467.614766,-520.527425,1765.787812,-0.003500,-0.007250,1.003500,192.000000,0.000000,0.000000,0.000000,0.000000,0.000000,0.000000,0.000000,0.000000,0.000000,1770299855.512104,0.000000
152.000000,8384.809898,14778.995786,3431.171588,4501.395464,-19137.585954,-9260.573597,1601.837766,924.334040,-18598.081898,-3429.875187,-722.050753,4249.513656,12872.593149,-18474.119124,-544.600254,1742.162018,-0.003500,-0.007250,1.003500,192.000000,0.000000,0.000000,0.000000,0.000000,0.000000,0.000000,0.000000,0.000000,0.000000,1770299855.512115,0.000000
154.000000,8382.418261,14774.570140,3426.410666,4490.152537,-19137.854175,-9265.267463,1595.020484,916.935613,-18556.530006,-3405.690599,-692.881726,4274.391147,12921.498766,-18463.524397,-504.009486,1782.082234,-0.003500,-0.007250,1.003500,192.000000,0.000000,0.000000,127.500000,104.000000,15.500000,72.000000,0.000000,0.000000,0.000000,1770299855.512127,0.000000
156.000000,8370.929464,14756.822855,3409.177471,4469.700690,-19151.779312,-9273.403498,1576.200315,903.636325,-18602.172268,-3436.893634,-729.069201,4238.404839,12883.344338,-18491.374670,-542.834466,1740.329175,-0.003500,-0.007250,1.003500,192.000000,0.000000,0.000000,0.000000,0.000000,0.000000,0.000000,0.000000,0.000000,0.000000,1770299855.512139,0.000000
158.000000,8404.166508,14798.084175,3443.040364,4514.270069,-19116.172983,-9241.842835,1613.415970,939.332061,-18555.188901,-3409.468044,-696.793282,4269.138487,12915.195574,-18467.324193,-513.844253,1772.091004,-0.003500,-0.007250,1.003500,192.000000,0.000000,0.000000,0.000000,0.000000,0.000000,0.000000,0.000000,0.000000,0.000000,1770299855.512151,0.000000
160.000000,8370.303615,14758.499236,3403.835404,4469.544228,-19159.110684,-9279.125545,1574.658045,905.938555,-18571.684488,-3416.844120,-704.728151,4264.802249,12919.285943,-18456.215376,-526.338878,1775.577876,-0.003500,-0.007250,1.003500,192.000000,0.000000,0.000000,0.000000,0.000000,0.000000,0.000000,0.000000,0.000000,0.000000,1770299855.512163,0.000000
162.000000,8399.159717,14792.742108,3438.301794,4508.078636,-19131.349818,-9245.329707,1605.950487,935.822837,-18588.537704,-3428.310565,-715.993430,4251.927644,12904.198516,-18479.304728,-549.495286,1756.444783,-0.003500,-0.007250,1.003500,192.000000,0.000000,0.000000,0.000000,0.000000,0.000000,0.000000,0.000000,0.000000,0.000000,1770299855.512174,0.000000
164.000000,8382.530020,14779.375765,3428.243509,4493.125319,-19145.364361,-9260.953577,1595.176947,920.221319,-18543.543642,-3402.002561,-683.672808,4285.008226,12929.455987,-18451.029772,-512.614907,1802.511728,-0.003500,-0.007250,1.003500,192.000000,0.000000,0.000000,0.000000,0.000000,0.000000,0.000000,0.000000,0.000000,0.000000,1770299855.512186,0.000000
166.000000,8365.967377,14756.934614,3410.876204,4470.907685,-19153.835673,-9278.320882,1576.155612,903.166938,-18605.994416,-3440.335803,-731.639651,4242.539912,12887.099431,-18496.113240,-551.931626,1750.186294,-0.006000,-0.014000,1.010000,192.000000,127.500000,104.000000,127.500000,72.000000,15.500000,72.000000,0.000000,0.000000,0.000000,1770299855.512198,0.000000
168.000000,8397.595095,14793.435013,3444.917911,4512.548985,-19127.170041,-9246.514350,1613.013639,935.465209,-18562.453218,-3419.325163,-702.537680,4267.864438,12907.528926,-18471.571025,-526.741210,1782.126937,-0.006000,-0.014000,1.010000,192.000000,0.000000,0.000000,0.000000,0.000000,0.000000,0.000000,0.000000,0.000000,0.000000,1770299855.512210,0.000000
170.000000,8363.575740,14753.335983,3403.120149,4461.966987,-19165.771504,-9288.960312,1572.489926,900.998819,-18576.266596,-3424.734285,-708.662058,4260.577769,12916.559031,-18472.330984,-521.175625,1771.219286,-0.006000,-0.014000,1.010000,192.000000,0.000000,0.000000,0.000000,0.000000,0.000000,0.000000,0.000000,0.000000,0.000000,1770299855.512222,0.000000
172.000000,8396.678674,14790.082251,3437.430076,4501.708389,-19131.349818,-9255.857379,1605.525804,936.202817,-18592.583369,-3441.587501,-722.520140,4242.495208,12903.796185,-18490.592359,-546.142524,1749.448687,-0.006000,-0.014000,1.010000,192.000000,0.000000,0.000000,0.000000,0.000000,0.000000,0.000000,0.000000,0.000000,0.000000,1770299855.512233,0.000000
174.000000,8391.805994,14785.746012,3435.887806,4497.126281,-19144.425588,-9259.478362,1601.703656,933.878235,-18538.000409,-3399.253297,-674.866220,4288.964485,12943.336420,-18447.162920,-510.849120,1778.148327,-0.006000,-0.014000,1.010000,192.000000,0.000000,0.000000,0.000000,0.000000,0.000000,0.000000,0.000000,0.000000,0.000000,1770299855.512245,0.000000
176.000000,8369.208380,14755.504102,3416.933527,4473.612246,-19157.858987,-9286.948655,1579.284856,912.085284,-18606.709672,-3442.280405,-723.034230,4243.098705,12884.931312,-18489.385365,-542.543893,1742.787867,-0.004000,-0.014000,1.012000,192.000000,127.500000,112.000000,127.500000,72.000000,15.500000,80.000000,0.000000,0.000000,0.000000,1770299855.512257,0.000000
178.000000,8410.313238,14801.928675,3452.338690,4520.774427,-19123.280838,-9242.647498,1616.008772,948.451572,-18550.740904,-3408.462215,-686.556183,4278.481517,12928.137234,-18463.926728,-511.050285,1773.946199,-0.004000,-0.014000,1.012000,192.000000,0.000000,0.000000,0.000000,0.000000,0.000000,0.000000,0.000000,0.000000,0.000000,1770299855.512269,0.000000
180.000000,8373.902246,14756.353468,3410.540928,4474.640426,-19152.919251,-9286.769842,1575.887391,912.085284,-18567.415305,-3413.021971,-696.323895,4274.324092,12914.703836,-18469.134685,-520.393314,1765.966626,-0.004000,-0.014000,1.012000,192.000000,0.000000,0.000000,0.000000,0.000000,0.000000,0.000000,0.000000,0.000000,0.000000,1770299855.512281,0.000000
182.000000,8402.199555,14787.869428,3436.536007,4511.543156,-19132.087425,-9247.542530,1604.944659,939.421468,-18591.666948,-3434.345536,-715.814616,4254.498095,12889.625179,-18487.999557,-545.717841,1750.454515,-0.004000,-0.014000,1.012000,192.000000,0.000000,0.000000,0.000000,0.000000,0.000000,0.000000,0.000000,0.000000,0.000000,1770299855.512292,0.000000
184.000000,8398.131537,14784.851943,3432.870320,4501.574278,-19138.032989,-9261.311205,1599.133205,932.179503,-18538.559203,-3398.448634,-676.296732,4292.831337,12927.377275,-18450.493330,-511.698486,1789.055978,-0.004000,-0.014000,1.012000,192.000000,0.000000,0.000000,0.000000,0.000000,0.000000,0.000000,0.000000,0.000000,0.000000,1770299855.512304,0.000000
186.000000,8369.901284,14756.778152,3415.838291,4479.088423,-19159.848292,-9279.997263,1579.396615,912.912299,-18602.552247,-3437.295966,-721.357849,4249.960691,12889.580475,-18485.339699,-548.802382,1751.281530,-0.002000,-0.014000,1.006000,192.000000,127.500000,120.000000,127.500000,72.000000,15.500000,56.000000,0.000000,0.000000,0.000000,1770299855.512316,0.000000
188.000000,8396.276342,14790.216361,3451.131696,4519.813302,-19130.567507,-9243.385106,1615.025296,943.690651,-18560.866244,-3412.843157,-690.959476,4278.325054,12917.430749,-18453.756685,-524.550739,1779.087100,-0.002000,-0.014000,1.006000,192.000000,0.000000,0.000000,0.000000,0.000000,0.000000,0.000000,0.000000,0.000000,0.000000,1770299855.512328,0.000000
190.000000,8359.619482,14747.144550,3412.686695,4472.159382,-19164.720972,-9286.300455,1574.546286,906.765569,-18581.251035,-3424.443713,-703.007067,4268.669101,12904.042054,-18476.711926,-529.713992,1768.626484,-0.002000,-0.014000,1.006000,192.000000,0.000000,0.000000,0.000000,0.000000,0.000000,0.000000,0.000000,0.000000,0.000000,1770299855.512340,0.000000
192.000000,8378.953740,14771.485599,3440.425210,4507.385732,-19139.642315,-9252.415210,1602.329505,929.564348,-18603.736890,-3439.575844,-722.475436,4249.781877,12887.233542,-18483.149228,-553.853876,1753.337890,-0.002000,-0.014000,1.006000,192.000000,0.000000,0.000000,0.000000,0.000000,0.000000,0.000000,0.000000,0.000000,0.000000,1770299855.512352,0.000000
194.000000,8369.051918,14762.433143,3431.529216,4496.299266,-19144.447940,-9263.479324,1593.612324,916.667392,-18553.289003,-3410.272707,-686.667941,4283.354197,12931.355885,-18468.933519,-514.939489,1787.469004,-0.002000,-0.014000,1.006000,192.000000,0.000000,0.000000,0.000000,0.000000,0.000000,0.000000,0.000000,0.000000,0.000000,1770299855.512364,0.000000
196.000000,8346.744877,14735.320477,3412.597288,4469.208952,-19160.787065,-9283.305321,1570.791193,894.717979,-18616.767957,-3448.270672,-733.941881,4238.538949,12881.735013,-18496.694386,-549.987024,1748.264044,-0.004000,-0.016000,1.008000,192.000000,127.500000,112.000000,127.500000,64.000000,15.500000,64.000000,0.000000,0.000000,0.000000,1770299855.512376,0.000000
198.000000,8377.299711,14774.547788,3446.795457,4509.866775,-19126.723007,-9245.843797,1605.905784,924.758723,-18576.512465,-3427.371791,-707.656229,4263.327034,12911.954571,-18480.288205,-517.599346,1776.091966,-0.004000,-0.016000,1.008000,192.000000,0.000000,0.000000,0.000000,0.000000,0.000000,0.000000,0.000000,0.000000,0.000000,1770299855.512388,0.000000
200.000000,8348.845941,14740.215509,3413.848986,4466.392632,-19153.656859,-9289.250885,1571.417042,896.372008,-18585.207294,-3425.516596,-710.718418,4261.471839,12913.318028,-18471.682784,-519.096913,1775.175545,-0.004000,-0.016000,1.008000,192.000000,0.000000,0.000000,0.000000,0.000000,0.000000,0.000000,0.000000,0.000000,0.000000,1770299855.512399,0.000000
202.000000,8371.644720,14766.210588,3437.251262,4499.786139,-19128.153518,-9259.791286,1595.825147,922.501197,-18614.242210,-3447.175437,-729.829160,4239.924757,12885.467754,-18481.942234,-535.145466,1748.331100,-0.004000,-0.016000,1.008000,192.000000,0.000000,0.000000,0.000000,0.000000,0.000000,0.000000,0.000000,0.000000,0.000000,1770299855.512417,0.000000
204.000000,8380.697177,14777.542922,3435.440771,4499.942601,-19126.723007,-9253.018707,1595.601630,927.485636,-18550.003296,-3399.253297,-680.454156,4289.702092,12942.688220,-18455.366010,-508.546890,1774.907324,-0.004000,-0.016000,1.008000,192.000000,0.000000,0.000000,0.000000,0.000000,0.000000,0.000000,0.000000,0.000000,0.000000,1770299855.512434,0.000000
206.000000,8353.539807,14746.272832,3410.809149,4473.724004,-19150.974649,-9279.460821,1573.138127,902.719903,-18615.091576,-3441.073411,-729.784456,4244.059830,12889.133440,-18496.627330,-541.806286,1741.111486,-0.008000,-0.018000,1.000000,192.000000,127.500000,96.000000,127.500000,56.000000,15.500000,32.000000,0.000000,0.000000,0.000000,1770299855.512456,0.000000
208.000000,8387.179182,14785.254274,3443.822675,4520.550909,-19129.584030,-9246.603757,1611.359610,935.733430,-18570.186921,-3416.933527,-699.296677,4274.614665,12907.618333,-18459.501083,-518.694582,1782.171641,-0.008000,-0.018000,1.000000,192.000000,0.000000,0.000000,0.000000,0.000000,0.000000,0.000000,0.000000,0.000000,0.000000,1770299855.512472,0.000000
210.000000,8361.675842,14751.525492,3410.943259,4475.735661,-19162.798722,-9280.801926,1575.462708,908.285488,-18583.597968,-3423.348477,-703.252936,4270.859572,12919.777682,-18470.386382,-535.637204,1773.745033,-0.008000,-0.018000,1.000000,192.000000,0.000000,0.000000,0.000000,0.000000,0.000000,0.000000,0.000000,0.000000,0.000000,1770299855.991431,0.000000
212.000000,8384.899304,14778.213475,3437.295966,4509.799720,-19143.464463,-9258.316071,1602.307153,934.906415,-18604.407442,-3438.011222,-716.060485,4252.486438,12882.584379,-18484.959720,-548.265940,1746.207684,-0.008000,-0.018000,1.000000,192.000000,0.000000,0.000000,0.000000,0.000000,0.000000,0.000000,0.000000,0.000000,0.000000,1770299855.991505,0.000000
214.000000,8382.462964,14772.960815,3431.395105,4501.328409,-19146.906632,-9263.233455,1596.763920,930.816046,-18555.993564,-3407.992829,-677.906058,4287.668084,12925.589135,-18457.310612,-526.294175,1794.353341,-0.008000,-0.018000,1.000000,192.000000,0.000000,0.000000,0.000000,0.000000,0.000000,0.000000,0.000000,0.000000,0.000000,1770299855.991556,0.000000
216.000000,8362.569912,14741.534262,3409.915079,4471.175906,-19164.765676,-9290.323769,1571.908781,904.329229,-18615.270390,-3445.700222,-720.843759,4246.026784,12883.836077,-18491.441726,-551.641053,1752.644986,-0.008000,-0.010000,1.004000,192.000000,127.500000,96.000000,127.500000,88.000000,15.500000,48.000000,0.000000,0.000000,0.000000,1770299855.991608,0.000000
218.000000,8390.710758,14779.487524,3449.589425,4512.973668,-19131.260411,-9247.184902,1610.040857,937.387459,-18574.500808,-3426.902405,-696.100378,4268.490287,12906.701911,-18481.942234,-513.173701,1777.701292,-0.008000,-0.010000,1.004000,192.000000,0.000000,0.000000,0.000000,0.000000,0.000000,0.000000,0.000000,0.000000,0.000000,1770299855.991671,0.000000
220.000000,8350.611729,14730.537204,3408.462215,4459.083612,-19167.604347,-9291.284894,1568.600722,897.199022,-18588.984738,-3436.714820,-704.728151,4259.437830,12916.648438,-18473.135647,-522.784951,1771.599266,-0.008000,-0.010000,1.004000,192.000000,0.000000,0.000000,0.000000,0.000000,0.000000,0.000000,0.000000,0.000000,0.000000,1770299855.991724,0.000000
222.000000,8378.327892,14760.622652,3434.703163,4490.912496,-19143.553870,-9267.949673,1594.886374,922.031811,-18615.382149,-3454.886789,-726.141122,4237.980156,12864.680632,-18501.723528,-540.085201,1745.000690,-0.008000,-0.010000,1.004000,192.000000,0.000000,0.000000,0.000000,0.000000,0.000000,0.000000,0.000000,0.000000,0.000000,1770299855.991776,0.000000
224.000000,8383.826421,14768.602224,3436.357193,4489.683150,-19135.104911,-9262.652309,1597.121548,925.652793,-18563.727267,-3417.022934,-686.109148,4279.487345,12923.018685,-18460.976298,-502.444864,1784.049187,-0.008000,-0.010000,1.004000,192.000000,0.000000,0.000000,0.000000,0.000000,0.000000,0.000000,0.000000,0.000000,0.000000,1770299855.991792,0.000000
226.000000,8367.219075,14746.295183,3414.743056,4467.599626,-19155.176777,-9284.311150,1574.881563,910.453607,-18612.856402,-3445.052021,-723.034230,4247.233778,12883.858428,-18497.811973,-541.985100,1746.162980,-0.006000,-0.012000,1.004000,192.000000,127.500000,104.000000,127.500000,80.000000,15.500000,48.000000,0.000000,0.000000,0.000000,1770299855.991810,0.000000
228.000000,8406.044055,14789.814030,3455.333824,4516.058208,-19120.822146,-9241.462856,1616.008772,948.585683,-18564.107247,-3420.040419,-689.305447,4278.280351,12922.281077,-18468.888816,-512.525500,1772.046300,-0.006000,-0.012000,1.004000,192.000000,0.000000,0.000000,0.000000,0.000000,0.000000,0.000000,0.000000,0.000000,0.000000,1770299855.991826,0.000000
230.000000,8374.595150,14749.737352,3415.279498,4473.902818,-19158.373077,-9274.811658,1578.994284,915.907433,-18575.908968,-3420.733323,-692.032360,4278.123889,12926.282039,-18458.182330,-519.946280,1773.722681,-0.006000,-0.012000,1.004000,192.000000,0.000000,0.000000,0.000000,0.000000,0.000000,0.000000,0.000000,0.000000,0.000000,1770299855.991841,0.000000
232.000000,8393.951761,14773.921940,3436.558358,4506.715179,-19140.871661,-9251.632899,1603.089464,936.068706,-18602.373433,-3439.084105,-715.099360,4254.363984,12890.072213,-18494.727432,-544.197922,1751.885027,-0.006000,-0.012000,1.004000,192.000000,0.000000,0.000000,0.000000,0.000000,0.000000,0.000000,0.000000,0.000000,0.000000,1770299855.991856,0.000000
234.000000,8397.975075,14778.392288,3439.441733,4505.888165,-19136.513071,-9249.062449,1605.302287,940.874331,-18552.461988,-3402.941335,-676.632008,4294.574773,12930.819444,-18444.145434,-509.105683,1789.637123,-0.006000,-0.012000,1.004000,192.000000,0.000000,0.000000,0.000000,0.000000,0.000000,0.000000,0.000000,0.000000,0.000000,1770299855.991872,0.000000
236.000000,8377.657339,14754.051239,3415.480663,4482.441185,-19157.009620,-9275.057527,1583.554039,922.210624,-18605.301512,-3431.842140,-711.791302,4261.270673,12890.295731,-18490.637063,-551.439887,1753.628463,-0.004000,-0.013000,1.004000,192.000000,127.500000,120.000000,127.500000,72.000000,15.500000,48.000000,0.000000,0.000000,0.000000,1770299855.991886,0.000000
238.000000,8409.933258,14795.714890,3450.215274,4519.880357,-19137.585954,-9244.502693,1615.986421,951.312596,-18569.806942,-3413.670172,-688.321971,4281.387243,12914.033283,-18462.831493,-524.997774,1783.043359,-0.004000,-0.013000,1.004000,192.000000,0.000000,0.000000,0.000000,0.000000,0.000000,0.000000,0.000000,0.000000,0.000000,1770299855.991903,0.000000
240.000000,8374.818668,14757.158131,3414.966573,4469.991263,-19162.239929,-9286.903952,1576.803813,914.365162,-18578.054735,-3416.017105,-694.111072,4276.112232,12915.821423,-18471.146342,-527.903501,1763.418527,-0.004000,-0.013000,1.004000,192.000000,0.000000,0.000000,0.000000,0.000000,0.000000,0.000000,0.000000,0.000000,0.000000,1770299855.991921,0.000000
242.000000,8398.131537,14786.483620,3438.570015,4502.043665,-19138.480024,-9258.271367,1599.982572,934.079401,-18603.245151,-3438.167684,-717.490997,4252.844066,12897.492993,-18475.996670,-537.559454,1749.515742,-0.004000,-0.013000,1.004000,192.000000,0.000000,0.000000,0.000000,0.000000,0.000000,0.000000,0.000000,0.000000,0.000000,1770299855.991935,0.000000
244.000000,8394.890534,14783.019100,3432.378582,4494.332313,-19143.665629,-9266.854437,1594.618153,928.312651,-18555.568881,-3404.193032,-681.951723,4289.031540,12935.647420,-18461.199815,-503.182471,1796.812033,-0.004000,-0.013000,1.004000,192.000000,0.000000,0.000000,0.000000,0.000000,0.000000,0.000000,0.000000,0.000000,0.000000,1770299855.991953,0.000000
246.000000,8377.255008,14758.454532,3414.988925,4470.751222,-19156.763751,-9279.684339,1575.060377,911.504139,-18609.056605,-3440.559321,-723.123637,4250.295967,12890.094565,-18500.784755,-541.091030,1751.303882,-0.006000,-0.014500,1.004000,192.000000,127.500000,96.000000,127.500000,64.000000,15.500000,48.000000,0.000000,0.000000,0.000000,1770299855.991984,0.000000
248.000000,8406.669904,14797.480678,3452.696318,4517.891052,-19122.498527,-9236.791341,1614.444150,945.188218,-18566.051849,-3415.346553,-691.250049,4280.090842,12918.995371,-18453.734333,-513.888957,1779.332969,-0.006000,-0.014500,1.004000,192.000000,0.000000,0.000000,0.000000,0.000000,0.000000,0.000000,0.000000,0.000000,0.000000,1770299855.992002,0.000000
250.000000,8377.433822,14762.790771,3414.698352,4473.321673,-19158.216615,-9279.393766,1576.043853,911.973526,-18580.245206,-3415.905346,-699.095511,4276.000473,12919.308295,-18470.900473,-510.312678,1770.615789,-0.006000,-0.014500,1.004000,192.000000,0.000000,0.000000,0.000000,0.000000,0.000000,0.000000,0.000000,0.000000,0.000000,1770299855.992025,0.000000
252.000000,8407.273401,14795.983111,3443.889730,4517.712238,-19121.962085,-9237.707762,1608.185662,941.500180,-18595.533800,-3422.789684,-713.065352,4262.298854,12910.926391,-18476.801333,-532.664422,1754.164905,-0.006000,-0.014500,1.004000,192.000000,0.000000,0.000000,0.000000,0.000000,0.000000,0.000000,0.000000,0.000000,0.000000,1770299855.992043,0.000000
254.000000,8400.947857,14788.539980,3436.178379,4510.291458,-19127.080634,-9237.037210,1602.597726,932.626537,-18544.035380,-3384.679959,-676.252028,4300.721502,12965.755220,-18415.468146,-499.159157,1798.108434,-0.006000,-0.014500,1.004000,192.000000,0.000000,0.000000,0.000000,0.000000,0.000000,0.000000,0.000000,0.000000,0.000000,1770299855.992059,0.000000
0.000000,8377.970264,14756.889910,3411.993791,4483.916400,-19157.680173,-9269.760164,1578.748414,910.475959,-18601.233494,-3427.461198,-722.520140,4255.749793,12891.323911,-18485.831438,-546.880132,1762.502106,-0.004000,-0.012250,1.003000,192.000000,127.500000,120.000000,127.500000,88.000000,15.500000,40.000000,0.000000,0.000000,0.000000,1770299855.992077,0.000000
2.000000,8406.200517,14791.244542,3453.433925,4525.021258,-19127.795890,-9235.941975,1616.165235,941.299014,-18563.950785,-3411.859681,-695.273363,4279.464993,12917.207231,-18454.069609,-519.812169,1795.314466,-0.004000,-0.012250,1.003000,192.000000,0.000000,0.000000,0.000000,0.000000,0.000000,0.000000,0.000000,0.000000,0.000000,1770299855.992092,0.000000
4.000000,8365.475639,14743.165939,3413.893689,4473.321673,-19157.702524,-9274.968120,1574.166307,902.183461,-18575.506637,-3418.431094,-700.950706,4272.513601,12922.325781,-18464.418467,-515.990021,1780.539963,-0.004000,-0.012250,1.003000,192.000000,0.000000,0.000000,0.000000,0.000000,0.000000,0.000000,0.000000,0.000000,0.000000,1770299855.992110,0.000000
6.000000,8395.717549,14774.033698,3442.012184,4507.229269,-19133.719103,-9254.739792,1601.100159,929.854921,-18601.255846,-3438.860588,-722.251919,4249.312490,12894.296693,-18473.917958,-540.465181,1756.422431,-0.004000,-0.012250,1.003000,192.000000,0.000000,0.000000,0.000000,0.000000,0.000000,0.000000,0.000000,0.000000,0.000000,1770299855.992127,0.000000
8.000000,8402.177203,14781.230960,3445.901387,4505.217612,-19124.688998,-9245.754390,1602.016580,934.258215,-18542.806034,-3397.688675,-675.603828,4292.272543,12954.668755,-18438.624554,-504.300058,1796.588516,-0.004000,-0.012250,1.003000,192.000000,0.000000,0.000000,0.000000,0.000000,0.000000,0.000000,0.000000,0.000000,0.000000,1770299855.992144,0.000000
10.000000,8375.109240,14750.564367,3422.365001,4474.260446,-19146.124321,-9276.353929,1576.177964,910.230089,-18596.025538,-3433.742038,-713.601793,4253.335804,12900.465775,-18486.032604,-535.927777,1752.041489,-0.001000,-0.008125,1.002500,192.000000,0.000000,8.000000,127.500000,112.000000,15.500000,40.000000,0.000000,0.000000,0.000000,1770299855.992161,0.000000
12.000000,8406.580497,14788.718794,3458.239550,4517.868700,-19116.932943,-9231.985716,1614.511205,943.780058,-18559.368677,-3414.653649,-687.137328,4275.486383,12936.049752,-18463.747914,-505.417646,1774.125013,-0.001000,-0.008125,1.002500,192.000000,0.000000,0.000000,0.000000,0.000000,0.000000,0.000000,0.000000,0.000000,0.000000,1770299855.992178,0.000000
14.000000,8372.359976,14748.619765,3419.615736,4469.343063,-19151.511091,-9276.912722,1576.312074,908.978392,-18566.051849,-3422.901442,-689.506613,4271.217200,12933.859281,-18461.311574,-512.659611,1777.924809,-0.001000,-0.008125,1.002500,192.000000,0.000000,0.000000,0.000000,0.000000,0.000000,0.000000,0.000000,0.000000,0.000000,1770299855.992196,0.000000
16.000000,8391.090738,14769.362184,3442.772143,4504.792929,-19130.522803,-9252.728135,1601.815415,930.011383,-18596.874904,-3439.888768,-711.657192,4249.468952,12915.642609,-18485.339699,-531.748001,1751.013309,-0.001000,-0.008125,1.002500,192.000000,0.000000,0.000000,0.000000,0.000000,0.000000,0.000000,0.000000,0.000000,0.000000,1770299855.992212,0.000000
18.000000,8389.682578,14767.708155,3439.955823,4499.607325,-19130.053416,-9256.952614,1599.468481,928.335002,-18553.356058,-3415.346553,-679.113052,4282.951866,12941.481226,-18453.019077,-496.856927,1785.479699,-0.001000,-0.008125,1.002500,192.000000,0.000000,0.000000,0.000000,0.000000,0.000000,0.000000,0.000000,0.000000,0.000000,1770299855.992230,0.000000
20.000000,8370.884761,14744.194119,3418.118169,4478.887257,-19148.761827,-9266.519161,1577.004978,909.738351,-18604.049814,-3441.878073,-713.914718,4250.161856,12893.827306,-18478.701231,-536.665384,1751.326233,-0.001500,-0.009063,1.003250,192.000000,127.500000,120.000000,127.500000,88.000000,15.500000,48.000000,0.000000,0.000000,0.000000,1770299855.992246,0.000000
22.000000,8405.954648,14786.103640,3456.406707,4526.138845,-19117.782309,-9222.262707,1617.104008,944.808238,-18563.861378,-3418.922832,-685.215078,4279.710863,12923.733941,-18456.550653,-510.446788,1789.257144,-0.001500,-0.009063,1.003250,192.000000,0.000000,0.000000,0.000000,0.000000,0.000000,0.000000,0.000000,0.000000,0.000000,1770299855.992263,0.000000
24.000000,8366.101487,14737.533300,3412.932564,4475.020406,-19160.854120,-9277.024481,1573.965141,903.725732,-18576.199541,-3426.857701,-693.529927,4271.887752,12928.539566,-18460.953946,-519.365134,1795.023894,-0.001500,-0.009063,1.003250,192.000000,0.000000,0.000000,0.000000,0.000000,0.000000,0.000000,0.000000,0.000000,0.000000,1770299855.992280,0.000000
26.000000,8395.806956,14770.323309,3444.135600,4512.347819,-19135.283725,-9244.972079,1603.245926,934.772305,-18606.106175,-3451.511675,-717.111017,4247.837275,12897.604751,-18488.446592,-535.279576,1760.646911,-0.001500,-0.009063,1.003250,192.000000,0.000000,0.000000,0.000000,0.000000,0.000000,0.000000,0.000000,0.000000,0.000000,1770299855.992301,0.000000
28.000000,8399.494994,14775.263044,3444.359117,4506.893993,-19135.440187,-9253.443391,1603.603554,938.706212,-18547.857529,-3408.104588,-668.987712,4296.720540,12940.810673,-18445.285373,-504.657686,1794.018065,-0.001500,-0.009063,1.003250,192.000000,0.000000,0.000000,0.000000,0.000000,0.000000,0.000000,0.000000,0.000000,0.000000,1770299855.992318,0.000000
30.000000,8381.680653,14752.643079,3425.293079,4476.808545,-19153.388638,-9275.213990,1580.715368,919.081380,-18601.836992,-3439.307623,-708.773817,4259.259016,12895.637798,-18480.198798,-539.682870,1749.001652,0.000250,-0.012531,1.001625,192.000000,0.000000,8.000000,127.500000,64.000000,15.500000,32.000000,0.000000,0.000000,0.000000,1770299855.992335,0.000000
32.000000,8411.006142,14785.902475,3461.368795,4514.113607,-19122.967914,-9245.083838,1615.338220,947.289282,-18561.134465,-3424.220195,-682.041130,4280.336711,12928.763083,-18452.326173,-513.307811,1774.102661,0.000250,-0.012531,1.001625,192.000000,0.000000,0.000000,0.000000,0.000000,0.000000,0.000000,0.000000,0.000000,0.000000,1770299855.992352,0.000000
34.000000,8373.499915,14744.328230,3423.169663,4467.621978,-19154.863853,-9290.614342,1575.999150,912.353505,-18577.875921,-3431.395105,-690.378331,4274.838182,12925.455025,-18483.551560,-509.284497,1766.815992,0.000250,-0.012531,1.001625,192.000000,0.000000,0.000000,0.000000,0.000000,0.000000,0.000000,0.000000,0.000000,0.000000,1770299855.992373,0.000000
36.000000,8401.283133,14778.258178,3451.757544,4507.765711,-19134.277896,-9250.872940,1605.972839,938.974433,-18600.607646,-3443.867379,-707.969154,4258.432002,12899.728167,-18490.346490,-535.123114,1745.604187,0.000250,-0.012531,1.001625,192.000000,0.000000,0.000000,0.000000,0.000000,0.000000,0.000000,0.000000,0.000000,0.000000,1770299855.992391,0.000000
38.000000,8400.858450,14780.180428,3447.197789,4503.407121,-19130.276934,-9249.330670,1603.983534,936.873369,-18546.270555,-3405.221213,-669.077119,4297.659313,12965.285834,-18445.441836,-501.327276,1797.057902,0.000250,-0.012531,1.001625,192.000000,0.000000,0.000000,0.000000,0.000000,0.000000,0.000000,0.000000,0.000000,0.000000,1770299855.992403,0.000000
40.000000,8378.484354,14751.234919,3424.510768,4476.227400,-19149.834710,-9268.821391,1579.441318,913.158168,-18605.748547,-3442.660384,-713.512387,4254.766316,12883.053766,-18487.619577,-535.301928,1756.623597,0.000250,-0.012531,1.001625,192.000000,0.000000,0.000000,0.000000,0.000000,0.000000,0.000000,0.000000,0.000000,0.000000,1770299855.992416,0.000000
42.000000,8402.356017,14785.097812,3454.417402,4518.226328,-19117.491736,-9222.039190,1612.566604,938.952081,-18563.481398,-3423.169663,-686.556183,4278.012130,12920.336475,-18459.590490,-505.462349,1788.787757,0.000250,-0.012531,1.001625,192.000000,0.000000,0.000000,127.500000,56.000000,15.500000,72.000000,0.000000,0.000000,0.000000,1770299855.992435,0.000000
44.000000,8365.587397,14740.751951,3414.407780,4474.036929,-19147.688943,-9250.783533,1574.702749,903.971601,-18579.976985,-3426.656535,-699.631953,4269.786688,12917.766025,-18452.460283,-514.335992,1792.364036,0.000250,-0.012531,1.001625,192.000000,0.000000,0.000000,0.000000,0.000000,0.000000,0.000000,0.000000,0.000000,0.000000,1770299855.992449,0.000000
46.000000,8387.715624,14761.561425,3439.933472,4507.855118,-19129.092291,-9238.713591,1599.870813,924.334040,-18606.910838,-3445.253187,-721.804884,4247.636109,12896.017777,-18482.568083,-535.123114,1775.220248,0.000250,-0.012531,1.001625,192.000000,0.000000,0.000000,0.000000,0.000000,0.000000,0.000000,0.000000,0.000000,0.000000,1770299855.992466,0.000000
48.000000,8390.509592,14766.948195,3440.693431,4507.609249,-19128.578201,-9240.121751,1600.831938,926.658622,-18557.021744,-3412.284364,-683.181069,4286.595200,12962.804790,-18454.941327,-495.538175,1813.799359,0.000250,-0.012531,1.001625,192.000000,0.000000,0.000000,0.000000,0.000000,0.000000,0.000000,0.000000,0.000000,0.000000,1770299855.992481,0.000000
50.000000,8377.299711,14747.412771,3426.365963,4478.440223,-19147.018391,-9265.423926,1579.173098,912.577023,-18607.112003,-3443.152123,-715.948727,4253.156990,12897.761214,-18481.785772,-537.201826,1768.402966,0.000250,-0.012531,1.001625,192.000000,0.000000,0.000000,0.000000,0.000000,0.000000,0.000000,0.000000,0.000000,0.000000,1770299855.992498,0.000000
52.000000,8419.008067,14794.843172,3467.761394,4524.574223,-19120.710387,-9227.090684,1620.724990,951.200837,-18553.758389,-3413.156082,-677.839002,4286.304627,12919.509461,-18450.649792,-511.676134,1788.608943,-0.004000,-0.012000,1.002000,192.000000,127.500000,112.000000,127.500000,80.000000,15.500000,40.000000,0.000000,0.000000,0.000000,1770299855.992532,0.000000
54.000000,8381.792412,14749.960870,3431.037477,4474.193391,-19149.208861,-9273.112926,1580.983589,914.767494,-18571.215102,-3423.236719,-685.818575,4280.537877,12917.430749,-18466.117199,-508.926870,1782.082234,-0.004000,-0.012000,1.002000,192.000000,0.000000,0.000000,0.000000,0.000000,0.000000,0.000000,0.000000,0.000000,0.000000,1770299855.992550,0.000000
56.000000,8406.401683,14776.447687,3456.339652,4507.206918,-19132.065073,-9249.665946,1608.051551,939.644985,-18596.293759,-3441.162818,-704.839910,4262.321205,12896.129536,-18475.169656,-530.384544,1754.120201,-0.004000,-0.012000,1.002000,192.000000,0.000000,0.000000,0.000000,0.000000,0.000000,0.000000,0.000000,0.000000,0.000000,1770299855.992566,0.000000
58.000000,8408.927430,14780.001614,3453.500981,4503.116548,-19134.434358,-9252.862245,1607.850386,939.913206,-18544.102436,-3405.355323,-664.629121,4301.548517,12938.463740,-18444.480711,-498.846233,1790.665304,-0.004000,-0.012000,1.002000,192.000000,0.000000,0.000000,0.000000,0.000000,0.000000,0.000000,0.000000,0.000000,0.000000,1770299855.992586,0.000000
60.000000,8387.402700,14752.084285,3431.015126,4479.803679,-19155.489702,-9285.182868,1585.297475,921.763590,-18596.427869,-3442.056887,-701.822424,4264.757546,12902.656246,-18484.043298,-535.301928,1743.011384,-0.004000,-0.012000,1.002000,192.000000,0.000000,0.000000,0.000000,0.000000,0.000000,0.000000,0.000000,0.000000,0.000000,1770299855.992602,0.000000
62.000000,8409.150947,14782.303844,3462.776955,4522.629621,-19131.461576,-9247.698992,1618.847444,945.992881,-18563.146122,-3422.700277,-675.559124,4288.383339,12920.671752,-18462.876196,-512.391390,1772.582742,-0.006000,-0.014000,1.004000,192.000000,127.500000,104.000000,127.500000,72.000000,15.500000,48.000000,0.000000,0.000000,0.000000,1770299855.992620,0.000000
64.000000,8382.418261,14750.296146,3425.963631,4482.172964,-19153.343934,-9267.815562,1582.794080,911.906470,-18575.618395,-3426.187149,-688.389026,4279.152069,12919.129481,-18472.643909,-512.547852,1777.455423,-0.006000,-0.014000,1.004000,192.000000,0.000000,0.000000,0.000000,0.000000,0.000000,0.000000,0.000000,0.000000,0.000000,1770299855.992635,0.000000
66.000000,8403.115976,14775.687727,3447.778934,4515.812339,-19126.365379,-9235.629050,1606.129301,933.475904,-18596.986663,-3436.848931,-708.170320,4262.745889,12910.926391,-18471.638080,-530.362192,1764.290245,-0.006000,-0.014000,1.004000,192.000000,0.000000,0.000000,0.000000,0.000000,0.000000,0.000000,0.000000,0.000000,0.000000,1770299855.992652,0.000000
68.000000,8392.968284,14766.322346,3441.140466,4502.401293,-19129.762844,-9242.133408,1598.820281,920.713058,-18550.182110,-3409.669210,-675.894401,4294.373607,12933.188728,-18441.485577,-492.967724,1802.087045,-0.006000,-0.014000,1.004000,192.000000,0.000000,0.000000,0.000000,0.000000,0.000000,0.000000,0.000000,0.000000,0.000000,1770299855.992669,0.000000
70.000000,8369.856580,14737.890928,3417.604079,4474.282798,-19149.342972,-9264.753373,1573.674568,896.975505,-18610.800041,-3455.579693,-721.402552,4244.551569,12882.204399,-18489.586531,-528.439942,1771.621617,-0.006000,-0.014000,1.004000,192.000000,0.000000,0.000000,0.000000,0.000000,0.000000,0.000000,0.000000,0.000000,0.000000,1770299855.992687,0.000000
72.000000,8402.646590,14779.711041,3453.724498,4518.695714,-19124.353722,-9215.266611,1609.727932,930.525473,-18570.969232,-3429.137579,-693.999314,4271.619531,12923.376313,-18468.777057,-504.568279,1802.757597,-0.002000,-0.012000,1.006000,192.000000,127.500000,120.000000,127.500000,80.000000,15.500000,56.000000,0.000000,0.000000,0.000000,1770299855.992704,0.000000
74.000000,8376.919732,14745.892852,3423.616698,4472.472307,-19147.845405,-9261.847646,1572.981664,902.026999,-18572.757372,-3431.909195,-693.820500,4269.429060,12921.342304,-18466.296013,-512.547852,1805.998600,-0.002000,-0.012000,1.006000,192.000000,0.000000,0.000000,0.000000,0.000000,0.000000,0.000000,0.000000,0.000000,0.000000,1770299856.471751,0.000000
76.000000,8410.201479,14783.376728,3455.758507,4509.196223,-19120.933905,-9230.935184,1602.351857,936.426334,-18588.895331,-3444.940262,-705.756331,4255.883903,12907.595981,-18477.963624,-531.032745,1774.661455,-0.002000,-0.012000,1.006000,192.000000,0.000000,0.000000,0.000000,0.000000,0.000000,0.000000,0.000000,0.000000,0.000000,1770299856.471827,0.000000
78.000000,8416.638782,14787.802373,3458.731289,4507.475139,-19124.800757,-9236.858396,1604.922307,943.221264,-18526.198688,-3395.274686,-655.442554,4308.857537,12975.522932,-18424.766472,-498.734474,1808.122016,-0.002000,-0.012000,1.006000,192.000000,0.000000,0.000000,0.000000,0.000000,0.000000,0.000000,0.000000,0.000000,0.000000,1770299856.471881,0.000000
80.000000,8399.316180,14762.500198,3438.033573,4479.736624,-19148.046571,-9269.648405,1582.861135,928.089133,-18579.351137,-3435.530178,-692.524098,4269.116136,12908.288885,-18476.756630,-536.263053,1758.098812,-0.002000,-0.012000,1.006000,192.000000,0.000000,0.000000,0.000000,0.000000,0.000000,0.000000,0.000000,0.000000,0.000000,1770299856.471936,0.000000
82.000000,8429.200462,14798.195934,3471.114155,4523.926023,-19124.353722,-9240.948765,1622.379020,958.263988,-18540.190880,-3415.324201,-662.706871,4295.826470,12931.646458,-18457.444722,-514.447750,1778.573010,-0.002000,-0.012000,1.012000,192.000000,127.500000,120.000000,127.500000,80.000000,15.500000,80.000000,0.000000,0.000000,0.000000,1770299856.471990,0.000000
84.000000,8387.536810,14749.625593,3431.372754,4472.338196,-19162.485798,-9284.758185,1581.944714,916.779151,-18558.854587,-3423.057905,-673.256895,4287.981008,12937.770836,-18462.451513,-519.163968,1772.694501,-0.002000,-0.012000,1.012000,192.000000,0.000000,0.000000,0.000000,0.000000,0.000000,0.000000,0.000000,0.000000,0.000000,1770299856.472039,0.000000
86.000000,8396.745729,14766.434105,3446.482533,4500.881374,-19137.451844,-9262.384088,1600.273144,928.111485,-18596.405518,-3446.884864,-705.488110,4257.873208,12901.762176,-18489.519476,-533.670251,1739.792733,-0.002000,-0.012000,1.012000,192.000000,0.000000,0.000000,0.000000,0.000000,0.000000,0.000000,0.000000,0.000000,0.000000,1770299856.472076,0.000000
88.000000,8386.061595,14757.091076,3442.012184,4493.929981,-19140.581088,-9262.540551,1594.595801,915.482749,-18551.992601,-3420.532157,-676.296732,4288.115119,12934.105150,-18458.025868,-498.086273,1791.067635,-0.002000,-0.012000,1.012000,192.000000,0.000000,0.000000,0.000000,0.000000,0.000000,0.000000,0.000000,0.000000,0.000000,1770299856.472106,0.000000
90.000000,8363.195761,14729.710189,3416.084160,4472.807583,-19157.993097,-9273.872885,1569.383033,892.885136,-18616.231515,-3459.178324,-723.548320,4244.506865,12891.323911,-18484.870313,-533.513788,1754.656643,-0.002000,-0.012000,1.012000,192.000000,0.000000,0.000000,0.000000,0.000000,0.000000,0.000000,0.000000,0.000000,0.000000,1770299856.472134,0.000000
92.000000,8405.172337,14777.431163,3454.819733,4525.065961,-19128.399387,-9235.919623,1611.292554,932.671241,-18574.187884,-3432.691506,-694.580459,4271.373662,12912.915696,-18467.346545,-509.396256,1784.540926,-0.002000,-0.012000,1.012000,192.000000,0.000000,0.000000,127.500000,104.000000,15.500000,80.000000,0.000000,0.000000,0.000000,1770299856.472150,0.000000
94.000000,8374.103412,14738.293259,3421.806207,4480.675397,-19155.869681,-9267.770859,1575.127432,902.295220,-18576.892445,-3428.869358,-692.412340,4276.939246,12930.640630,-18464.865502,-509.262146,1783.713911,-0.002000,-0.012000,1.012000,192.000000,0.000000,0.000000,0.000000,0.000000,0.000000,0.000000,0.000000,0.000000,0.000000,1770299856.472166,0.000000
96.000000,8399.137366,14765.383573,3446.795457,4510.202051,-19133.205012,-9242.044001,1599.423778,927.329174,-18601.121736,-3449.097687,-710.494901,4255.436868,12907.931257,-18476.421353,-529.110495,1757.607073,-0.002000,-0.012000,1.012000,192.000000,0.000000,0.000000,0.000000,0.000000,0.000000,0.000000,0.000000,0.000000,0.000000,1770299856.472183,0.000000
98.000000,8408.145119,14774.391326,3450.997585,4505.575240,-19141.966896,-9245.821446,1600.764883,933.364145,-18541.643744,-3413.446654,-665.076156,4293.926572,12944.431656,-18447.252327,-493.370055,1804.679847,-0.002000,-0.012000,1.012000,192.000000,0.000000,0.000000,0.000000,0.000000,0.000000,0.000000,0.000000,0.000000,0.000000,1770299856.472200,0.000000
100.000000,8388.140307,14749.603242,3430.523387,4476.853249,-19157.411952,-9265.356870,1576.692054,914.991011,-18594.170343,-3446.214312,-698.357904,4259.683700,12888.015853,-18475.594339,-538.073544,1762.323292,-0.002000,-0.012000,1.012000,192.000000,0.000000,0.000000,0.000000,0.000000,0.000000,0.000000,0.000000,0.000000,0.000000,1770299856.472217,0.000000
102.000000,8421.936145,14790.819858,3468.320187,4523.143711,-19116.016521,-9231.113998,1617.036953,946.819895,-18554.943032,-3420.778027,-671.669921,4284.695302,12943.023496,-18452.907318,-512.659611,1786.127899,-0.004000,-0.006000,1.006000,192.000000,127.500000,112.000000,127.500000,104.000000,15.500000,56.000000,0.000000,0.000000,0.000000,1770299856.472234,0.000000
104.000000,8385.681616,14747.457474,3432.110361,4475.959179,-19155.869681,-9273.448202,1580.514202,913.806369,-18563.682564,-3425.740114,-676.833174,4282.504831,12926.147929,-18455.254251,-515.587689,1777.991864,-0.004000,-0.006000,1.006000,192.000000,0.000000,0.000000,0.000000,0.000000,0.000000,0.000000,0.000000,0.000000,0.000000,1770299856.472250,0.000000
106.000000,8394.063520,14759.281547,3446.303719,4502.021313,-19143.978553,-9257.109077,1600.854290,925.518683,-18604.921532,-3455.691452,-708.483244,4255.392165,12894.207286,-18490.257083,-530.920986,1747.057050,-0.004000,-0.006000,1.006000,192.000000,0.000000,0.000000,0.000000,0.000000,0.000000,0.000000,0.000000,0.000000,0.000000,1770299856.472267,0.000000
108.000000,8397.483337,14761.047335,3444.493228,4498.445034,-19142.190414,-9250.224739,1598.976743,922.344735,-18554.943032,-3421.515634,-674.039206,4291.445528,12940.251880,-18458.204682,-495.918154,1795.448577,-0.004000,-0.006000,1.006000,192.000000,0.000000,0.000000,0.000000,0.000000,0.000000,0.000000,0.000000,0.000000,0.000000,1770299856.472284,0.000000
110.000000,8370.571836,14729.844300,3420.867434,4467.532571,-19166.889091,-9281.137202,1571.148821,896.573174,-18613.258733,-3461.145277,-718.094494,4247.010260,12877.197609,-18490.301787,-536.397163,1752.756745,-0.004000,-0.006000,1.006000,192.000000,0.000000,0.000000,0.000000,0.000000,0.000000,0.000000,0.000000,0.000000,0.000000,1770299856.472300,0.000000
112.000000,8404.390026,14770.524474,3460.608835,4509.576203,-19132.623867,-9248.458952,1608.051551,929.117314,-18573.249110,-3444.202655,-693.574630,4266.344519,12923.845699,-18465.603109,-504.791797,1773.320350,-0.004000,-0.008000,1.004000,192.000000,127.500000,112.000000,127.500000,88.000000,15.500000,40.000000,0.000000,0.000000,0.000000,1770299856.472318,0.000000
114.000000,8370.325967,14730.984239,3420.979192,4467.979606,-19167.492588,-9275.303397,1572.266408,896.997857,-18579.664061,-3442.369812,-694.133424,4267.618569,12917.497804,-18477.807162,-512.637259,1775.555524,-0.004000,-0.008000,1.004000,192.000000,0.000000,0.000000,0.000000,0.000000,0.000000,0.000000,0.000000,0.000000,0.000000,1770299856.472333,0.000000
116.000000,8391.738938,14756.554634,3443.487399,4498.869717,-19145.051437,-9248.548359,1597.054493,919.059029,-18610.196544,-3460.541780,-718.094494,4244.037478,12883.880780,-18490.525304,-534.653727,1748.822838,-0.004000,-0.008000,1.004000,192.000000,0.000000,0.000000,0.000000,0.000000,0.000000,0.000000,0.000000,0.000000,0.000000,1770299856.472350,0.000000
118.000000,8393.214153,14759.482713,3441.676908,4507.363380,-19143.330353,-9258.919568,1599.937868,920.422485,-18554.451293,-3418.542852,-676.989636,4287.712787,12944.655173,-18452.996725,-500.164986,1787.379597,-0.004000,-0.008000,1.004000,192.000000,0.000000,0.000000,0.000000,0.000000,0.000000,0.000000,0.000000,0.000000,0.000000,1770299856.472368,0.000000
120.000000,8373.231694,14732.280640,3419.682791,4479.826031,-19159.535367,-9277.806792,1575.686225,897.467243,-18608.386053,-3451.712841,-718.206253,4249.737173,12903.080929,-18477.650699,-542.655652,1757.987053,-0.004000,-0.008000,1.004000,192.000000,0.000000,0.000000,0.000000,0.000000,0.000000,0.000000,0.000000,0.000000,0.000000,1770299856.472384,0.000000
122.000000,8405.753482,14773.609015,3457.345481,4523.166063,-19125.046626,-9226.353076,1613.438322,930.056087,-18565.426000,-3427.908233,-688.724302,4275.374624,12910.948743,-18462.518568,-514.470102,1786.463176,-0.006000,-0.007000,1.004000,192.000000,127.500000,96.000000,127.500000,104.000000,15.500000,48.000000,0.000000,0.000000,0.000000,1770299856.472405,0.000000
124.000000,8372.315272,14736.259250,3421.806207,4472.494659,-19152.919251,-9274.275216,1573.763975,894.226240,-18574.411401,-3429.517559,-692.546450,4273.050043,12924.896231,-18463.792618,-511.989058,1783.557449,-0.006000,-0.007000,1.004000,192.000000,0.000000,0.000000,0.000000,0.000000,0.000000,0.000000,0.000000,0.000000,0.000000,1770299856.472422,0.000000
126.000000,8394.823479,14761.382611,3447.130733,4502.155423,-19130.589858,-9246.894329,1598.529708,920.400133,-18603.088689,-3449.187094,-715.926375,4250.430077,12894.274341,-18477.248368,-534.050230,1751.862675,-0.006000,-0.007000,1.004000,192.000000,0.000000,0.000000,0.000000,0.000000,0.000000,0.000000,0.000000,0.000000,0.000000,1770299856.472439,0.000000
128.000000,8402.087796,14771.731469,3449.902350,4500.702560,-19128.779367,-9247.073143,1600.295496,926.993898,-18548.908061,-3418.185224,-671.759328,4291.557287,12954.020554,-18452.840263,-494.420587,1791.067635,-0.006000,-0.007000,1.004000,192.000000,0.000000,0.000000,0.000000,0.000000,0.000000,0.000000,0.000000,0.000000,0.000000,1770299856.472457,0.000000
130.000000,8391.738938,14752.754838,3428.779951,4474.863943,-19146.124321,-9264.708670,1576.334426,912.554671,-18594.684433,-3443.174475,-704.258764,4260.108383,12906.187821,-18477.404830,-532.820884,1747.906416,-0.006000,-0.007000,1.004000,192.000000,0.000000,0.000000,0.000000,0.000000,0.000000,0.000000,0.000000,0.000000,0.000000,1770299856.472474,0.000000
132.000000,8432.553224,14797.480678,3471.292969,4521.422627,-19119.145765,-9228.431788,1617.327525,950.753802,-18544.348305,-3416.531195,-670.015892,4289.031540,12936.765008,-18444.704228,-512.927832,1777.075443,-0.004000,-0.007500,1.003000,192.000000,127.500000,120.000000,127.500000,96.000000,15.500000,40.000000,0.000000,0.000000,0.000000,1770299856.472491,0.000000
134.000000,8399.338531,14759.348602,3434.658460,4475.646254,-19152.740437,-9266.362699,1579.396615,916.443874,-18550.629145,-3416.441788,-671.893438,4286.774014,12951.763028,-18457.444722,-511.072637,1774.884972,-0.004000,-0.007500,1.003000,192.000000,0.000000,0.000000,0.000000,0.000000,0.000000,0.000000,0.000000,0.000000,0.000000,1770299856.472508,0.000000
136.000000,8414.269497,14776.760611,3457.189018,4502.580107,-19136.222498,-9248.660117,1601.614249,932.872407,-18583.642672,-3441.922777,-698.626125,4259.840162,12903.729129,-18480.288205,-535.816018,1740.552692,-0.004000,-0.007500,1.003000,192.000000,0.000000,0.000000,0.000000,0.000000,0.000000,0.000000,0.000000,0.000000,0.000000,1770299856.472525,0.000000
138.000000,8413.531889,14778.369937,3456.831390,4501.149595,-19138.100045,-9251.141161,1602.374208,930.056087,-18532.703046,-3410.250355,-659.711738,4295.714712,12955.763990,-18447.498196,-490.017294,1782.819841,-0.004000,-0.007500,1.003000,192.000000,0.000000,0.000000,0.000000,0.000000,0.000000,0.000000,0.000000,0.000000,0.000000,1770299856.472542,0.000000
140.000000,8387.201534,14747.390419,3429.919890,4473.880467,-19161.859949,-9273.604664,1574.590990,904.910374,-18593.432736,-3444.873207,-704.929317,4256.241531,12897.805917,-18476.913092,-530.876283,1748.956948,-0.004000,-0.007500,1.003000,192.000000,0.000000,0.000000,0.000000,0.000000,0.000000,0.000000,0.000000,0.000000,0.000000,1770299856.472560,0.000000
142.000000,8424.014857,14790.439879,3467.515524,4525.356534,-19122.543230,-9227.582422,1616.701676,942.282491,-18553.646630,-3423.415533,-680.543563,4280.873153,12939.693086,-18455.723638,-508.144558,1776.293132,-0.004000,-0.007500,1.003000,192.000000,0.000000,0.000000,127.500000,88.000000,15.500000,40.000000,0.000000,0.000000,0.000000,1770299856.472578,0.000000
144.000000,8389.079081,14751.100809,3428.847006,4483.022330,-19149.633545,-9269.983681,1578.524897,909.157206,-18559.323974,-3421.582689,-680.856488,4284.717653,12947.225624,-18450.940365,-510.536195,1782.663379,-0.004000,-0.007500,1.003000,192.000000,0.000000,0.000000,0.000000,0.000000,0.000000,0.000000,0.000000,0.000000,0.000000,1770299856.472595,0.000000
146.000000,8417.465796,14780.269835,3455.892617,4513.890089,-19125.471309,-9238.221853,1601.882470,933.073572,-18591.734003,-3442.436867,-704.616392,4259.482534,12897.336530,-18472.889778,-531.725649,1754.030794,-0.004000,-0.007500,1.003000,192.000000,0.000000,0.000000,0.000000,0.000000,0.000000,0.000000,0.000000,0.000000,0.000000,1770299856.472612,0.000000
148.000000,8404.479433,14765.696498,3450.863475,4502.535403,-19136.110739,-9249.777704,1595.512223,919.506063,-18535.228793,-3412.262012,-666.439613,4293.144261,12949.527854,-18440.904431,-501.863718,1800.678885,-0.004000,-0.007500,1.003000,192.000000,0.000000,0.000000,0.000000,0.000000,0.000000,0.000000,0.000000,0.000000,0.000000,1770299856.472629,0.000000
150.000000,8388.855563,14745.982259,3432.982079,4474.506316,-19151.287574,-9266.362699,1572.378167,901.803482,-18598.148954,-3456.004376,-713.914718,4245.758563,12902.075100,-18482.031641,-521.019163,1759.261103,-0.004000,-0.007500,1.003000,192.000000,0.000000,0.000000,0.000000,0.000000,0.000000,0.000000,0.000000,0.000000,0.000000,1770299856.472646,0.000000
152.000000,8425.959459,14790.641044,3473.014053,4518.025162,-19119.101062,-9227.068332,1610.487891,937.700383,-18551.031476,-3425.270727,-679.023645,4275.709900,12937.502615,-18456.729467,-505.261183,1777.433071,-0.004000,-0.007500,1.003000,192.000000,0.000000,0.000000,127.500000,72.000000,15.500000,56.000000,0.000000,0.000000,0.000000,1770299856.472664,0.000000
154.000000,8392.185973,14747.368067,3437.251262,4472.785231,-19150.527614,-9269.022556,1574.322769,904.373932,-18554.473645,-3429.003469,-681.258819,4275.084051,12950.556034,-18460.126932,-500.209689,1772.269818,-0.004000,-0.007500,1.003000,192.000000,0.000000,0.000000,0.000000,0.000000,0.000000,0.000000,0.000000,0.000000,0.000000,1770299856.472685,0.000000
156.000000,8414.649476,14772.357317,3460.966463,4507.966877,-19125.985399,-9238.177149,1600.563717,927.262119,-18584.022651,-3449.365908,-705.577517,4253.671080,12914.860298,-18464.910205,-524.595442,1748.599320,-0.004000,-0.007500,1.003000,192.000000,0.000000,0.000000,0.000000,0.000000,0.000000,0.000000,0.000000,0.000000,0.000000,1770299856.472703,0.000000
158.000000,8409.173299,14773.609015,3459.044213,4507.005752,-19130.679265,-9234.220890,1599.803758,923.797598,-18530.624334,-3412.127902,-665.858467,4292.943095,12944.319897,-18449.755722,-488.475023,1790.508841,-0.004000,-0.007500,1.003000,192.000000,0.000000,0.000000,0.000000,0.000000,0.000000,0.000000,0.000000,0.000000,0.000000,1770299856.472719,0.000000
160.000000,8392.476546,14750.877291,3434.524350,4479.580162,-19143.844443,-9265.021594,1574.613342,903.703380,-18588.224779,-3448.494190,-707.812692,4251.659423,12903.863240,-18464.373763,-528.194073,1751.080364,-0.004000,-0.007500,1.003000,192.000000,0.000000,0.000000,0.000000,0.000000,0.000000,0.000000,0.000000,0.000000,0.000000,1770299856.472737,0.000000
162.000000,8425.981811,14790.998672,3473.036405,4527.345839,-19115.636541,-9222.597983,1613.125397,938.616805,-18547.008162,-3424.443713,-679.470680,4277.453336,12940.453045,-18447.811120,-503.607154,1779.288266,-0.003000,-0.010750,1.002500,192.000000,127.500000,120.000000,127.500000,72.000000,15.500000,40.000000,0.000000,0.000000,0.000000,1770299856.472754,0.000000
164.000000,8397.617447,14757.180483,3437.988870,4485.503374,-19143.129187,-9255.969138,1577.452013,906.519700,-18553.378410,-3424.689582,-682.331703,4277.989778,12954.467589,-18445.665353,-503.271878,1777.813050,-0.003000,-0.010750,1.002500,192.000000,0.000000,0.000000,0.000000,0.000000,0.000000,0.000000,0.000000,0.000000,0.000000,1770299856.472771,0.000000
166.000000,8412.682523,14772.267911,3456.674928,4514.717104,-19126.365379,-9234.310297,1598.864984,921.070686,-18586.324881,-3447.868341,-709.556128,4252.575845,12909.473528,-18475.884912,-530.362192,1757.227094,-0.003000,-0.010750,1.002500,192.000000,0.000000,0.000000,0.000000,0.000000,0.000000,0.000000,0.000000,0.000000,0.000000,1770299856.472789,0.000000
168.000000,8410.827328,14769.898626,3456.205542,4513.375999,-19125.292495,-9231.784550,1598.216784,917.807331,-18542.224889,-3422.499111,-676.028511,4286.036406,12948.298508,-18439.071588,-488.206802,1809.194900,-0.003000,-0.010750,1.002500,192.000000,0.000000,0.000000,0.000000,0.000000,0.000000,0.000000,0.000000,0.000000,0.000000,1770299856.472806,0.000000
170.000000,8397.416281,14748.798579,3436.871283,4486.933885,-19136.758940,-9251.208216,1577.586124,902.697552,-18587.844800,-3453.031594,-711.098398,4251.681775,12911.015798,-18473.314461,-523.388448,1761.786850,-0.003000,-0.010750,1.002500,192.000000,0.000000,0.000000,0.000000,0.000000,0.000000,0.000000,0.000000,0.000000,0.000000,1770299856.472823,0.000000
172.000000,8433.313183,14793.591475,3472.231742,4535.191302,-19109.780384,-9210.013951,1616.724028,940.673165,-18546.985811,-3425.270727,-681.459985,4280.739043,12930.193595,-18442.245536,-507.496358,1796.476757,-0.003000,-0.010750,1.002500,192.000000,0.000000,0.000000,127.500000,80.000000,15.500000,48.000000,0.000000,0.000000,0.000000,1770299856.472840,0.000000
174.000000,8399.517345,14752.285451,3438.078277,4481.010673,-19142.257469,-9255.231530,1576.602647,905.111540,-18553.020782,-3427.640012,-682.152889,4281.566057,12929.143063,-18454.404885,-513.710143,1798.756635,-0.003000,-0.010750,1.002500,192.000000,0.000000,0.000000,0.000000,0.000000,0.000000,0.000000,0.000000,0.000000,0.000000,1770299856.472858,0.000000
176.000000,8431.480340,14787.467097,3468.342539,4513.018371,-19118.542268,-9230.354039,1605.794025,935.711078,-18579.909930,-3450.416440,-701.084817,4259.281368,12910.613467,-18472.509798,-522.270861,1754.544885,-0.003000,-0.010750,1.002500,192.000000,0.000000,0.000000,0.000000,0.000000,0.000000,0.000000,0.000000,0.000000,0.000000,1770299856.472875,0.000000
178.000000,8425.333610,14783.466134,3464.810963,4504.368246,-19128.511146,-9242.803960,1603.223575,929.854921,-18520.409586,-3410.809149,-656.224865,4302.084959,12956.725115,-18427.694550,-493.504166,1793.302809,-0.003000,-0.010750,1.002500,192.000000,0.000000,0.000000,0.000000,0.000000,0.000000,0.000000,0.000000,0.000000,0.000000,1770299856.472892,0.000000
180.000000,8399.584401,14754.565329,3443.330937,4478.797850,-19148.627716,-9268.866094,1580.313036,909.984220,-18587.733041,-3456.160838,-704.281116,4254.609854,12906.567801,-18493.900418,-523.120227,1749.024004,-0.003000,-0.010750,1.002500,192.000000,0.000000,0.000000,0.000000,0.000000,0.000000,0.000000,0.000000,0.000000,0.000000,1770299856.472911,0.000000
182.000000,8431.592099,14794.642007,3479.764280,4527.770523,-19109.467460,-9229.907004,1616.835787,941.969567,-18545.957630,-3425.203672,-675.402662,4286.326979,12934.172205,-18457.198853,-501.975477,1775.220248,-0.003000,-0.010750,1.002500,192.000000,0.000000,0.000000,0.000000,0.000000,0.000000,0.000000,0.000000,0.000000,0.000000,1770299856.472928,0.000000
184.000000,8399.271476,14753.939480,3443.688565,4483.558772,-19140.894013,-9261.467667,1580.290685,908.509005,-18552.082008,-3426.365963,-679.560087,4284.605895,12944.610470,-18457.087094,-494.822919,1772.918018,0.004000,-0.006000,1.010000,192.000000,0.000000,16.000000,127.500000,104.000000,15.500000,72.000000,0.000000,0.000000,0.000000,1770299856.472946,0.000000
186.000000,8413.062503,14769.988033,3461.838181,4512.437226,-19123.750225,-9238.937108,1601.010752,922.568252,-18585.341404,-3450.908178,-706.337477,4257.694394,12906.009007,-18472.330984,-519.812169,1751.952082,0.004000,-0.006000,1.010000,192.000000,0.000000,0.000000,0.000000,0.000000,0.000000,0.000000,0.000000,0.000000,0.000000,1770299856.472966,0.000000
188.000000,8410.201479,14766.635271,3459.044213,4509.330333,-19125.381902,-9239.518254,1597.412121,917.270889,-18534.647648,-3421.917966,-670.887610,4289.702092,12971.656081,-18440.613859,-489.614962,1805.283344,0.004000,-0.006000,1.010000,192.000000,0.000000,0.000000,0.000000,0.000000,0.000000,0.000000,0.000000,0.000000,0.000000,1770299856.472984,0.000000
190.000000,8386.553334,14735.186366,3431.931547,4478.350816,-19150.795835,-9266.027423,1569.763013,892.303990,-18595.422041,-3462.665196,-714.495863,4245.378583,12892.732071,-18480.332909,-524.304870,1748.912245,0.004000,-0.006000,1.010000,192.000000,0.000000,0.000000,0.000000,0.000000,0.000000,0.000000,0.000000,0.000000,0.000000,1770299856.473002,0.000000
192.000000,8422.852567,14783.756707,3470.533010,4528.731648,-19117.491736,-9226.084855,1610.577298,932.112447,-18561.179168,-3438.726477,-687.696122,4273.117098,12926.527909,-18470.855769,-506.579936,1780.897591,0.004000,-0.006000,1.010000,192.000000,0.000000,0.000000,0.000000,0.000000,0.000000,0.000000,0.000000,0.000000,0.000000,1770299856.473019,0.000000
194.000000,8389.369653,14747.815102,3434.278480,4482.999978,-19149.342972,-9263.322862,1572.959313,902.317572,-18566.543587,-3437.921815,-690.020703,4276.022825,12923.957458,-18458.137626,-505.104721,1786.172603,0.002000,-0.004000,1.010000,192.000000,0.000000,8.000000,127.500000,112.000000,15.500000,72.000000,0.000000,0.000000,0.000000,1770299856.952754,0.000000
196.000000,8424.774817,14783.846114,3468.499001,4519.098046,-19120.665684,-9227.560070,1602.485967,935.219340,-18583.441506,-3449.209446,-703.141177,4263.505848,12905.807842,-18472.956833,-528.216425,1758.791716,0.002000,-0.004000,1.010000,192.000000,0.000000,0.000000,0.000000,0.000000,0.000000,0.000000,0.000000,0.000000,0.000000,1770299856.952818,0.000000
198.000000,8420.125654,14779.599283,3466.219123,4513.375999,-19119.145765,-9235.092608,1600.206089,929.586700,-18526.645723,-3410.764445,-660.426993,4305.013037,12962.737735,-18437.618725,-488.765596,1808.457292,0.002000,-0.004000,1.010000,192.000000,0.000000,0.000000,0.000000,0.000000,0.000000,0.000000,0.000000,0.000000,0.000000,1770299856.952866,0.000000
200.000000,8399.562049,14753.470093,3443.152123,4481.480060,-19139.798777,-9263.456972,1573.652217,907.190252,-18588.493000,-3449.276501,-707.767988,4259.013147,12917.073121,-18475.661394,-521.846178,1757.383556,0.002000,-0.004000,1.010000,192.000000,0.000000,0.000000,0.000000,0.000000,0.000000,0.000000,0.000000,0.000000,0.000000,1770299856.952918,0.000000
202.000000,8441.493921,14805.057920,3487.833260,4531.860892,-19106.829954,-9222.486224,1619.339182,949.680918,-18538.603906,-3421.940317,-672.519287,4290.797328,12941.168301,-18447.609955,-495.873451,1776.851925,0.002000,-0.004000,1.010000,192.000000,0.000000,0.000000,0.000000,0.000000,0.000000,0.000000,0.000000,0.000000,0.000000,1770299856.952962,0.000000
204.000000,8411.006142,14768.512817,3449.544722,4484.206973,-19142.145710,-9262.495847,1581.452975,916.622688,-18540.995543,-3417.067637,-669.948837,4293.904220,12943.962269,-18447.632307,-504.098893,1783.915077,0.004000,0.000000,1.010000,192.000000,0.000000,16.000000,0.000000,0.000000,15.500000,72.000000,0.000000,0.000000,0.000000,1770299856.953006,0.000000
206.000000,8430.161587,14785.947178,3471.740004,4512.303115,-19117.648198,-9236.746637,1604.341162,935.778133,-18572.891482,-3441.498094,-694.669866,4267.260941,12924.739769,-18463.099714,-521.332088,1756.467135,0.004000,0.000000,1.010000,192.000000,0.000000,0.000000,0.000000,0.000000,0.000000,0.000000,0.000000,0.000000,0.000000,1770299856.953049,0.000000
208.000000,8424.908927,14780.940387,3467.381414,4508.078636,-19121.917382,-9242.468684,1601.413083,929.698459,-18526.198688,-3420.219233,-661.723395,4298.843956,12972.617206,-18447.453493,-480.830727,1794.912135,0.004000,0.000000,1.010000,192.000000,0.000000,0.000000,0.000000,0.000000,0.000000,0.000000,0.000000,0.000000,0.000000,1770299856.953065,0.000000
210.000000,8402.356017,14753.961832,3441.006355,4481.502412,-19141.564565,-9251.699954,1574.278065,904.239822,-18580.893407,-3451.891655,-703.655267,4259.840162,12913.139214,-18478.768287,-520.929756,1756.757707,0.004000,0.000000,1.010000,192.000000,0.000000,0.000000,0.000000,0.000000,0.000000,0.000000,0.000000,0.000000,0.000000,1770299856.953081,0.000000
212.000000,8432.262651,14791.311597,3478.311417,4535.258357,-19100.929093,-9202.481413,1614.265336,934.794657,-18542.761331,-3429.517559,-679.895363,4283.890639,12955.071086,-18445.039504,-496.521651,1785.613809,0.004000,0.000000,1.010000,192.000000,0.000000,0.000000,0.000000,0.000000,0.000000,0.000000,0.000000,0.000000,0.000000,1770299856.953098,0.000000
214.000000,8390.554296,14744.082361,3436.156027,4489.012598,-19141.184585,-9256.930263,1572.042891,892.639267,-18555.166549,-3434.233777,-688.053750,4278.213296,12930.931202,-18452.415580,-488.899706,1798.846042,0.004000,0.000000,1.010000,192.000000,0.000000,0.000000,0.000000,0.000000,15.500000,72.000000,0.000000,0.000000,0.000000,1770299856.953111,0.000000
216.000000,8412.190784,14767.529341,3459.424193,4519.634488,-19118.631675,-9232.700972,1595.378112,915.929784,-18589.588236,-3457.256074,-714.428808,4251.212388,12908.668865,-18472.107467,-520.907405,1775.019082,0.004000,0.000000,1.010000,192.000000,0.000000,0.000000,0.000000,0.000000,0.000000,0.000000,0.000000,0.000000,0.000000,1770299856.953123,0.000000
218.000000,8422.047904,14779.733393,3465.839143,4522.227290,-19117.514088,-9226.241318,1600.407255,923.261156,-18535.005276,-3420.196881,-670.842906,4294.775938,12964.123543,-18436.098806,-479.199049,1812.078275,0.004000,0.000000,1.010000,192.000000,0.000000,0.000000,0.000000,0.000000,0.000000,0.000000,0.000000,0.000000,0.000000,1770299856.953142,0.000000
220.000000,8409.240354,14761.024983,3443.241530,4492.477118,-19134.590821,-9257.377298,1575.283894,907.234956,-18584.380279,-3445.968443,-703.543508,4264.981063,12916.067292,-18454.561347,-524.595442,1766.994806,0.004000,0.000000,1.010000,192.000000,0.000000,0.000000,0.000000,0.000000,0.000000,0.000000,0.000000,0.000000,0.000000,1770299856.953154,0.000000
222.000000,8447.797113,14806.354321,3481.127737,4534.185473,-19103.745413,-9214.059617,1615.695848,942.617767,-18541.330819,-3420.286288,-673.793337,4290.104424,12979.076860,-18433.506004,-500.723779,1783.468042,0.004000,0.000000,1.010000,192.000000,0.000000,0.000000,0.000000,0.000000,0.000000,0.000000,0.000000,0.000000,0.000000,1770299856.953166,0.000000
224.000000,8420.527985,14771.217379,3448.941225,4484.966932,-19141.564565,-9254.985661,1580.044816,913.158168,-18538.380389,-3419.928660,-670.239409,4291.020845,12926.393798,-18447.721714,-497.371018,1785.613809,-0.004000,-0.012000,1.008000,192.000000,127.500000,112.000000,127.500000,80.000000,15.500000,64.000000,0.000000,0.000000,0.000000,1770299856.953177,0.000000
226.000000,8437.448256,14792.406832,3467.269655,4511.386694,-19116.999998,-9227.090684,1600.094330,931.218377,-18564.978965,-3442.190998,-693.820500,4265.830429,12920.224717,-18461.937423,-517.845216,1749.627501,-0.004000,-0.012000,1.008000,192.000000,0.000000,0.000000,0.000000,0.000000,0.000000,0.000000,0.000000,0.000000,0.000000,1770299856.953205,0.000000
228.000000,8431.636802,14790.931617,3466.643806,4514.851214,-19123.973742,-9235.472588,1602.910650,929.765514,-18519.090834,-3407.568146,-660.047014,4305.549479,12965.710517,-18435.070626,-495.314657,1799.449539,-0.004000,-0.012000,1.008000,192.000000,0.000000,0.000000,0.000000,0.000000,0.000000,0.000000,0.000000,0.000000,0.000000,1770299856.953218,0.000000
230.000000,8407.206345,14759.326250,3438.525312,4483.826993,-19141.542213,-9262.182923,1574.993321,904.329229,-18583.061526,-3444.470876,-706.873918,4264.131697,12918.235411,-18471.325156,-516.884091,1752.466172,-0.004000,-0.012000,1.008000,192.000000,0.000000,0.000000,0.000000,0.000000,0.000000,0.000000,0.000000,0.000000,0.000000,1770299856.953232,0.000000
232.000000,8436.710648,14796.676015,3476.813850,4533.514921,-19110.517992,-9215.579535,1613.371267,936.448686,-18548.706895,-3423.996678,-681.862316,4289.433871,12931.489996,-18449.576908,-491.872488,1793.034588,-0.004000,-0.012000,1.008000,192.000000,0.000000,0.000000,0.000000,0.000000,0.000000,0.000000,0.000000,0.000000,0.000000,1770299856.953249,0.000000
234.000000,8404.188860,14756.487579,3440.984004,4485.659836,-19138.345914,-9255.522103,1572.311112,900.663543,-18551.210290,-3423.393181,-682.063482,4288.629209,12947.538548,-18444.771283,-494.912326,1789.950048,-0.002000,-0.010000,1.004000,192.000000,127.500000,120.000000,127.500000,88.000000,15.500000,48.000000,0.000000,0.000000,0.000000,1770299856.953265,0.000000
236.000000,8424.864224,14780.649815,3467.046138,4517.399313,-19113.758995,-9231.762198,1597.389769,922.545901,-18578.211198,-3450.259978,-704.057599,4260.555418,12932.227603,-18460.953946,-509.306849,1763.195010,-0.002000,-0.010000,1.004000,192.000000,0.000000,0.000000,0.000000,0.000000,0.000000,0.000000,0.000000,0.000000,0.000000,1770299856.953282,0.000000
238.000000,8429.602793,14786.461268,3470.175382,4520.662668,-19116.329445,-9228.208271,1602.463615,925.943366,-18522.331837,-3415.681829,-661.611636,4299.536860,12968.459781,-18428.879193,-478.059110,1806.423283,-0.002000,-0.010000,1.004000,192.000000,0.000000,0.000000,0.000000,0.000000,0.000000,0.000000,0.000000,0.000000,0.000000,1770299856.953300,0.000000
240.000000,8404.546488,14756.241710,3442.213350,4489.549040,-19142.480986,-9251.677603,1574.322769,902.161110,-18577.428887,-3448.605949,-701.129520,4263.349386,12913.318028,-18465.647813,-517.442884,1761.876257,-0.002000,-0.010000,1.004000,192.000000,0.000000,0.000000,0.000000,0.000000,0.000000,0.000000,0.000000,0.000000,0.000000,1770299856.953317,0.000000
242.000000,8437.582366,14792.563294,3478.490231,4538.253491,-19106.226457,-9212.047960,1615.718200,935.152285,-18543.297773,-3432.713858,-678.643665,4283.153031,12953.931147,-18450.538033,-496.320486,1788.675998,-0.002000,-0.010000,1.004000,192.000000,0.000000,0.000000,0.000000,0.000000,0.000000,0.000000,0.000000,0.000000,0.000000,1770299856.953335,0.000000
244.000000,8406.602848,14757.091076,3440.447562,4490.063130,-19134.769635,-9244.860321,1576.401481,901.155281,-18544.370657,-3428.154102,-677.168450,4286.706959,12939.827197,-18431.986085,-500.008523,1789.346551,-0.002000,-0.006000,1.000000,192.000000,127.500000,120.000000,127.500000,104.000000,15.500000,32.000000,0.000000,0.000000,0.000000,1770299856.953353,0.000000
246.000000,8425.087741,14776.246521,3462.844010,4514.135958,-19122.297361,-9230.734018,1594.953429,918.947270,-18581.318090,-3454.640920,-707.052732,4256.509752,12917.766025,-18468.173560,-519.298079,1759.104640,-0.002000,-0.006000,1.000000,192.000000,0.000000,0.000000,0.000000,0.000000,0.000000,0.000000,0.000000,0.000000,0.000000,1770299856.953370,0.000000
248.000000,8443.460875,14796.363091,3473.751661,4519.902709,-19110.428585,-9219.982829,1603.178871,931.978337,-18517.772081,-3412.105550,-660.047014,4302.375531,12974.494752,-18435.316495,-479.087291,1796.521461,-0.002000,-0.006000,1.000000,192.000000,0.000000,0.000000,0.000000,0.000000,0.000000,0.000000,0.000000,0.000000,0.000000,1770299856.953386,0.000000
250.000000,8419.633915,14768.110486,3446.951919,4489.526688,-19138.368265,-9249.688297,1574.859211,908.307839,-18563.481398,-3438.681774,-694.513404,4270.591351,12933.971040,-18455.813045,-519.990983,1748.219341,-0.002000,-0.006000,1.000000,192.000000,0.000000,0.000000,0.000000,0.000000,0.000000,0.000000,0.000000,0.000000,0.000000,1770299856.953405,0.000000
252.000000,8444.779628,14803.247428,3480.054853,4533.671383,-19108.260466,-9217.300620,1612.454845,936.649851,-18528.657380,-3417.313506,-671.200534,4293.747758,12972.997185,-18441.776149,-500.969648,1778.774175,-0.002000,-0.006000,1.000000,192.000000,0.000000,0.000000,0.000000,0.000000,0.000000,0.000000,0.000000,0.000000,0.000000,1770299856.953431,0.000000
254.000000,8411.386122,14764.154227,3442.235701,4487.291513,-19141.095178,-9255.231530,1575.328597,902.630496,-18538.089816,-3420.800378,-674.575648,4291.646694,12959.206159,-18447.744065,-488.363265,1782.350455,0.000000,-0.006000,1.001000,192.000000,0.000000,8.000000,127.500000,104.000000,15.500000,40.000000,0.000000,0.000000,0.000000,1770299856.953447,0.000000
0.000000,8427.501729,14781.298015,3463.939245,4511.140825,-19121.291533,-9231.829254,1595.311057,919.796636,-18575.685451,-3452.942187,-703.118825,4260.309548,12918.637743,-18470.274624,-516.437056,1761.026890,0.000000,-0.006000,1.001000,192.000000,0.000000,0.000000,0.000000,0.000000,0.000000,0.000000,0.000000,0.000000,0.000000,1770299856.953463,0.000000
2.000000,8424.059561,14783.980225,3466.912027,4515.968801,-19117.581143,-9226.844815,1599.781406,919.103732,-18526.846889,-3417.559375,-665.545543,4298.642790,12972.974834,-18435.472958,-472.873506,1792.654609,0.000000,-0.006000,1.001000,192.000000,0.000000,0.000000,0.000000,0.000000,0.000000,0.000000,0.000000,0.000000,0.000000,1770299856.953479,0.000000
4.000000,8392.990636,14746.071666,3435.261957,4484.899877,-19146.638411,-9258.494885,1569.137164,890.225278,-18591.264616,-3453.791553,-712.774779,4258.342595,12909.048844,-18468.285318,-515.610041,1770.995768,0.000000,-0.006000,1.001000,192.000000,0.000000,0.000000,0.000000,0.000000,0.000000,0.000000,0.000000,0.000000,0.000000,1770299856.953494,0.000000
6.000000,8423.053732,14781.365071,3467.895504,4529.469255,-19109.489812,-9219.401684,1605.436397,918.500235,-18560.486264,-3439.955823,-692.501747,4276.022825,12936.429731,-18457.087094,-494.331180,1789.771234,0.000000,-0.006000,1.001000,192.000000,0.000000,0.000000,0.000000,0.000000,0.000000,0.000000,0.000000,0.000000,0.000000,1770299856.953510,0.000000
8.000000,8396.075177,14749.133855,3432.356230,4488.945542,-19145.990210,-9248.280138,1569.628903,889.890002,-18564.442523,-3442.146294,-694.133424,4276.760432,12933.501653,-18451.432103,-492.341875,1787.960742,0.001000,-0.005000,1.001500,192.000000,0.000000,8.000000,127.500000,112.000000,15.500000,40.000000,0.000000,0.000000,0.000000,1770299856.953551,0.000000
10.000000,8419.231584,14774.771306,3456.652577,4519.366267,-19121.716216,-9217.658248,1592.293572,912.688781,-18589.923512,-3458.150143,-715.300526,4255.883903,12905.785490,-18477.963624,-517.822864,1762.055071,0.001000,-0.005000,1.001500,192.000000,0.000000,0.000000,0.000000,0.000000,0.000000,0.000000,0.000000,0.000000,0.000000,1770299856.953568,0.000000
12.000000,8433.246128,14792.585646,3467.090841,4525.803569,-19107.120527,-9210.103358,1599.803758,923.328212,-18525.170508,-3416.575899,-666.305502,4301.190889,12957.619185,-18433.327190,-483.602343,1805.283344,0.001000,-0.005000,1.001500,192.000000,0.000000,0.000000,0.000000,0.000000,0.000000,0.000000,0.000000,0.000000,0.000000,1770299856.953582,0.000000
14.000000,8413.040151,14766.992899,3446.080201,4495.159327,-19134.009675,-9243.295699,1576.312074,903.390456,-18575.461933,-3443.018012,-698.782587,4269.719633,12931.244127,-18451.387400,-510.022105,1766.905399,0.001000,-0.005000,1.001500,192.000000,0.000000,0.000000,0.000000,0.000000,0.000000,0.000000,0.000000,0.000000,0.000000,1770299856.953597,0.000000
16.000000,8450.993413,14813.193955,3485.061644,4540.131037,-19106.673492,-9205.968285,1616.500511,941.164904,-18535.675828,-3422.499111,-671.982845,4293.054854,12976.260540,-18440.837376,-492.096006,1787.200783,0.001000,-0.005000,1.001500,192.000000,0.000000,0.000000,0.000000,0.000000,0.000000,0.000000,0.000000,0.000000,0.000000,1770299856.953613,0.000000
18.000000,8422.472587,14776.000652,3447.890693,4489.481984,-19141.922193,-9254.136295,1578.435490,911.168863,-18530.512575,-3416.598250,-665.903171,4299.067473,12968.213912,-18439.965658,-495.560526,1779.690597,-0.002500,-0.008500,1.002750,192.000000,127.500000,104.000000,127.500000,80.000000,15.500000,48.000000,0.000000,0.000000,0.000000,1770299856.953629,0.000000
20.000000,8439.079933,14793.569123,3468.074318,4518.248679,-19122.029140,-9230.689315,1600.787234,930.927805,-18563.973136,-3441.498094,-690.423034,4274.122926,12926.080874,-18462.853845,-520.929756,1744.576006,-0.002500,-0.008500,1.002750,192.000000,0.000000,0.000000,0.000000,0.000000,0.000000,0.000000,0.000000,0.000000,0.000000,1770299856.953645,0.000000
22.000000,8438.968174,14798.307693,3470.845934,4525.088313,-19116.351797,-9212.718512,1605.145825,933.542959,-18513.927581,-3405.400026,-653.117973,4312.523223,12971.253749,-18418.284466,-485.412834,1789.927696,-0.002500,-0.008500,1.002750,192.000000,0.000000,0.000000,0.000000,0.000000,0.000000,0.000000,0.000000,0.000000,0.000000,1770299856.953681,0.000000
24.000000,8398.466813,14750.609070,3437.430076,4486.844478,-19140.983420,-9257.243187,1570.411214,893.332171,-18573.003241,-3439.352326,-699.497843,4271.239551,12923.532775,-18466.139551,-519.275727,1766.748937,-0.002500,-0.008500,1.002750,192.000000,0.000000,0.000000,0.000000,0.000000,0.000000,0.000000,0.000000,0.000000,0.000000,1770299856.953704,0.000000
26.000000,8433.447293,14793.613826,3475.986835,4537.247662,-19101.800812,-9204.291904,1610.599650,926.345697,-18545.577651,-3428.601137,-684.276305,4285.321150,12946.040982,-18446.470016,-481.210706,1790.307676,-0.002500,-0.008500,1.002750,192.000000,0.000000,0.000000,0.000000,0.000000,0.000000,0.000000,0.000000,0.000000,0.000000,1770299856.953727,0.000000
28.000000,8403.227735,14761.002631,3439.195864,4491.851269,-19136.557774,-9237.640707,1571.171173,891.119348,-18551.120883,-3424.466065,-685.416244,4289.232706,12954.713458,-18436.143510,-476.785061,1800.947106,-0.004250,-0.012250,1.004375,192.000000,127.500000,104.000000,127.500000,64.000000,15.500000,56.000000,0.000000,0.000000,0.000000,1770299856.953743,0.000000
30.000000,8425.601831,14788.160001,3458.530123,4524.820092,-19111.523820,-9213.523175,1593.455862,911.772360,-18585.900198,-3446.773105,-714.585270,4260.376604,12931.154720,-18464.284356,-507.585765,1767.799469,-0.004250,-0.012250,1.004375,192.000000,0.000000,0.000000,0.000000,0.000000,0.000000,0.000000,0.000000,0.000000,0.000000,1770299856.953760,0.000000
32.000000,8435.123674,14795.111393,3465.257998,4530.318621,-19110.205067,-9204.291904,1599.982572,918.611994,-18519.537868,-3400.460291,-662.684520,4309.796311,12956.143970,-18413.635303,-475.801584,1805.931545,-0.004250,-0.012250,1.004375,192.000000,0.000000,0.000000,0.000000,0.000000,0.000000,0.000000,0.000000,0.000000,0.000000,1770299856.953777,0.000000
34.000000,8404.524136,14756.420524,3438.391201,4493.013560,-19135.887222,-9243.161588,1572.825202,891.052293,-18583.463858,-3445.856684,-705.666924,4265.316339,12912.021626,-18449.129873,-505.931736,1767.710062,-0.004250,-0.012250,1.004375,192.000000,0.000000,0.000000,0.000000,0.000000,0.000000,0.000000,0.000000,0.000000,0.000000,1770299856.953795,0.000000
36.000000,8438.476436,14796.631312,3479.116080,4537.202959,-19104.214800,-9199.888611,1613.281860,925.585738,-18552.260822,-3428.779951,-684.164546,4285.745834,12931.199423,-18444.771283,-487.603305,1797.817862,-0.004250,-0.012250,1.004375,192.000000,0.000000,0.000000,0.000000,0.000000,0.000000,0.000000,0.000000,0.000000,0.000000,1770299856.953811,0.000000
38.000000,8405.351151,14755.839378,3445.141428,4492.343008,-19133.272068,-9238.311260,1577.831993,893.756854,-18554.473645,-3427.707067,-682.622276,4289.590334,12955.875749,-18440.546804,-489.972590,1792.296981,-0.004250,-0.012250,1.004375,192.000000,0.000000,0.000000,127.500000,72.000000,15.500000,56.000000,0.000000,0.000000,0.000000,1770299856.953844,0.000000
40.000000,8424.819520,14776.134762,3462.262864,4518.293383,-19117.424681,-9226.621297,1597.479176,911.325325,-18590.370547,-3453.568036,-711.679543,4261.382432,12899.996388,-18471.258100,-516.124131,1762.658568,-0.004250,-0.012250,1.004375,192.000000,0.000000,0.000000,0.000000,0.000000,0.000000,0.000000,0.000000,0.000000,0.000000,1770299856.953865,0.000000
42.000000,8431.122712,14786.170696,3466.420289,4521.914366,-19118.072881,-9225.123730,1602.843595,916.041543,-18534.692351,-3416.955878,-672.049901,4301.995552,12974.315938,-18429.817966,-484.697579,1793.392216,-0.004250,-0.012250,1.004375,192.000000,0.000000,0.000000,0.000000,0.000000,0.000000,0.000000,0.000000,0.000000,0.000000,1770299856.953880,0.000000
44.000000,8401.394892,14754.610032,3432.691506,4486.531554,-19147.644239,-9261.065335,1571.037063,888.839470,-18584.223817,-3443.085068,-706.896270,4272.088918,12919.777682,-18461.736257,-522.002640,1752.332062,-0.004250,-0.012250,1.004375,192.000000,0.000000,0.000000,0.000000,0.000000,0.000000,0.000000,0.000000,0.000000,0.000000,1770299856.953897,0.000000
46.000000,8435.660116,14796.385443,3467.157896,4533.671383,-19122.185602,-9219.535794,1609.347953,925.563386,-18562.766142,-3436.647765,-693.306410,4283.465956,12928.472510,-18458.897586,-504.054189,1784.630333,-0.004250,-0.012250,1.004375,192.000000,0.000000,0.000000,0.000000,0.000000,0.000000,0.000000,0.000000,0.000000,0.000000,1770299856.953914,0.000000
48.000000,8411.542584,14767.082306,3439.285271,4491.046606,-19154.886205,-9249.017745,1574.926266,898.517775,-18555.390067,-3424.108437,-680.632970,4293.881869,12943.984621,-18435.584716,-502.869547,1785.323237,-0.004125,-0.012125,1.005187,192.000000,127.500000,112.000000,127.500000,80.000000,15.500000,56.000000,0.000000,0.000000,0.000000,1770299856.953930,0.000000
50.000000,8430.742732,14783.577893,3465.570923,4514.940621,-19130.947486,-9222.218004,1595.333409,917.740276,-18586.458991,-3448.695355,-701.487148,4268.669101,12888.999330,-18457.578833,-523.388448,1754.231960,-0.004125,-0.012125,1.005187,192.000000,0.000000,0.000000,0.000000,0.000000,0.000000,0.000000,0.000000,0.000000,0.000000,1770299856.953948,0.000000
52.000000,8426.272383,14777.721736,3464.408632,4518.516900,-19124.711350,-9223.201480,1597.054493,914.141645,-18536.793415,-3421.672096,-663.176258,4304.320133,12943.247013,-18439.742141,-487.603305,1801.662362,-0.004125,-0.012125,1.005187,192.000000,0.000000,0.000000,0.000000,0.000000,0.000000,0.000000,0.000000,0.000000,0.000000,1770299856.953965,0.000000
54.000000,8396.745729,14738.449721,3436.044268,4485.324560,-19146.638411,-9251.945824,1566.499658,883.139775,-18601.971102,-3461.994643,-714.026477,4258.990795,12901.784528,-18483.417449,-515.230061,1767.821821,-0.004125,-0.012125,1.005187,192.000000,0.000000,0.000000,0.000000,0.000000,0.000000,0.000000,0.000000,0.000000,0.000000,1770299856.953981,0.000000
56.000000,8431.614450,14780.605111,3473.796365,4533.045534,-19104.885352,-9205.655361,1605.212880,916.645040,-18559.145160,-3444.403821,-691.585325,4278.481517,12930.104188,-18453.734333,-482.954142,1784.585629,-0.004125,-0.012125,1.005187,192.000000,0.000000,0.000000,0.000000,0.000000,0.000000,0.000000,0.000000,0.000000,0.000000,1770299856.953999,0.000000
58.000000,8407.228697,14754.587681,3439.933472,4494.600534,-19120.576277,-9230.175225,1572.825202,890.560554,-18554.607755,-3431.685678,-688.120805,4287.310456,12961.061354,-18446.425312,-480.316637,1789.838289,-0.004063,-0.013063,1.006594,192.000000,127.500000,112.000000,127.500000,72.000000,15.500000,64.000000,0.000000,0.000000,0.000000,1770299857.433904,0.000000
60.000000,8424.014857,14774.793658,3461.525257,4518.919232,-19108.908666,-9217.166509,1593.947601,909.157206,-18581.005166,-3450.729364,-709.600831,4263.081165,12907.908905,-18461.691554,-501.506090,1756.802411,-0.004063,-0.013063,1.006594,192.000000,0.000000,0.000000,0.000000,0.000000,0.000000,0.000000,0.000000,0.000000,0.000000,1770299857.433974,0.000000
62.000000,8431.703857,14782.952044,3467.716690,4520.059171,-19106.025291,-9214.596059,1599.066150,916.577985,-18520.789566,-3417.738189,-664.696177,4300.743854,12971.767839,-18438.132815,-472.292360,1806.512690,-0.004063,-0.013063,1.006594,192.000000,0.000000,0.000000,0.000000,0.000000,0.000000,0.000000,0.000000,0.000000,0.000000,1770299857.434027,0.000000
64.000000,8410.067369,14756.822855,3440.805190,4486.956237,-19131.171004,-9241.731076,1571.439394,895.947325,-18568.644651,-3450.259978,-698.804939,4268.333825,12946.488016,-18450.716847,-512.547852,1768.738242,-0.004063,-0.013063,1.006594,192.000000,0.000000,0.000000,0.000000,0.000000,0.000000,0.000000,0.000000,0.000000,0.000000,1770299857.434080,0.000000
66.000000,8447.975927,14804.700292,3476.970312,4534.788970,-19103.767765,-9205.498899,1611.761941,933.699421,-18537.508671,-3425.918928,-674.709758,4293.099558,12974.986491,-18456.237728,-489.927887,1785.367940,-0.004063,-0.013063,1.006594,192.000000,0.000000,0.000000,0.000000,0.000000,0.000000,0.000000,0.000000,0.000000,0.000000,1770299857.434130,0.000000
68.000000,8420.550337,14767.350527,3444.336765,4493.862926,-19140.737550,-9242.982774,1578.323731,904.396284,-18541.263764,-3420.845082,-670.731148,4299.827433,12955.406362,-18438.468091,-493.034779,1782.238696,-0.004063,-0.013063,1.006594,192.000000,0.000000,0.000000,0.000000,0.000000,0.000000,0.000000,0.000000,0.000000,0.000000,1770299857.434186,0.000000
70.000000,8440.242224,14789.210533,3466.733213,4521.579089,-19122.789100,-9221.838024,1599.803758,923.216453,-18579.865227,-3441.900425,-697.352075,4275.665197,12910.389949,-18464.463170,-518.672230,1750.879198,-0.008000,-0.012000,1.010000,192.000000,127.500000,96.000000,127.500000,80.000000,15.500000,72.000000,0.000000,0.000000,0.000000,1770299857.434214,0.000000
72.000000,8435.369543,14791.803335,3472.499963,4529.581014,-19122.789100,-9217.077102,1606.777502,924.736372,-18526.645723,-3405.511785,-655.353147,4316.591241,12959.004993,-18421.369007,-483.714102,1800.522423,-0.008000,-0.012000,1.010000,192.000000,0.000000,0.000000,0.000000,0.000000,0.000000,0.000000,0.000000,0.000000,0.000000,1770299857.434250,0.000000
74.000000,8393.661188,14745.155244,3437.005393,4489.727854,-19148.851234,-9248.928338,1570.098289,885.978447,-18597.657215,-3449.410611,-708.326782,4270.434889,12901.963341,-18463.993783,-515.163006,1763.262065,-0.008000,-0.012000,1.010000,192.000000,0.000000,0.000000,0.000000,0.000000,0.000000,0.000000,0.000000,0.000000,0.000000,1770299857.434267,0.000000
76.000000,8433.424942,14791.892742,3477.685568,4539.393430,-19105.980588,-9202.861393,1610.577298,924.110523,-18559.882767,-3431.730381,-687.293790,4287.086938,12930.953554,-18446.246498,-487.692712,1785.434995,-0.008000,-0.012000,1.010000,192.000000,0.000000,0.000000,0.000000,0.000000,0.000000,0.000000,0.000000,0.000000,0.000000,1770299857.434285,0.000000
78.000000,8402.914811,14752.106637,3442.548626,4494.622886,-19141.005771,-9241.954594,1575.641522,893.868613,-18553.601927,-3428.802303,-681.638799,4294.552421,12955.249900,-18443.988972,-482.104776,1788.966571,-0.008000,-0.012000,1.010000,192.000000,0.000000,0.000000,0.000000,0.000000,0.000000,0.000000,0.000000,0.000000,0.000000,1770299857.434302,0.000000
80.000000,8426.853529,14775.643024,3462.844010,4519.656839,-19117.648198,-9210.818614,1596.942734,917.427351,-18584.872017,-3450.550550,-703.632915,4269.741985,12916.849603,-18466.832455,-509.932698,1767.285379,-0.010000,-0.016000,1.002000,192.000000,127.500000,88.000000,127.500000,64.000000,15.500000,40.000000,0.000000,0.000000,0.000000,1770299857.434320,0.000000
82.000000,8439.057581,14785.522495,3469.013091,4520.573261,-19110.987378,-9207.555259,1604.005886,927.150360,-18522.287133,-3412.731399,-653.095621,4312.232651,12971.119639,-18436.322324,-472.627637,1803.696371,-0.010000,-0.016000,1.002000,192.000000,0.000000,0.000000,0.000000,0.000000,0.000000,0.000000,0.000000,0.000000,0.000000,1770299857.434338,0.000000
84.000000,8416.348209,14751.927823,3438.033573,4483.402310,-19145.520824,-9246.626108,1573.272237,900.820005,-18579.440544,-3455.132658,-690.110110,4272.826525,12923.711589,-18469.693478,-506.714047,1763.150306,-0.010000,-0.016000,1.002000,192.000000,0.000000,0.000000,0.000000,0.000000,0.000000,0.000000,0.000000,0.000000,0.000000,1770299857.434354,0.000000
86.000000,8455.150837,14802.152193,3476.299760,4534.766619,-19108.126355,-9207.868184,1613.125397,937.275700,-18552.014953,-3440.782838,-671.356996,4288.226877,12931.445292,-18455.254251,-495.091140,1780.607019,-0.010000,-0.016000,1.002000,192.000000,0.000000,0.000000,0.000000,0.000000,0.000000,0.000000,0.000000,0.000000,0.000000,1770299857.434371,0.000000
88.000000,8426.585308,14768.199893,3447.845989,4491.180717,-19134.032027,-9241.440504,1579.061339,903.636325,-18545.734113,-3426.924756,-666.104337,4301.123834,12948.097342,-18444.436007,-485.614000,1784.250353,-0.010000,-0.016000,1.002000,192.000000,0.000000,0.000000,0.000000,0.000000,0.000000,0.000000,0.000000,0.000000,0.000000,1770299857.434387,0.000000
90.000000,8436.442427,14779.085193,3463.603969,4515.499415,-19113.043739,-9224.162605,1595.869851,912.442912,-18582.882712,-3456.071431,-701.576555,4268.937322,12914.480318,-18469.805237,-510.312678,1753.047318,-0.010000,-0.012000,1.002000,192.000000,127.500000,88.000000,127.500000,80.000000,15.500000,40.000000,0.000000,0.000000,0.000000,1770299857.434411,0.000000
92.000000,8432.687334,14779.688690,3463.514562,4521.243813,-19114.630713,-9223.715570,1600.250793,912.085284,-18532.926563,-3423.527291,-668.428918,4304.498947,12968.325671,-18429.616801,-478.170869,1795.828557,-0.010000,-0.012000,1.002000,192.000000,0.000000,0.000000,0.000000,0.000000,0.000000,0.000000,0.000000,0.000000,0.000000,1770299857.434427,0.000000
94.000000,8403.741825,14744.752913,3434.233777,4492.588877,-19138.792949,-9248.816579,1571.841725,886.716054,-18588.962387,-3452.830428,-711.456026,4268.646749,12916.491975,-18464.843150,-516.079428,1763.351472,-0.010000,-0.012000,1.002000,192.000000,0.000000,0.000000,0.000000,0.000000,0.000000,0.000000,0.000000,0.000000,0.000000,1770299857.434444,0.000000
96.000000,8438.990526,14788.294111,3472.701129,4540.958052,-19113.557829,-9212.316181,1611.806644,925.518683,-18553.423113,-3434.010259,-685.885630,4292.853688,12941.302412,-18446.112388,-487.245677,1774.370882,-0.010000,-0.012000,1.002000,192.000000,0.000000,0.000000,0.000000,0.000000,0.000000,0.000000,0.000000,0.000000,0.000000,1770299857.434460,0.000000
98.000000,8415.387084,14759.125085,3438.145332,4502.289534,-19145.163196,-9241.015821,1578.636656,900.484729,-18550.450331,-3423.102608,-679.090700,4303.202546,12957.239206,-18439.228051,-489.480852,1786.910210,-0.010000,-0.012000,1.002000,192.000000,0.000000,0.000000,0.000000,0.000000,0.000000,0.000000,0.000000,0.000000,0.000000,1770299857.434475,0.000000
100.000000,8436.487131,14784.449611,3457.926626,4527.010563,-19126.164213,-9216.361846,1598.395598,918.746104,-18583.106230,-3439.039402,-699.229622,4281.543706,12919.062426,-18447.587603,-519.052210,1763.887914,-0.004000,-0.014000,1.006000,192.000000,127.500000,112.000000,127.500000,72.000000,15.500000,56.000000,0.000000,0.000000,0.000000,1770299857.434491,0.000000
102.000000,8440.018706,14791.758632,3459.446545,4526.608232,-19126.655951,-9219.289925,1599.043798,918.232014,-18534.692351,-3406.539965,-661.701043,4313.193776,12959.764953,-18427.649847,-480.182526,1803.316391,-0.004000,-0.014000,1.006000,192.000000,0.000000,0.000000,0.000000,0.000000,0.000000,0.000000,0.000000,0.000000,0.000000,1770299857.434507,0.000000
104.000000,8419.522157,14762.455495,3437.385373,4493.237077,-19144.626754,-9244.972079,1571.215876,896.528470,-18584.313224,-3438.055925,-694.915735,4278.257999,12918.615391,-18457.198853,-516.370000,1765.765460,-0.004000,-0.014000,1.006000,192.000000,0.000000,0.000000,0.000000,0.000000,0.000000,0.000000,0.000000,0.000000,0.000000,1770299857.434523,0.000000
106.000000,8455.419058,14802.107489,3481.150088,4539.862816,-19103.946579,-9204.671884,1611.806644,932.291261,-18548.863357,-3426.701239,-672.988674,4294.373607,12949.639612,-18440.725617,-490.799605,1777.678940,-0.004000,-0.014000,1.006000,192.000000,0.000000,0.000000,0.000000,0.000000,0.000000,0.000000,0.000000,0.000000,0.000000,1770299857.434560,0.000000
108.000000,8420.527985,14761.673184,3444.359117,4493.907630,-19142.056303,-9244.905024,1571.797022,894.293296,-18545.197671,-3430.098704,-671.468755,4296.631133,12956.166322,-18439.295106,-485.256372,1793.526327,-0.004000,-0.014000,1.006000,192.000000,0.000000,0.000000,0.000000,0.000000,0.000000,0.000000,0.000000,0.000000,0.000000,1770299857.434579,0.000000
110.000000,8443.796151,14786.930655,3466.509696,4522.607270,-19114.071919,-9218.060579,1593.053531,913.493444,-18576.892445,-3450.483495,-699.766064,4269.049080,12923.108092,-18463.658507,-514.626564,1755.930693,-0.004000,-0.016000,1.006000,192.000000,127.500000,112.000000,127.500000,64.000000,15.500000,56.000000,0.000000,0.000000,0.000000,1770299857.434592,0.000000
112.000000,8445.025497,14791.535114,3471.270617,4524.015429,-19112.529649,-9217.680599,1597.769749,913.985183,-18518.666150,-3413.960745,-662.840982,4308.678723,12984.173058,-18433.662466,-472.448823,1800.254202,-0.004000,-0.016000,1.006000,192.000000,0.000000,0.000000,0.000000,0.000000,0.000000,0.000000,0.000000,0.000000,0.000000,1770299857.434609,0.000000
114.000000,8417.577555,14761.539073,3448.829466,4495.986342,-19131.305114,-9249.531835,1571.886429,892.080473,-18562.073238,-3440.671079,-695.854508,4276.693377,12955.048735,-18446.559423,-504.098893,1758.456440,-0.004000,-0.016000,1.006000,192.000000,0.000000,0.000000,0.000000,0.000000,0.000000,0.000000,0.000000,0.000000,0.000000,1770299857.434624,0.000000
116.000000,8452.736849,14805.437899,3489.822565,4541.986232,-19099.655044,-9204.783643,1612.611307,930.927805,-18532.278363,-3420.800378,-674.173316,4294.977104,12975.679395,-18433.103673,-484.854041,1771.040472,-0.004000,-0.016000,1.006000,192.000000,0.000000,0.000000,0.000000,0.000000,0.000000,0.000000,0.000000,0.000000,0.000000,1770299857.434641,0.000000
118.000000,8417.979886,14763.774248,3450.505847,4492.700636,-19131.193355,-9248.794228,1574.188658,897.020208,-18527.495089,-3413.647820,-665.165563,4304.051912,12988.285779,-18436.121158,-481.233058,1778.707120,-0.004000,-0.016000,1.006000,192.000000,0.000000,0.000000,0.000000,0.000000,0.000000,0.000000,0.000000,0.000000,0.000000,1770299857.434654,0.000000
120.000000,8432.843796,14779.576931,3465.906199,4516.684057,-19114.206030,-9224.810806,1592.002999,912.778188,-18571.997413,-3445.722573,-696.837985,4272.491249,12928.673676,-18461.378629,-504.612983,1753.226132,-0.002000,-0.014000,1.018000,192.000000,127.500000,120.000000,127.500000,72.000000,15.500000,104.000000,0.000000,0.000000,0.000000,1770299857.434670,0.000000
122.000000,8442.589157,14793.479716,3470.756527,4528.888110,-19106.181753,-9211.243297,1600.675476,919.707229,-18520.767214,-3407.724608,-658.728261,4314.311363,12971.320805,-18423.693588,-469.274875,1806.736208,-0.002000,-0.014000,1.018000,192.000000,0.000000,0.000000,0.000000,0.000000,0.000000,0.000000,0.000000,0.000000,0.000000,1770299857.434690,0.000000
124.000000,8417.488148,14763.170751,3442.146294,4497.729778,-19131.819204,-9232.231585,1570.992359,894.360351,-18576.177189,-3436.088972,-699.788415,4281.677816,12931.445292,-18451.767379,-502.333105,1764.647873,-0.002000,-0.014000,1.018000,192.000000,0.000000,0.000000,0.000000,0.000000,0.000000,0.000000,0.000000,0.000000,0.000000,1770299857.434704,0.000000
126.000000,8451.418096,14802.800393,3478.780804,4544.959014,-19104.080689,-9198.882782,1612.208976,928.849093,-18548.617488,-3419.571032,-679.470680,4299.179232,12952.321822,-18433.483652,-483.110605,1789.771234,-0.002000,-0.014000,1.018000,192.000000,0.000000,0.000000,0.000000,0.000000,0.000000,0.000000,0.000000,0.000000,0.000000,1770299857.434718,0.000000
128.000000,8420.863261,14765.920015,3441.922777,4502.893031,-19138.345914,-9237.730114,1577.094385,896.506118,-18545.309430,-3415.368905,-674.016854,4303.917802,12952.902967,-18432.299010,-483.624695,1796.946144,-0.002000,-0.014000,1.018000,192.000000,0.000000,0.000000,0.000000,0.000000,0.000000,0.000000,0.000000,0.000000,0.000000,1770299857.434734,0.000000
130.000000,8440.219872,14784.494315,3461.279388,4524.998906,-19115.211858,-9215.467777,1595.646333,913.046409,-18583.687375,-3442.079239,-702.157700,4274.614665,12920.783510,-18459.098751,-511.765541,1764.491411,-0.002000,-0.014000,1.018000,192.000000,0.000000,0.000000,127.500000,88.000000,15.500000,120.000000,0.000000,0.000000,0.000000,1770299857.434752,0.000000
132.000000,8450.345212,14795.714890,3469.057795,4529.871587,-19110.272123,-9214.171376,1601.256621,915.996840,-18523.360017,-3404.438901,-660.359938,4312.813796,12984.575389,-18419.267943,-468.358453,1797.102606,-0.002000,-0.014000,1.018000,192.000000,0.000000,0.000000,0.000000,0.000000,0.000000,0.000000,0.000000,0.000000,0.000000,1770299857.434764,0.000000
134.000000,8420.080950,14758.007498,3439.777009,4490.532516,-19138.949411,-9240.591137,1568.868943,887.766586,-18572.913834,-3440.872245,-698.670828,4273.608836,12925.946763,-18466.519531,-507.183433,1773.700330,-0.002000,-0.014000,1.018000,192.000000,0.000000,0.000000,0.000000,0.000000,0.000000,0.000000,0.000000,0.000000,0.000000,1770299857.434781,0.000000
136.000000,8452.178055,14800.945199,3478.110251,4539.952223,-19102.493716,-9209.119881,1609.213842,925.965718,-18544.527119,-3430.746905,-679.224811,4291.244363,12947.583252,-18448.369914,-481.188355,1785.971437,-0.002000,-0.014000,1.018000,192.000000,0.000000,0.000000,0.000000,0.000000,0.000000,0.000000,0.000000,0.000000,0.000000,1770299857.434796,0.000000
138.000000,8424.506596,14773.072573,3441.721611,4500.501394,-19140.111702,-9245.843797,1573.316940,899.657714,-18536.189918,-3416.710009,-669.881781,4306.242383,12957.485075,-18433.282487,-486.418663,1786.887859,-0.002000,-0.014000,1.018000,192.000000,0.000000,0.000000,0.000000,0.000000,0.000000,0.000000,0.000000,0.000000,0.000000,1770299857.434812,0.000000
140.000000,8441.851549,14790.953969,3460.742946,4524.440113,-19120.375111,-9225.213137,1593.277048,919.908395,-18572.176227,-3436.379544,-696.793282,4283.600066,12940.117769,-18463.032658,-512.793721,1754.813105,-0.002000,-0.014000,1.018000,192.000000,0.000000,0.000000,127.500000,72.000000,15.500000,88.000000,0.000000,0.000000,0.000000,1770299857.434825,0.000000
142.000000,8448.355907,14797.346568,3468.409594,4526.898805,-19113.848402,-9211.064483,1600.921345,924.423447,-18515.335740,-3403.120149,-653.632063,4321.687439,12986.251770,-18424.610010,-472.135898,1803.048170,-0.002000,-0.014000,1.018000,192.000000,0.000000,0.000000,0.000000,0.000000,0.000000,0.000000,0.000000,0.000000,0.000000,1770299857.434841,0.000000
144.000000,8427.211157,14770.345660,3443.174475,4495.695769,-19133.808510,-9237.439542,1572.177001,899.411845,-18567.057677,-3435.708992,-691.428863,4284.248267,12934.842758,-18451.230937,-509.440960,1767.799469,-0.002000,-0.014000,1.018000,192.000000,0.000000,0.000000,0.000000,0.000000,0.000000,0.000000,0.000000,0.000000,0.000000,1770299857.434857,0.000000
146.000000,8470.774707,14821.709969,3487.341522,4548.803514,-19090.133201,-9178.743861,1616.701676,941.164904,-18520.521345,-3406.808186,-659.734089,4312.813796,12962.156589,-18427.001646,-482.574163,1783.512745,-0.002000,-0.014000,1.018000,192.000000,0.000000,0.000000,0.000000,0.000000,0.000000,0.000000,0.000000,0.000000,0.000000,1770299857.434872,0.000000
148.000000,8425.892404,14770.055088,3442.973309,4498.869717,-19128.131166,-9222.799149,1574.121603,896.863746,-18524.209383,-3406.651724,-664.092680,4311.360933,12974.047717,-18425.884059,-482.507108,1795.493280,-0.002000,-0.014000,1.018000,192.000000,0.000000,0.000000,0.000000,0.000000,0.000000,0.000000,0.000000,0.000000,0.000000,1770299857.434886,0.000000
150.000000,8435.280136,14778.258178,3453.948015,4520.416799,-19119.413986,-9215.959515,1588.180851,905.513871,-18571.684488,-3442.056887,-701.665962,4275.642845,12936.005048,-18470.699307,-507.317544,1772.091004,-0.002000,-0.012000,1.011000,192.000000,127.500000,120.000000,127.500000,88.000000,15.500000,48.000000,0.000000,0.000000,0.000000,1770299857.434902,0.000000
152.000000,8446.277195,14790.976321,3463.805135,4527.189377,-19114.116623,-9206.527079,1597.278011,913.225223,-18522.778871,-3414.407780,-664.405604,4309.259869,12968.079802,-18420.094957,-476.405081,1809.686638,-0.002000,-0.012000,1.011000,192.000000,0.000000,0.000000,0.000000,0.000000,0.000000,0.000000,0.000000,0.000000,0.000000,1770299857.434919,0.000000
154.000000,8423.701933,14763.886006,3434.412591,4495.069920,-19136.960106,-9234.042076,1569.695958,889.934705,-18571.170398,-3440.089934,-697.799110,4279.666159,12927.332571,-18448.302859,-497.415721,1769.475850,-0.002000,-0.012000,1.011000,192.000000,0.000000,0.000000,0.000000,0.000000,0.000000,0.000000,0.000000,0.000000,0.000000,1770299857.434934,0.000000
156.000000,8456.044907,14804.610885,3468.521353,4541.382735,-19104.706538,-9189.897381,1607.828034,925.384572,-18546.963459,-3426.388315,-680.878840,4297.055816,12967.297491,-18449.711019,-484.004674,1790.508841,-0.002000,-0.012000,1.011000,192.000000,0.000000,0.000000,0.000000,0.000000,0.000000,0.000000,0.000000,0.000000,0.000000,1770299857.434952,0.000000
158.000000,8428.775779,14775.285396,3436.379544,4501.171947,-19127.259448,-9231.717495,1575.038025,897.400188,-18539.810901,-3414.206614,-674.083909,4307.449377,12948.454970,-18433.953039,-482.663570,1795.694446,-0.002000,-0.012000,1.011000,192.000000,0.000000,0.000000,0.000000,0.000000,0.000000,0.000000,0.000000,0.000000,0.000000,1770299857.434966,0.000000
160.000000,8444.086724,14791.110431,3453.948015,4525.557700,-19119.212820,-9206.638838,1593.947601,915.996840,-18576.020727,-3435.530178,-700.458968,4284.024749,12927.846662,-18448.124045,-507.853986,1759.484620,-0.002000,-0.010000,1.008500,192.000000,127.500000,120.000000,127.500000,96.000000,15.500000,56.000000,0.000000,0.000000,0.000000,1770299857.434982,0.000000
162.000000,8447.260672,14797.346568,3458.150143,4531.950299,-19115.591838,-9199.463928,1600.429606,917.963793,-18521.638932,-3399.432111,-660.091717,4324.392000,12970.136162,-18405.543972,-475.622770,1809.306658,-0.002000,-0.010000,1.008500,192.000000,0.000000,0.000000,0.000000,0.000000,0.000000,0.000000,0.000000,0.000000,0.000000,1770299857.434995,0.000000
164.000000,8416.839947,14759.773285,3426.947108,4494.354665,-19143.911498,-9234.802036,1567.304321,887.677179,-18576.959500,-3434.636108,-702.180052,4284.002398,12924.180975,-18444.212490,-509.932698,1770.593437,-0.002000,-0.010000,1.008500,192.000000,0.000000,0.000000,0.000000,0.000000,0.000000,0.000000,0.000000,0.000000,0.000000,1770299857.435012,0.000000
166.000000,8450.658137,14799.693501,3466.062661,4542.075639,-19104.527724,-9190.858506,1608.453883,921.785941,-18551.210290,-3422.744980,-687.427901,4296.742892,12950.108999,-18429.996780,-493.928849,1789.458309,-0.002000,-0.010000,1.008500,192.000000,0.000000,0.000000,0.000000,0.000000,0.000000,0.000000,0.000000,0.000000,0.000000,1770299857.435028,0.000000
168.000000,8422.941974,14767.551692,3431.976251,4499.473214,-19132.534460,-9229.258803,1573.540458,891.275810,-18541.710799,-3408.395160,-677.704892,4308.879889,12955.786342,-18427.649847,-486.508070,1793.347513,-0.002000,-0.010000,1.008500,192.000000,0.000000,0.000000,0.000000,0.000000,0.000000,0.000000,0.000000,0.000000,0.000000,1770299857.435042,0.000000
170.000000,8440.264576,14784.091983,3450.394088,4520.640316,-19111.613227,-9205.163623,1588.940810,907.704342,-18581.496904,-3437.675945,-710.025514,4276.760432,12938.486092,-18457.288260,-508.457483,1769.475850,-0.002000,-0.008000,1.010250,192.000000,127.500000,120.000000,127.500000,104.000000,15.500000,80.000000,0.000000,0.000000,0.000000,1770299857.435058,0.000000
172.000000,8455.061430,14802.398062,3464.721556,4531.257395,-19105.287684,-9188.735090,1601.100159,919.103732,-18512.877049,-3399.275649,-659.801145,4322.022715,12989.112793,-18414.842297,-469.610151,1806.020952,-0.002000,-0.008000,1.010250,192.000000,0.000000,0.000000,0.000000,0.000000,0.000000,0.000000,0.000000,0.000000,0.000000,1770299857.435073,0.000000
174.000000,8425.311258,14767.462285,3434.144370,4495.651066,-19131.685094,-9226.755408,1567.997225,887.990104,-18563.190825,-3427.148274,-697.553241,4285.410557,12940.654211,-18443.631344,-499.852061,1768.961760,-0.002000,-0.008000,1.010250,192.000000,0.000000,0.000000,0.000000,0.000000,0.000000,0.000000,0.000000,0.000000,0.000000,1770299857.435091,0.000000
176.000000,8460.425849,14810.243524,3476.702091,4545.495456,-19102.180791,-9184.667073,1608.520938,927.977375,-18534.379427,-3417.246451,-678.308389,4299.894488,12959.809656,-18423.604181,-483.602343,1793.615734,-0.002000,-0.008000,1.010250,192.000000,0.000000,0.000000,0.000000,0.000000,0.000000,0.000000,0.000000,0.000000,0.000000,1770299857.435103,0.000000
178.000000,8428.619317,14774.771306,3441.229873,4500.188470,-19133.115605,-9229.147044,1571.573504,894.650924,-18525.572839,-3408.305753,-669.188877,4309.058703,12968.884464,-18412.875344,-479.020235,1805.395103,-0.002000,-0.008000,1.010250,192.000000,0.000000,0.000000,0.000000,0.000000,0.000000,0.000000,0.000000,0.000000,0.000000,1770299857.435120,0.000000
180.000000,8443.505578,14791.199838,3460.340614,4525.557700,-19111.210896,-9207.577611,1591.578316,912.621726,-18562.184997,-3431.395105,-698.380256,4282.102499,12937.904947,-18451.342696,-508.412779,1773.610923,-0.002000,-0.008000,1.010250,192.000000,0.000000,0.000000,127.500000,80.000000,15.500000,64.000000,0.000000,0.000000,0.000000,1770299857.914729,0.000000
182.000000,8448.333555,14798.039472,3465.816792,4529.268089,-19094.536495,-9200.737977,1597.255659,917.829683,-18510.954799,-3400.370884,-659.555275,4320.525148,12998.120546,-18415.870478,-467.732604,1804.299868,-0.002000,-0.008000,1.010250,192.000000,0.000000,0.000000,0.000000,0.000000,0.000000,0.000000,0.000000,0.000000,0.000000,1770299857.914804,0.000000
184.000000,8425.333610,14768.132838,3438.614719,4492.655932,-19131.148652,-9233.796207,1567.170211,892.125176,-18560.240395,-3434.524350,-696.055674,4284.337674,12949.572557,-18447.922879,-505.954087,1762.099774,-0.002000,-0.008000,1.010250,192.000000,0.000000,0.000000,0.000000,0.000000,0.000000,0.000000,0.000000,0.000000,0.000000,1770299857.914861,0.000000
186.000000,8455.150837,14805.348492,3475.830373,4536.912386,-19099.699748,-9198.860431,1605.659915,924.334040,-18529.909078,-3417.224099,-676.073215,4302.867270,12956.613357,-18435.964696,-486.955105,1779.712949,-0.002000,-0.008000,1.010250,192.000000,0.000000,0.000000,0.000000,0.000000,0.000000,0.000000,0.000000,0.000000,0.000000,1770299857.914895,0.000000
188.000000,8421.690276,14766.948195,3435.843102,4488.140880,-19131.059245,-9233.460931,1564.912685,886.805461,-18530.870203,-3418.542852,-675.536773,4304.901279,12969.867941,-18435.160033,-481.121299,1788.564240,-0.002000,-0.008000,1.010250,192.000000,0.000000,0.000000,0.000000,0.000000,0.000000,0.000000,0.000000,0.000000,0.000000,1770299857.914945,0.000000
190.000000,8445.673698,14796.810126,3455.825562,4519.925060,-19107.321692,-9199.709797,1588.024388,908.933688,-18565.470703,-3438.234739,-703.565860,4278.146240,12946.085685,-18448.928708,-516.995849,1758.635254,-0.002000,-0.010000,1.013125,192.000000,127.500000,120.000000,127.500000,80.000000,15.500000,96.000000,0.000000,0.000000,0.000000,1770299857.914995,0.000000
192.000000,8449.965233,14804.387367,3460.295911,4528.351668,-19111.769690,-9200.335646,1595.199298,913.404037,-18508.361996,-3396.705198,-663.466831,4320.927479,12990.498601,-18411.489536,-477.567372,1806.244469,-0.002000,-0.010000,1.013125,192.000000,0.000000,0.000000,0.000000,0.000000,0.000000,0.000000,0.000000,0.000000,0.000000,1770299857.915048,0.000000
194.000000,8420.326819,14765.383573,3431.506864,4494.488775,-19126.410082,-9225.481358,1565.069147,886.626647,-18559.815712,-3432.467989,-702.112997,4286.505793,12950.377220,-18445.978277,-510.893823,1769.766422,-0.002000,-0.010000,1.013125,192.000000,0.000000,0.000000,0.000000,0.000000,0.000000,0.000000,0.000000,0.000000,0.000000,1770299857.915068,0.000000
196.000000,8451.574558,14801.727510,3467.940207,4539.952223,-19099.923265,-9186.142288,1603.000057,918.321421,-18532.926563,-3422.342649,-684.745691,4300.229764,12962.938900,-18434.243612,-483.825860,1783.915077,-0.002000,-0.010000,1.013125,192.000000,0.000000,0.000000,0.000000,0.000000,0.000000,0.000000,0.000000,0.000000,0.000000,1770299857.915087,0.000000
198.000000,8413.397779,14757.225186,3429.226986,4494.019388,-19131.349818,-9232.477454,1564.800926,880.614028,-18532.121901,-3421.426227,-684.388063,4302.531994,12963.877674,-18440.412693,-480.763671,1801.237679,-0.002000,-0.010000,1.013125,192.000000,0.000000,0.000000,0.000000,0.000000,0.000000,0.000000,0.000000,0.000000,0.000000,1770299857.915105,0.000000
200.000000,8427.501729,14771.664413,3447.801286,4513.420703,-19115.949466,-9207.354093,1580.223630,892.013418,-18577.898273,-3450.975233,-720.843759,4267.283293,12931.937031,-18463.189121,-506.669343,1765.966626,-0.002000,-0.011000,1.006563,192.000000,127.500000,120.000000,127.500000,80.000000,15.500000,32.000000,0.000000,0.000000,0.000000,1770299857.915124,0.000000
202.000000,8428.887538,14777.028832,3453.500981,4520.863834,-19114.094271,-9203.487242,1587.823223,896.103787,-18522.734168,-3417.134692,-681.057654,4304.118968,12975.992319,-18412.048329,-467.889067,1801.908231,-0.002000,-0.011000,1.006563,192.000000,0.000000,0.000000,0.000000,0.000000,0.000000,0.000000,0.000000,0.000000,0.000000,1770299857.915142,0.000000
204.000000,8401.305485,14745.468169,3424.264899,4485.123394,-19137.071864,-9240.546434,1558.207161,869.706377,-18579.865227,-3449.276501,-719.592061,4271.150144,12936.072104,-18465.781923,-503.182471,1774.035606,-0.002000,-0.011000,1.006563,192.000000,0.000000,0.000000,0.000000,0.000000,0.000000,0.000000,0.000000,0.000000,0.000000,1770299857.915160,0.000000
206.000000,8442.544453,14795.446670,3467.314359,4534.788970,-19099.140954,-9196.625256,1600.608420,909.939517,-18550.807959,-3430.389277,-699.162567,4291.311418,12956.434543,-18450.895661,-488.832651,1779.176507,-0.002000,-0.011000,1.006563,192.000000,0.000000,0.000000,0.000000,0.000000,0.000000,0.000000,0.000000,0.000000,0.000000,1770299857.915179,0.000000
208.000000,8419.522157,14767.462285,3433.250300,4494.824051,-19127.371207,-9225.883690,1567.527839,883.698569,-18534.133558,-3412.999620,-681.728206,4308.634020,12967.610415,-18426.979295,-477.992055,1788.228963,-0.002000,-0.011000,1.006563,192.000000,0.000000,0.000000,0.000000,0.000000,0.000000,0.000000,0.000000,0.000000,0.000000,1770299857.915197,0.000000
210.000000,8434.050791,14781.812105,3447.175437,4516.237022,-19113.289608,-9203.643704,1582.682321,898.048389,-18580.401669,-3442.705088,-716.887500,4273.139450,12937.301449,-18449.308687,-511.206747,1759.372861,-0.002000,-0.011000,1.006563,192.000000,0.000000,0.000000,0.000000,0.000000,0.000000,0.000000,0.000000,0.000000,0.000000,1770299857.915215,0.000000
212.000000,8440.756314,14790.842210,3457.121963,4524.507168,-19110.026253,-9199.128652,1591.958295,904.753912,-18514.352264,-3402.069617,-670.082947,4316.792407,12979.456839,-18413.881172,-475.443956,1799.091911,-0.008000,-0.014000,0.996000,192.000000,127.500000,96.000000,127.500000,72.000000,15.500000,16.000000,0.000000,0.000000,0.000000,1770299857.915234,0.000000
214.000000,8415.185918,14757.828684,3423.571995,4490.711330,-19132.646219,-9226.889518,1561.090536,878.825888,-18571.304509,-3437.899463,-711.433674,4279.308531,12937.346153,-18449.442798,-502.735436,1763.105603,-0.008000,-0.014000,0.996000,192.000000,0.000000,0.000000,0.000000,0.000000,0.000000,0.000000,0.000000,0.000000,0.000000,1770299857.915252,0.000000
216.000000,8458.704765,14808.589495,3468.878981,4545.763677,-19095.251750,-9175.860486,1605.168176,920.154264,-18539.632087,-3419.168701,-688.277267,4300.721502,12955.853397,-18429.885021,-491.380750,1781.881068,-0.008000,-0.014000,0.996000,192.000000,0.000000,0.000000,0.000000,0.000000,0.000000,0.000000,0.000000,0.000000,0.000000,1770299857.915271,0.000000
218.000000,8414.671828,14759.974451,3427.483550,4498.869717,-19140.066998,-9232.991544,1564.599760,878.758833,-18533.954744,-3410.585631,-681.616447,4310.489215,12959.586139,-18419.312646,-482.060073,1790.911173,-0.008000,-0.014000,0.996000,192.000000,0.000000,0.000000,0.000000,0.000000,0.000000,0.000000,0.000000,0.000000,0.000000,1770299857.915301,0.000000
220.000000,8423.925450,14771.776172,3441.296928,4517.265203,-19125.583068,-9208.270515,1578.703711,891.365217,-18585.721384,-3450.125867,-721.693125,4270.256075,12917.877784,-18460.708077,-520.549777,1769.721719,-0.008000,-0.014000,0.996000,192.000000,0.000000,0.000000,0.000000,0.000000,0.000000,0.000000,0.000000,0.000000,0.000000,1770299857.915320,0.000000
222.000000,8429.468683,14779.062841,3453.143353,4524.864796,-19117.245867,-9201.721454,1588.471423,898.540127,-18530.445520,-3417.224099,-679.627142,4308.410502,12970.896121,-18422.620704,-475.667474,1808.099664,-0.002000,-0.008000,1.002000,192.000000,127.500000,120.000000,127.500000,96.000000,15.500000,40.000000,0.000000,0.000000,0.000000,1770299857.915339,0.000000
224.000000,8405.887593,14749.871463,3424.734285,4488.453804,-19132.199184,-9222.486224,1556.486077,872.500345,-18584.603797,-3453.478629,-715.747561,4272.379490,12944.744580,-18460.931594,-498.846233,1767.352434,-0.002000,-0.008000,1.002000,192.000000,0.000000,0.000000,0.000000,0.000000,0.000000,0.000000,0.000000,0.000000,0.000000,1770299857.915357,0.000000
226.000000,8444.399648,14793.457364,3462.084050,4535.236005,-19098.917436,-9183.929465,1596.853327,906.899680,-18547.164625,-3430.366925,-692.613505,4293.993627,12961.933072,-18425.369969,-486.463366,1783.333931,-0.002000,-0.008000,1.002000,192.000000,0.000000,0.000000,0.000000,0.000000,0.000000,0.000000,0.000000,0.000000,0.000000,1770299857.915375,0.000000
228.000000,8411.095549,14755.437047,3427.148274,4492.253601,-19130.299286,-9226.174262,1563.035138,875.875458,-18544.594174,-3432.132713,-690.132462,4297.189927,12952.880615,-18434.824757,-474.102852,1799.650705,-0.002000,-0.008000,1.002000,192.000000,0.000000,0.000000,0.000000,0.000000,0.000000,0.000000,0.000000,0.000000,0.000000,1770299857.915393,0.000000
230.000000,8432.352058,14777.967605,3443.912082,4513.308944,-19112.194373,-9204.582477,1578.994284,895.030903,-18577.719459,-3456.563170,-716.842796,4269.026729,12924.628010,-18462.540920,-508.211614,1767.955931,-0.002000,-0.008000,1.002000,192.000000,0.000000,0.000000,0.000000,0.000000,0.000000,0.000000,0.000000,0.000000,0.000000,1770299857.915411,0.000000
232.000000,8437.023573,14785.902475,3450.327033,4519.992115,-19109.154535,-9204.649532,1586.795042,899.702418,-18517.615618,-3417.917003,-671.759328,4310.377456,12980.149744,-18420.653751,-469.453689,1798.801339,-0.002000,-0.012000,1.008000,192.000000,127.500000,120.000000,127.500000,80.000000,15.500000,64.000000,0.000000,0.000000,0.000000,1770299857.915429,0.000000
234.000000,8414.135386,14757.515759,3420.062771,4489.996074,-19136.937754,-9227.895347,1556.776650,876.411900,-18572.153875,-3448.784762,-712.126578,4276.536915,12929.455987,-18458.763475,-503.361285,1758.858771,-0.002000,-0.012000,1.008000,192.000000,0.000000,0.000000,0.000000,0.000000,0.000000,0.000000,0.000000,0.000000,0.000000,1770299857.915448,0.000000
236.000000,8447.752410,14797.570085,3455.512638,4536.666517,-19102.203143,-9196.982884,1597.836804,910.654773,-18540.526156,-3429.115227,-691.428863,4298.575735,12963.296528,-18442.558461,-491.492509,1772.426280,-0.002000,-0.012000,1.008000,192.000000,0.000000,0.000000,0.000000,0.000000,0.000000,0.000000,0.000000,0.000000,0.000000,1770299857.915466,0.000000
238.000000,8418.225755,14766.411753,3422.722628,4496.343970,-19138.815300,-9226.107207,1565.225609,881.150470,-18536.592249,-3425.047210,-685.863279,4305.996514,12960.100229,-18432.678989,-490.598439,1787.401949,-0.002000,-0.012000,1.008000,192.000000,0.000000,0.000000,0.000000,0.000000,0.000000,0.000000,0.000000,0.000000,0.000000,1770299857.915485,0.000000
