Sample_index,EXG Channel 0,EXG Channel 1,EXG Channel 2,EXG Channel 3,EXG Channel 4,EXG Channel 5,EXG Channel 6,EXG Channel 7,EXG Channel 8,EXG Channel 9,EXG Channel 10,EXG Channel 11,EXG Channel 12,EXG Channel 13,EXG Channel 14,EXG Channel 15,Accel Channel 0,Accel Channel 1,Accel Channel 2,Not Used,Digital Channel 0 (D11),Digital Channel 1 (D12),Digital Channel 2 (D13),Digital Channel 3 (D17),Not Used,Digital Channel 4 (D18),Analog Channel 0,Analog Channel 1,Analog Channel 2,Timestamp,Marker Channel
58.000000,15552.880234,18834.585707,-16876.327023,1612.968935,-15029.089454,-1186.944686,754.550189,-12016.074302,8611.881269,16536.044065,-4394.844698,2271.987769,-18703.895057,15541.391437,782.847498,-454.902703,0.002500,-0.014000,1.003000,192.000000,0.000000,0.000000,127.500000,96.000000,15.500000,64.000000,0.000000,0.000000,0.000000,1775737746.680986,101.000000
60.000000,15565.777190,18841.537099,-16837.613802,1634.493665,-14991.069137,-1175.478241,762.194486,-11988.604008,8598.850202,16551.734990,-4373.141154,2282.582496,-18686.773620,15554.467208,716.686334,-571.735271,0.002500,-0.014000,1.003000,192.000000,0.000000,0.000000,0.000000,0.000000,0.000000,0.000000,0.000000,0.000000,0.000000,1775737746.681051,0.000000
62.000000,15545.012420,18835.166852,-16879.433916,1614.310040,-15020.416977,-1188.866936,749.565750,-12019.896450,8565.993138,16543.666010,-4375.130460,2278.626237,-18688.762926,15555.227167,715.836968,-567.309626,0.002500,-0.014000,1.003000,192.000000,0.000000,0.000000,0.000000,0.000000,0.000000,0.000000,0.000000,0.000000,0.000000,1775737746.681098,0.000000
64.000000,15564.838417,18848.712009,-16856.344564,1634.001927,-15005.530716,-1181.177936,760.942788,-11997.432947,8620.173767,16554.730124,-4393.525945,2279.788527,-18714.109804,15554.690725,793.263411,-458.188410,0.002500,-0.014000,1.003000,192.000000,0.000000,0.000000,0.000000,0.000000,0.000000,0.000000,0.000000,0.000000,0.000000,1775737746.681139,0.000000
66.000000,15568.034717,18849.136692,-16854.556424,1634.784238,-15002.736748,-1182.004950,758.729966,-11987.017034,8565.479048,16557.389981,-4360.668881,2293.490147,-18674.837789,15560.569234,678.464851,-629.291013,0.002500,-0.014000,1.003000,192.000000,0.000000,0.000000,0.000000,0.000000,0.000000,0.000000,0.000000,0.000000,0.000000,1775737746.681183,0.000000
68.000000,15560.636289,18852.020067,-16880.529151,1626.625851,-15024.194422,-1176.461718,758.528800,-12000.718653,8605.779243,16548.181063,-4385.725187,2290.718531,-18717.999007,15555.964775,785.887335,-448.130125,0.002500,-0.014000,1.003000,192.000000,0.000000,0.000000,127.500000,80.000000,15.500000,64.000000,0.000000,0.000000,0.000000,1775737746.681223,0.000000
70.000000,15578.629443,18856.222195,-16843.425255,1646.608311,-15000.255704,-1168.973883,765.614303,-11977.539894,8596.659731,16560.586281,-4368.268474,2300.262725,-18694.820248,15565.240749,711.232509,-551.730460,0.002500,-0.014000,1.003000,192.000000,0.000000,0.000000,0.000000,0.000000,0.000000,0.000000,0.000000,0.000000,0.000000,1775737746.681260,0.000000
72.000000,15544.475978,18834.183375,-16889.939235,1624.368325,-15030.855242,-1171.566686,752.337367,-12018.711808,8561.500437,16541.542595,-4377.365634,2285.599981,-18696.675443,15556.121237,702.984715,-558.413632,0.002500,-0.014000,1.003000,192.000000,0.000000,0.000000,0.000000,0.000000,0.000000,0.000000,0.000000,0.000000,0.000000,1775737746.681273,0.000000
74.000000,15556.724734,18843.034666,-16869.219168,1638.941662,-15016.617181,-1157.686252,759.177000,-12005.233706,8609.534336,16552.047915,-4400.991428,2282.403682,-18722.290542,15562.022097,760.585160,-445.045584,0.002500,-0.014000,1.003000,192.000000,0.000000,0.000000,0.000000,0.000000,0.000000,0.000000,0.000000,0.000000,0.000000,1775737746.681286,0.000000
76.000000,15553.796655,18833.535175,-16863.854750,1628.525749,-15016.661884,-1167.386909,751.040965,-12005.948961,8552.962071,16549.566871,-4374.057576,2281.978998,-18686.371289,15563.005574,663.042148,-618.539824,0.002500,-0.014000,1.003000,192.000000,0.000000,0.000000,0.000000,0.000000,0.000000,0.000000,0.000000,0.000000,0.000000,1775737746.681298,0.000000
78.000000,15549.885100,18834.429244,-16884.485410,1614.175929,-15036.867861,-1173.287770,750.079840,-12019.628229,8602.672351,16538.435702,-4400.142062,2269.953760,-18723.363426,15547.784036,777.460727,-445.917302,0.002500,-0.014000,1.003000,192.000000,0.000000,0.000000,127.500000,72.000000,15.500000,40.000000,0.000000,0.000000,0.000000,1775737746.681311,0.000000
80.000000,15561.910339,18834.898631,-16847.135645,1627.944604,-15012.415053,-1182.206116,756.271274,-11993.946075,8589.931856,16544.202452,-4381.411300,2273.105356,-18702.755118,15545.235937,711.053695,-557.184286,0.002500,-0.014000,1.003000,192.000000,0.000000,0.000000,0.000000,0.000000,0.000000,0.000000,0.000000,0.000000,0.000000,1775737746.681324,0.000000
82.000000,15550.533301,18836.105625,-16885.848866,1609.347953,-15035.839681,-1186.452947,747.196465,-12020.142319,8565.993138,16539.530938,-4378.371463,2273.194763,-18698.038900,15541.257327,705.957497,-572.227010,0.002500,-0.014000,1.003000,192.000000,0.000000,0.000000,0.000000,0.000000,0.000000,0.000000,0.000000,0.000000,0.000000,1775737746.681337,0.000000
84.000000,15562.558539,18845.403951,-16863.005383,1625.642374,-15022.763911,-1181.602619,754.952521,-12006.686569,8621.850147,16554.931290,-4395.582306,2274.826440,-18718.893077,15548.745161,771.649274,-463.731642,0.002500,-0.014000,1.003000,192.000000,0.000000,0.000000,0.000000,0.000000,0.000000,0.000000,0.000000,0.000000,0.000000,1775737746.681349,0.000000
86.000000,15570.649871,18852.467102,-16856.165750,1630.805627,-15008.101166,-1175.277075,756.114811,-11995.309531,8573.302159,16562.754400,-4364.893361,2286.382292,-18670.836827,15560.368068,670.909962,-642.366784,0.002500,-0.014000,1.003000,192.000000,0.000000,0.000000,0.000000,0.000000,0.000000,0.000000,0.000000,0.000000,0.000000,1775737746.681362,0.000000
88.000000,15565.687783,18856.713934,-16878.785715,1623.429552,-15022.830966,-1173.868915,757.187695,-12005.926610,8627.929822,16566.978880,-4385.568724,2290.226792,-18701.861048,15569.129952,780.455861,-465.028043,0.002250,-0.016000,1.002500,192.000000,0.000000,8.000000,127.500000,56.000000,15.500000,40.000000,0.000000,0.000000,0.000000,1775737746.681374,0.000000
90.000000,15572.639176,18850.924832,-16843.849938,1637.242930,-14996.142983,-1178.920410,761.300416,-11981.540857,8614.407017,16574.533769,-4371.218904,2295.121824,-18680.939815,15571.007499,714.406456,-557.407803,0.002250,-0.016000,1.002500,192.000000,0.000000,0.000000,0.000000,0.000000,0.000000,0.000000,0.000000,0.000000,0.000000,1775737746.681387,0.000000
92.000000,15551.360315,18839.190166,-16880.506799,1615.695848,-15020.528736,-1186.497651,752.359718,-12011.022807,8577.973673,16551.444417,-4371.777698,2284.683559,-18679.822228,15556.925900,711.433674,-571.221181,0.002250,-0.016000,1.002500,192.000000,0.000000,0.000000,0.000000,0.000000,0.000000,0.000000,0.000000,0.000000,0.000000,1775737746.681400,0.000000
94.000000,15563.318499,18844.241660,-16861.150189,1630.939738,-15008.257628,-1175.254723,757.679434,-12001.433909,8631.126121,16561.860330,-4390.955495,2284.929429,-18706.331397,15558.155246,781.327579,-458.523686,0.002250,-0.016000,1.002500,192.000000,0.000000,0.000000,0.000000,0.000000,0.000000,0.000000,0.000000,0.000000,0.000000,1775737746.681413,0.000000
96.000000,15546.666449,18823.074558,-16864.972337,1625.664726,-15012.571515,-1183.167241,749.453992,-12010.598124,8568.541237,16552.651412,-4368.871971,2282.537792,-18660.242100,15559.429295,668.093642,-630.363897,0.002250,-0.016000,1.002500,192.000000,0.000000,0.000000,0.000000,0.000000,0.000000,0.000000,0.000000,0.000000,0.000000,1775737746.681425,0.000000
98.000000,15531.511966,18818.313637,-16893.806087,1611.493720,-15037.717228,-1184.195421,746.391803,-12034.469787,8593.642246,16530.612592,-4411.541451,2264.723452,-18734.673409,15542.844301,779.740605,-452.265197,0.002125,-0.016000,1.004250,192.000000,0.000000,8.000000,127.500000,64.000000,15.500000,56.000000,0.000000,0.000000,0.000000,1775737746.681438,0.000000
100.000000,15564.369031,18837.267916,-16852.768284,1626.558796,-15005.687178,-1172.639569,754.438431,-11998.818755,8596.190345,16547.286993,-4390.642570,2272.166583,-18703.023339,15550.913280,710.181977,-551.663405,0.002125,-0.016000,1.004250,192.000000,0.000000,0.000000,0.000000,0.000000,0.000000,0.000000,0.000000,0.000000,0.000000,1775737746.681451,0.000000
102.000000,15551.919109,18834.608058,-16888.620483,1604.698790,-15029.536489,-1175.612351,746.078878,-12020.723465,8575.112650,16538.525109,-4380.517230,2271.272513,-18694.373214,15546.599394,705.085779,-566.169687,0.002125,-0.016000,1.004250,192.000000,0.000000,0.000000,0.000000,0.000000,0.000000,0.000000,0.000000,0.000000,0.000000,1775737746.681463,0.000000
104.000000,15564.704307,18847.236794,-16864.458247,1623.250738,-15016.192498,-1166.872819,756.852419,-12002.640903,8631.103770,16556.339449,-4393.816518,2279.229734,-18719.273057,15555.696554,774.175021,-450.946444,0.002125,-0.016000,1.004250,192.000000,0.000000,0.000000,0.000000,0.000000,0.000000,0.000000,0.000000,0.000000,0.000000,1775737746.681476,0.000000
106.000000,15572.482714,18852.131826,-16855.517549,1627.430514,-15007.877649,-1169.085642,755.064279,-11994.884848,8579.046557,16559.803970,-4361.004157,2288.438653,-18678.525827,15559.049315,672.273418,-624.083057,0.002125,-0.016000,1.004250,192.000000,0.000000,0.000000,0.000000,0.000000,0.000000,0.000000,0.000000,0.000000,0.000000,1775737746.681489,0.000000
108.000000,15559.004612,18848.019105,-16880.506799,1621.954336,-15026.206079,-1165.397604,753.767878,-12015.381398,8621.716037,16556.652374,-4388.608562,2284.750615,-18711.941685,15556.970603,779.762957,-448.443049,0.002125,-0.016000,1.004250,192.000000,0.000000,0.000000,0.000000,0.000000,0.000000,0.000000,0.000000,0.000000,0.000000,1775737746.681501,0.000000
110.000000,15575.768420,18853.137654,-16842.240613,1640.439229,-14995.494782,-1161.553104,759.512277,-11992.135583,8610.830737,16570.979842,-4373.521134,2292.685484,-18695.133173,15567.453571,715.009953,-551.998681,0.006000,-0.016000,1.010000,192.000000,0.000000,24.000000,127.500000,64.000000,15.500000,72.000000,0.000000,0.000000,0.000000,1775737746.681514,0.000000
112.000000,15558.088190,18843.571108,-16879.679785,1618.266299,-15022.920373,-1168.638607,750.616282,-12016.498985,8583.203981,16555.110104,-4374.325797,2284.169469,-18686.259530,15560.748048,712.171282,-572.651693,0.006000,-0.016000,1.010000,192.000000,0.000000,0.000000,0.000000,0.000000,0.000000,0.000000,0.000000,0.000000,0.000000,1775737746.681526,0.000000
114.000000,15566.894778,18846.923869,-16856.948061,1626.312927,-15013.242067,-1169.063290,760.160477,-11998.125851,8635.507063,16561.949737,-4389.279114,2285.465871,-18712.053443,15563.519664,784.568582,-469.923075,0.006000,-0.016000,1.010000,192.000000,0.000000,0.000000,0.000000,0.000000,0.000000,0.000000,0.000000,0.000000,0.000000,1775737746.681538,0.000000
116.000000,15558.177597,18832.909326,-16859.674973,1621.864929,-15019.947591,-1181.490860,752.337367,-12001.456261,8571.491667,16550.595051,-4365.250989,2282.470737,-18680.761001,15559.921033,672.809860,-636.689441,0.006000,-0.016000,1.010000,192.000000,0.000000,0.000000,0.000000,0.000000,0.000000,0.000000,0.000000,0.000000,0.000000,1775737746.681551,0.000000
118.000000,15549.885100,18834.406893,-16885.267721,1615.181758,-15038.656001,-1182.362578,752.382070,-12019.136491,8605.019284,16542.034333,-4396.185803,2275.586400,-18725.844470,15551.941461,778.421852,-462.658758,0.006000,-0.016000,1.010000,192.000000,0.000000,0.000000,0.000000,0.000000,0.000000,0.000000,0.000000,0.000000,0.000000,1775737746.681563,0.000000
120.000000,15564.860769,18839.100759,-16853.416485,1635.432438,-15019.344094,-1181.177936,755.868942,-11994.013130,8599.051368,16554.216034,-4380.450175,2283.610676,-18706.867839,15559.518702,705.935145,-559.531219,0.004000,-0.016000,1.012000,192.000000,0.000000,16.000000,127.500000,64.000000,15.500000,80.000000,0.000000,0.000000,0.000000,1775737746.681576,0.000000
122.000000,15544.028943,18828.684846,-16891.637968,1618.556871,-15043.595736,-1184.888325,745.363622,-12020.946982,8560.673423,16537.765150,-4383.110032,2279.095623,-18709.505345,15552.053219,694.111072,-573.523411,0.004000,-0.016000,1.012000,192.000000,0.000000,0.000000,0.000000,0.000000,0.000000,0.000000,0.000000,0.000000,0.000000,1775737746.681589,0.000000
124.000000,15562.424429,18841.604154,-16865.933462,1636.259453,-15023.009780,-1173.868915,756.226570,-12001.746834,8613.669409,16550.259775,-4400.969076,2282.582496,-18733.533470,15556.970603,769.011768,-454.232151,0.004000,-0.016000,1.012000,192.000000,0.000000,0.000000,0.000000,0.000000,0.000000,0.000000,0.000000,0.000000,0.000000,1775737746.681602,0.000000
126.000000,15570.694574,18843.951087,-16856.389267,1636.617081,-15008.995236,-1168.280979,754.438431,-11993.521392,8574.755022,16558.775790,-4362.389965,2293.400740,-18680.045745,15568.861731,665.590246,-624.753609,0.004000,-0.016000,1.012000,192.000000,0.000000,0.000000,0.000000,0.000000,0.000000,0.000000,0.000000,0.000000,0.000000,1775737746.681615,0.000000
128.000000,15559.384592,18842.967611,-16882.451401,1625.821188,-15026.384893,-1166.023453,752.180904,-12014.755549,8617.737426,16551.422066,-4389.323817,2285.309408,-18712.835754,15562.625594,777.907762,-447.839552,0.004000,-0.016000,1.012000,192.000000,0.000000,0.000000,0.000000,0.000000,0.000000,0.000000,0.000000,0.000000,0.000000,1775737746.681628,0.000000
130.000000,15572.907397,18845.918041,-16849.370819,1643.881398,-15003.720224,-1167.744537,757.142992,-11990.749775,8613.423540,16566.755362,-4374.437556,2293.445443,-18691.065155,15571.499237,714.160587,-548.332995,0.008000,-0.018000,1.010000,192.000000,0.000000,32.000000,127.500000,56.000000,15.500000,72.000000,0.000000,0.000000,0.000000,1775737746.681640,0.000000
132.000000,15550.466245,18832.819919,-16891.950892,1620.836749,-15041.159396,-1175.411186,746.101230,-12020.522299,8572.989234,16550.818569,-4379.623160,2282.694254,-18698.843562,15561.910339,696.525061,-568.606027,0.008000,-0.018000,1.010000,192.000000,0.000000,0.000000,0.000000,0.000000,0.000000,0.000000,0.000000,0.000000,0.000000,1775737746.681652,0.000000
134.000000,15564.793714,18844.733399,-16868.056878,1632.437305,-15026.027265,-1165.866991,756.181867,-12005.501927,8632.780151,16563.603766,-4395.716416,2281.442557,-18726.649133,15562.782057,767.603608,-453.651005,0.008000,-0.018000,1.010000,192.000000,0.000000,0.000000,0.000000,0.000000,0.000000,0.000000,0.000000,0.000000,0.000000,1775737746.681665,0.000000
136.000000,15550.667411,18825.734416,-16870.895549,1620.255604,-15036.309068,-1183.614276,746.749431,-12011.827470,8563.623853,16551.019734,-4372.962340,2275.049958,-18698.195362,15555.920071,660.583456,-631.526188,0.008000,-0.018000,1.010000,192.000000,0.000000,0.000000,0.000000,0.000000,0.000000,0.000000,0.000000,0.000000,0.000000,1775737746.681677,0.000000
138.000000,15545.370048,18828.416625,-16893.761384,1611.024333,-15049.965984,-1180.574439,746.615320,-12026.870194,8601.666522,16539.016847,-4404.970039,2266.131612,-18733.756987,15547.247594,772.364530,-459.775383,0.008000,-0.018000,1.010000,192.000000,0.000000,0.000000,0.000000,0.000000,0.000000,0.000000,0.000000,0.000000,0.000000,1775737746.681690,0.000000
140.000000,15564.279624,18838.206689,-16855.651659,1635.633604,-15014.694931,-1169.599732,756.204218,-11996.427118,8600.794804,16551.846749,-4387.982713,2275.429937,-18697.636568,15556.680030,709.824349,-561.587579,0.008000,-0.018000,1.012000,192.000000,0.000000,32.000000,127.500000,56.000000,15.500000,80.000000,0.000000,0.000000,0.000000,1775737746.681703,0.000000
142.000000,15549.683934,18833.490471,-16890.945064,1620.479121,-15034.342114,-1166.761061,748.246997,-12022.980991,8571.469315,16546.236461,-4383.892344,2277.531001,-18697.725975,15559.406943,692.814671,-574.216315,0.008000,-0.018000,1.012000,192.000000,0.000000,0.000000,0.000000,0.000000,0.000000,0.000000,0.000000,0.000000,0.000000,1775737746.681715,0.000000
144.000000,15572.706231,18850.030762,-16863.586529,1632.906691,-15018.807652,-1162.938912,758.841724,-12003.356159,8634.165959,16564.475484,-4396.878707,2282.940123,-18719.295409,15568.906435,767.916533,-455.930883,0.008000,-0.018000,1.012000,192.000000,0.000000,0.000000,0.000000,0.000000,0.000000,0.000000,0.000000,0.000000,0.000000,1775737746.681728,0.000000
146.000000,15584.418545,18859.709067,-16852.544767,1635.030107,-15011.073948,-1168.571552,759.177000,-11989.140450,8591.317665,16571.851560,-4358.232541,2293.490147,-18669.629832,15575.723717,659.465868,-632.666127,0.008000,-0.018000,1.012000,192.000000,0.000000,0.000000,0.000000,0.000000,0.000000,0.000000,0.000000,0.000000,0.000000,1775737746.681741,0.000000
148.000000,15574.717888,18856.982154,-16876.215264,1624.189511,-15030.452911,-1173.511287,758.931131,-12005.054892,8633.115427,16566.017755,-4379.287884,2292.953705,-18705.794955,15571.521589,769.369396,-458.546038,0.008000,-0.018000,1.012000,192.000000,0.000000,0.000000,0.000000,0.000000,0.000000,0.000000,0.000000,0.000000,0.000000,1775737746.681754,0.000000
150.000000,15591.504048,18862.525387,-16839.156072,1645.088392,-15006.268323,-1170.203229,766.106041,-11977.562246,8623.638287,16575.696060,-4363.082869,2298.318124,-18688.561760,15574.494371,712.707724,-555.753774,0.004000,-0.010000,1.006000,192.000000,0.000000,16.000000,127.500000,88.000000,15.500000,56.000000,0.000000,0.000000,0.000000,1775737746.681766,0.000000
152.000000,15564.123161,18843.504053,-16879.299805,1625.329450,-15033.448044,-1178.316912,753.924340,-12013.548555,8585.059176,16559.066362,-4365.139230,2291.880821,-18688.002966,15565.821894,695.720398,-579.670141,0.004000,-0.010000,1.006000,192.000000,0.000000,0.000000,0.000000,0.000000,0.000000,0.000000,0.000000,0.000000,0.000000,1775737746.681779,0.000000
154.000000,15572.706231,18847.884994,-16859.362049,1636.862950,-15020.841661,-1169.487973,759.579332,-12006.731273,8634.568290,16564.006098,-4391.179012,2285.488222,-18719.071891,15566.067763,777.818355,-456.221456,0.004000,-0.010000,1.006000,192.000000,0.000000,0.000000,0.000000,0.000000,0.000000,0.000000,0.000000,0.000000,0.000000,1775737746.681792,0.000000
156.000000,15568.302938,18838.273744,-16854.154093,1629.822150,-15012.012722,-1171.164354,754.281968,-12005.904258,8578.465411,16562.799104,-4364.938064,2283.744786,-18678.391716,15567.498275,669.568857,-631.839112,0.004000,-0.010000,1.006000,192.000000,0.000000,0.000000,0.000000,0.000000,0.000000,0.000000,0.000000,0.000000,0.000000,1775737746.681804,0.000000
158.000000,15553.215510,18834.071616,-16882.809029,1613.639487,-15034.632687,-1172.728976,750.571579,-12028.703037,8614.474072,16550.460941,-4395.582306,2274.133536,-18719.429519,15557.864673,779.695902,-471.510049,0.004000,-0.010000,1.006000,192.000000,0.000000,0.000000,0.000000,0.000000,0.000000,0.000000,0.000000,0.000000,0.000000,1775737746.681817,0.000000
160.000000,15560.680993,18830.607096,-16852.008325,1628.749267,-15018.427672,-1179.345093,754.214913,-12005.881906,8602.001798,16557.725258,-4388.675617,2274.759385,-18702.621007,15558.624632,718.519177,-561.364062,0.004000,-0.012000,1.006000,192.000000,0.000000,16.000000,127.500000,80.000000,15.500000,56.000000,0.000000,0.000000,0.000000,1775737746.681829,0.000000
162.000000,15548.164016,18824.594477,-16887.771116,1609.012676,-15041.919356,-1182.630799,745.296567,-12027.384284,8568.004795,16539.665048,-4386.194573,2268.657359,-18698.731804,15551.919109,703.051770,-585.883926,0.004000,-0.012000,1.006000,192.000000,0.000000,0.000000,0.000000,0.000000,0.000000,0.000000,0.000000,0.000000,0.000000,1775737746.681842,0.000000
164.000000,15568.392345,18840.598326,-16861.418410,1630.246834,-15020.260515,-1168.169220,758.595855,-12006.038368,8634.031848,16552.673763,-4397.392797,2275.876972,-18717.328455,15560.211606,776.723120,-461.630578,0.004000,-0.012000,1.006000,192.000000,0.000000,0.000000,0.000000,0.000000,0.000000,0.000000,0.000000,0.000000,0.000000,1775737746.681854,0.000000
166.000000,15580.685804,18847.907346,-16848.007363,1639.366345,-15001.708567,-1159.317930,760.361643,-11988.983987,8589.998912,16559.625156,-4357.629044,2289.645647,-18666.634699,15572.147438,667.646607,-631.302670,0.004000,-0.012000,1.006000,192.000000,0.000000,0.000000,0.000000,0.000000,0.000000,0.000000,0.000000,0.000000,0.000000,1775737746.681867,0.000000
168.000000,15576.841304,18853.987021,-16872.951910,1635.275976,-15014.672579,-1150.556046,760.004015,-12008.318246,8639.932709,16564.162560,-4377.253875,2290.003275,-18679.330490,15576.796600,773.146841,-453.896875,0.004000,-0.012000,1.006000,192.000000,0.000000,0.000000,0.000000,0.000000,0.000000,0.000000,0.000000,0.000000,0.000000,1775737746.681888,0.000000
170.000000,15597.784888,18864.447637,-16834.417502,1654.297311,-14988.208114,-1152.254778,766.754242,-11979.149220,8642.346697,16584.502647,-4363.619311,2299.636877,-18674.681327,15586.497258,717.245128,-541.560416,0.004000,-0.018000,1.012000,192.000000,0.000000,16.000000,127.500000,56.000000,15.500000,80.000000,0.000000,0.000000,0.000000,1775737746.681901,0.000000
172.000000,15574.628481,18850.075465,-16875.008270,1628.436342,-15020.349922,-1169.197401,755.108983,-12006.597162,8607.567383,16566.688307,-4360.020680,2294.965362,-18667.841693,15575.209627,701.800072,-572.763452,0.004000,-0.018000,1.012000,192.000000,0.000000,0.000000,0.000000,0.000000,0.000000,0.000000,0.000000,0.000000,0.000000,1775737746.681914,0.000000
174.000000,15573.488542,18844.599288,-16860.367878,1632.325546,-15016.348960,-1173.265418,758.729966,-11999.221086,8651.935596,16565.280147,-4387.356864,2289.891516,-18704.587961,15565.285452,775.538477,-455.237979,0.004000,-0.018000,1.012000,192.000000,0.000000,0.000000,0.000000,0.000000,0.000000,0.000000,0.000000,0.000000,0.000000,1775737746.681927,0.000000
176.000000,15569.487580,18834.831576,-16855.718715,1627.966956,-15009.509326,-1174.919447,752.605588,-11998.617589,8581.818173,16554.081923,-4366.167410,2287.298714,-18680.470429,15558.803446,669.434746,-636.555330,0.004000,-0.018000,1.012000,192.000000,0.000000,0.000000,0.000000,0.000000,0.000000,0.000000,0.000000,0.000000,0.000000,1775737746.681940,0.000000
178.000000,15550.443894,18824.058035,-16886.877046,1611.292554,-15027.860108,-1176.752290,746.235340,-12029.462997,8615.546956,16544.850653,-4399.180937,2271.920713,-18719.563630,15550.220376,777.192506,-466.927942,0.004000,-0.018000,1.012000,192.000000,0.000000,0.000000,0.000000,0.000000,0.000000,0.000000,0.000000,0.000000,0.000000,1775737747.160578,0.000000
180.000000,15566.045411,18827.589611,-16849.393171,1627.586976,-15002.535582,-1175.925276,752.717346,-12006.999493,8604.773415,16553.456074,-4392.475413,2272.121879,-18702.822173,15551.270908,730.946747,-564.806231,0.001000,-0.017000,1.013000,192.000000,127.500000,120.000000,127.500000,64.000000,15.500000,88.000000,0.000000,0.000000,0.000000,1775737747.160644,0.000000
182.000000,15544.095998,18817.576029,-16890.721546,1607.895089,-15032.442216,-1183.122538,742.927282,-12032.748703,8568.675347,16537.899260,-4390.821384,2266.221019,-18699.491763,15545.437103,714.227642,-596.478653,0.001000,-0.017000,1.013000,192.000000,0.000000,0.000000,0.000000,0.000000,0.000000,0.000000,0.000000,0.000000,0.000000,1775737747.160691,0.000000
184.000000,15568.459400,18838.072579,-16869.353279,1624.927118,-15023.702684,-1168.660959,753.231436,-12010.195793,8628.242746,16557.211167,-4406.378198,2274.535868,-18725.397435,15554.802484,784.479175,-474.996921,0.001000,-0.017000,1.013000,192.000000,0.000000,0.000000,0.000000,0.000000,0.000000,0.000000,0.000000,0.000000,0.000000,1775737747.160731,0.000000
186.000000,15572.706231,18839.547794,-16858.155055,1627.408162,-15018.807652,-1171.700796,752.851457,-11997.812927,8580.097089,16561.078019,-4371.285960,2284.638856,-18678.436420,15563.832589,669.121822,-645.786601,0.001000,-0.017000,1.013000,192.000000,0.000000,0.000000,0.000000,0.000000,0.000000,0.000000,0.000000,0.000000,0.000000,1775737747.160789,0.000000
188.000000,15571.946272,18845.582765,-16877.534017,1622.826054,-15034.364466,-1162.558933,756.137163,-12007.379473,8619.458511,16558.686383,-4390.016721,2283.744786,-18711.896981,15563.698478,768.587085,-475.756881,0.001000,-0.017000,1.013000,192.000000,0.000000,0.000000,0.000000,0.000000,0.000000,0.000000,0.000000,0.000000,0.000000,1775737747.160831,0.000000
190.000000,15600.265932,18862.637146,-16836.585621,1646.876531,-15002.021492,-1162.067194,763.535591,-11976.645825,8631.774322,16582.692156,-4363.172276,2300.687409,-18680.448077,15581.132839,714.697029,-553.697414,0.003500,-0.015500,1.011500,192.000000,0.000000,24.000000,127.500000,72.000000,15.500000,72.000000,0.000000,0.000000,0.000000,1775737747.160878,0.000000
192.000000,15578.338871,18850.008410,-16875.388250,1630.090371,-15027.323666,-1164.771755,754.438431,-12008.430005,8603.320551,16569.661089,-4359.350128,2297.222888,-18668.221673,15574.360260,695.675694,-580.832431,0.003500,-0.015500,1.011500,192.000000,0.000000,0.000000,0.000000,0.000000,0.000000,0.000000,0.000000,0.000000,0.000000,1775737747.160895,0.000000
194.000000,15583.680938,18852.444750,-16860.569043,1643.434363,-15013.554992,-1159.943779,762.529762,-12000.852764,8656.070668,16576.098392,-4385.099338,2295.859432,-18698.731804,15575.097868,764.831992,-449.940616,0.003500,-0.015500,1.011500,192.000000,0.000000,0.000000,0.000000,0.000000,0.000000,0.000000,0.000000,0.000000,0.000000,1775737747.160907,0.000000
196.000000,15575.835475,18839.391332,-16858.467979,1637.488799,-15013.867916,-1178.383968,755.578370,-12000.338674,8594.938647,16568.990537,-4364.111050,2293.736016,-18667.618175,15569.621690,659.108240,-631.615595,0.003500,-0.015500,1.011500,192.000000,0.000000,0.000000,0.000000,0.000000,0.000000,0.000000,0.000000,0.000000,0.000000,1775737747.160919,0.000000
198.000000,15568.325289,18840.687733,-16881.177352,1623.764828,-15025.490823,-1173.667750,752.829105,-12017.013075,8628.958002,16556.093580,-4391.581344,2282.671902,-18705.347920,15554.154283,770.911666,-458.166058,0.003500,-0.015500,1.011500,192.000000,0.000000,0.000000,0.000000,0.000000,0.000000,0.000000,0.000000,0.000000,0.000000,1775737747.160933,0.000000
200.000000,15584.776173,18846.610945,-16840.005438,1637.578206,-14986.375271,-1163.385947,756.964178,-11991.509735,8630.924956,16569.974014,-4373.521134,2288.639818,-18678.503475,15566.604205,720.732000,-549.942321,0.004750,-0.014750,1.010750,192.000000,0.000000,24.000000,127.500000,72.000000,15.500000,72.000000,0.000000,0.000000,0.000000,1775737747.160947,0.000000
202.000000,15564.592548,18838.832538,-16875.589416,1614.488854,-15004.323721,-1168.929180,746.682375,-12019.382360,8593.686949,16555.378324,-4370.771870,2280.436728,-18659.459789,15560.390420,719.189730,-588.610838,0.004750,-0.014750,1.010750,192.000000,0.000000,0.000000,0.000000,0.000000,0.000000,0.000000,0.000000,0.000000,0.000000,1775737747.160961,0.000000
204.000000,15575.880179,18847.348553,-16860.077305,1625.664726,-14994.757175,-1163.877686,754.170210,-12010.978104,8649.789828,16569.817551,-4392.453062,2283.990655,-18701.123440,15568.213531,799.857175,-464.491602,0.004750,-0.014750,1.010750,192.000000,0.000000,0.000000,0.000000,0.000000,0.000000,0.000000,0.000000,0.000000,0.000000,1775737747.160973,0.000000
206.000000,15565.061935,18835.524480,-16862.468942,1624.345973,-14997.618198,-1174.315950,748.001128,-12014.196755,8592.301141,16567.537673,-4372.448250,2285.354112,-18670.032164,15566.917129,691.741787,-646.077173,0.004750,-0.014750,1.010750,192.000000,0.000000,0.000000,0.000000,0.000000,0.000000,0.000000,0.000000,0.000000,0.000000,1775737747.160985,0.000000
208.000000,15547.091132,18825.577954,-16900.019872,1613.237156,-15030.944649,-1170.851430,742.927282,-12037.017886,8607.455624,16548.739856,-4413.486053,2269.551429,-18725.755063,15555.294222,790.000056,-476.919171,0.004750,-0.014750,1.010750,192.000000,0.000000,0.000000,0.000000,0.000000,0.000000,0.000000,0.000000,0.000000,0.000000,1775737747.160997,0.000000
210.000000,15570.404002,18837.089102,-16856.724543,1632.794932,-15011.073948,-1161.374290,751.532704,-12002.283275,8607.857955,16563.223787,-4397.482204,2277.955684,-18709.281827,15564.883121,730.253843,-558.883018,0.006375,-0.012375,1.009375,192.000000,0.000000,32.000000,127.500000,88.000000,15.500000,64.000000,0.000000,0.000000,0.000000,1775737747.161010,0.000000
212.000000,15563.206740,18838.787834,-16881.065593,1617.908671,-15026.250783,-1159.072060,749.453992,-12013.906183,8579.560647,16553.768999,-4382.573591,2275.228772,-18692.830943,15561.262138,710.718418,-591.404807,0.006375,-0.012375,1.009375,192.000000,0.000000,0.000000,0.000000,0.000000,0.000000,0.000000,0.000000,0.000000,0.000000,1775737747.161022,0.000000
214.000000,15583.010385,18855.395181,-16859.764380,1636.013584,-15011.565687,-1153.729994,761.054547,-11995.600104,8647.219377,16569.683441,-4387.781547,2283.007179,-18709.482993,15570.783981,783.026312,-456.243808,0.006375,-0.012375,1.009375,192.000000,0.000000,0.000000,0.000000,0.000000,0.000000,0.000000,0.000000,0.000000,0.000000,1775737747.161034,0.000000
216.000000,15589.827667,18859.932585,-16851.941270,1641.042726,-15004.211963,-1154.691119,762.149782,-11984.781859,8597.732615,16575.785467,-4356.153829,2290.137385,-18666.701754,15577.176580,667.758366,-623.166635,0.006375,-0.012375,1.009375,192.000000,0.000000,0.000000,0.000000,0.000000,0.000000,0.000000,0.000000,0.000000,0.000000,1775737747.161047,0.000000
218.000000,15579.501162,18858.546777,-16882.674918,1633.309023,-15027.211908,-1159.206171,761.143954,-12007.714749,8636.132912,16569.616386,-4382.126556,2283.722434,-18697.703623,15572.661528,766.441317,-455.483849,0.006375,-0.012375,1.009375,192.000000,0.000000,0.000000,0.000000,0.000000,0.000000,0.000000,0.000000,0.000000,0.000000,1775737747.161060,0.000000
220.000000,15593.023967,18863.084181,-16848.968488,1653.067965,-15000.859201,-1155.205209,765.636655,-11982.993720,8627.706305,16581.596921,-4375.309274,2288.483356,-18690.260493,15578.584740,713.288869,-542.566245,0.007188,-0.014188,1.005688,192.000000,0.000000,32.000000,127.500000,64.000000,15.500000,40.000000,0.000000,0.000000,0.000000,1775737747.161072,0.000000
222.000000,15576.103696,18854.501111,-16884.284244,1631.632642,-15024.172071,-1159.005005,755.153686,-12006.127775,8592.904638,16571.404525,-4369.319006,2285.220001,-18681.610367,15574.874350,691.227697,-579.804251,0.007188,-0.014188,1.005688,192.000000,0.000000,0.000000,0.000000,0.000000,0.000000,0.000000,0.000000,0.000000,0.000000,1775737747.161085,0.000000
224.000000,15587.145458,18859.329088,-16858.222110,1635.521845,-15004.547239,-1153.551180,761.948617,-11992.426156,8656.584758,16573.662051,-4384.562896,2281.353150,-18703.805650,15571.767458,775.247905,-455.372090,0.007188,-0.014188,1.005688,192.000000,0.000000,0.000000,0.000000,0.000000,0.000000,0.000000,0.000000,0.000000,0.000000,1775737747.161097,0.000000
226.000000,15584.887932,18852.064771,-16840.653639,1626.804665,-14989.616274,-1163.408299,756.338329,-11991.509735,8603.722883,16569.504627,-4354.522151,2280.280266,-18657.761056,15569.152304,673.458060,-643.506723,0.007188,-0.014188,1.005688,192.000000,0.000000,0.000000,0.000000,0.000000,0.000000,0.000000,0.000000,0.000000,0.000000,1775737747.161109,0.000000
228.000000,15567.140647,18842.967611,-16872.191950,1608.073903,-15016.259553,-1171.387872,749.029308,-12020.365837,8634.836511,16556.294746,-4382.730053,2266.690405,-18698.061251,15556.165940,787.004922,-484.272895,0.007188,-0.014188,1.005688,192.000000,0.000000,0.000000,0.000000,0.000000,0.000000,0.000000,0.000000,0.000000,0.000000,1775737747.161122,0.000000
230.000000,15580.730507,18847.080332,-16846.174520,1626.491741,-15002.245009,-1174.718282,752.605588,-11996.225953,8625.046447,16563.916691,-4375.935122,2269.529077,-18692.383908,15557.641155,731.237320,-566.616722,0.005594,-0.015094,1.004844,192.000000,0.000000,16.000000,127.500000,64.000000,15.500000,48.000000,0.000000,0.000000,0.000000,1775737747.161134,0.000000
232.000000,15552.276737,18827.008465,-16892.062651,1607.358647,-15036.621992,-1189.470433,740.960329,-12029.530052,8574.464449,16541.743760,-4382.908867,2261.773021,-18685.231350,15548.119312,703.521157,-601.239574,0.005594,-0.015094,1.004844,192.000000,0.000000,0.000000,0.000000,0.000000,0.000000,0.000000,0.000000,0.000000,0.000000,1775737747.161146,0.000000
234.000000,15560.792751,18833.579878,-16877.221093,1623.898938,-15026.273135,-1180.730901,748.515218,-12017.683627,8628.466264,16549.209243,-4409.842719,2261.191876,-18739.099054,15548.387533,790.648257,-468.827840,0.005594,-0.015094,1.004844,192.000000,0.000000,0.000000,0.000000,0.000000,0.000000,0.000000,0.000000,0.000000,0.000000,1775737747.161158,0.000000
236.000000,15559.965737,18827.321390,-16868.213340,1629.017488,-15016.259553,-1179.188630,746.078878,-12010.911049,8571.849295,16541.788464,-4384.965227,2263.248237,-18698.888266,15552.679068,680.051825,-639.729278,0.005594,-0.015094,1.004844,192.000000,0.000000,0.000000,0.000000,0.000000,0.000000,0.000000,0.000000,0.000000,0.000000,1775737747.161170,0.000000
238.000000,15559.518702,18836.329143,-16892.129706,1622.446075,-15026.831928,-1164.928218,746.883541,-12024.366799,8609.757854,16536.178176,-4407.607544,2259.850771,-18729.577211,15555.137760,785.552059,-463.083442,0.005594,-0.015094,1.004844,192.000000,0.000000,0.000000,0.000000,0.000000,0.000000,0.000000,0.000000,0.000000,0.000000,1775737747.161199,0.000000
240.000000,15593.336891,18861.899538,-16846.688610,1648.307043,-14989.437460,-1150.801915,758.238227,-11984.558342,8623.660639,16564.296670,-4382.305370,2278.447423,-18695.602560,15575.321385,732.690183,-536.821847,0.004797,-0.015547,1.004422,192.000000,0.000000,16.000000,127.500000,64.000000,15.500000,48.000000,0.000000,0.000000,0.000000,1775737747.161215,0.000000
242.000000,15582.630406,18860.491378,-16874.628290,1630.224482,-15011.319817,-1147.359746,751.532704,-12000.405729,8596.011531,16564.810761,-4365.005119,2284.191821,-18675.150713,15580.551694,705.532814,-575.311551,0.004797,-0.015547,1.004422,192.000000,0.000000,0.000000,0.000000,0.000000,0.000000,0.000000,0.000000,0.000000,0.000000,1775737747.161228,0.000000
244.000000,15602.702272,18874.014184,-16848.856729,1640.081601,-15001.552105,-1144.632834,762.060375,-11982.703147,8662.239750,16581.842790,-4373.677596,2288.908039,-18700.117612,15587.301920,785.261486,-446.923130,0.004797,-0.015547,1.004422,192.000000,0.000000,0.000000,0.000000,0.000000,0.000000,0.000000,0.000000,0.000000,0.000000,1775737747.161240,0.000000
246.000000,15601.539982,18869.052096,-16839.156072,1638.628738,-15001.216829,-1157.753308,760.965140,-11973.695394,8613.669409,16586.894284,-4338.495951,2294.965362,-18657.135207,15590.051185,676.475546,-636.018888,0.004797,-0.015547,1.004422,192.000000,0.000000,0.000000,0.000000,0.000000,0.000000,0.000000,0.000000,0.000000,0.000000,1775737747.161252,0.000000
248.000000,15580.685804,18860.066695,-16873.220131,1626.581148,-15032.173995,-1168.124517,756.852419,-12001.366854,8638.569252,16573.818514,-4371.420070,2285.309408,-18701.257551,15577.645967,773.549172,-483.110605,0.004797,-0.015547,1.004422,192.000000,0.000000,0.000000,0.000000,0.000000,0.000000,0.000000,0.000000,0.000000,0.000000,1775737747.161276,0.000000
250.000000,15583.546827,18848.957878,-16842.687648,1639.656918,-15012.392701,-1174.919447,760.316939,-11987.754642,8634.747104,16573.930272,-4367.821439,2284.214173,-18691.311025,15574.784943,716.373410,-565.856763,0.004797,-0.015547,1.004422,192.000000,0.000000,0.000000,0.000000,0.000000,0.000000,0.000000,0.000000,0.000000,0.000000,1775737747.161290,0.000000
252.000000,15550.399190,18821.956971,-16890.140401,1613.259508,-15046.792036,-1191.258572,743.687242,-12027.361933,8581.996987,16542.794292,-4379.980788,2265.863391,-18696.384871,15555.942423,691.406511,-608.638002,0.006000,-0.018000,0.998000,192.000000,0.000000,24.000000,127.500000,56.000000,15.500000,24.000000,0.000000,0.000000,0.000000,1775737747.161313,0.000000
254.000000,15558.691687,18827.097872,-16876.751706,1621.082618,-15035.079722,-1183.144889,748.045832,-12020.678761,8631.215528,16544.671839,-4410.893251,2257.682652,-18733.600525,15549.974507,772.833916,-470.750090,0.006000,-0.018000,0.998000,192.000000,0.000000,0.000000,0.000000,0.000000,0.000000,0.000000,0.000000,0.000000,0.000000,1775737747.161325,0.000000
0.000000,15559.049315,18821.912267,-16867.542787,1618.311002,-15019.232335,-1179.322741,743.821352,-12014.263810,8576.565513,16541.944926,-4384.987579,2257.481486,-18694.037937,15548.029905,662.349243,-643.037336,0.006000,-0.018000,0.998000,192.000000,0.000000,0.000000,0.000000,0.000000,0.000000,0.000000,0.000000,0.000000,0.000000,1775737747.161337,0.000000
2.000000,15540.676181,18811.876334,-16897.918808,1602.977705,-15040.980582,-1178.875706,740.155666,-12038.828378,8604.840470,16524.823490,-4410.468568,2245.858579,-18734.762816,15537.770455,767.067166,-473.767575,0.006000,-0.018000,0.998000,192.000000,0.000000,0.000000,0.000000,0.000000,0.000000,0.000000,0.000000,0.000000,0.000000,1775737747.161350,0.000000
4.000000,15566.738315,18828.215459,-16856.053991,1624.033049,-15007.117690,-1168.035110,749.811619,-12006.574810,8606.226278,16536.558156,-4396.252858,2253.972263,-18716.523792,15542.173748,723.548320,-552.423364,0.006000,-0.018000,0.998000,192.000000,0.000000,0.000000,0.000000,0.000000,0.000000,0.000000,0.000000,0.000000,0.000000,1775737747.161362,0.000000
6.000000,15551.673240,18820.548811,-16893.269645,1607.045723,-15033.559803,-1180.708549,739.753334,-12030.602936,8575.760850,16530.277315,-4384.518192,2254.955739,-18699.357653,15541.570251,705.354000,-596.433949,0.008000,-0.018000,1.002000,192.000000,0.000000,32.000000,127.500000,56.000000,15.500000,40.000000,0.000000,0.000000,0.000000,1775737747.161374,0.000000
8.000000,15569.599339,18836.262087,-16871.990785,1627.430514,-15015.186669,-1166.090508,750.504524,-12013.682665,8633.160130,16541.676705,-4405.394722,2259.135516,-18729.107824,15547.672277,792.458748,-453.606302,0.008000,-0.018000,1.002000,192.000000,0.000000,0.000000,0.000000,0.000000,0.000000,0.000000,0.000000,0.000000,0.000000,1775737747.161387,0.000000
10.000000,15585.156153,18847.035628,-16857.797427,1637.689964,-14997.171163,-1155.339319,752.694995,-11996.270656,8594.804537,16555.378324,-4368.961378,2273.440632,-18677.587053,15563.206740,677.861354,-633.403734,0.008000,-0.018000,1.002000,192.000000,0.000000,0.000000,0.000000,0.000000,0.000000,0.000000,0.000000,0.000000,0.000000,1775737747.161399,0.000000
12.000000,15577.623615,18853.607041,-16887.100564,1629.978613,-15018.695893,-1153.238255,752.337367,-12008.787633,8635.730581,16558.798141,-4386.216925,2276.256952,-18703.895057,15566.581853,774.979684,-467.352625,0.008000,-0.018000,1.002000,192.000000,0.000000,0.000000,0.000000,0.000000,0.000000,0.000000,0.000000,0.000000,0.000000,1775737747.161411,0.000000
14.000000,15594.655644,18859.194977,-16848.588508,1647.256511,-14992.633759,-1153.372366,759.601684,-11981.965540,8634.992973,16574.131438,-4372.045919,2282.738958,-18687.354766,15572.102734,719.770875,-542.543893,0.008000,-0.018000,1.002000,192.000000,0.000000,0.000000,0.000000,0.000000,0.000000,0.000000,0.000000,0.000000,0.000000,1775737747.161423,0.000000
16.000000,15565.777190,18840.240698,-16886.430012,1621.283784,-15025.826100,-1167.833944,747.151762,-12016.297819,8595.720958,16556.831188,-4368.022605,2272.881838,-18676.067135,15562.089153,690.601848,-594.019961,0.008000,-0.016000,1.014000,192.000000,0.000000,32.000000,127.500000,64.000000,15.500000,88.000000,0.000000,0.000000,0.000000,1775737747.161435,0.000000
18.000000,15570.426353,18840.888898,-16870.157942,1626.938775,-15021.020475,-1168.660959,752.158553,-12013.079168,8645.632404,16557.322926,-4396.968114,2264.455231,-18707.024301,15557.104714,768.900009,-459.462459,0.008000,-0.016000,1.014000,192.000000,0.000000,0.000000,0.000000,0.000000,0.000000,0.000000,0.000000,0.000000,0.000000,1775737747.161447,0.000000
20.000000,15558.736391,18825.600305,-16866.156979,1621.104970,-15025.736693,-1184.664808,744.156628,-12017.080130,8583.963941,16545.700019,-4375.868067,2262.309463,-18694.663786,15549.527472,659.331758,-642.143266,0.008000,-0.016000,1.014000,192.000000,0.000000,0.000000,0.000000,0.000000,0.000000,0.000000,0.000000,0.000000,0.000000,1775737747.161459,0.000000
22.000000,15538.820987,18819.431224,-16901.830363,1605.950487,-15055.352754,-1189.045750,737.428753,-12044.818645,8605.846298,16530.836109,-4411.586155,2247.043222,-18738.026170,15534.864728,758.573503,-480.920134,0.008000,-0.016000,1.014000,192.000000,0.000000,0.000000,0.000000,0.000000,0.000000,0.000000,0.000000,0.000000,0.000000,1775737747.161472,0.000000
24.000000,15552.366144,18822.180488,-16865.017040,1624.591842,-15029.089454,-1182.519040,743.977814,-12017.840090,8600.280714,16542.056685,-4404.254783,2249.859542,-18726.760891,15541.726713,717.647459,-553.853876,0.008000,-0.016000,1.014000,192.000000,0.000000,0.000000,0.000000,0.000000,0.000000,0.000000,0.000000,0.000000,0.000000,1775737747.161484,0.000000
26.000000,15542.151397,18819.587686,-16894.320177,1605.838729,-15044.869786,-1180.105052,736.937015,-12036.190872,8564.473219,16532.870118,-4395.515251,2246.685594,-18711.248781,15540.430312,692.099415,-602.155996,0.008000,-0.010000,1.004000,192.000000,0.000000,32.000000,127.500000,88.000000,15.500000,48.000000,0.000000,0.000000,0.000000,1775737747.161498,0.000000
28.000000,15559.496350,18837.044398,-16876.461134,1623.675421,-15020.841661,-1168.549200,744.938939,-12019.136491,8632.534281,16551.086789,-4411.474396,2253.704042,-18731.320647,15551.516777,780.098233,-459.574218,0.008000,-0.010000,1.004000,192.000000,0.000000,0.000000,0.000000,0.000000,0.000000,0.000000,0.000000,0.000000,0.000000,1775737747.161510,0.000000
30.000000,15576.506028,18848.868471,-16860.390229,1632.482008,-15005.508364,-1159.764965,745.721250,-12000.517488,8589.417766,16560.720391,-4375.108108,2267.316254,-18682.459734,15563.698478,671.826383,-631.727354,0.008000,-0.010000,1.004000,192.000000,0.000000,0.000000,0.000000,0.000000,0.000000,0.000000,0.000000,0.000000,0.000000,1775737747.161522,0.000000
32.000000,15579.389403,18862.592442,-16883.680747,1627.899900,-15023.635629,-1155.518133,748.559922,-12008.765281,8636.468188,16561.994441,-4390.374349,2269.819649,-18703.179801,15566.090115,771.313998,-472.247657,0.008000,-0.010000,1.004000,192.000000,0.000000,0.000000,0.000000,0.000000,0.000000,0.000000,0.000000,0.000000,0.000000,1775737747.161534,0.000000
34.000000,15594.543886,18867.889806,-16846.509796,1651.704508,-15006.313027,-1154.445249,758.573503,-11977.942226,8646.347659,16586.491953,-4367.530867,2289.355074,-18682.817362,15580.864618,722.564843,-545.874303,0.008000,-0.010000,1.004000,192.000000,0.000000,0.000000,0.000000,0.000000,0.000000,0.000000,0.000000,0.000000,0.000000,1775737747.161546,0.000000
36.000000,15573.019156,18854.545814,-16881.736145,1635.275976,-15035.727922,-1160.994310,748.850494,-12004.585505,8599.923086,16572.455057,-4362.814648,2285.018836,-18679.866931,15573.421487,685.975037,-580.407748,0.004000,-0.008000,1.004000,192.000000,0.000000,16.000000,127.500000,96.000000,15.500000,48.000000,0.000000,0.000000,0.000000,1775737747.161558,0.000000
38.000000,15583.770345,18860.536082,-16867.162808,1644.261377,-15025.535527,-1155.451078,754.863114,-12000.293970,8661.524494,16576.344261,-4386.708663,2280.682597,-18710.779394,15571.789810,772.096309,-444.419735,0.004000,-0.008000,1.004000,192.000000,0.000000,0.000000,0.000000,0.000000,0.000000,0.000000,0.000000,0.000000,0.000000,1775737747.161577,0.000000
40.000000,15584.217380,18856.892748,-16857.126875,1644.350784,-15012.727977,-1158.647377,752.113849,-11997.254133,8605.846298,16570.912787,-4365.027471,2280.682597,-18675.217769,15572.013327,658.370633,-625.401810,0.004000,-0.008000,1.004000,192.000000,0.000000,0.000000,0.000000,0.000000,0.000000,0.000000,0.000000,0.000000,0.000000,1775737747.161589,0.000000
42.000000,15564.816065,18849.024933,-16890.319215,1624.725953,-15038.767760,-1171.186706,745.743602,-12024.187985,8629.941479,16555.311269,-4397.370445,2270.266684,-18714.646246,15560.144551,760.093422,-469.721910,0.004000,-0.008000,1.004000,192.000000,0.000000,0.000000,0.000000,0.000000,0.000000,0.000000,0.000000,0.000000,0.000000,1775737747.641503,0.000000
44.000000,15591.884028,18864.335878,-16850.220186,1640.327470,-15009.174050,-1168.884476,755.354852,-11992.113232,8633.785979,16569.258758,-4384.607599,2275.586400,-18700.050557,15563.072629,717.178073,-542.365079,0.004000,-0.008000,1.004000,192.000000,0.000000,0.000000,0.000000,0.000000,0.000000,0.000000,0.000000,0.000000,0.000000,1775737747.641608,0.000000
46.000000,15570.672222,18850.410742,-16884.217189,1614.466502,-15034.565632,-1177.199325,745.944768,-12015.761377,8593.821060,16554.975993,-4375.935122,2271.004292,-18688.405298,15555.383629,690.534793,-598.333847,0.004000,-0.016000,1.004000,192.000000,0.000000,16.000000,127.500000,64.000000,15.500000,48.000000,0.000000,0.000000,0.000000,1775737747.641694,0.000000
48.000000,15587.011348,18863.687678,-16867.341622,1627.139941,-15018.606486,-1170.516154,752.784402,-12005.859555,8653.299052,16559.803970,-4397.817480,2266.735109,-18717.060234,15554.847187,782.176945,-459.909494,0.004000,-0.016000,1.004000,192.000000,0.000000,0.000000,0.000000,0.000000,0.000000,0.000000,0.000000,0.000000,0.000000,1775737747.641910,0.000000
50.000000,15588.933598,18861.676021,-16854.869348,1635.477142,-15006.603599,-1167.006930,751.309186,-11996.024787,8603.477014,16564.967223,-4367.329701,2274.267647,-18673.764905,15563.162036,672.832212,-633.828418,0.004000,-0.016000,1.004000,192.000000,0.000000,0.000000,0.000000,0.000000,0.000000,0.000000,0.000000,0.000000,0.000000,1775737747.642017,0.000000
52.000000,15592.621636,18873.924777,-16880.529151,1628.101066,-15019.478204,-1157.641549,749.722213,-12009.927572,8636.915223,16560.921557,-4388.452099,2272.948894,-18703.358615,15563.586719,770.755204,-475.242791,0.004000,-0.016000,1.004000,192.000000,0.000000,0.000000,0.000000,0.000000,0.000000,0.000000,0.000000,0.000000,0.000000,1775737747.642110,0.000000
54.000000,15626.730398,18894.734251,-16833.054046,1653.649110,-14984.542428,-1150.243121,762.865038,-11969.359156,8656.964738,16585.799049,-4364.781602,2289.869164,-18676.380059,15577.534208,731.371430,-540.129905,0.004000,-0.016000,1.004000,192.000000,0.000000,0.000000,0.000000,0.000000,0.000000,0.000000,0.000000,0.000000,0.000000,1775737747.642154,0.000000
56.000000,15609.921886,18888.140486,-16862.826569,1633.756057,-15013.622047,-1161.754270,755.220742,-11987.531124,8626.544014,16576.746592,-4346.028488,2294.138347,-18661.091466,15575.187275,693.418168,-592.880022,0.002000,-0.014000,1.006000,192.000000,0.000000,8.000000,127.500000,72.000000,15.500000,56.000000,0.000000,0.000000,0.000000,1775737747.642182,0.000000
58.000000,15616.314485,18892.208504,-16846.487444,1641.132133,-15011.565687,-1157.172162,763.535591,-11978.031633,8681.216381,16578.847656,-4367.732032,2289.690350,-18691.221618,15570.471057,784.523879,-450.789982,0.002000,-0.014000,1.006000,192.000000,0.000000,0.000000,0.000000,0.000000,0.000000,0.000000,0.000000,0.000000,0.000000,1775737747.642221,0.000000
60.000000,15605.943275,18876.003489,-16839.893680,1639.321642,-15009.352864,-1167.588075,757.411213,-11979.931531,8622.319534,16577.014813,-4340.820532,2292.216097,-18661.694963,15570.024022,672.273418,-634.096638,0.002000,-0.014000,1.006000,192.000000,0.000000,0.000000,0.000000,0.000000,0.000000,0.000000,0.000000,0.000000,0.000000,1775737747.642248,0.000000
62.000000,15586.966644,18862.659498,-16875.500009,1622.870758,-15036.353771,-1174.539468,751.398593,-12012.386264,8635.641174,16552.874929,-4379.869030,2271.361920,-18708.655978,15553.282565,778.310094,-479.087291,0.002000,-0.014000,1.006000,192.000000,0.000000,0.000000,0.000000,0.000000,0.000000,0.000000,0.000000,0.000000,0.000000,1775737747.642274,0.000000
64.000000,15603.685749,18868.247434,-16840.251308,1638.762848,-15009.777547,-1172.348997,757.455916,-11987.329958,8639.329212,16561.547406,-4371.353015,2272.054824,-18697.077775,15557.529397,735.640614,-545.203751,0.002000,-0.014000,1.006000,192.000000,0.000000,0.000000,0.000000,0.000000,0.000000,0.000000,0.000000,0.000000,0.000000,1775737747.642304,0.000000
66.000000,15589.268874,18863.665326,-16874.449477,1620.054438,-15029.134158,-1177.311084,747.934073,-12007.334770,8599.118423,16552.338487,-4362.881704,2268.791469,-18683.487914,15556.814141,700.838947,-606.536938,0.003000,-0.014000,1.009000,192.000000,0.000000,16.000000,127.500000,72.000000,15.500000,80.000000,0.000000,0.000000,0.000000,1775737747.642333,0.000000
68.000000,15602.098775,18877.121076,-16857.685668,1631.677345,-15015.589001,-1160.100241,758.640559,-11989.475726,8661.680956,16563.290842,-4383.780585,2271.786603,-18712.411071,15560.345717,789.776539,-454.790944,0.003000,-0.014000,1.009000,192.000000,0.000000,0.000000,0.000000,0.000000,0.000000,0.000000,0.000000,0.000000,0.000000,1775737747.642360,0.000000
70.000000,15601.517630,18873.589501,-16846.621555,1637.399392,-15007.162393,-1167.632779,756.718309,-11981.205580,8613.244726,16567.425915,-4351.951701,2279.699120,-18668.489893,15565.956004,680.521212,-633.247272,0.003000,-0.014000,1.009000,192.000000,0.000000,0.000000,0.000000,0.000000,0.000000,0.000000,0.000000,0.000000,0.000000,1775737747.642387,0.000000
72.000000,15595.482659,18874.170646,-16876.081154,1633.040802,-15027.971867,-1160.122592,756.427736,-12002.752662,8636.401133,16559.692211,-4379.936085,2275.429937,-18701.302254,15562.804408,774.599704,-475.533363,0.003000,-0.014000,1.009000,192.000000,0.000000,0.000000,0.000000,0.000000,0.000000,0.000000,0.000000,0.000000,0.000000,1775737747.642414,0.000000
74.000000,15615.398063,18883.826600,-16836.295049,1652.509171,-14997.662902,-1155.361671,764.809640,-11977.003452,8656.048316,16581.485162,-4362.881704,2288.997446,-18675.977728,15582.295130,728.555111,-537.581806,0.003000,-0.014000,1.009000,192.000000,0.000000,0.000000,0.000000,0.000000,0.000000,0.000000,0.000000,0.000000,0.000000,1775737747.642440,0.000000
76.000000,15602.523458,18875.847027,-16868.123933,1629.241005,-15021.556916,-1166.671654,753.253788,-12000.048101,8609.221412,16562.039144,-4358.143134,2278.670940,-18680.492780,15568.012365,694.446348,-599.406731,0.003000,-0.014000,1.009000,192.000000,0.000000,0.000000,127.500000,56.000000,15.500000,64.000000,0.000000,0.000000,0.000000,1775737747.642467,0.000000
78.000000,15614.883973,18885.368870,-16853.282375,1639.992194,-15014.382006,-1163.609465,762.015672,-11985.944150,8675.717852,16576.500723,-4375.152811,2283.185993,-18705.012644,15571.968624,782.445166,-459.037776,0.003000,-0.014000,1.009000,192.000000,0.000000,0.000000,0.000000,0.000000,0.000000,0.000000,0.000000,0.000000,0.000000,1775737747.642493,0.000000
80.000000,15614.794566,18877.411649,-16843.447607,1637.041764,-15007.788242,-1163.430651,758.059413,-11977.674005,8615.055217,16572.253891,-4349.872988,2285.242353,-18669.629832,15569.867560,669.971188,-633.694307,0.003000,-0.014000,1.009000,192.000000,0.000000,0.000000,0.000000,0.000000,0.000000,0.000000,0.000000,0.000000,0.000000,1775737747.642520,0.000000
82.000000,15596.421432,18870.124980,-16878.472791,1620.568528,-15032.151643,-1175.187668,750.660986,-12010.016979,8643.240767,16561.346240,-4377.566800,2275.966379,-18704.587961,15559.429295,770.777556,-483.378826,0.003000,-0.014000,1.009000,192.000000,0.000000,0.000000,0.000000,0.000000,0.000000,0.000000,0.000000,0.000000,0.000000,1775737747.642546,0.000000
84.000000,15600.780022,18862.570091,-16845.146340,1635.275976,-15010.045768,-1171.387872,754.170210,-11995.577752,8639.418619,16566.487141,-4376.806841,2272.546562,-18700.564647,15563.921996,735.774724,-550.389355,0.003000,-0.014000,1.009000,192.000000,0.000000,0.000000,0.000000,0.000000,0.000000,0.000000,0.000000,0.000000,0.000000,1775737747.642573,0.000000
86.000000,15583.546827,18851.818902,-16880.238578,1617.841615,-15035.012667,-1170.024415,744.178980,-12021.930459,8589.238952,16546.437627,-4376.538620,2259.090812,-18691.758059,15557.417638,699.117863,-609.755589,0.003500,-0.014000,1.008500,192.000000,0.000000,16.000000,127.500000,72.000000,15.500000,64.000000,0.000000,0.000000,0.000000,1775737747.642599,0.000000
88.000000,15605.943275,18872.471913,-16865.061744,1630.447999,-15013.979675,-1161.821325,753.365547,-12005.658389,8659.244616,16564.810761,-4393.972980,2263.896437,-18717.216696,15566.492446,795.342123,-456.579084,0.003500,-0.014000,1.008500,192.000000,0.000000,0.000000,0.000000,0.000000,0.000000,0.000000,0.000000,0.000000,0.000000,1775737747.642625,0.000000
90.000000,15610.570086,18870.996698,-16850.421351,1633.644299,-15007.810594,-1165.688177,751.733870,-11988.872229,8612.529470,16567.917653,-4361.115916,2273.261818,-18674.100181,15574.784943,679.627142,-633.381383,0.003500,-0.014000,1.008500,192.000000,0.000000,0.000000,0.000000,0.000000,0.000000,0.000000,0.000000,0.000000,0.000000,1775737747.642654,0.000000
92.000000,15605.898572,18874.528274,-16878.808067,1621.306136,-15026.139024,-1164.727052,750.884503,-12006.194831,8643.441933,16560.496874,-4379.869030,2270.512554,-18707.270170,15566.447743,769.279989,-479.154346,0.003500,-0.014000,1.008500,192.000000,0.000000,0.000000,0.000000,0.000000,0.000000,0.000000,0.000000,0.000000,0.000000,1775737747.642680,0.000000
94.000000,15624.852851,18886.106478,-16836.719732,1643.143790,-14994.935989,-1157.105107,760.786326,-11976.779935,8650.952119,16577.864179,-4366.860314,2281.151984,-18690.685176,15576.438973,734.187750,-543.527370,0.003500,-0.014000,1.008500,192.000000,0.000000,0.000000,0.000000,0.000000,0.000000,0.000000,0.000000,0.000000,0.000000,1775737747.642706,0.000000
96.000000,15611.687674,18882.507847,-16869.822665,1632.102028,-15014.449062,-1157.619197,753.969044,-11999.981046,8616.910412,16573.572644,-4354.410393,2285.510574,-18671.015641,15579.679975,699.184918,-597.931516,0.004750,-0.015000,1.008250,192.000000,0.000000,24.000000,127.500000,64.000000,15.500000,64.000000,0.000000,0.000000,0.000000,1775737747.642733,0.000000
98.000000,15608.357264,18879.088030,-16863.228901,1646.898883,-15012.862088,-1151.114839,760.920436,-11998.975217,8663.156171,16575.897226,-4384.629951,2280.973170,-18710.578228,15582.540999,786.379073,-447.101944,0.004750,-0.015000,1.008250,192.000000,0.000000,0.000000,0.000000,0.000000,0.000000,0.000000,0.000000,0.000000,0.000000,1775737747.642760,0.000000
100.000000,15618.080272,18883.781896,-16847.470921,1646.563607,-14998.288750,-1157.350976,757.522971,-11985.295950,8609.914316,16579.607615,-4358.947797,2281.040225,-18672.960242,15587.547790,669.010063,-626.362935,0.004750,-0.015000,1.008250,192.000000,0.000000,0.000000,0.000000,0.000000,0.000000,0.000000,0.000000,0.000000,0.000000,1775737747.642805,0.000000
102.000000,15599.684787,18872.538969,-16878.383384,1618.221595,-15031.190518,-1175.142965,750.504524,-12009.189964,8642.771380,16563.313194,-4379.846678,2266.869219,-18705.392624,15569.308766,761.166306,-480.875430,0.004750,-0.015000,1.008250,192.000000,0.000000,0.000000,0.000000,0.000000,0.000000,0.000000,0.000000,0.000000,0.000000,1775737747.642823,0.000000
104.000000,15610.212458,18874.237701,-16839.848976,1628.436342,-15007.765890,-1179.032168,754.661948,-11985.854743,8641.229110,16562.419124,-4372.582361,2265.103431,-18696.362519,15563.229092,731.416134,-554.032690,0.004750,-0.015000,1.008250,192.000000,0.000000,0.000000,0.000000,0.000000,0.000000,0.000000,0.000000,0.000000,0.000000,1775737747.642836,0.000000
106.000000,15601.539982,18872.963652,-16870.917901,1611.739589,-15025.714341,-1177.936933,745.385974,-12006.865383,8600.526583,16554.484255,-4364.312215,2262.689443,-18666.925271,15562.044449,698.424959,-620.238557,0.007375,-0.016500,1.007125,192.000000,0.000000,40.000000,127.500000,56.000000,15.500000,56.000000,0.000000,0.000000,0.000000,1775737747.642850,0.000000
108.000000,15620.226040,18887.805210,-16853.751761,1627.430514,-15010.112823,-1167.655130,756.584198,-11992.873191,8674.421450,16572.835037,-4381.835983,2269.439670,-18711.360539,15570.046374,792.056417,-464.290436,0.007375,-0.016500,1.007125,192.000000,0.000000,0.000000,0.000000,0.000000,0.000000,0.000000,0.000000,0.000000,0.000000,1775737747.642862,0.000000
110.000000,15618.169679,18878.708050,-16845.794540,1633.756057,-15004.480184,-1168.012758,752.404422,-11985.541819,8622.431293,16575.830171,-4353.538675,2278.402719,-18667.662879,15576.930711,680.230639,-642.053859,0.007375,-0.016500,1.007125,192.000000,0.000000,0.000000,0.000000,0.000000,0.000000,0.000000,0.000000,0.000000,0.000000,1775737747.642874,0.000000
112.000000,15606.077386,18876.584634,-16878.361032,1623.876586,-15027.904812,-1163.385947,750.660986,-12007.401825,8641.832607,16565.682479,-4379.913733,2272.390100,-18703.380967,15571.923920,775.940809,-483.445881,0.007375,-0.016500,1.007125,192.000000,0.000000,0.000000,0.000000,0.000000,0.000000,0.000000,0.000000,0.000000,0.000000,1775737747.642885,0.000000
114.000000,15628.585592,18890.532123,-16840.452473,1649.648148,-14994.980692,-1154.355842,759.311111,-11975.617644,8651.645023,16581.060479,-4369.319006,2281.330798,-18688.561760,15582.518647,733.919529,-538.945262,0.007375,-0.016500,1.007125,192.000000,0.000000,0.000000,0.000000,0.000000,0.000000,0.000000,0.000000,0.000000,0.000000,1775737747.642898,0.000000
116.000000,15605.138612,18877.478704,-16873.935386,1632.727877,-15021.109882,-1163.162430,750.482172,-12000.673950,8612.484767,16575.204322,-4357.874913,2281.643722,-18672.580263,15586.206685,690.378331,-598.467958,0.008688,-0.014250,1.004563,192.000000,0.000000,40.000000,127.500000,80.000000,15.500000,40.000000,0.000000,0.000000,0.000000,1775737747.642910,0.000000
118.000000,15615.241601,18885.480629,-16856.679840,1639.567511,-15018.293562,-1153.528828,758.282931,-11992.984950,8664.743145,16576.612482,-4383.937047,2276.391062,-18711.472298,15579.724679,783.138070,-450.789982,0.008688,-0.014250,1.004563,192.000000,0.000000,0.000000,0.000000,0.000000,0.000000,0.000000,0.000000,0.000000,0.000000,1775737747.642922,0.000000
120.000000,15626.909212,18890.912103,-16841.704171,1640.238063,-15005.910695,-1159.519095,755.935997,-11979.305682,8622.610107,16582.155714,-4349.068326,2282.828365,-18664.466579,15584.150324,669.457098,-632.464961,0.008688,-0.014250,1.004563,192.000000,0.000000,0.000000,0.000000,0.000000,0.000000,0.000000,0.000000,0.000000,0.000000,1775737747.642934,0.000000
122.000000,15605.786813,18881.591425,-16874.114200,1622.356668,-15033.872728,-1169.666787,752.091497,-12006.172479,8650.080401,16572.276243,-4371.889457,2275.161716,-18697.524810,15577.534208,757.992358,-488.363265,0.008688,-0.014250,1.004563,192.000000,0.000000,0.000000,0.000000,0.000000,0.000000,0.000000,0.000000,0.000000,0.000000,1775737747.642948,0.000000
124.000000,15616.493299,18882.329033,-16834.529261,1637.332337,-15003.899038,-1172.080776,759.579332,-11981.093822,8650.616843,16578.378269,-4369.296654,2275.474641,-18688.919388,15574.695536,732.801942,-558.458335,0.008688,-0.014250,1.004563,192.000000,0.000000,0.000000,0.000000,0.000000,0.000000,0.000000,0.000000,0.000000,0.000000,1775737747.642960,0.000000
126.000000,15597.539019,18869.968518,-16869.241520,1617.528691,-15025.379065,-1180.417976,748.135239,-12007.267714,8606.673313,16566.733011,-4363.708718,2269.842001,-18672.714373,15568.437048,688.947819,-622.294917,0.006344,-0.013125,1.004281,192.000000,0.000000,16.000000,127.500000,80.000000,15.500000,48.000000,0.000000,0.000000,0.000000,1775737747.642973,0.000000
128.000000,15606.211496,18877.791629,-16857.551558,1628.056363,-15011.409224,-1166.962226,753.901989,-12000.293970,8670.219322,16575.941929,-4386.842774,2268.210324,-18702.732766,15569.353470,793.039893,-468.559619,0.006344,-0.013125,1.004281,192.000000,0.000000,0.000000,0.000000,0.000000,0.000000,0.000000,0.000000,0.000000,0.000000,1775737747.642984,0.000000
130.000000,15612.894668,18879.065678,-16845.392209,1637.064116,-14998.489916,-1162.558933,752.158553,-11986.949979,8619.391456,16574.444362,-4359.148962,2274.804088,-18661.806722,15573.689708,678.554258,-638.231711,0.006344,-0.013125,1.004281,192.000000,0.000000,0.000000,0.000000,0.000000,0.000000,0.000000,0.000000,0.000000,0.000000,1775737747.642996,0.000000
132.000000,15598.813069,18876.271710,-16879.769192,1624.122456,-15025.289658,-1156.702776,748.202294,-12011.268677,8647.666412,16568.319984,-4382.014797,2271.160754,-18695.781373,15574.717888,769.123527,-484.496413,0.006344,-0.013125,1.004281,192.000000,0.000000,0.000000,0.000000,0.000000,0.000000,0.000000,0.000000,0.000000,0.000000,1775737747.643008,0.000000
134.000000,15621.298924,18887.715803,-16840.608935,1646.094220,-14997.349977,-1146.823305,756.181867,-11983.843086,8654.617805,16586.111973,-4372.045919,2277.486298,-18671.060344,15585.200856,733.293680,-537.268881,0.006344,-0.013125,1.004281,192.000000,0.000000,0.000000,0.000000,0.000000,0.000000,0.000000,0.000000,0.000000,0.000000,1775737747.643020,0.000000
136.000000,15601.919961,18873.455390,-16874.650642,1625.128284,-15021.825137,-1158.066232,745.028346,-12007.155956,8607.209755,16572.902092,-4364.312215,2271.741899,-18679.509304,15581.624577,688.478433,-604.212356,0.006344,-0.013125,1.004281,192.000000,0.000000,0.000000,0.000000,0.000000,0.000000,0.000000,0.000000,0.000000,0.000000,1775737747.643032,0.000000
138.000000,15609.608961,18878.685698,-16861.887796,1630.738572,-15017.332437,-1153.439421,752.672643,-11998.215258,8666.352471,16580.211113,-4386.283980,2269.663187,-18711.047615,15581.825743,784.613286,-451.639348,0.002000,-0.008000,1.008000,192.000000,0.000000,8.000000,127.500000,96.000000,15.500000,64.000000,0.000000,0.000000,0.000000,1775737747.643043,0.000000
140.000000,15609.608961,18872.717783,-16848.610860,1632.861988,-15005.888344,-1158.803840,749.968082,-11987.933455,8608.014418,16576.880703,-4360.221846,2271.227809,-18681.811533,15576.975414,674.665055,-632.308499,0.002000,-0.008000,1.008000,192.000000,0.000000,0.000000,0.000000,0.000000,0.000000,0.000000,0.000000,0.000000,0.000000,1775737747.643055,0.000000
142.000000,15593.940388,18868.247434,-16883.703099,1618.489816,-15032.151643,-1159.966130,745.453029,-12014.040293,8631.506101,16563.961394,-4385.389910,2262.801202,-18712.522830,15569.264063,763.021500,-487.603305,0.002000,-0.008000,1.008000,192.000000,0.000000,0.000000,0.000000,0.000000,0.000000,0.000000,0.000000,0.000000,0.000000,1775737747.643066,0.000000
144.000000,15610.011293,18875.198826,-16847.046238,1639.634566,-15008.168221,-1159.876723,755.600721,-11985.161839,8641.542034,16578.311214,-4377.075061,2272.457155,-18702.084565,15578.540037,724.375334,-543.505018,0.002000,-0.008000,1.008000,192.000000,0.000000,0.000000,0.000000,0.000000,0.000000,0.000000,0.000000,0.000000,0.000000,1775737747.643078,0.000000
146.000000,15591.705214,18864.224120,-16878.629253,1620.747342,-15037.918393,-1167.744537,745.564788,-12005.837203,8597.978484,16567.023583,-4365.943893,2271.652492,-18687.287711,15576.170752,678.576610,-617.690458,0.002000,-0.008000,1.008000,192.000000,0.000000,0.000000,0.000000,0.000000,0.000000,0.000000,0.000000,0.000000,0.000000,1775737747.643090,0.000000
148.000000,15599.908304,18869.655594,-16863.251253,1629.889206,-15030.251745,-1168.705662,752.627939,-11994.415461,8655.400116,16571.538636,-4388.541506,2270.289036,-18723.251667,15571.476885,775.426719,-469.990131,0.006000,-0.008000,1.010000,192.000000,0.000000,24.000000,127.500000,96.000000,15.500000,72.000000,0.000000,0.000000,0.000000,1775737747.643102,0.000000
150.000000,15606.367958,18872.136637,-16846.956831,1637.913482,-15010.202230,-1168.303331,751.935035,-11979.551551,8608.036769,16576.925406,-4355.237407,2276.435766,-18681.364498,15579.948196,665.992578,-649.541694,0.006000,-0.008000,1.010000,192.000000,0.000000,0.000000,0.000000,0.000000,0.000000,0.000000,0.000000,0.000000,0.000000,1775737747.643113,0.000000
152.000000,15595.013272,18871.086105,-16878.450439,1626.670554,-15032.732789,-1162.201305,749.051660,-12002.216220,8634.009496,16570.689269,-4376.695082,2271.048995,-18710.757042,15576.617786,759.467573,-497.661590,0.006000,-0.008000,1.010000,192.000000,0.000000,0.000000,0.000000,0.000000,0.000000,0.000000,0.000000,0.000000,0.000000,1775737747.643125,0.000000
154.000000,15608.223153,18875.176474,-16843.022924,1648.307043,-15008.704663,-1153.171200,756.673605,-11977.428136,8641.430276,16588.928293,-4369.587227,2279.453251,-18700.654054,15586.340795,728.353945,-542.074507,0.006000,-0.008000,1.010000,192.000000,0.000000,0.000000,0.000000,0.000000,0.000000,0.000000,0.000000,0.000000,0.000000,1775737747.643138,0.000000
156.000000,15590.095888,18861.318393,-16877.042279,1628.235177,-15028.061274,-1151.874799,742.703765,-12007.401825,8595.095109,16576.590130,-4364.043994,2272.390100,-18671.261510,15584.485601,689.283096,-604.994667,0.006000,-0.008000,1.010000,192.000000,0.000000,0.000000,0.000000,0.000000,0.000000,0.000000,0.000000,0.000000,0.000000,1775737747.643149,0.000000
158.000000,15598.097813,18864.760562,-16863.452418,1638.516979,-15012.325646,-1144.342261,747.151762,-12003.825546,8658.283491,16581.932197,-4390.843736,2268.478545,-18724.145737,15585.334967,785.462652,-446.409040,0.008000,-0.014000,1.010000,192.000000,0.000000,32.000000,127.500000,72.000000,15.500000,72.000000,0.000000,0.000000,0.000000,1775737747.643161,0.000000
160.000000,15599.058938,18858.323259,-16848.946136,1640.483933,-14998.601675,-1150.176066,743.933111,-11996.449470,8609.646095,16580.993424,-4364.669843,2271.183106,-18677.184722,15587.368976,672.049901,-620.707944,0.008000,-0.014000,1.010000,192.000000,0.000000,0.000000,0.000000,0.000000,0.000000,0.000000,0.000000,0.000000,0.000000,1775737747.643173,0.000000
162.000000,15586.296092,18854.769332,-16883.054898,1618.936851,-15025.937858,-1157.708604,739.507465,-12021.841052,8632.087246,16568.141171,-4388.653265,2260.700138,-18705.459679,15575.433144,767.558905,-482.596515,0.008000,-0.014000,1.010000,192.000000,0.000000,0.000000,0.000000,0.000000,0.000000,0.000000,0.000000,0.000000,0.000000,1775737748.122659,0.000000
164.000000,15594.141554,18854.881091,-16850.220186,1633.979575,-15005.374253,-1161.843677,745.676547,-11998.662293,8639.329212,16575.539598,-4383.221791,2264.499934,-18702.486897,15571.610996,728.800980,-538.297062,0.008000,-0.014000,1.010000,192.000000,0.000000,0.000000,0.000000,0.000000,0.000000,0.000000,0.000000,0.000000,0.000000,1775737748.122725,0.000000
166.000000,15581.579874,18847.303849,-16879.970357,1615.360572,-15034.029190,-1171.142002,737.719326,-12019.024732,8583.539257,16558.976955,-4376.985654,2256.900341,-18690.461658,15567.207702,682.935200,-613.108350,0.008000,-0.014000,1.010000,192.000000,0.000000,0.000000,0.000000,0.000000,0.000000,0.000000,0.000000,0.000000,0.000000,1775737748.122786,0.000000
168.000000,15596.354377,18861.452503,-16863.385363,1626.201168,-15021.400454,-1157.328624,748.582274,-12005.591334,8650.974470,16568.163522,-4395.604658,2257.861466,-18720.390644,15570.180484,777.796004,-459.171886,0.008000,-0.012000,1.010000,192.000000,0.000000,32.000000,127.500000,80.000000,15.500000,72.000000,0.000000,0.000000,0.000000,1775737748.122841,0.000000
170.000000,15602.858734,18859.440846,-16845.995706,1630.895034,-15008.123518,-1163.631816,746.257692,-11996.985912,8610.361351,16576.500723,-4360.892398,2267.942103,-18672.759077,15581.378708,663.690348,-641.629176,0.008000,-0.012000,1.010000,192.000000,0.000000,0.000000,0.000000,0.000000,0.000000,0.000000,0.000000,0.000000,0.000000,1775737748.122896,0.000000
172.000000,15585.938464,18852.332992,-16880.283282,1615.561737,-15035.124425,-1167.409261,742.659061,-12019.918802,8623.437121,16556.294746,-4390.039073,2254.978091,-18710.220600,15565.352507,762.820335,-495.269954,0.008000,-0.012000,1.010000,192.000000,0.000000,0.000000,0.000000,0.000000,0.000000,0.000000,0.000000,0.000000,0.000000,1775737748.122952,0.000000
174.000000,15617.409720,18871.756658,-16840.161901,1638.852255,-15004.346073,-1156.635720,753.209085,-11984.312473,8643.330174,16576.880703,-4375.175163,2266.623350,-18696.697795,15575.030813,731.214968,-545.337861,0.008000,-0.012000,1.010000,192.000000,0.000000,0.000000,0.000000,0.000000,0.000000,0.000000,0.000000,0.000000,0.000000,1775737748.122977,0.000000
176.000000,15595.549714,18856.602175,-16874.181256,1619.517996,-15028.083626,-1163.140078,742.860227,-12007.625342,8603.521717,16569.057592,-4359.685404,2268.143269,-18679.665766,15574.427316,682.935200,-618.316307,0.008000,-0.012000,1.010000,192.000000,0.000000,0.000000,0.000000,0.000000,0.000000,0.000000,0.000000,0.000000,0.000000,1775737748.123003,0.000000
178.000000,15593.403947,18852.489454,-16866.268738,1627.184645,-15025.468472,-1160.256703,748.358756,-12005.971313,8649.678069,16566.151865,-4391.491937,2260.051937,-18723.028150,15568.101772,785.283838,-455.394442,0.006000,-0.016000,1.012000,192.000000,0.000000,24.000000,127.500000,64.000000,15.500000,80.000000,0.000000,0.000000,0.000000,1775737748.123029,0.000000
180.000000,15595.706176,18851.394218,-16849.817854,1627.519921,-15007.341207,-1162.514229,744.626015,-11999.310493,8596.860897,16562.687345,-4367.754384,2257.749707,-18683.800838,15570.158132,671.938142,-631.146208,0.006000,-0.016000,1.012000,192.000000,0.000000,0.000000,0.000000,0.000000,0.000000,0.000000,0.000000,0.000000,0.000000,1775737748.123054,0.000000
182.000000,15579.478810,18848.443788,-16883.814857,1608.297421,-15029.022399,-1163.676520,736.110000,-12027.160767,8620.129063,16551.064438,-4394.196498,2247.758478,-18701.883400,15558.848150,766.754242,-487.648009,0.006000,-0.016000,1.012000,192.000000,0.000000,0.000000,0.000000,0.000000,0.000000,0.000000,0.000000,0.000000,0.000000,1775737748.123079,0.000000
184.000000,15600.869429,18861.519559,-16846.085113,1629.844502,-14998.378157,-1154.936988,745.229512,-11994.326054,8632.690744,16567.649432,-4385.456966,2255.000443,-18698.195362,15567.878254,737.026422,-535.100762,0.006000,-0.016000,1.012000,192.000000,0.000000,0.000000,0.000000,0.000000,0.000000,0.000000,0.000000,0.000000,0.000000,1775737748.123104,0.000000
186.000000,15589.425336,18855.283422,-16875.969395,1612.365438,-15017.421844,-1159.742613,736.422925,-12011.827470,8591.407072,16559.200473,-4368.603750,2256.945045,-18684.225522,15567.297109,688.634895,-615.745856,0.006000,-0.016000,1.012000,192.000000,0.000000,0.000000,0.000000,0.000000,0.000000,0.000000,0.000000,0.000000,0.000000,1775737748.123140,0.000000
188.000000,15602.322293,18867.196902,-16866.738125,1624.658897,-15017.243030,-1160.346110,745.385974,-12002.484441,8660.183389,16568.632909,-4388.876783,2257.772059,-18708.812440,15568.504103,785.060321,-453.315729,0.010000,-0.016000,1.006000,192.000000,0.000000,40.000000,127.500000,64.000000,15.500000,56.000000,0.000000,0.000000,0.000000,1775737748.123167,0.000000
190.000000,15601.651740,18862.234814,-16849.773151,1632.929043,-15004.100204,-1164.212962,744.715422,-11989.341615,8606.449796,16568.230577,-4362.054689,2263.561161,-18674.189588,15573.645004,672.005197,-633.359031,0.010000,-0.016000,1.006000,192.000000,0.000000,0.000000,0.000000,0.000000,0.000000,0.000000,0.000000,0.000000,0.000000,1775737748.123192,0.000000
192.000000,15585.804353,18862.257166,-16880.104468,1617.707505,-15028.061274,-1160.860200,742.055564,-12013.503851,8631.237880,16562.620290,-4381.053672,2260.722489,-18700.966978,15571.678051,755.891294,-493.906497,0.010000,-0.016000,1.006000,192.000000,0.000000,0.000000,0.000000,0.000000,0.000000,0.000000,0.000000,0.000000,0.000000,1775737748.123218,0.000000
194.000000,15600.377691,18868.180378,-16840.541880,1634.739534,-15003.608466,-1157.261569,748.895198,-11989.341615,8640.335040,16572.388002,-4378.594980,2261.884780,-18692.763888,15574.784943,728.286890,-540.018146,0.010000,-0.016000,1.006000,192.000000,0.000000,0.000000,0.000000,0.000000,0.000000,0.000000,0.000000,0.000000,0.000000,1775737748.123243,0.000000
196.000000,15582.116316,18856.825692,-16875.008270,1616.075828,-15026.586059,-1164.659997,738.255768,-12012.363912,8592.882287,16561.457999,-4367.866143,2260.275455,-18673.519036,15574.740240,676.587305,-622.093752,0.010000,-0.016000,1.006000,192.000000,0.000000,0.000000,0.000000,0.000000,0.000000,0.000000,0.000000,0.000000,0.000000,1775737748.123268,0.000000
198.000000,15595.102679,18870.884940,-16870.493218,1624.904767,-15023.747387,-1160.010834,742.748468,-12004.630209,8654.081363,16568.275281,-4394.040035,2259.739013,-18715.629723,15573.801467,780.053530,-470.146593,0.008000,-0.018000,1.004000,192.000000,0.000000,32.000000,127.500000,56.000000,15.500000,48.000000,0.000000,0.000000,0.000000,1775737748.123293,0.000000
200.000000,15597.650778,18864.000602,-16857.842130,1627.899900,-15012.415053,-1166.291674,738.680451,-11996.069490,8605.108691,16569.370516,-4367.754384,2264.254065,-18678.279958,15573.756763,664.360900,-636.085944,0.008000,-0.018000,1.004000,192.000000,0.000000,0.000000,0.000000,0.000000,0.000000,0.000000,0.000000,0.000000,0.000000,1775737748.123319,0.000000
202.000000,15588.017176,18864.000602,-16890.900360,1616.388752,-15032.755140,-1161.262531,736.668794,-12017.169537,8620.218470,16554.797179,-4392.274248,2256.006271,-18711.226429,15565.956004,761.233361,-495.046436,0.008000,-0.018000,1.004000,192.000000,0.000000,0.000000,0.000000,0.000000,0.000000,0.000000,0.000000,0.000000,0.000000,1775737748.123343,0.000000
204.000000,15606.703235,18870.504960,-16849.929613,1635.857121,-15000.814498,-1149.661976,746.190637,-11986.257075,8643.576043,16574.019679,-4378.572628,2265.148135,-18694.172048,15579.635272,732.578425,-533.871416,0.008000,-0.018000,1.004000,192.000000,0.000000,0.000000,0.000000,0.000000,0.000000,0.000000,0.000000,0.000000,0.000000,1775737748.123369,0.000000
206.000000,15587.771307,18858.055038,-16876.259968,1615.382924,-15019.165280,-1155.182857,735.595910,-12008.251191,8590.200077,16558.731086,-4367.486163,2258.822591,-18679.330490,15573.354432,689.752482,-612.728371,0.008000,-0.018000,1.004000,192.000000,0.000000,0.000000,0.000000,0.000000,0.000000,0.000000,0.000000,0.000000,0.000000,1775737748.123395,0.000000
208.000000,15603.484583,18873.097762,-16861.105485,1626.402334,-15003.273189,-1145.504552,744.357794,-11999.198735,8660.429258,16569.772848,-4388.563858,2260.163696,-18706.890190,15577.556560,792.168175,-452.533418,0.008000,-0.018000,1.003000,192.000000,0.000000,32.000000,127.500000,56.000000,15.500000,40.000000,0.000000,0.000000,0.000000,1775737748.123421,0.000000
210.000000,15613.140537,18876.070544,-16847.068590,1633.510188,-14993.661939,-1149.527866,743.620186,-11985.117136,8617.111578,16582.222770,-4359.305425,2269.596132,-18650.384980,15584.262083,678.017816,-631.235615,0.008000,-0.018000,1.003000,192.000000,0.000000,0.000000,0.000000,0.000000,0.000000,0.000000,0.000000,0.000000,0.000000,1775737748.123446,0.000000
212.000000,15602.992845,18875.355288,-16880.909131,1623.876586,-15020.528736,-1145.772773,743.195503,-12005.568982,8640.603261,16577.439496,-4377.611503,2268.679710,-18699.827039,15581.982205,759.780498,-490.978419,0.008000,-0.018000,1.003000,192.000000,0.000000,0.000000,0.000000,0.000000,0.000000,0.000000,0.000000,0.000000,0.000000,1775737748.123472,0.000000
214.000000,15618.460252,18881.703184,-16842.397075,1646.988290,-14991.359710,-1140.698927,753.186733,-11978.299854,8654.774267,16594.605636,-4370.548352,2277.240429,-18687.488876,15591.928731,733.360736,-535.972480,0.008000,-0.018000,1.003000,192.000000,0.000000,0.000000,0.000000,0.000000,0.000000,0.000000,0.000000,0.000000,0.000000,1775737748.123496,0.000000
216.000000,15595.437955,18866.526349,-16871.499046,1629.755095,-15021.176937,-1154.109973,745.721250,-12000.361025,8601.398301,16579.384098,-4361.697061,2271.361920,-18670.881530,15589.000653,677.235505,-617.243423,0.008000,-0.018000,1.003000,192.000000,0.000000,0.000000,0.000000,0.000000,0.000000,0.000000,0.000000,0.000000,0.000000,1775737748.123522,0.000000
218.000000,15594.387423,18865.319355,-16861.619575,1633.800761,-15022.652152,-1154.489953,750.012785,-12000.137508,8657.545883,16578.802953,-4388.519155,2263.941141,-18712.254609,15581.736336,775.873754,-453.293378,0.008000,-0.019000,1.002500,192.000000,0.000000,32.000000,127.500000,48.000000,15.500000,40.000000,0.000000,0.000000,0.000000,1775737748.123550,0.000000
220.000000,15601.204705,18864.313527,-16839.848976,1636.281805,-15006.447137,-1158.893247,748.135239,-11987.419365,8601.711226,16577.081868,-4362.300558,2263.807030,-18676.715335,15579.054127,669.658264,-631.816761,0.008000,-0.019000,1.002500,192.000000,0.000000,0.000000,0.000000,0.000000,0.000000,0.000000,0.000000,0.000000,0.000000,1775737748.123575,0.000000
222.000000,15590.922903,18863.911195,-16875.477657,1618.579223,-15029.536489,-1156.836886,741.809695,-12011.313380,8626.991049,16569.325813,-4383.042977,2258.375556,-18703.738595,15571.856865,758.528800,-500.008523,0.008000,-0.019000,1.002500,192.000000,0.000000,0.000000,0.000000,0.000000,0.000000,0.000000,0.000000,0.000000,0.000000,1775737748.123601,0.000000
224.000000,15608.960761,18870.057925,-16841.167729,1636.862950,-15000.233352,-1152.992386,748.470515,-11984.714804,8647.778171,16585.374365,-4375.510439,2269.014987,-18689.813458,15577.154228,738.926320,-536.106591,0.008000,-0.019000,1.002500,192.000000,0.000000,0.000000,0.000000,0.000000,0.000000,0.000000,0.000000,0.000000,0.000000,1775737748.123626,0.000000
226.000000,15592.755746,18859.016163,-16874.672994,1621.104970,-15015.119614,-1156.211037,738.211064,-12005.367816,8594.044577,16571.225711,-4368.067308,2261.974187,-18675.284824,15573.980281,689.283096,-616.282298,0.008000,-0.019000,1.002500,192.000000,0.000000,0.000000,0.000000,0.000000,0.000000,0.000000,0.000000,0.000000,0.000000,1775737748.123652,0.000000
228.000000,15600.444746,18866.302832,-16868.459209,1631.520883,-15010.716320,-1145.012813,746.168285,-11999.556363,8658.596415,16576.076040,-4391.246067,2263.069423,-18708.968903,15576.573083,791.028236,-446.140819,0.008000,-0.017500,1.002250,192.000000,0.000000,32.000000,127.500000,64.000000,15.500000,40.000000,0.000000,0.000000,0.000000,1775737748.123677,0.000000
230.000000,15606.300903,18864.224120,-16848.096770,1636.840598,-14995.763003,-1151.047784,744.402497,-11988.134621,8608.014418,16578.735897,-4365.206285,2266.869219,-18670.345088,15580.596397,681.549392,-627.011135,0.008000,-0.017500,1.002250,192.000000,0.000000,0.000000,0.000000,0.000000,0.000000,0.000000,0.000000,0.000000,0.000000,1775737748.123703,0.000000
232.000000,15596.577894,18864.090009,-16876.058802,1621.730819,-15016.438367,-1147.091525,741.586178,-12011.179270,8631.439046,16566.285976,-4385.524021,2257.660300,-18697.591865,15575.142571,763.759108,-489.056169,0.008000,-0.017500,1.002250,192.000000,0.000000,0.000000,0.000000,0.000000,0.000000,0.000000,0.000000,0.000000,0.000000,1775737748.123728,0.000000
234.000000,15614.883973,18873.790666,-16830.863575,1641.243892,-14985.972939,-1140.564816,750.348061,-11981.920836,8650.527436,16583.318005,-4373.699948,2264.946969,-18680.917463,15590.811144,741.474419,-528.127018,0.008000,-0.017500,1.002250,192.000000,0.000000,0.000000,0.000000,0.000000,0.000000,0.000000,0.000000,0.000000,0.000000,1775737748.123754,0.000000
236.000000,15607.977284,18868.426248,-16857.730372,1625.888243,-15003.787280,-1146.309214,743.150800,-11993.767261,8606.941534,16577.283034,-4352.488143,2268.143269,-18660.935004,15586.206685,692.054712,-617.176368,0.008000,-0.017500,1.002250,192.000000,0.000000,0.000000,0.000000,0.000000,0.000000,0.000000,0.000000,0.000000,0.000000,1775737748.123782,0.000000
238.000000,15614.548697,18876.897559,-16852.321250,1634.895996,-15003.317893,-1139.894264,749.990433,-11988.000511,8670.241674,16585.508476,-4374.325797,2272.032472,-18686.036013,15588.620673,789.687132,-453.315729,0.006000,-0.014750,1.003125,192.000000,0.000000,16.000000,127.500000,80.000000,15.500000,48.000000,0.000000,0.000000,0.000000,1775737748.123811,0.000000
240.000000,15612.022950,18868.470951,-16842.218261,1643.367308,-14998.311102,-1149.080831,748.895198,-11979.998586,8619.391456,16586.179028,-4352.242273,2274.066481,-18663.483103,15589.492391,676.743767,-629.246310,0.006000,-0.014750,1.003125,192.000000,0.000000,0.000000,0.000000,0.000000,0.000000,0.000000,0.000000,0.000000,0.000000,1775737748.123839,0.000000
242.000000,15593.403947,18859.552605,-16884.351299,1630.112723,-15033.760969,-1150.600749,743.441372,-12010.575773,8634.188310,16573.349127,-4380.025492,2265.550466,-18701.771641,15584.150324,752.180904,-494.934677,0.006000,-0.014750,1.003125,192.000000,0.000000,0.000000,0.000000,0.000000,0.000000,0.000000,0.000000,0.000000,0.000000,1775737748.123868,0.000000
244.000000,15608.647836,18864.648803,-16846.666258,1650.162238,-15010.381044,-1147.851485,751.979739,-11982.658444,8646.079438,16580.144057,-4378.483221,2268.903228,-18698.955321,15583.747993,721.134331,-528.708163,0.006000,-0.014750,1.003125,192.000000,0.000000,0.000000,0.000000,0.000000,0.000000,0.000000,0.000000,0.000000,0.000000,1775737748.123912,0.000000
246.000000,15585.625539,18846.901518,-16875.343546,1625.195339,-15035.683219,-1162.424822,738.412230,-12008.497060,8593.888115,16565.101333,-4367.374404,2262.845905,-18680.850408,15576.997766,670.284113,-617.086961,0.006000,-0.014750,1.003125,192.000000,0.000000,0.000000,0.000000,0.000000,0.000000,0.000000,0.000000,0.000000,0.000000,1775737748.123940,0.000000
248.000000,15593.627464,18855.238718,-16861.172540,1630.157427,-15018.293562,-1152.344185,746.123582,-12004.764319,8648.158151,16561.972089,-4396.208155,2252.631158,-18716.434385,15570.314595,785.462652,-452.779287,0.005000,-0.013375,1.003563,192.000000,0.000000,16.000000,127.500000,80.000000,15.500000,48.000000,0.000000,0.000000,0.000000,1775737748.123968,0.000000
250.000000,15602.791679,18855.462236,-16839.759569,1634.560720,-14994.779527,-1150.243121,744.804829,-11990.682720,8609.132005,16570.801028,-4364.200457,2258.286149,-18666.791161,15581.199894,675.335607,-624.105409,0.005000,-0.013375,1.003563,192.000000,0.000000,0.000000,0.000000,0.000000,0.000000,0.000000,0.000000,0.000000,0.000000,1775737748.123999,0.000000
252.000000,15595.169734,18857.406838,-16868.347450,1619.450941,-15010.738672,-1138.016717,743.441372,-12005.390168,8634.165959,16559.558101,-4378.773794,2253.525228,-18688.718222,15574.449667,766.150745,-492.945372,0.005000,-0.013375,1.003563,192.000000,0.000000,0.000000,0.000000,0.000000,0.000000,0.000000,0.000000,0.000000,0.000000,1775737748.124027,0.000000
254.000000,15612.581743,18866.056963,-16833.076398,1637.891130,-14981.837867,-1141.145961,749.699861,-11978.344557,8655.355412,16580.188761,-4367.642625,2264.745803,-18675.955376,15586.340795,748.224646,-532.507960,0.005000,-0.013375,1.003563,192.000000,0.000000,0.000000,0.000000,0.000000,0.000000,0.000000,0.000000,0.000000,0.000000,1775737748.124056,0.000000
0.000000,15598.589551,18859.865530,-16862.647755,1623.071924,-15003.899038,-1152.746517,741.094439,-11997.567057,8606.740368,16571.270415,-4355.349166,2263.561161,-18657.917518,15581.445763,688.210212,-610.493196,0.005000,-0.013375,1.003563,192.000000,0.000000,0.000000,0.000000,0.000000,0.000000,0.000000,0.000000,0.000000,0.000000,1775737748.124084,0.000000
2.000000,15605.384482,18865.095838,-16854.981107,1634.404258,-15002.669692,-1147.046822,750.102192,-11993.454336,8667.224189,16576.076040,-4381.210134,2263.091774,-18699.715280,15583.770345,788.368379,-451.684052,0.003500,-0.014688,1.000781,192.000000,0.000000,8.000000,127.500000,64.000000,15.500000,24.000000,0.000000,0.000000,0.000000,1775737748.124112,0.000000
4.000000,15601.674092,18855.372829,-16843.157034,1637.757020,-14995.964169,-1154.534656,744.648367,-11988.514601,8619.123235,16573.527941,-4358.500762,2264.656396,-18662.365516,15577.780077,674.597999,-630.855636,0.003500,-0.014688,1.000781,192.000000,0.000000,0.000000,0.000000,0.000000,0.000000,0.000000,0.000000,0.000000,0.000000,1775737748.124141,0.000000
6.000000,15580.372880,18848.667306,-16879.948006,1619.093313,-15027.681294,-1155.942816,739.865093,-12014.152052,8625.538185,16556.227691,-4386.865126,2253.614635,-18696.921312,15574.248502,753.410250,-506.736399,0.003500,-0.014688,1.000781,192.000000,0.000000,0.000000,0.000000,0.000000,0.000000,0.000000,0.000000,0.000000,0.000000,1775737748.124169,0.000000
8.000000,15597.941351,18856.356306,-16841.011267,1633.286671,-15009.732844,-1161.307235,746.414154,-11987.128793,8640.491502,16569.124647,-4379.421995,2255.738050,-18694.261455,15574.829647,729.918567,-539.437001,0.003500,-0.014688,1.000781,192.000000,0.000000,0.000000,0.000000,0.000000,0.000000,0.000000,0.000000,0.000000,0.000000,1775737748.124197,0.000000
10.000000,15587.011348,18851.371867,-16866.849883,1617.841615,-15028.508309,-1165.665825,738.903968,-12003.087938,8594.558667,16557.457037,-4361.384137,2252.966434,-18673.608443,15570.448705,671.424052,-630.721525,0.003500,-0.014688,1.000781,192.000000,0.000000,0.000000,0.000000,0.000000,0.000000,0.000000,0.000000,0.000000,0.000000,1775737748.124224,0.000000
12.000000,15598.187220,18860.401971,-16858.043296,1626.536444,-15019.679370,-1158.490915,745.162457,-11998.081147,8658.462305,16561.413295,-4387.043939,2254.352242,-18710.108842,15568.079420,780.791137,-460.267122,0.004750,-0.016344,0.997391,192.000000,0.000000,24.000000,127.500000,56.000000,15.500000,8.000000,0.000000,0.000000,0.000000,1775737748.124252,0.000000
14.000000,15603.171659,18861.296041,-16839.312534,1639.478104,-15001.172125,-1151.919502,745.631843,-11983.619569,8618.407979,16572.186836,-4357.785506,2265.125783,-18664.287766,15577.310691,671.647569,-633.023755,0.004750,-0.016344,0.997391,192.000000,0.000000,0.000000,0.000000,0.000000,0.000000,0.000000,0.000000,0.000000,0.000000,1775737748.124280,0.000000
16.000000,15593.426298,18863.128884,-16876.327023,1626.491741,-15017.801823,-1146.331566,740.379183,-12011.536898,8633.517758,16565.324851,-4379.042015,2259.873123,-18688.919388,15577.243635,757.858248,-500.254393,0.004750,-0.016344,0.997391,192.000000,0.000000,0.000000,0.000000,0.000000,0.000000,0.000000,0.000000,0.000000,0.000000,1775737748.124308,0.000000
18.000000,15608.826650,18868.247434,-16836.943249,1645.378965,-14988.006948,-1143.224674,749.319881,-11985.139487,8652.807314,16579.562912,-4375.331625,2264.835210,-18667.573472,15582.473944,740.446239,-522.427323,0.004750,-0.016344,0.997391,192.000000,0.000000,0.000000,0.000000,0.000000,0.000000,0.000000,0.000000,0.000000,0.000000,1775737748.124336,0.000000
20.000000,15592.286359,18855.216367,-16862.915976,1624.390677,-15009.665788,-1152.321834,738.613396,-12004.518450,8600.258362,16562.776752,-4363.418146,2259.359033,-18674.815437,15577.288339,690.959476,-618.048086,0.004750,-0.016344,0.997391,192.000000,0.000000,0.000000,0.000000,0.000000,0.000000,0.000000,0.000000,0.000000,0.000000,1775737748.124364,0.000000
22.000000,15602.143479,18865.431114,-16853.818816,1627.810493,-15006.044806,-1144.655185,745.162457,-11997.611761,8663.647910,16571.628043,-4385.054634,2259.023757,-18704.073871,15577.377746,793.598687,-452.622825,0.004750,-0.016344,0.997391,192.000000,0.000000,0.000000,0.000000,0.000000,0.000000,0.000000,0.000000,0.000000,0.000000,1775737748.124408,0.000000
24.000000,15612.112357,18867.420419,-16833.814005,1633.510188,-14989.102183,-1150.556046,743.217855,-11982.054947,8615.569307,16573.863217,-4355.997366,2264.008196,-18664.600690,15582.071612,684.477470,-628.240481,0.004000,-0.016000,1.008000,192.000000,0.000000,16.000000,127.500000,64.000000,15.500000,64.000000,0.000000,0.000000,0.000000,1775737748.124436,0.000000
26.000000,15599.483621,18863.933547,-16869.912072,1617.886319,-15017.220678,-1147.784430,738.300471,-12006.932438,8637.496369,16565.950700,-4373.878762,2256.654472,-18688.204132,15578.942368,761.300416,-501.059055,0.004000,-0.016000,1.008000,192.000000,0.000000,0.000000,0.000000,0.000000,0.000000,0.000000,0.000000,0.000000,0.000000,1775737748.124467,0.000000
28.000000,15613.274647,18870.951995,-16834.752778,1640.238063,-14995.651245,-1144.610482,748.917550,-11978.880999,8652.315575,16580.032299,-4369.095489,2263.538809,-18684.113763,15585.290263,742.815523,-530.384544,0.004000,-0.016000,1.008000,192.000000,0.000000,0.000000,0.000000,0.000000,0.000000,0.000000,0.000000,0.000000,0.000000,1775737748.603440,0.000000
30.000000,15598.947179,18860.781951,-16865.933462,1624.368325,-15014.985504,-1154.534656,739.909797,-11998.192906,8599.096072,16570.666918,-4357.316119,2262.823553,-18665.852388,15582.406888,682.242296,-623.300746,0.004000,-0.016000,1.008000,192.000000,0.000000,0.000000,0.000000,0.000000,0.000000,0.000000,0.000000,0.000000,0.000000,1775737748.603518,0.000000
32.000000,15602.724624,18863.374753,-16859.742029,1630.291537,-15015.767815,-1148.075002,746.727079,-11996.337711,8662.396212,16575.517246,-4385.300503,2260.409565,-18704.118574,15581.691632,781.953428,-459.551866,0.004000,-0.016000,1.008000,192.000000,0.000000,0.000000,0.000000,0.000000,0.000000,0.000000,0.000000,0.000000,0.000000,1775737748.603558,0.000000
34.000000,15594.141554,18850.835425,-16845.973354,1637.779371,-15006.223620,-1155.249912,742.770820,-11989.498078,8608.528508,16571.270415,-4363.418146,2258.554370,-18670.792123,15579.970548,672.094604,-637.047069,0.004000,-0.014000,1.002000,192.000000,0.000000,16.000000,127.500000,72.000000,15.500000,40.000000,0.000000,0.000000,0.000000,1775737748.603613,0.000000
36.000000,15575.254330,18846.588593,-16883.658395,1618.176892,-15030.229393,-1158.177991,734.277157,-12020.902279,8615.681066,16556.741781,-4392.408358,2246.909111,-18702.173972,15573.063859,751.175076,-502.154291,0.004000,-0.014000,1.002000,192.000000,0.000000,0.000000,0.000000,0.000000,0.000000,0.000000,0.000000,0.000000,0.000000,1775737748.603670,0.000000
38.000000,15597.583723,18859.239681,-16844.028752,1638.919310,-14995.494782,-1145.102220,743.173151,-11991.129755,8638.278680,16575.785467,-4387.558030,2252.809972,-18694.283807,15580.506990,742.301433,-526.629451,0.004000,-0.014000,1.002000,192.000000,0.000000,0.000000,0.000000,0.000000,0.000000,0.000000,0.000000,0.000000,0.000000,1775737748.603710,0.000000
40.000000,15580.998728,18846.834463,-16870.873197,1624.077752,-15012.772681,-1146.264511,734.835951,-12006.463052,8587.294351,16564.207263,-4370.548352,2251.245350,-18676.782391,15580.529342,683.248125,-618.718638,0.004000,-0.014000,1.002000,192.000000,0.000000,0.000000,0.000000,0.000000,0.000000,0.000000,0.000000,0.000000,0.000000,1775737748.603752,0.000000
42.000000,15591.414641,18856.199843,-16858.423276,1630.291537,-15006.782413,-1137.189703,743.530779,-11998.170554,8656.629462,16572.164485,-4389.681445,2253.458172,-18705.347920,15581.356356,793.084597,-446.878427,0.004000,-0.014000,1.002000,192.000000,0.000000,0.000000,0.000000,0.000000,0.000000,0.000000,0.000000,0.000000,0.000000,1775737748.603801,0.000000
44.000000,15597.293150,18854.612870,-16834.618668,1637.287633,-14988.968073,-1138.061421,745.497733,-11982.926665,8617.357447,16582.334528,-4356.153829,2262.041242,-18660.532672,15588.508915,683.941029,-622.451380,0.006000,-0.008000,1.010000,192.000000,0.000000,24.000000,127.500000,96.000000,15.500000,72.000000,0.000000,0.000000,0.000000,1775737748.603846,0.000000
46.000000,15579.367051,18850.276631,-16874.002442,1620.680287,-15015.097262,-1140.430706,739.283948,-12012.453319,8627.706305,16568.387040,-4379.623160,2253.078193,-18690.908693,15578.271816,758.215875,-499.516785,0.006000,-0.008000,1.010000,192.000000,0.000000,0.000000,0.000000,0.000000,0.000000,0.000000,0.000000,0.000000,0.000000,1775737748.603891,0.000000
48.000000,15598.030758,18858.703239,-16839.468996,1640.930967,-14988.945721,-1136.027412,747.867018,-11987.754642,8648.962813,16586.447249,-4377.745614,2261.035414,-18683.845542,15588.553618,741.586178,-523.880187,0.006000,-0.008000,1.010000,192.000000,0.000000,0.000000,0.000000,0.000000,0.000000,0.000000,0.000000,0.000000,0.000000,1775737748.603973,0.000000
50.000000,15580.976377,18848.443788,-16871.543750,1623.854235,-15012.906791,-1148.544389,737.562864,-12006.463052,8595.363330,16569.392868,-4367.843791,2256.632120,-18667.193492,15582.071612,683.963380,-620.819702,0.006000,-0.008000,1.010000,192.000000,0.000000,0.000000,0.000000,0.000000,0.000000,0.000000,0.000000,0.000000,0.000000,1775737748.604055,0.000000
52.000000,15587.279569,18852.556509,-16867.386325,1629.442171,-15019.589963,-1148.857313,743.642538,-12001.478613,8648.716944,16571.583339,-4394.643533,2251.759440,-18713.081624,15578.271816,786.312018,-452.801639,0.006000,-0.008000,1.010000,192.000000,0.000000,0.000000,0.000000,0.000000,0.000000,0.000000,0.000000,0.000000,0.000000,1775737748.604085,0.000000
54.000000,15605.451537,18861.653669,-16843.849938,1641.154485,-15002.200306,-1147.136229,746.637672,-11978.903351,8609.042598,16577.193627,-4360.579474,2258.733184,-18659.504492,15580.350528,670.753499,-631.101505,0.002000,-0.014000,1.014000,192.000000,0.000000,8.000000,127.500000,72.000000,15.500000,88.000000,0.000000,0.000000,0.000000,1775737748.604104,0.000000
56.000000,15578.763554,18849.561375,-16881.982014,1617.886319,-15032.285754,-1160.614331,737.540512,-12012.788595,8624.375895,16567.045935,-4377.745614,2255.156905,-18707.225467,15575.299034,738.479285,-512.659611,0.002000,-0.014000,1.014000,192.000000,0.000000,0.000000,0.000000,0.000000,0.000000,0.000000,0.000000,0.000000,0.000000,1775737748.604116,0.000000
58.000000,15591.369938,18852.981192,-16840.452473,1634.851293,-15002.043844,-1153.931159,746.369451,-11990.190982,8634.657697,16569.862255,-4381.008968,2251.401812,-18702.844525,15574.427316,735.618262,-536.799495,0.002000,-0.014000,1.014000,192.000000,0.000000,0.000000,0.000000,0.000000,0.000000,0.000000,0.000000,0.000000,0.000000,1775737748.604141,0.000000
60.000000,15581.781039,18848.242622,-16867.140456,1619.830921,-15016.997161,-1154.221732,736.333518,-12004.786671,8588.769566,16566.710659,-4363.887532,2255.782754,-18671.239158,15579.411755,676.676712,-641.986804,0.002000,-0.014000,1.014000,192.000000,0.000000,0.000000,0.000000,0.000000,0.000000,0.000000,0.000000,0.000000,0.000000,1775737748.604154,0.000000
62.000000,15583.479772,18848.510843,-16868.682726,1621.909633,-15020.126405,-1156.054575,736.959366,-12007.223011,8649.141627,16564.095505,-4396.655190,2248.138457,-18715.897943,15571.722754,782.087538,-454.992110,0.002000,-0.014000,1.014000,192.000000,0.000000,0.000000,0.000000,0.000000,0.000000,0.000000,0.000000,0.000000,0.000000,1775737748.604167,0.000000
64.000000,15592.599284,18849.896651,-16847.135645,1633.420781,-14996.992349,-1149.974900,736.668794,-11989.095746,8609.087301,16569.191703,-4366.256817,2255.939216,-18672.222635,15581.870446,681.549392,-629.089848,0.006000,-0.014000,1.008000,192.000000,0.000000,24.000000,127.500000,72.000000,15.500000,64.000000,0.000000,0.000000,0.000000,1775737748.604179,0.000000
66.000000,15576.774249,18846.186262,-16886.988805,1615.449979,-15025.446120,-1148.946720,729.270366,-12018.600049,8616.888060,16557.278223,-4389.703797,2246.886760,-18706.487859,15573.801467,756.606550,-502.444864,0.006000,-0.014000,1.008000,192.000000,0.000000,0.000000,0.000000,0.000000,0.000000,0.000000,0.000000,0.000000,0.000000,1775737748.604192,0.000000
68.000000,15601.383519,18861.296041,-16844.431084,1636.415915,-14998.624027,-1138.262586,740.535646,-11987.508772,8645.922976,16581.395755,-4380.092547,2256.855638,-18692.182743,15586.720775,742.256730,-524.729553,0.006000,-0.014000,1.008000,192.000000,0.000000,0.000000,0.000000,0.000000,0.000000,0.000000,0.000000,0.000000,0.000000,1775737748.604205,0.000000
70.000000,15580.395231,18846.476835,-16869.263872,1617.171063,-15023.121539,-1156.680424,732.176093,-12008.631171,8593.329322,16566.934176,-4364.491029,2254.642815,-18670.367440,15580.775211,677.056691,-629.380420,0.006000,-0.014000,1.008000,192.000000,0.000000,0.000000,0.000000,0.000000,0.000000,0.000000,0.000000,0.000000,0.000000,1775737748.604218,0.000000
72.000000,15581.825743,18849.851948,-16861.373706,1624.748304,-15018.025341,-1143.179970,740.759163,-12006.261886,8646.548825,16567.492970,-4395.872879,2250.552446,-18712.344016,15576.394269,784.367416,-456.288511,0.006000,-0.014000,1.008000,192.000000,0.000000,0.000000,0.000000,0.000000,0.000000,0.000000,0.000000,0.000000,0.000000,1775737748.604231,0.000000
74.000000,15598.097813,18856.557471,-16838.820796,1634.136037,-14997.081756,-1144.074040,741.899102,-11985.541819,8607.925011,16576.523075,-4364.580436,2259.783716,-18667.573472,15585.513781,678.174279,-630.877987,0.010000,-0.018000,1.004000,192.000000,0.000000,40.000000,127.500000,56.000000,15.500000,48.000000,0.000000,0.000000,0.000000,1775737748.604245,0.000000
76.000000,15584.798525,18854.635221,-16879.433916,1621.574357,-15019.344094,-1145.482200,735.864131,-12011.827470,8627.393380,16567.917653,-4381.388948,2256.252141,-18687.645338,15581.825743,747.889369,-509.910346,0.010000,-0.018000,1.004000,192.000000,0.000000,0.000000,0.000000,0.000000,0.000000,0.000000,0.000000,0.000000,0.000000,1775737748.604259,0.000000
78.000000,15601.763499,18862.748905,-16844.989877,1640.640395,-14995.830059,-1137.435572,742.971986,-11988.380490,8651.108581,16584.592054,-4377.700910,2264.634045,-18688.718222,15594.208609,733.025459,-527.679983,0.010000,-0.018000,1.004000,192.000000,0.000000,0.000000,0.000000,0.000000,0.000000,0.000000,0.000000,0.000000,0.000000,1775737748.604272,0.000000
80.000000,15581.982205,18849.471968,-16873.711869,1618.333354,-15018.718245,-1159.206171,730.522064,-12009.458185,8594.916295,16568.945833,-4366.681500,2257.079155,-18668.780466,15582.026909,675.089738,-634.856598,0.010000,-0.018000,1.004000,192.000000,0.000000,0.000000,0.000000,0.000000,0.000000,0.000000,0.000000,0.000000,0.000000,1775737748.604286,0.000000
82.000000,15590.520572,18859.194977,-16863.653584,1624.502435,-15016.795995,-1154.892284,741.541474,-12001.657427,8653.477866,16570.890435,-4393.972980,2254.531056,-18710.131193,15577.265987,784.657989,-470.727738,0.010000,-0.018000,1.004000,192.000000,0.000000,0.000000,0.000000,0.000000,0.000000,0.000000,0.000000,0.000000,0.000000,1775737748.604298,0.000000
84.000000,15580.663452,18843.973439,-16847.269755,1627.654031,-15008.794070,-1165.352901,737.115829,-11996.583581,8607.925011,16570.041069,-4365.675672,2258.800239,-18671.552082,15575.813124,677.302560,-643.283205,0.012000,-0.018000,1.008000,192.000000,0.000000,48.000000,127.500000,56.000000,15.500000,64.000000,0.000000,0.000000,0.000000,1775737748.604311,0.000000
86.000000,15565.084286,18838.765483,-16885.424183,1611.605479,-15028.955344,-1161.329587,730.052677,-12027.987782,8609.064950,16547.041124,-4396.789300,2241.254120,-18707.024301,15559.473998,750.258654,-515.163006,0.012000,-0.018000,1.008000,192.000000,0.000000,0.000000,0.000000,0.000000,0.000000,0.000000,0.000000,0.000000,0.000000,1775737748.604324,0.000000
88.000000,15586.340795,18850.991887,-16851.918918,1635.678307,-14995.785355,-1145.012813,737.294643,-12001.366854,8636.244671,16568.521150,-4392.989504,2252.407641,-18694.797897,15573.846170,743.106096,-522.360268,0.012000,-0.018000,1.008000,192.000000,0.000000,0.000000,0.000000,0.000000,0.000000,0.000000,0.000000,0.000000,0.000000,1775737748.604337,0.000000
90.000000,15579.992900,18847.169739,-16873.398945,1623.228386,-15007.475317,-1136.787371,730.633823,-12011.961581,8588.657807,16566.442438,-4374.459907,2253.860504,-18669.741591,15581.356356,679.381273,-619.433894,0.012000,-0.018000,1.008000,192.000000,0.000000,0.000000,0.000000,0.000000,0.000000,0.000000,0.000000,0.000000,0.000000,1775737748.604349,0.000000
92.000000,15591.481697,18861.027820,-16868.280395,1627.564624,-15005.329550,-1133.725182,735.327689,-12005.591334,8652.114409,16572.946796,-4397.035169,2252.161771,-18699.916446,15583.591531,789.865946,-445.157343,0.012000,-0.018000,1.008000,192.000000,0.000000,0.000000,0.000000,0.000000,0.000000,0.000000,0.000000,0.000000,0.000000,1775737748.604362,0.000000
94.000000,15604.646874,18864.157064,-16840.966563,1632.660822,-14987.716375,-1137.144999,738.814561,-11981.563208,8613.624706,16583.295653,-4362.837000,2259.649606,-18658.811588,15590.654682,684.410415,-620.327964,0.014000,-0.017000,1.007000,192.000000,0.000000,64.000000,127.500000,64.000000,15.500000,56.000000,0.000000,0.000000,0.000000,1775737748.604375,0.000000
96.000000,15583.010385,18854.657573,-16873.600110,1611.046685,-15018.002989,-1139.536636,734.455971,-12010.911049,8628.578023,16568.543502,-4377.298579,2249.814838,-18693.881475,15582.317481,754.237265,-509.597422,0.014000,-0.017000,1.007000,192.000000,0.000000,0.000000,0.000000,0.000000,0.000000,0.000000,0.000000,0.000000,0.000000,1775737748.604388,0.000000
98.000000,15597.069633,18862.190111,-16838.753741,1629.777447,-14996.545314,-1141.749459,741.876750,-11987.888752,8641.989069,16578.177104,-4379.153774,2251.535922,-18691.109859,15585.826705,745.900064,-530.362192,0.014000,-0.017000,1.007000,192.000000,0.000000,0.000000,0.000000,0.000000,0.000000,0.000000,0.000000,0.000000,0.000000,1775737748.604400,0.000000
100.000000,15582.317481,18853.182358,-16870.873197,1616.992249,-15020.484033,-1157.507438,731.103209,-12004.831374,8593.061101,16568.230577,-4364.759250,2253.949911,-18668.221673,15581.557522,672.586342,-638.656394,0.014000,-0.017000,1.007000,192.000000,0.000000,0.000000,0.000000,0.000000,0.000000,0.000000,0.000000,0.000000,0.000000,1775737748.604413,0.000000
102.000000,15586.117278,18862.190111,-16870.023831,1624.770656,-15021.176937,-1156.926293,737.451105,-12003.087938,8654.304880,16574.422011,-4392.184841,2256.542713,-18708.812440,15578.875313,775.180849,-463.776346,0.014000,-0.017000,1.007000,192.000000,0.000000,0.000000,0.000000,0.000000,0.000000,0.000000,0.000000,0.000000,0.000000,1775737748.604426,0.000000
104.000000,15589.604150,18857.764466,-16850.913090,1632.191435,-15009.419919,-1162.737747,738.211064,-11988.179325,8603.432310,16573.416182,-4368.380233,2256.028623,-18677.989385,15579.948196,671.111127,-639.461057,0.013000,-0.017500,1.009500,192.000000,0.000000,48.000000,127.500000,56.000000,15.500000,80.000000,0.000000,0.000000,0.000000,1775737748.604439,0.000000
106.000000,15576.818952,18854.121131,-16886.742936,1612.544252,-15032.755140,-1158.177991,732.891349,-12013.593258,8616.999819,16560.832150,-4384.786413,2248.361975,-18701.257551,15572.505066,740.647404,-524.349573,0.013000,-0.017500,1.009500,192.000000,0.000000,0.000000,0.000000,0.000000,0.000000,0.000000,0.000000,0.000000,0.000000,1775737748.604452,0.000000
108.000000,15582.071612,18849.293154,-16852.298898,1628.168121,-15008.838774,-1157.485087,737.652271,-11995.913028,8637.116389,16571.851560,-4386.552201,2250.552446,-18700.609350,15577.936539,736.534683,-534.318451,0.013000,-0.017500,1.009500,192.000000,0.000000,0.000000,0.000000,0.000000,0.000000,0.000000,0.000000,0.000000,0.000000,1775737748.604464,0.000000
110.000000,15569.912263,18840.531271,-16875.164732,1611.985458,-15017.623009,-1156.233389,725.336459,-12017.907145,8577.660749,16554.350144,-4377.544448,2240.941196,-18680.291615,15570.158132,678.956590,-628.776923,0.013000,-0.017500,1.009500,192.000000,0.000000,0.000000,0.000000,0.000000,0.000000,0.000000,0.000000,0.000000,0.000000,1775737748.604476,0.000000
112.000000,15574.315557,18846.678000,-16872.862503,1619.741514,-15013.800861,-1141.704755,730.767933,-12016.744854,8640.670316,16562.575586,-4405.081797,2240.158885,-18720.167127,15576.260159,791.542326,-446.744316,0.013000,-0.017500,1.009500,192.000000,0.000000,0.000000,0.000000,0.000000,0.000000,0.000000,0.000000,0.000000,0.000000,1775737748.604489,0.000000
114.000000,15585.178505,18848.644954,-16850.801331,1629.777447,-14998.892248,-1138.396697,730.879692,-11998.751700,8598.604333,16569.035240,-4377.365634,2248.227864,-18677.631757,15582.809220,683.985732,-617.399885,0.011500,-0.014750,1.009750,192.000000,0.000000,40.000000,127.500000,80.000000,15.500000,72.000000,0.000000,0.000000,0.000000,1775737748.604501,0.000000
116.000000,15576.863656,18852.735323,-16885.804163,1614.287688,-15021.221640,-1134.462790,728.197483,-12018.488290,8617.424502,16561.055668,-4388.630913,2243.265777,-18698.217714,15580.506990,750.459820,-506.267012,0.011500,-0.014750,1.009750,192.000000,0.000000,0.000000,0.000000,0.000000,0.000000,0.000000,0.000000,0.000000,0.000000,1775737748.604514,0.000000
118.000000,15586.541961,18855.261070,-16846.442741,1632.034973,-14998.020530,-1135.982708,739.798038,-11992.470860,8642.480808,16574.086735,-4383.333550,2247.311443,-18694.686138,15584.172676,740.446239,-520.661535,0.011500,-0.014750,1.009750,192.000000,0.000000,0.000000,0.000000,0.000000,0.000000,0.000000,0.000000,0.000000,0.000000,1775737748.604526,0.000000
120.000000,15586.229037,18858.367963,-16865.508779,1619.048610,-15008.637608,-1146.622139,732.936052,-12002.126813,8594.268095,16567.247101,-4362.769945,2249.077231,-18665.539463,15583.904455,675.514421,-629.760400,0.011500,-0.014750,1.009750,192.000000,0.000000,0.000000,0.000000,0.000000,0.000000,0.000000,0.000000,0.000000,0.000000,1775737748.604538,0.000000
122.000000,15590.900551,18869.163855,-16860.859616,1623.474255,-15011.141004,-1144.074040,737.965195,-11998.774052,8659.110505,16575.114915,-4386.485146,2251.178295,-18704.207981,15583.166848,786.423777,-457.607264,0.011500,-0.014750,1.009750,192.000000,0.000000,0.000000,0.000000,0.000000,0.000000,0.000000,0.000000,0.000000,0.000000,1775737748.604551,0.000000
124.000000,15605.339778,18877.434001,-16833.635191,1635.253624,-14995.785355,-1143.470543,743.016689,-11974.500057,8620.821967,16585.150848,-4353.762192,2263.784678,-18665.405353,15592.152249,676.699063,-629.447476,0.010750,-0.014375,1.007875,192.000000,0.000000,40.000000,127.500000,72.000000,15.500000,56.000000,0.000000,0.000000,0.000000,1775737748.604564,0.000000
126.000000,15587.592493,18871.600195,-16870.381459,1617.081656,-15027.301315,-1151.025432,738.568692,-12001.813889,8627.482787,16571.359822,-4368.246122,2258.152039,-18677.519998,15584.418545,745.609492,-525.221291,0.010750,-0.014375,1.007875,192.000000,0.000000,0.000000,0.000000,0.000000,0.000000,0.000000,0.000000,0.000000,0.000000,1775737748.604577,0.000000
128.000000,15596.890819,18868.158027,-16835.490386,1634.493665,-15006.827117,-1157.105107,746.682375,-11982.434926,8649.588662,16582.647453,-4368.782564,2259.671957,-18694.462621,15586.586665,742.949634,-541.113382,0.010750,-0.014375,1.007875,192.000000,0.000000,0.000000,0.000000,0.000000,0.000000,0.000000,0.000000,0.000000,0.000000,1775737748.604590,0.000000
130.000000,15571.409830,18847.639125,-16867.319270,1619.070961,-15028.374198,-1168.079813,733.137218,-12008.497060,8589.127194,16558.976955,-4362.434669,2248.920768,-18677.788219,15576.081345,676.095566,-641.159790,0.010750,-0.014375,1.007875,192.000000,0.000000,0.000000,0.000000,0.000000,0.000000,0.000000,0.000000,0.000000,0.000000,1775737748.604602,0.000000
132.000000,15574.449667,18852.511806,-16866.201683,1624.793008,-15019.120576,-1157.060403,737.674622,-12008.206488,8642.793732,16560.273356,-4399.896193,2245.389193,-18720.502403,15571.901568,791.072940,-457.137878,0.010750,-0.014375,1.007875,192.000000,0.000000,0.000000,0.000000,0.000000,0.000000,0.000000,0.000000,0.000000,0.000000,1775737748.604615,0.000000
134.000000,15592.688691,18863.307698,-16839.714866,1636.885302,-14992.298483,-1141.168313,740.289776,-11986.279426,8609.333171,16574.064383,-4368.648454,2253.346414,-18672.982594,15583.636234,687.740825,-622.965470,0.010375,-0.012188,1.008938,192.000000,0.000000,40.000000,127.500000,88.000000,15.500000,72.000000,0.000000,0.000000,0.000000,1775737748.604627,0.000000
136.000000,15572.929749,18855.059904,-16878.718660,1616.925194,-15016.192498,-1139.536636,732.891349,-12015.157880,8617.759778,16564.229615,-4384.585248,2248.026699,-18695.848429,15583.256255,755.287797,-506.624640,0.010375,-0.012188,1.008938,192.000000,0.000000,0.000000,0.000000,0.000000,0.000000,0.000000,0.000000,0.000000,0.000000,1775737748.604639,0.000000
138.000000,15594.253313,18867.018088,-16841.413598,1632.191435,-14993.304311,-1136.742668,739.216893,-11989.676892,8645.230072,16576.970110,-4380.450175,2248.652547,-18690.685176,15590.185295,751.912683,-506.423474,0.010375,-0.012188,1.008938,192.000000,0.000000,0.000000,0.000000,0.000000,0.000000,0.000000,0.000000,0.000000,0.000000,1775737748.604652,0.000000
140.000000,15585.290263,18860.916062,-16864.435895,1620.143845,-15004.793108,-1140.408354,731.997279,-12004.697264,8599.453700,16569.996365,-4360.065384,2245.523303,-18660.845597,15589.067708,676.788470,-616.952850,0.010375,-0.012188,1.008938,192.000000,0.000000,0.000000,0.000000,0.000000,0.000000,0.000000,0.000000,0.000000,0.000000,1775737748.604664,0.000000
142.000000,15587.145458,18864.805265,-16864.055915,1623.250738,-15007.475317,-1141.436534,736.422925,-12005.591334,8660.138686,16573.058554,-4390.508460,2243.109315,-18700.184667,15587.056051,785.797928,-443.145686,0.010375,-0.012188,1.008938,192.000000,0.000000,0.000000,0.000000,0.000000,0.000000,0.000000,0.000000,0.000000,0.000000,1775737748.604676,0.000000
144.000000,15601.227057,18871.957823,-16838.262002,1636.304156,-14988.789259,-1140.900092,741.005032,-11984.156011,8624.442950,16582.490990,-4361.965282,2254.821629,-18659.728010,15591.682862,677.794299,-616.483464,0.010187,-0.013094,1.006469,192.000000,0.000000,40.000000,127.500000,72.000000,15.500000,48.000000,0.000000,0.000000,0.000000,1775737748.604690,0.000000
146.000000,15581.021080,18864.492341,-16876.483485,1616.209938,-15019.724073,-1147.493857,735.260634,-12012.945058,8630.634383,16570.353993,-4380.561934,2248.652547,-18686.192475,15585.446726,742.837875,-514.492454,0.010187,-0.013094,1.006469,192.000000,0.000000,0.000000,0.000000,0.000000,0.000000,0.000000,0.000000,0.000000,0.000000,1775737748.604703,0.000000
148.000000,15608.826650,18884.072469,-16834.104578,1637.980537,-14991.583227,-1141.436534,746.682375,-11981.764374,8660.943349,16589.621197,-4374.459907,2256.252141,-18681.476257,15594.119202,742.748468,-527.769390,0.010187,-0.013094,1.006469,192.000000,0.000000,0.000000,0.000000,0.000000,0.000000,0.000000,0.000000,0.000000,0.000000,1775737749.084379,0.000000
150.000000,15584.642063,18863.106532,-16863.944157,1618.400409,-15016.371312,-1157.038052,733.651308,-12004.920781,8608.595563,16580.814610,-4357.472582,2254.508704,-18655.056495,15590.140592,669.166526,-639.773982,0.010187,-0.013094,1.006469,192.000000,0.000000,0.000000,0.000000,0.000000,0.000000,0.000000,0.000000,0.000000,0.000000,1775737749.084439,0.000000
152.000000,15584.150324,18865.319355,-16861.306651,1625.508264,-15014.717283,-1153.193552,741.854398,-12004.898430,8657.925863,16573.282072,-4393.883573,2245.299786,-18710.265304,15584.686766,784.657989,-459.037776,0.010187,-0.013094,1.006469,192.000000,0.000000,0.000000,0.000000,0.000000,0.000000,0.000000,0.000000,0.000000,0.000000,1775737749.084488,0.000000
154.000000,15593.225133,18865.364059,-16835.848014,1636.862950,-14993.192553,-1150.243121,743.754297,-11985.787688,8621.112540,16583.318005,-4364.245160,2253.882856,-18666.657050,15594.029795,675.156793,-623.636022,0.011094,-0.012547,1.006234,192.000000,0.000000,48.000000,127.500000,80.000000,15.500000,56.000000,0.000000,0.000000,0.000000,1775737749.084531,0.000000
156.000000,15568.593510,18852.444750,-16878.517494,1615.941717,-15028.441254,-1148.209113,732.936052,-12021.483424,8622.006610,16567.247101,-4383.221791,2245.031565,-18690.327548,15585.379670,744.447201,-516.749980,0.011094,-0.012547,1.006234,192.000000,0.000000,0.000000,0.000000,0.000000,0.000000,0.000000,0.000000,0.000000,0.000000,1775737749.084574,0.000000
158.000000,15581.512819,18855.462236,-16847.247404,1631.386773,-14998.892248,-1146.957415,734.835951,-12004.809023,8642.637270,16576.165447,-4390.463756,2244.785696,-18694.373214,15586.609016,748.425811,-513.553681,0.011094,-0.012547,1.006234,192.000000,0.000000,0.000000,0.000000,0.000000,0.000000,0.000000,0.000000,0.000000,0.000000,1775737749.084618,0.000000
160.000000,15575.097868,18851.260108,-16866.648718,1616.701676,-15002.647341,-1145.303386,725.627032,-12017.996552,8587.562571,16563.022621,-4374.750480,2241.343527,-18670.300385,15583.144496,693.284058,-620.819702,0.011094,-0.012547,1.006234,192.000000,0.000000,0.000000,0.000000,0.000000,0.000000,0.000000,0.000000,0.000000,0.000000,1775737749.084658,0.000000
162.000000,15583.546827,18863.687678,-16864.234729,1620.523825,-14998.556971,-1139.536636,731.550244,-12015.001418,8655.713040,16569.459923,-4397.661018,2240.225940,-18703.604484,15588.352452,803.209937,-438.138895,0.011094,-0.012547,1.006234,192.000000,0.000000,0.000000,0.000000,0.000000,0.000000,0.000000,0.000000,0.000000,0.000000,1775737749.084674,0.000000
164.000000,15596.712005,18869.454428,-16838.731389,1629.978613,-14980.049727,-1142.844694,735.573558,-11991.397976,8617.223336,16575.517246,-4367.642625,2248.518437,-18665.695925,15593.649816,693.284058,-608.436836,0.011094,-0.012547,1.006234,192.000000,0.000000,0.000000,0.000000,0.000000,0.000000,0.000000,0.000000,0.000000,0.000000,1775737749.084687,0.000000
166.000000,15582.451592,18867.710992,-16876.550541,1612.387790,-15015.477242,-1147.963243,732.220797,-12013.280334,8625.605241,16560.541577,-4379.578457,2245.232731,-18688.919388,15585.089098,753.097326,-509.530367,0.006000,-0.016000,0.998000,192.000000,0.000000,24.000000,127.500000,64.000000,15.500000,24.000000,0.000000,0.000000,0.000000,1775737749.084699,0.000000
168.000000,15606.412662,18882.351384,-16838.194947,1634.761886,-14993.214904,-1141.794162,743.508428,-11982.501982,8655.400116,16580.009947,-4374.616370,2257.034452,-18675.508341,15591.839324,746.660024,-514.827730,0.006000,-0.016000,0.998000,192.000000,0.000000,0.000000,0.000000,0.000000,0.000000,0.000000,0.000000,0.000000,0.000000,1775737749.084712,0.000000
170.000000,15599.885952,18878.350422,-16858.602090,1622.110799,-15006.849469,-1144.766944,736.467628,-11991.889714,8606.449796,16576.411316,-4352.309329,2262.667091,-18670.881530,15594.722699,670.887610,-635.147170,0.006000,-0.016000,0.998000,192.000000,0.000000,0.000000,0.000000,0.000000,0.000000,0.000000,0.000000,0.000000,0.000000,1775737749.084725,0.000000
172.000000,15604.959798,18883.580730,-16858.244462,1627.452866,-15014.136137,-1145.459848,742.882579,-11990.906237,8669.034680,16584.636758,-4374.884590,2265.505763,-18703.380967,15602.501107,780.701730,-458.188410,0.006000,-0.016000,0.998000,192.000000,0.000000,0.000000,0.000000,0.000000,0.000000,0.000000,0.000000,0.000000,0.000000,1775737749.084754,0.000000
174.000000,15613.654627,18882.574902,-16832.651714,1637.399392,-15000.523925,-1150.533694,745.028346,-11975.215313,8630.656735,16591.766964,-4347.615462,2271.339568,-18666.053553,15607.843173,670.574685,-629.402772,0.006000,-0.016000,0.998000,192.000000,0.000000,0.000000,0.000000,0.000000,0.000000,0.000000,0.000000,0.000000,0.000000,1775737749.084768,0.000000
176.000000,15588.643025,18871.019050,-16872.415468,1616.835787,-15034.655039,-1156.456906,736.802904,-12009.234668,8628.421560,16569.146999,-4372.895285,2254.709870,-18696.787202,15593.538057,738.456933,-526.987079,0.004000,-0.014000,1.002000,192.000000,0.000000,16.000000,127.500000,72.000000,15.500000,40.000000,0.000000,0.000000,0.000000,1775737749.084782,0.000000
178.000000,15605.786813,18882.507847,-16838.910203,1637.332337,-15003.608466,-1149.326700,744.737774,-11985.050080,8661.032755,16585.083793,-4371.531829,2257.682652,-18689.277016,15600.332987,741.519122,-524.997774,0.004000,-0.014000,1.002000,192.000000,0.000000,0.000000,0.000000,0.000000,0.000000,0.000000,0.000000,0.000000,0.000000,1775737749.084797,0.000000
180.000000,15589.648853,18873.902425,-16866.045221,1625.374153,-15013.622047,-1151.070136,734.075991,-12001.120985,8600.615990,16572.678575,-4361.808820,2252.608806,-18668.087562,15595.169734,668.920656,-633.493141,0.004000,-0.014000,1.002000,192.000000,0.000000,0.000000,0.000000,0.000000,0.000000,0.000000,0.000000,0.000000,0.000000,1775737749.084810,0.000000
182.000000,15593.292188,18880.227969,-16867.520436,1627.005831,-15011.677445,-1139.536636,734.657137,-12004.183174,8657.769401,16576.634833,-4391.603695,2250.686556,-18707.337225,15597.181391,786.557887,-444.553845,0.004000,-0.014000,1.002000,192.000000,0.000000,0.000000,0.000000,0.000000,0.000000,0.000000,0.000000,0.000000,0.000000,1775737749.084823,0.000000
184.000000,15606.345607,18884.452448,-16840.318363,1637.533502,-14984.028337,-1133.881644,735.662965,-11984.960673,8617.446854,16586.760174,-4364.803954,2260.588379,-18669.071039,15604.736281,694.781625,-611.208452,0.004000,-0.014000,1.002000,192.000000,0.000000,0.000000,0.000000,0.000000,0.000000,0.000000,0.000000,0.000000,0.000000,1775737749.084837,0.000000
186.000000,15584.373842,18871.421381,-16879.523323,1614.354743,-15010.872783,-1136.385040,727.281061,-12018.197717,8620.687857,16569.415220,-4382.953570,2246.953815,-18693.479144,15594.052147,761.948617,-506.065846,0.006000,-0.012000,1.002000,192.000000,0.000000,24.000000,127.500000,80.000000,15.500000,40.000000,0.000000,0.000000,0.000000,1775737749.084850,0.000000
188.000000,15601.987016,18880.049155,-16842.151206,1635.477142,-14984.453021,-1127.980784,737.719326,-11992.359101,8652.270872,16580.658147,-4381.724224,2248.227864,-18688.941740,15600.869429,761.121602,-504.434169,0.006000,-0.012000,1.002000,192.000000,0.000000,0.000000,0.000000,0.000000,0.000000,0.000000,0.000000,0.000000,0.000000,1775737749.084863,0.000000
190.000000,15588.464211,18872.047230,-16863.921805,1622.490778,-15000.166297,-1131.065325,731.796113,-12002.730310,8595.095109,16573.706755,-4362.054689,2249.814838,-18667.506417,15600.087118,682.421110,-623.166635,0.006000,-0.012000,1.002000,192.000000,0.000000,0.000000,0.000000,0.000000,0.000000,0.000000,0.000000,0.000000,0.000000,1775737749.084875,0.000000
192.000000,15593.582761,18879.423306,-16864.145322,1623.161331,-15004.927219,-1134.328679,736.557035,-12002.819717,8659.468133,16579.875836,-4386.798070,2247.490257,-18706.912542,15599.058938,785.797928,-443.123334,0.006000,-0.012000,1.002000,192.000000,0.000000,0.000000,0.000000,0.000000,0.000000,0.000000,0.000000,0.000000,0.000000,1775737749.084889,0.000000
194.000000,15608.580781,18889.213370,-16837.189119,1633.063153,-14989.348053,-1140.765982,738.546340,-11978.970406,8619.458511,16587.274264,-4358.992500,2254.888684,-18669.696888,15602.881086,688.970171,-618.338659,0.006000,-0.012000,1.002000,192.000000,0.000000,0.000000,0.000000,0.000000,0.000000,0.000000,0.000000,0.000000,0.000000,1775737749.084902,0.000000
196.000000,15594.342720,18887.827562,-16877.265796,1616.254642,-15021.132233,-1143.850523,733.696012,-12003.847898,8627.035752,16580.121706,-4371.665939,2253.949911,-18692.205094,15597.270798,737.965195,-518.292250,0.002000,-0.018000,1.002000,192.000000,0.000000,8.000000,127.500000,56.000000,15.500000,40.000000,0.000000,0.000000,0.000000,1775737749.084914,0.000000
198.000000,15606.367958,18890.621530,-16842.531185,1633.554892,-15006.581248,-1148.499685,740.446239,-11982.390223,8652.583796,16592.750441,-4372.157678,2259.917827,-18697.636568,15602.098775,740.513294,-519.812169,0.002000,-0.018000,1.002000,192.000000,0.000000,0.000000,0.000000,0.000000,0.000000,0.000000,0.000000,0.000000,0.000000,1775737749.084927,0.000000
200.000000,15592.487525,18879.847989,-16863.541825,1618.735685,-15023.523870,-1158.200342,732.287852,-11999.444604,8596.525621,16578.914711,-4358.076079,2252.899379,-18670.725068,15596.220266,665.858467,-646.546560,0.002000,-0.018000,1.002000,192.000000,0.000000,0.000000,0.000000,0.000000,0.000000,0.000000,0.000000,0.000000,0.000000,1775737749.084940,0.000000
202.000000,15590.118240,18880.809114,-16868.548616,1620.076790,-15026.094321,-1154.489953,735.595910,-12003.043235,8650.840360,16576.970110,-4388.183878,2245.500951,-18716.702606,15593.269836,777.147803,-467.397328,0.002000,-0.018000,1.002000,192.000000,0.000000,0.000000,0.000000,0.000000,0.000000,0.000000,0.000000,0.000000,0.000000,1775737749.084953,0.000000
