Sample_index,EXG Channel 0,EXG Channel 1,EXG Channel 2,EXG Channel 3,EXG Channel 4,EXG Channel 5,EXG Channel 6,EXG Channel 7,EXG Channel 8,EXG Channel 9,EXG Channel 10,EXG Channel 11,EXG Channel 12,EXG Channel 13,EXG Channel 14,EXG Channel 15,Accel Channel 0,Accel Channel 1,Accel Channel 2,Not Used,Digital Channel 0 (D11),Digital Channel 1 (D12),Digital Channel 2 (D13),Digital Channel 3 (D17),Not Used,Digital Channel 4 (D18),Analog Channel 0,Analog Channel 1,Analog Channel 2,Timestamp,Marker Channel
90.000000,17109.947456,19476.036069,-11443.981402,324.726143,-11134.074466,-5890.712844,1213.029172,992.126881,11331.663887,16554.730124,-126.756743,2566.002615,-15455.292518,18549.444503,3061.496086,2704.628134,0.004000,-0.014000,1.002000,192.000000,0.000000,0.000000,0.000000,0.000000,0.000000,0.000000,0.000000,0.000000,0.000000,1775741106.954033,101.000000
92.000000,17127.091244,19492.688119,-11422.344914,346.854370,-11112.035645,-5872.496172,1230.977622,1008.018971,11348.025363,16535.798196,-174.097738,2550.848132,-15520.693722,18528.590325,3540.538673,3333.695630,0.004000,-0.014000,1.002000,192.000000,0.000000,0.000000,0.000000,0.000000,0.000000,0.000000,0.000000,0.000000,0.000000,1775741106.954095,0.000000
94.000000,17135.227279,19491.279959,-11403.770614,355.415089,-11092.924904,-5865.410669,1237.705497,1021.295908,11346.550148,16572.522112,-120.006516,2571.188220,-15473.576245,18562.922604,2990.730463,2604.760540,0.004000,-0.016000,1.004000,192.000000,0.000000,16.000000,127.500000,64.000000,15.500000,48.000000,0.000000,0.000000,0.000000,1775741106.954143,0.000000
96.000000,17100.604427,19468.056496,-11453.167969,319.339373,-11130.051152,-5887.337731,1208.692933,980.593381,11335.173110,16515.301647,-167.593380,2542.332118,-15512.378873,18521.281305,3452.808076,3208.034123,0.004000,-0.016000,1.004000,192.000000,0.000000,0.000000,0.000000,0.000000,0.000000,0.000000,0.000000,0.000000,0.000000,1775741106.954190,0.000000
98.000000,17134.713189,19487.100182,-11401.155460,362.232371,-11078.150401,-5849.876207,1243.360489,1020.066562,11360.519989,16544.448321,-149.086136,2557.151324,-15485.333262,18541.174357,3279.447946,2989.724635,0.004000,-0.016000,1.004000,192.000000,0.000000,0.000000,0.000000,0.000000,0.000000,0.000000,0.000000,0.000000,0.000000,1775741106.954238,0.000000
100.000000,17100.693834,19459.182854,-11449.681097,315.427818,-11124.262050,-5888.321208,1206.480110,977.598247,11331.753293,16546.437627,-139.363127,2552.077478,-15465.462561,18544.929450,3061.630197,2703.152919,0.004000,-0.016000,1.004000,192.000000,0.000000,0.000000,0.000000,0.000000,0.000000,0.000000,0.000000,0.000000,0.000000,1775741106.954282,0.000000
102.000000,17116.831793,19475.030240,-11420.981457,335.142056,-11107.274724,-5876.273617,1226.171997,996.373713,11352.182788,16522.744778,-178.009293,2534.441952,-15518.056216,18518.107357,3542.818551,3332.533340,0.004000,-0.016000,1.004000,192.000000,0.000000,0.000000,0.000000,0.000000,0.000000,0.000000,0.000000,0.000000,0.000000,1775741106.954298,0.000000
104.000000,17129.527584,19473.175046,-11398.652065,350.229484,-11082.844267,-5863.063736,1234.620957,1013.428094,11347.891253,16548.002249,-124.968603,2554.692633,-15440.719180,18548.617488,2991.803347,2599.641991,-0.002000,-0.014000,1.010000,192.000000,127.500000,120.000000,127.500000,72.000000,15.500000,72.000000,0.000000,0.000000,0.000000,1775741106.954314,0.000000
106.000000,17095.485877,19457.707638,-11449.077600,319.987574,-11124.485567,-5879.626379,1206.100131,973.396119,11348.338288,16531.059626,-165.425261,2532.877330,-15498.297274,18525.125805,3448.337728,3199.428701,-0.002000,-0.014000,1.010000,192.000000,0.000000,0.000000,0.000000,0.000000,0.000000,0.000000,0.000000,0.000000,0.000000,1775741106.954329,0.000000
108.000000,17150.962907,19499.728918,-11388.862001,371.038958,-11069.477924,-5843.170684,1246.646195,1028.515521,11358.865960,16553.768999,-149.041432,2555.363185,-15466.624852,18547.142273,3285.281752,2990.015208,-0.002000,-0.014000,1.010000,192.000000,0.000000,0.000000,0.000000,0.000000,0.000000,0.000000,0.000000,0.000000,0.000000,1775741106.954343,0.000000
110.000000,17103.599561,19456.835920,-11441.478007,321.418085,-11112.750901,-5882.174478,1208.290602,981.867430,11353.501541,16545.856481,-127.919034,2559.744127,-15432.046703,18554.004258,3066.055842,2694.703960,-0.002000,-0.014000,1.010000,192.000000,0.000000,0.000000,0.000000,0.000000,0.000000,0.000000,0.000000,0.000000,0.000000,1775741106.954356,0.000000
112.000000,17126.577154,19485.356746,-11421.853175,336.997251,-11093.103718,-5855.017108,1227.289585,1003.705085,11357.591910,16529.383246,-171.862563,2536.543016,-15506.299198,18528.009180,3551.178104,3340.691726,-0.002000,-0.014000,1.010000,192.000000,0.000000,0.000000,0.000000,0.000000,0.000000,0.000000,0.000000,0.000000,0.000000,1775741106.954369,0.000000
114.000000,17138.133006,19486.966072,-11406.139899,352.442307,-11088.722776,-5853.407783,1234.240977,1019.574823,11349.455875,16555.266566,-118.307783,2567.343720,-15442.172044,18563.369639,2989.545821,2616.226985,-0.004000,-0.014000,1.000000,192.000000,127.500000,112.000000,127.500000,72.000000,15.500000,32.000000,0.000000,0.000000,0.000000,1775741106.954382,0.000000
116.000000,17096.737575,19456.321830,-11461.661632,308.118797,-11132.465140,-5882.129774,1201.383913,972.569105,11336.894195,16536.334638,-169.716796,2530.999783,-15508.467318,18523.427072,3444.582635,3206.380094,-0.004000,-0.014000,1.000000,192.000000,0.000000,0.000000,0.000000,0.000000,0.000000,0.000000,0.000000,0.000000,0.000000,1775741106.954395,0.000000
118.000000,17136.926012,19487.122534,-11400.082576,350.609464,-11084.163020,-5856.760544,1240.499466,1019.306602,11349.925262,16529.785577,-159.613807,2548.612958,-15481.399355,18533.261840,3291.339075,3000.341713,-0.004000,-0.014000,1.000000,192.000000,0.000000,0.000000,0.000000,0.000000,0.000000,0.000000,0.000000,0.000000,0.000000,1775741106.954408,0.000000
120.000000,17088.802706,19443.424874,-11454.374964,302.933193,-11134.454445,-5903.699208,1203.909660,975.452480,11339.017610,16526.119891,-143.654662,2538.733487,-15462.847407,18523.561182,3062.926598,2692.692303,-0.004000,-0.014000,1.000000,192.000000,0.000000,0.000000,0.000000,0.000000,0.000000,0.000000,0.000000,0.000000,0.000000,1775741106.954421,0.000000
122.000000,17113.859011,19470.001098,-11433.833710,327.989498,-11115.120186,-5890.802251,1223.668602,997.737169,11322.678485,16502.784670,-182.591400,2529.949251,-15529.388550,18490.190028,3558.777697,3340.311747,-0.004000,-0.014000,1.000000,192.000000,0.000000,0.000000,0.000000,0.000000,0.000000,0.000000,0.000000,0.000000,0.000000,1775741106.954439,0.000000
124.000000,17119.938686,19463.228519,-11404.508222,349.804801,-11096.724701,-5872.742042,1234.218625,1011.371733,11339.129369,16545.744723,-129.818932,2542.600339,-15459.449942,18540.168529,2997.726559,2598.345589,-0.002000,-0.016000,1.000000,192.000000,127.500000,120.000000,127.500000,64.000000,15.500000,32.000000,0.000000,0.000000,0.000000,1775741106.954452,0.000000
126.000000,17101.833773,19452.387923,-11452.944452,310.801007,-11134.297983,-5916.417350,1205.273116,979.565201,11352.518064,16498.113155,-169.850906,2529.837493,-15505.919219,18499.622464,3445.275539,3186.867021,-0.002000,-0.016000,1.000000,192.000000,0.000000,0.000000,0.000000,0.000000,0.000000,0.000000,0.000000,0.000000,0.000000,1775741106.954464,0.000000
128.000000,17153.622765,19496.085584,-11386.246846,364.936932,-11074.998805,-5859.286292,1249.261349,1037.880902,11367.247864,16512.060644,-137.843208,2556.816048,-15478.404221,18517.213287,3285.281752,2988.227068,-0.002000,-0.016000,1.000000,192.000000,0.000000,0.000000,0.000000,0.000000,0.000000,0.000000,0.000000,0.000000,0.000000,1775741106.954477,0.000000
130.000000,17114.350750,19455.807740,-11439.578109,310.644544,-11128.151253,-5900.480557,1209.363485,990.696369,11350.126427,16526.611629,-118.061914,2546.288377,-15443.759017,18536.905174,3055.684633,2675.548515,-0.002000,-0.016000,1.000000,192.000000,0.000000,0.000000,0.000000,0.000000,0.000000,0.000000,0.000000,0.000000,0.000000,1775741106.954492,0.000000
132.000000,17123.492613,19449.906880,-11414.141824,329.017678,-11099.675131,-5877.704129,1227.200178,1006.342591,11374.288663,16489.865361,-162.340720,2538.375859,-15502.409995,18496.739089,3554.642624,3327.973584,-0.002000,-0.016000,1.000000,192.000000,0.000000,0.000000,0.000000,0.000000,0.000000,0.000000,0.000000,0.000000,0.000000,1775741106.954506,0.000000
134.000000,17133.819119,19478.137133,-11398.003864,346.519094,-11078.262160,-5865.209504,1235.582082,1020.513597,11370.108887,16536.401693,-120.498254,2553.083307,-15433.678381,18534.267668,2997.458338,2590.075444,0.002000,-0.018000,0.998000,192.000000,0.000000,8.000000,127.500000,56.000000,15.500000,24.000000,0.000000,0.000000,0.000000,1775741106.954520,0.000000
136.000000,17107.041729,19447.850519,-11449.167007,305.257774,-11134.521500,-5899.295914,1203.686142,978.291151,11371.807620,16485.931454,-161.245485,2532.117371,-15489.423631,18497.342586,3437.184207,3184.229515,0.002000,-0.018000,0.998000,192.000000,0.000000,0.000000,0.000000,0.000000,0.000000,0.000000,0.000000,0.000000,0.000000,1775741106.954532,0.000000
138.000000,17133.461491,19461.909766,-11391.432451,351.369423,-11077.926883,-5861.432059,1239.895968,1017.786684,11363.358660,16495.877981,-141.687708,2539.225225,-15513.474108,18500.136554,3287.740444,2989.143489,0.002000,-0.018000,0.998000,192.000000,0.000000,0.000000,0.000000,0.000000,0.000000,0.000000,0.000000,0.000000,0.000000,1775741106.954544,0.000000
140.000000,17093.138944,19428.158632,-11446.283632,307.917632,-11118.741169,-5898.401844,1202.568555,971.585628,11333.116750,16503.388167,-134.870426,2525.456551,-15450.486893,18508.138479,3044.374650,2667.859515,0.002000,-0.018000,0.998000,192.000000,0.000000,0.000000,0.000000,0.000000,0.000000,0.000000,0.000000,0.000000,0.000000,1775741106.954557,0.000000
142.000000,17110.774471,19449.213976,-11423.708370,328.727106,-11107.028855,-5880.989835,1221.344021,990.562259,11384.525762,16452.783817,-181.384406,2523.288432,-15518.525603,18483.573912,3547.825342,3325.403133,0.002000,-0.018000,0.998000,192.000000,0.000000,0.000000,0.000000,0.000000,0.000000,0.000000,0.000000,0.000000,0.000000,1775741106.954569,0.000000
144.000000,17129.527584,19454.176063,-11405.089367,344.887417,-11094.645988,-5879.045234,1232.877521,1009.717704,11341.029267,16502.248228,-122.688725,2546.109563,-15463.540311,18517.079177,2981.700359,2584.934543,0.005000,-0.016000,0.997000,192.000000,0.000000,32.000000,127.500000,72.000000,15.500000,16.000000,0.000000,0.000000,0.000000,1775741106.954581,0.000000
146.000000,17079.884360,19424.045911,-11454.129094,305.883623,-11143.484550,-5920.306554,1205.049599,970.557448,11346.684259,16460.226948,-174.589476,2523.355487,-15516.558649,18473.135647,3422.744980,3159.821410,0.005000,-0.016000,0.997000,192.000000,0.000000,0.000000,0.000000,0.000000,0.000000,0.000000,0.000000,0.000000,0.000000,1775741106.954594,0.000000
148.000000,17144.749122,19471.163389,-11384.145782,358.186705,-11090.734433,-5879.201696,1249.753088,1032.158855,11362.889274,16484.299777,-139.430182,2543.852036,-15495.771527,18492.514609,3278.620932,2968.378719,0.005000,-0.016000,0.997000,192.000000,0.000000,0.000000,0.000000,0.000000,0.000000,0.000000,0.000000,0.000000,0.000000,1775741106.954606,0.000000
150.000000,17109.276904,19447.157615,-11436.359458,314.980783,-11129.671172,-5908.482481,1213.923241,990.942239,11363.693936,16497.263789,-118.285432,2553.910321,-15454.934890,18513.972284,3032.930557,2642.289119,0.005000,-0.016000,0.997000,192.000000,0.000000,0.000000,0.000000,0.000000,0.000000,0.000000,0.000000,0.000000,0.000000,1775741106.954619,0.000000
152.000000,17142.446893,19475.052592,-11411.325504,337.109010,-11110.761596,-5886.153088,1234.196274,1013.942184,11395.075786,16494.626283,-158.227999,2545.818990,-15494.251608,18490.234731,3541.723316,3310.002781,0.005000,-0.016000,0.997000,192.000000,0.000000,0.000000,0.000000,0.000000,0.000000,0.000000,0.000000,0.000000,0.000000,1775741106.954632,0.000000
154.000000,17138.669448,19466.938909,-11394.002902,350.631815,-11093.148421,-5874.753699,1240.901797,1023.978117,11371.807620,16529.562060,-100.940478,2567.589589,-15468.077715,18527.562145,2983.712016,2577.022025,0.007500,-0.015000,0.996500,192.000000,0.000000,40.000000,127.500000,72.000000,15.500000,16.000000,0.000000,0.000000,0.000000,1775741106.954644,0.000000
156.000000,17099.196267,19441.189699,-11450.552815,308.610536,-11142.277556,-5907.275487,1206.927145,976.905343,11356.317861,16472.766277,-157.356281,2533.190254,-15510.277809,18484.803258,3418.319335,3153.697032,0.007500,-0.015000,0.996500,192.000000,0.000000,0.000000,0.000000,0.000000,0.000000,0.000000,0.000000,0.000000,0.000000,1775741106.954657,0.000000
158.000000,17150.068837,19477.690098,-11387.945579,357.918484,-11085.951160,-5862.951978,1244.813352,1024.156931,11382.625864,16493.419289,-141.911226,2544.880217,-15470.290538,18498.214304,3283.180688,2982.639132,0.007500,-0.015000,0.996500,192.000000,0.000000,0.000000,0.000000,0.000000,0.000000,0.000000,0.000000,0.000000,0.000000,1775741106.954670,0.000000
160.000000,17092.826020,19428.538612,-11448.094123,309.750475,-11133.470968,-5898.759472,1202.725017,970.848020,11353.546244,16489.418327,-130.243615,2540.342813,-15471.072849,18506.417394,3030.717734,2655.387241,0.007500,-0.015000,0.996500,192.000000,0.000000,0.000000,0.000000,0.000000,0.000000,0.000000,0.000000,0.000000,0.000000,1775741106.954683,0.000000
162.000000,17115.513040,19450.309211,-11430.503300,332.124571,-11118.048265,-5873.166725,1221.455779,989.958762,11371.025308,16467.848893,-182.814918,2521.030905,-15525.141719,18478.902397,3531.977955,3332.175712,0.007500,-0.015000,0.996500,192.000000,0.000000,0.000000,0.000000,0.000000,0.000000,0.000000,0.000000,0.000000,0.000000,1775741106.954696,0.000000
164.000000,17119.625761,19449.705714,-11411.504318,339.277129,-11097.171735,-5868.897542,1227.133122,1001.760483,11361.950500,16512.552382,-124.990955,2547.517723,-15463.964994,18517.056825,2972.133812,2608.359171,0.008750,-0.015500,0.998250,192.000000,0.000000,40.000000,127.500000,64.000000,15.500000,32.000000,0.000000,0.000000,0.000000,1775741106.954708,0.000000
166.000000,17077.895055,19421.520164,-11462.488647,296.250021,-11137.695448,-5904.302705,1196.891212,960.432108,11338.749389,16463.311489,-180.959723,2514.079513,-15513.116480,18477.002499,3426.321259,3176.227591,0.008750,-0.015500,0.998250,192.000000,0.000000,0.000000,0.000000,0.000000,0.000000,0.000000,0.000000,0.000000,0.000000,1775741106.954720,0.000000
168.000000,17139.205890,19467.430647,-11397.422719,349.313062,-11087.292264,-5867.735251,1240.432410,1020.334783,11365.705593,16486.356138,-156.305749,2532.385592,-15504.913390,18490.994691,3297.955191,3008.611859,0.008750,-0.015500,0.998250,192.000000,0.000000,0.000000,0.000000,0.000000,0.000000,0.000000,0.000000,0.000000,0.000000,1775741106.954733,0.000000
170.000000,17100.537372,19441.167348,-11446.708315,312.365629,-11128.352419,-5895.674931,1207.240070,982.537983,11357.815428,16507.590295,-125.236824,2547.718888,-15470.447000,18509.568990,3040.954833,2663.858552,0.008750,-0.015500,0.998250,192.000000,0.000000,0.000000,0.000000,0.000000,0.000000,0.000000,0.000000,0.000000,0.000000,1775741106.954745,0.000000
172.000000,17121.615067,19462.267394,-11425.697675,333.599786,-11113.242640,-5882.062719,1225.836721,1003.168643,11365.258558,16489.418327,-173.717758,2534.084324,-15522.481861,18485.138534,3561.102278,3336.489598,0.008750,-0.015500,0.998250,192.000000,0.000000,0.000000,0.000000,0.000000,0.000000,0.000000,0.000000,0.000000,0.000000,1775741106.954757,0.000000
174.000000,17135.987238,19469.442304,-11401.513088,351.369423,-11099.541020,-5874.083146,1239.136009,1023.844007,11361.659928,16524.287048,-113.233937,2559.230037,-15475.342032,18520.498993,3004.096807,2605.319334,0.010375,-0.013750,0.997125,192.000000,0.000000,48.000000,127.500000,80.000000,15.500000,16.000000,0.000000,0.000000,0.000000,1775741106.954770,0.000000
176.000000,17093.206000,19439.446263,-11459.761734,307.314135,-11149.407762,-5910.896469,1204.401398,976.190087,11345.767837,16487.339614,-160.932560,2534.017269,-15522.817138,18485.540865,3433.764390,3170.974931,0.010375,-0.013750,0.997125,192.000000,0.000000,0.000000,0.000000,0.000000,0.000000,0.000000,0.000000,0.000000,0.000000,1775741106.954782,0.000000
178.000000,17136.814253,19470.403429,-11398.540306,359.214885,-11092.410814,-5866.371795,1247.763782,1028.180245,11355.535550,16499.007225,-152.349490,2541.505103,-15505.181611,18495.062708,3315.635421,3023.296955,0.010375,-0.013750,0.997125,192.000000,0.000000,0.000000,0.000000,0.000000,0.000000,0.000000,0.000000,0.000000,0.000000,1775741106.954795,0.000000
180.000000,17095.240008,19434.819452,-11456.006641,314.444341,-11141.092913,-5899.742949,1207.664753,980.101643,11333.161453,16506.718577,-130.824760,2544.947272,-15480.773506,18509.412528,3047.638005,2675.012073,0.010375,-0.013750,0.997125,192.000000,0.000000,0.000000,0.000000,0.000000,0.000000,0.000000,0.000000,0.000000,0.000000,1775741106.954807,0.000000
182.000000,17092.088412,19433.813624,-11443.020277,322.759190,-11131.660477,-5892.724501,1218.572404,981.889782,11341.141026,16475.381431,-187.084101,2517.365219,-15549.281603,18476.667223,3557.011909,3366.038605,0.010375,-0.013750,0.997125,192.000000,0.000000,0.000000,0.000000,0.000000,0.000000,0.000000,0.000000,0.000000,0.000000,1775741106.954820,0.000000
184.000000,17097.542238,19432.494871,-11420.936754,332.795123,-11112.549736,-5883.694396,1226.484922,992.797433,11319.415131,16493.732213,-144.638138,2527.512911,-15495.346844,18497.633159,3018.357220,2634.711878,0.007188,-0.014875,0.996563,192.000000,0.000000,16.000000,127.500000,64.000000,15.500000,16.000000,0.000000,0.000000,0.000000,1775741106.954832,0.000000
186.000000,17061.846502,19411.730100,-11471.652862,290.058588,-11153.386373,-5915.702095,1194.723093,949.926788,11309.490956,16453.409666,-190.258049,2500.422597,-15542.017286,18459.635193,3433.049134,3182.128451,0.007188,-0.014875,0.996563,192.000000,0.000000,0.000000,0.000000,0.000000,0.000000,0.000000,0.000000,0.000000,0.000000,1775741106.954844,0.000000
188.000000,17114.909543,19450.711542,-11407.324541,340.752344,-11092.679035,-5870.171591,1235.738544,1005.336762,11334.323744,16480.991719,-169.046243,2517.745199,-15514.837565,18481.517551,3314.920165,3031.075362,0.007188,-0.014875,0.996563,192.000000,0.000000,0.000000,0.000000,0.000000,0.000000,0.000000,0.000000,0.000000,0.000000,1775741106.954857,0.000000
190.000000,17082.030127,19424.224725,-11454.285557,303.559041,-11132.688657,-5901.978123,1203.484977,970.244523,11317.604639,16492.547571,-141.307728,2527.289394,-15475.252625,18495.263874,3039.345508,2674.967369,0.007188,-0.014875,0.996563,192.000000,0.000000,0.000000,0.000000,0.000000,0.000000,0.000000,0.000000,0.000000,0.000000,1775741106.954869,0.000000
192.000000,17096.178782,19444.229537,-11433.699600,324.815550,-11113.622619,-5883.649693,1222.238090,989.064692,11333.295564,16473.056850,-188.291095,2515.577080,-15527.890984,18472.040411,3554.061479,3356.002671,0.007188,-0.014875,0.996563,192.000000,0.000000,0.000000,0.000000,0.000000,0.000000,0.000000,0.000000,0.000000,0.000000,1775741106.954882,0.000000
194.000000,17113.076700,19455.941851,-11407.704521,344.440382,-11090.980302,-5870.618626,1236.431448,1011.997582,11331.619183,16517.849745,-131.092981,2545.260196,-15466.267224,18511.625351,2998.911202,2628.654555,0.005594,-0.016438,0.997281,192.000000,0.000000,16.000000,127.500000,56.000000,15.500000,24.000000,0.000000,0.000000,0.000000,1775741106.954894,0.000000
196.000000,17073.357650,19425.610533,-11460.946376,299.893355,-11135.236756,-5908.370722,1203.082645,965.662416,11319.213965,16481.326995,-175.438842,2520.069780,-15536.183481,18479.081211,3415.860643,3170.773765,0.005594,-0.016438,0.997281,192.000000,0.000000,0.000000,0.000000,0.000000,0.000000,0.000000,0.000000,0.000000,0.000000,1775741106.954906,0.000000
198.000000,17120.519831,19461.730952,-11398.875582,350.028318,-11083.090136,-5868.450507,1243.874579,1017.406704,11342.236262,16499.141335,-157.043357,2531.983260,-15509.987236,18490.100621,3310.740389,3031.410638,0.005594,-0.016438,0.997281,192.000000,0.000000,0.000000,0.000000,0.000000,0.000000,0.000000,0.000000,0.000000,0.000000,1775741106.954919,0.000000
200.000000,17076.397488,19424.425891,-11449.524635,306.911803,-11130.520538,-5903.363932,1208.447064,974.245486,11313.737787,16504.997492,-137.887912,2535.358374,-15483.276902,18498.862505,3038.585548,2670.251151,0.005594,-0.016438,0.997281,192.000000,0.000000,0.000000,0.000000,0.000000,0.000000,0.000000,0.000000,0.000000,0.000000,1775741106.954931,0.000000
202.000000,17090.903770,19437.792234,-11435.934774,320.009925,-11123.591497,-5893.551516,1221.768704,984.929619,11328.244070,16476.767239,-189.207517,2514.705362,-15538.932745,18466.005440,3563.315101,3352.918131,0.005594,-0.016438,0.997281,192.000000,0.000000,0.000000,0.000000,0.000000,0.000000,0.000000,0.000000,0.000000,0.000000,1775741106.954943,0.000000
204.000000,17107.086433,19443.983667,-11410.386730,335.857312,-11101.217401,-5877.458260,1234.039811,1005.381466,11324.041942,16508.484365,-134.669260,2537.258272,-15485.556780,18501.075328,3007.963658,2628.654555,0.006797,-0.018219,0.997641,192.000000,0.000000,32.000000,127.500000,48.000000,15.500000,24.000000,0.000000,0.000000,0.000000,1775741106.954954,0.000000
206.000000,17070.451924,19422.056606,-11468.143638,291.980838,-11151.017088,-5913.377513,1198.120558,959.381576,11308.261610,16470.285233,-181.294999,2510.235013,-15532.584850,18465.312536,3415.145387,3164.783497,0.006797,-0.018219,0.997641,192.000000,0.000000,0.000000,0.000000,0.000000,0.000000,0.000000,0.000000,0.000000,0.000000,1775741106.954966,0.000000
208.000000,17120.117500,19460.009868,-11405.581105,342.696946,-11097.976398,-5873.703167,1239.113657,1013.539852,11333.630840,16492.502867,-164.441784,2526.283565,-15510.635437,18482.255159,3310.539223,3031.142417,0.006797,-0.018219,0.997641,192.000000,0.000000,0.000000,0.000000,0.000000,0.000000,0.000000,0.000000,0.000000,0.000000,1775741106.954979,0.000000
210.000000,17085.047613,19436.048798,-11453.503246,304.453111,-11135.974364,-5905.085016,1206.122483,978.514669,11312.262572,16499.543667,-138.692574,2533.302013,-15482.226370,18496.426165,3030.717734,2659.946997,0.006797,-0.018219,0.997641,192.000000,0.000000,0.000000,0.000000,0.000000,0.000000,0.000000,0.000000,0.000000,0.000000,1775741107.434264,0.000000
212.000000,17103.241933,19456.835920,-11437.074713,326.111952,-11119.389369,-5885.706053,1223.489788,995.658457,11334.346096,16484.500943,-181.205592,2525.434199,-15534.372989,18474.744973,3554.061479,3353.789849,0.006797,-0.018219,0.997641,192.000000,0.000000,0.000000,0.000000,0.000000,0.000000,0.000000,0.000000,0.000000,0.000000,1775741107.434329,0.000000
214.000000,17124.610200,19469.732877,-11404.284704,347.390812,-11085.302959,-5864.673062,1238.398402,1020.491245,11329.786340,16523.214164,-126.957909,2550.691670,-15467.183646,18512.899400,3003.627420,2636.835293,0.006797,-0.018219,0.997641,192.000000,0.000000,0.000000,0.000000,0.000000,0.000000,0.000000,0.000000,0.000000,0.000000,1775741107.434382,0.000000
216.000000,17084.891151,19445.034199,-11458.398278,304.922498,-11133.470968,-5900.815833,1204.401398,973.396119,11332.200328,16500.862420,-161.580761,2534.978394,-15493.670463,18492.201685,3418.185224,3158.189733,0.012000,-0.020000,0.994000,192.000000,0.000000,48.000000,127.500000,48.000000,15.500000,8.000000,0.000000,0.000000,0.000000,1775741107.434431,0.000000
218.000000,17119.581058,19465.687211,-11401.691902,350.318891,-11089.840363,-5861.275597,1240.924149,1015.864434,11329.741636,16503.924609,-162.318368,2534.710173,-15489.066003,18492.291092,3322.296241,3043.569987,0.012000,-0.020000,0.994000,192.000000,0.000000,0.000000,0.000000,0.000000,0.000000,0.000000,0.000000,0.000000,0.000000,1775741107.434490,0.000000
220.000000,17086.232255,19438.663952,-11449.122304,312.142111,-11133.046285,-5894.467937,1207.597698,977.687654,11315.168299,16516.687455,-134.781019,2541.594510,-15495.078623,18506.976188,3040.306633,2667.501887,0.012000,-0.020000,0.994000,192.000000,0.000000,0.000000,0.000000,0.000000,0.000000,0.000000,0.000000,0.000000,0.000000,1775741107.434540,0.000000
222.000000,17088.780354,19442.463749,-11437.655859,320.591071,-11120.395198,-5895.205545,1217.521872,982.046244,11327.707628,16483.495114,-189.252220,2518.527510,-15551.740295,18468.911167,3566.712566,3358.394308,0.012000,-0.020000,0.994000,192.000000,0.000000,0.000000,0.000000,0.000000,0.000000,0.000000,0.000000,0.000000,0.000000,1775741107.434563,0.000000
224.000000,17107.332302,19450.979763,-11412.241925,340.104144,-11094.780099,-5880.609856,1231.536416,1004.912079,11319.459834,16509.289027,-140.324252,2537.660603,-15483.790992,18499.600112,3020.637097,2632.432000,0.012000,-0.020000,0.994000,192.000000,0.000000,0.000000,0.000000,0.000000,0.000000,0.000000,0.000000,0.000000,0.000000,1775741107.434575,0.000000
226.000000,17063.344069,19421.743682,-11470.401164,295.154786,-11148.692506,-5916.015019,1195.661866,954.061860,11304.059482,16480.075297,-182.457290,2515.375914,-15520.984295,18473.135647,3414.072503,3153.965253,0.006000,-0.022000,0.996000,192.000000,0.000000,24.000000,127.500000,40.000000,15.500000,16.000000,0.000000,0.000000,0.000000,1775741107.434588,0.000000
228.000000,17110.685064,19459.182854,-11407.324541,346.653205,-11095.808279,-5874.820754,1237.973718,1008.130730,11322.656133,16501.287103,-170.566162,2526.127103,-15523.420635,18486.949025,3321.178653,3043.927615,0.006000,-0.022000,0.996000,192.000000,0.000000,0.000000,0.000000,0.000000,0.000000,0.000000,0.000000,0.000000,0.000000,1775741107.434600,0.000000
230.000000,17066.205092,19421.520164,-11458.666499,301.413274,-11140.981155,-5912.304629,1200.020456,962.644930,11298.180973,16505.668045,-146.202760,2528.094057,-15491.949378,18496.649682,3028.527263,2658.449430,0.006000,-0.022000,0.996000,192.000000,0.000000,0.000000,0.000000,0.000000,0.000000,0.000000,0.000000,0.000000,0.000000,1775741107.434612,0.000000
232.000000,17093.206000,19447.448188,-11434.459559,321.753361,-11120.439901,-5889.058815,1219.913509,983.946143,11314.475395,16485.663233,-194.393122,2509.922088,-15526.549879,18471.347507,3557.347185,3356.472058,0.006000,-0.022000,0.996000,192.000000,0.000000,0.000000,0.000000,0.000000,0.000000,0.000000,0.000000,0.000000,0.000000,1775741107.434624,0.000000
234.000000,17109.656883,19450.242156,-11403.345931,344.865065,-11094.936561,-5869.612797,1236.431448,1007.527233,11325.114825,16525.091711,-129.483656,2542.175656,-15483.098088,18515.335740,3006.354333,2636.611776,0.006000,-0.022000,0.996000,192.000000,0.000000,0.000000,0.000000,0.000000,0.000000,0.000000,0.000000,0.000000,0.000000,1775741107.434636,0.000000
236.000000,17072.374174,19426.482251,-11458.957071,301.145053,-11141.092913,-5903.252173,1201.428616,962.577875,11310.832061,16481.818733,-173.315427,2514.303030,-15522.660675,18483.797429,3401.510823,3153.004128,0.012000,-0.016000,0.998000,192.000000,0.000000,48.000000,127.500000,64.000000,15.500000,24.000000,0.000000,0.000000,0.000000,1775741107.434647,0.000000
238.000000,17114.909543,19458.579357,-11397.668588,353.828115,-11089.885067,-5861.856742,1244.142800,1012.444617,11337.967078,16509.780766,-156.328101,2532.743219,-15501.717091,18499.331891,3318.787017,3042.161827,0.012000,-0.016000,0.998000,192.000000,0.000000,0.000000,0.000000,0.000000,0.000000,0.000000,0.000000,0.000000,0.000000,1775741107.434659,0.000000
240.000000,17080.174933,19429.410330,-11446.194225,319.965222,-11124.239698,-5897.530126,1210.458721,973.954913,11311.793186,16521.448376,-134.311632,2537.392382,-15475.297329,18512.944104,3026.001516,2650.492209,0.012000,-0.016000,0.998000,192.000000,0.000000,0.000000,0.000000,0.000000,0.000000,0.000000,0.000000,0.000000,0.000000,1775741107.434671,0.000000
242.000000,17084.488819,19432.249002,-11435.890071,331.990460,-11125.178471,-5888.969408,1222.908643,984.437881,11324.444273,16484.702108,-188.179337,2515.487673,-15521.520736,18477.427182,3555.447287,3357.969625,0.012000,-0.016000,0.998000,192.000000,0.000000,0.000000,0.000000,0.000000,0.000000,0.000000,0.000000,0.000000,0.000000,1775741107.434682,0.000000
244.000000,17103.733671,19441.569679,-11406.363416,351.168257,-11100.144517,-5874.530181,1237.861960,1008.354248,11322.320857,16509.736062,-132.188217,2539.828722,-15470.759925,18507.467926,3003.761530,2636.142389,0.012000,-0.016000,0.998000,192.000000,0.000000,0.000000,0.000000,0.000000,0.000000,0.000000,0.000000,0.000000,0.000000,1775741107.434694,0.000000
246.000000,17072.865912,19425.945810,-11461.013432,307.269431,-11147.664326,-5914.405693,1204.200233,963.494296,11312.754311,16478.153047,-175.058863,2514.481844,-15522.235992,18474.812028,3398.247468,3147.013861,0.008000,-0.018000,1.000000,192.000000,0.000000,32.000000,127.500000,56.000000,15.500000,32.000000,0.000000,0.000000,0.000000,1775741107.434706,0.000000
248.000000,17114.663674,19456.254775,-11402.250695,357.426746,-11092.544924,-5863.197847,1243.606358,1011.528195,11335.910718,16505.712748,-159.345586,2530.217472,-15504.823983,18491.709947,3321.245709,3049.292034,0.008000,-0.018000,1.000000,192.000000,0.000000,0.000000,0.000000,0.000000,0.000000,0.000000,0.000000,0.000000,0.000000,1775741107.434718,0.000000
250.000000,17070.228406,19414.501716,-11452.318603,310.845710,-11135.214404,-5900.324094,1204.267288,966.087099,11310.832061,16505.936266,-140.480714,2529.457513,-15498.923123,18498.191952,3022.604051,2658.740003,0.008000,-0.018000,1.000000,192.000000,0.000000,0.000000,0.000000,0.000000,0.000000,0.000000,0.000000,0.000000,0.000000,1775741107.434731,0.000000
252.000000,17092.356633,19436.227612,-11430.548004,324.972013,-11116.796567,-5889.125870,1221.724000,986.382483,11321.337381,16467.781838,-188.402854,2509.139777,-15541.614955,18465.625461,3556.900150,3362.730546,0.008000,-0.018000,1.000000,192.000000,0.000000,0.000000,0.000000,0.000000,0.000000,0.000000,0.000000,0.000000,0.000000,1775741107.434744,0.000000
254.000000,17114.909543,19450.510377,-11401.535440,345.110934,-11089.795660,-5878.441737,1237.437277,1012.131692,11334.033171,16511.904181,-128.231958,2535.492484,-15463.294442,18500.225961,3015.719714,2637.103514,0.008000,-0.018000,1.000000,192.000000,0.000000,0.000000,0.000000,0.000000,0.000000,0.000000,0.000000,0.000000,0.000000,1775741107.434755,0.000000
0.000000,17073.737630,19425.319961,-11462.198074,301.860309,-11147.239643,-5912.774016,1202.143872,967.048224,11315.145947,16481.416402,-169.985017,2515.912356,-15514.859917,18476.510760,3397.800433,3142.364698,0.004000,-0.016000,0.996000,192.000000,0.000000,16.000000,127.500000,64.000000,15.500000,16.000000,0.000000,0.000000,0.000000,1775741107.434767,0.000000
2.000000,17121.011570,19462.535615,-11397.288608,354.722185,-11087.247561,-5865.187152,1247.048527,1021.698239,11334.927241,16494.268655,-158.384461,2527.825836,-15512.222411,18481.852827,3320.530453,3052.220112,0.004000,-0.016000,0.996000,192.000000,0.000000,0.000000,0.000000,0.000000,0.000000,0.000000,0.000000,0.000000,0.000000,1775741107.434779,0.000000
4.000000,17092.669558,19434.908859,-11439.600460,320.836940,-11124.910250,-5892.836260,1215.867843,987.902401,11320.063331,16506.360949,-125.996783,2539.806371,-15464.322622,18500.315368,3017.798426,2647.877055,0.004000,-0.016000,0.996000,192.000000,0.000000,0.000000,0.000000,0.000000,0.000000,0.000000,0.000000,0.000000,0.000000,1775741107.434790,0.000000
6.000000,17104.605389,19449.862176,-11427.284649,338.025431,-11113.399102,-5881.056891,1230.351774,1000.173509,11337.140064,16484.836219,-174.656531,2525.948289,-15525.298181,18475.259063,3556.877799,3353.834552,0.004000,-0.016000,0.996000,192.000000,0.000000,0.000000,0.000000,0.000000,0.000000,0.000000,0.000000,0.000000,0.000000,1775741107.434802,0.000000
8.000000,17119.402244,19454.511339,-11401.446033,354.297501,-11086.755823,-5870.126888,1241.281777,1017.585518,11330.054561,16520.241382,-124.275699,2547.249502,-15465.037878,18508.540810,3017.239632,2641.730325,0.004000,-0.016000,0.996000,192.000000,0.000000,0.000000,0.000000,0.000000,0.000000,0.000000,0.000000,0.000000,0.000000,1775741107.434814,0.000000
10.000000,17074.095258,19424.336484,-11459.895844,305.168367,-11141.763466,-5910.628249,1202.836776,967.249390,11314.251878,16482.533989,-168.509801,2520.025077,-15504.309893,18474.342641,3393.397140,3135.145084,0.004000,-0.024000,1.000000,192.000000,0.000000,16.000000,127.500000,32.000000,15.500000,32.000000,0.000000,0.000000,0.000000,1775741107.434826,0.000000
12.000000,17122.509136,19461.529787,-11397.042739,353.850466,-11087.001692,-5871.043309,1245.238035,1018.546643,11329.875747,16501.287103,-159.703214,2530.217472,-15521.967771,18486.479638,3337.249558,3051.683670,0.004000,-0.024000,1.000000,192.000000,0.000000,0.000000,0.000000,0.000000,0.000000,0.000000,0.000000,0.000000,0.000000,1775741107.434837,0.000000
14.000000,17077.604482,19420.760205,-11447.177702,309.258736,-11134.208576,-5907.610763,1208.089436,975.050148,11303.388930,16499.566019,-136.926787,2531.670336,-15485.377966,18493.498086,3025.532129,2635.516540,0.004000,-0.024000,1.000000,192.000000,0.000000,0.000000,0.000000,0.000000,0.000000,0.000000,0.000000,0.000000,0.000000,1775741107.434849,0.000000
16.000000,17096.178782,19442.508452,-11433.945469,324.703792,-11122.965649,-5892.858612,1223.668602,989.556431,11319.169261,16472.676870,-187.955819,2513.855995,-15534.775321,18462.272699,3555.894322,3345.162075,0.004000,-0.024000,1.000000,192.000000,0.000000,0.000000,0.000000,0.000000,0.000000,0.000000,0.000000,0.000000,0.000000,1775741107.434861,0.000000
18.000000,17111.087395,19447.358781,-11406.475175,345.066231,-11099.116337,-5878.777013,1238.376050,1012.668134,11318.878689,16509.736062,-130.578891,2540.253406,-15473.799762,18499.533057,3011.338772,2629.481569,0.004000,-0.024000,1.000000,192.000000,0.000000,0.000000,0.000000,0.000000,0.000000,0.000000,0.000000,0.000000,0.000000,1775741107.434873,0.000000
20.000000,17078.632662,19430.058531,-11460.029955,306.956507,-11143.126922,-5899.966466,1205.742503,971.093890,11302.316046,16476.275501,-172.913095,2517.946365,-15512.133004,18468.687650,3376.275703,3115.050866,0.004000,-0.022000,1.000000,192.000000,0.000000,16.000000,127.500000,40.000000,15.500000,32.000000,0.000000,0.000000,0.000000,1775741107.434884,0.000000
22.000000,17119.871631,19462.468560,-11395.813393,355.213923,-11076.943407,-5858.146353,1244.299262,1017.585518,11333.094398,16505.466879,-153.467077,2538.532321,-15486.517905,18492.604016,3313.176729,3048.397964,0.004000,-0.022000,1.000000,192.000000,0.000000,0.000000,0.000000,0.000000,0.000000,0.000000,0.000000,0.000000,0.000000,1775741107.434896,0.000000
24.000000,17081.404278,19430.997304,-11439.935737,320.792236,-11116.818919,-5887.449490,1213.118579,980.079291,11300.706720,16508.394958,-133.931653,2537.057106,-15473.553893,18500.114203,3019.765379,2636.343555,0.004000,-0.022000,1.000000,192.000000,0.000000,0.000000,0.000000,0.000000,0.000000,0.000000,0.000000,0.000000,0.000000,1775741107.434907,0.000000
26.000000,17100.380909,19449.728066,-11424.222460,332.549254,-11105.464233,-5876.832411,1226.619032,994.496166,11323.147872,16485.774992,-181.205592,2522.863748,-15522.012475,18473.739144,3557.458944,3352.828724,0.004000,-0.022000,1.000000,192.000000,0.000000,0.000000,0.000000,0.000000,0.000000,0.000000,0.000000,0.000000,0.000000,1775741107.434921,0.000000
28.000000,17121.972695,19461.395676,-11391.030120,351.995272,-11080.609093,-5860.873265,1241.348832,1020.021858,11321.985581,16519.660237,-124.856845,2545.461362,-15460.232253,18508.741976,3024.191025,2640.165703,0.004000,-0.022000,1.000000,192.000000,0.000000,0.000000,0.000000,0.000000,0.000000,0.000000,0.000000,0.000000,0.000000,1775741107.434932,0.000000
30.000000,17081.538389,19438.574545,-11451.804513,307.828225,-11134.432093,-5903.408635,1205.921317,973.686692,11310.183860,16487.943111,-161.848982,2526.283565,-15493.826925,18480.578778,3391.720759,3114.134444,0.005000,-0.020000,1.001000,192.000000,0.000000,24.000000,127.500000,56.000000,15.500000,40.000000,0.000000,0.000000,0.000000,1775741107.434944,0.000000
32.000000,17127.784148,19467.117723,-11394.092309,356.666786,-11090.555619,-5864.538951,1244.925111,1018.926623,11325.852433,16506.517411,-153.712947,2538.264100,-15520.939591,18492.134630,3334.567348,3043.860560,0.005000,-0.020000,1.001000,192.000000,0.000000,0.000000,0.000000,0.000000,0.000000,0.000000,0.000000,0.000000,0.000000,1775741107.434956,0.000000
34.000000,17080.532560,19428.493908,-11444.204920,317.059495,-11135.080294,-5905.219126,1211.241032,974.781927,11296.951627,16509.199620,-134.758667,2537.370031,-15483.411012,18502.774060,3011.964621,2614.908232,0.005000,-0.020000,1.001000,192.000000,0.000000,0.000000,0.000000,0.000000,0.000000,0.000000,0.000000,0.000000,0.000000,1775741107.434967,0.000000
36.000000,17089.473258,19441.055589,-11436.828844,327.184835,-11129.201785,-5902.603972,1223.869768,984.549640,11308.976866,16477.281329,-189.431034,2516.135873,-15536.027019,18468.821760,3551.066345,3328.152398,0.005000,-0.020000,1.001000,192.000000,0.000000,0.000000,0.000000,0.000000,0.000000,0.000000,0.000000,0.000000,0.000000,1775741107.434979,0.000000
38.000000,17111.310913,19452.209109,-11407.883335,349.558932,-11099.876297,-5884.610818,1239.493637,1010.142387,11310.675598,16512.865306,-136.882083,2540.722792,-15484.081564,18499.823630,3008.813025,2620.138540,0.005000,-0.020000,1.001000,192.000000,0.000000,0.000000,0.000000,0.000000,0.000000,0.000000,0.000000,0.000000,0.000000,1775741107.434990,0.000000
40.000000,17076.956281,19429.030350,-11462.645109,309.057571,-11149.005431,-5905.844975,1206.323648,967.964645,11297.800994,16479.784725,-174.924752,2521.902623,-15523.018303,18472.576853,3364.250465,3098.510575,0.007500,-0.016000,1.003500,192.000000,0.000000,40.000000,127.500000,80.000000,15.500000,56.000000,0.000000,0.000000,0.000000,1775741107.435004,0.000000
42.000000,17123.045578,19464.703734,-11402.876544,355.772716,-11093.796622,-5860.605044,1243.874579,1016.266765,11331.216852,16503.119946,-161.290188,2536.990051,-15511.216582,18490.637063,3318.518796,3047.012156,0.007500,-0.016000,1.003500,192.000000,0.000000,0.000000,0.000000,0.000000,0.000000,0.000000,0.000000,0.000000,0.000000,1775741107.435021,0.000000
44.000000,17084.600578,19434.350066,-11445.143693,322.602728,-11129.000620,-5887.360083,1214.169111,981.621561,11303.455985,16515.033426,-132.948176,2546.690708,-15467.183646,18508.004368,2995.334923,2623.156026,0.007500,-0.016000,1.003500,192.000000,0.000000,0.000000,0.000000,0.000000,0.000000,0.000000,0.000000,0.000000,0.000000,1775741107.435037,0.000000
46.000000,17098.950398,19450.420970,-11432.649068,333.555083,-11115.343704,-5874.843106,1226.283756,992.395102,11314.006008,16489.865361,-186.122976,2526.238862,-15532.026056,18478.924749,3545.232540,3348.917168,0.007500,-0.016000,1.003500,192.000000,0.000000,0.000000,0.000000,0.000000,0.000000,0.000000,0.000000,0.000000,0.000000,1775741107.435053,0.000000
48.000000,17119.134023,19462.423857,-11399.657893,356.957359,-11085.012386,-5851.910216,1244.031041,1021.184149,11323.103168,16528.220955,-128.790752,2554.938502,-15449.995154,18513.502897,3016.837301,2647.385317,0.007500,-0.016000,1.003500,192.000000,0.000000,0.000000,0.000000,0.000000,0.000000,0.000000,0.000000,0.000000,0.000000,1775741107.435071,0.000000
50.000000,17076.151618,19436.026446,-11453.950280,313.483216,-11136.063771,-5893.640923,1209.452892,973.664340,11304.618276,16495.855629,-168.129822,2533.592586,-15502.633512,18485.473810,3372.654721,3106.065465,0.008750,-0.016000,1.003750,192.000000,0.000000,40.000000,127.500000,64.000000,15.500000,48.000000,0.000000,0.000000,0.000000,1775741107.435082,0.000000
52.000000,17120.251610,19466.737743,-11393.175887,359.550161,-11082.821915,-5864.471896,1249.171942,1020.178320,11327.081779,16514.966370,-158.742089,2543.650871,-15504.376948,18495.062708,3338.054220,3058.165676,0.008750,-0.016000,1.003750,192.000000,0.000000,0.000000,0.000000,0.000000,0.000000,0.000000,0.000000,0.000000,0.000000,1775741107.435094,0.000000
54.000000,17075.659880,19429.320923,-11444.607251,316.165425,-11130.252317,-5896.993684,1211.665715,974.021968,11300.527906,16511.412443,-138.089077,2539.269929,-15479.477105,18497.901380,3013.328077,2621.412590,0.008750,-0.016000,1.003750,192.000000,0.000000,0.000000,0.000000,0.000000,0.000000,0.000000,0.000000,0.000000,0.000000,1775741107.435107,0.000000
56.000000,17077.783296,19436.317019,-11440.181606,321.306327,-11123.747960,-5896.636056,1218.482997,976.592419,11300.751424,16478.622434,-198.885822,2514.727713,-15543.514853,18465.312536,3571.339377,3342.591625,0.008750,-0.016000,1.003750,192.000000,0.000000,0.000000,0.000000,0.000000,0.000000,0.000000,0.000000,0.000000,0.000000,1775741107.435118,0.000000
58.000000,17098.101032,19443.983667,-11411.437262,343.859237,-11094.802451,-5879.559324,1235.470323,1001.022875,11297.711587,16512.239458,-148.683804,2536.386554,-15484.640358,18500.270665,3043.100601,2638.399916,0.008750,-0.016000,1.003750,192.000000,0.000000,0.000000,0.000000,0.000000,0.000000,0.000000,0.000000,0.000000,0.000000,1775741107.435132,0.000000
60.000000,17056.705601,19417.139222,-11470.803496,304.363704,-11146.904367,-5909.778882,1202.993238,959.068651,11281.953607,16481.885789,-186.055921,2516.158225,-15527.488652,18473.426220,3388.949143,3104.456139,0.009375,-0.017000,1.003875,192.000000,0.000000,40.000000,127.500000,56.000000,15.500000,48.000000,0.000000,0.000000,0.000000,1775741107.435144,0.000000
62.000000,17095.105898,19443.156653,-11410.386730,352.308196,-11093.304884,-5868.763431,1242.175846,1002.967477,11299.477374,16501.309455,-179.573915,2527.356449,-15507.193268,18491.687595,3350.079459,3067.508706,0.009375,-0.017000,1.003875,192.000000,0.000000,0.000000,0.000000,0.000000,0.000000,0.000000,0.000000,0.000000,0.000000,1775741107.435156,0.000000
64.000000,17057.778485,19409.941961,-11452.229196,314.712562,-11133.918003,-5900.458205,1209.028209,965.438898,11274.979863,16504.751623,-153.780002,2531.022135,-15474.917349,18497.655511,3018.111350,2623.424247,0.009375,-0.017000,1.003875,192.000000,0.000000,0.000000,0.000000,0.000000,0.000000,0.000000,0.000000,0.000000,0.000000,1775741107.435168,0.000000
66.000000,17072.552988,19426.661065,-11442.752056,323.385039,-11127.994791,-5891.159879,1217.968907,975.810108,11290.804898,16474.666175,-204.674924,2510.927917,-15563.139685,18464.999612,3566.489049,3353.879256,0.009375,-0.017000,1.003875,192.000000,0.000000,0.000000,0.000000,0.000000,0.000000,0.000000,0.000000,0.000000,0.000000,1775741107.435179,0.000000
68.000000,17109.858049,19450.488025,-11405.044664,353.090507,-11096.702349,-5866.192981,1239.270120,1011.975230,11302.628970,16518.989684,-143.609958,2543.181484,-15483.589826,18505.836249,3038.607900,2659.924645,0.009375,-0.017000,1.003875,192.000000,0.000000,0.000000,0.000000,0.000000,0.000000,0.000000,0.000000,0.000000,0.000000,1775741107.435191,0.000000
70.000000,17079.862008,19430.416158,-11455.134923,311.784483,-11143.842178,-5899.161804,1209.698762,974.536058,11302.494860,16496.280312,-166.676958,2530.709211,-15519.687893,18484.177409,3376.834497,3116.146101,0.007688,-0.017500,1.003937,192.000000,0.000000,24.000000,127.500000,56.000000,15.500000,48.000000,0.000000,0.000000,0.000000,1775741107.435214,0.000000
72.000000,17120.788052,19458.132322,-11395.992207,355.884475,-11095.338892,-5863.443716,1247.540265,1022.637012,11329.719285,16509.736062,-154.383499,2543.136781,-15502.544105,18493.363976,3350.772363,3084.831308,0.007688,-0.017500,1.003937,192.000000,0.000000,0.000000,0.000000,0.000000,0.000000,0.000000,0.000000,0.000000,0.000000,1775741107.435226,0.000000
74.000000,17091.708433,19434.238307,-11433.431379,321.753361,-11129.514710,-5894.534993,1218.281832,989.310561,11309.401549,16512.932362,-125.862673,2547.070688,-15465.619024,18507.423223,3015.205624,2639.271634,0.007688,-0.017500,1.003937,192.000000,0.000000,0.000000,0.000000,0.000000,0.000000,0.000000,0.000000,0.000000,0.000000,1775741107.915050,0.000000
76.000000,17099.263322,19445.190662,-11426.614097,328.704754,-11125.245526,-5890.779899,1225.926128,993.266820,11322.387913,16491.787611,-177.964589,2530.530397,-15512.624742,18477.985976,3569.595941,3368.877276,0.007688,-0.017500,1.003937,192.000000,0.000000,0.000000,0.000000,0.000000,0.000000,0.000000,0.000000,0.000000,0.000000,1775741107.915119,0.000000
78.000000,17118.172898,19450.823301,-11393.600570,347.614330,-11098.915171,-5876.452431,1243.494599,1016.892614,11323.907831,16521.224859,-126.153246,2550.937539,-15463.383849,18507.691444,3044.866388,2674.520335,0.007688,-0.017500,1.003937,192.000000,0.000000,0.000000,0.000000,0.000000,0.000000,0.000000,0.000000,0.000000,0.000000,1775741107.915172,0.000000
80.000000,17072.083601,19424.694112,-11453.927929,301.212108,-11153.520483,-5914.897432,1206.860090,969.238695,11297.577476,16477.728364,-168.845078,2521.723809,-15523.845318,18469.715830,3384.322331,3110.893442,0.007844,-0.016750,1.000969,192.000000,0.000000,32.000000,127.500000,64.000000,15.500000,24.000000,0.000000,0.000000,0.000000,1775741107.915234,0.000000
82.000000,17122.710302,19463.496740,-11394.561695,349.916559,-11096.970570,-5873.926684,1247.160285,1021.698239,11319.795110,16503.343463,-157.691557,2539.180522,-15510.680140,18484.780906,3364.161058,3083.400796,0.007844,-0.016750,1.000969,192.000000,0.000000,0.000000,0.000000,0.000000,0.000000,0.000000,0.000000,0.000000,0.000000,1775741107.915288,0.000000
84.000000,17090.769659,19436.294667,-11437.588803,316.701867,-11133.046285,-5904.973257,1218.706515,989.690541,11306.182898,16515.815737,-127.449647,2549.439973,-15478.448925,18497.677862,3020.257118,2628.051058,0.007844,-0.016750,1.000969,192.000000,0.000000,0.000000,0.000000,0.000000,0.000000,0.000000,0.000000,0.000000,0.000000,1775741107.915317,0.000000
86.000000,17099.330377,19450.555080,-11430.659763,330.850521,-11124.351457,-5892.903315,1231.536416,999.078274,11315.302410,16488.613664,-180.065653,2534.151379,-15526.706341,18470.319327,3569.864162,3365.278645,0.007844,-0.016750,1.000969,192.000000,0.000000,0.000000,0.000000,0.000000,0.000000,0.000000,0.000000,0.000000,0.000000,1775741107.915342,0.000000
88.000000,17119.044616,19457.506473,-11396.752166,352.934045,-11095.562410,-5877.100632,1246.266216,1020.804169,11309.625066,16521.895411,-131.249443,2554.178542,-15475.789067,18503.690482,3052.465982,2675.056776,0.007844,-0.016750,1.000969,192.000000,0.000000,0.000000,0.000000,0.000000,0.000000,0.000000,0.000000,0.000000,0.000000,1775741107.915359,0.000000
90.000000,17077.738592,19428.359798,-11455.470199,303.335524,-11149.005431,-5916.462054,1206.815387,971.384462,11297.979808,16487.361966,-166.006406,2528.138760,-15515.105786,18476.756630,3386.557506,3105.886651,0.007922,-0.017375,1.001484,192.000000,0.000000,32.000000,127.500000,56.000000,15.500000,40.000000,0.000000,0.000000,0.000000,1775741107.915382,0.000000
92.000000,17132.433311,19471.252796,-11392.237114,358.320815,-11096.523535,-5864.941283,1249.373108,1028.828446,11327.305296,16504.125774,-153.735298,2541.035717,-15504.041672,18486.457287,3362.350567,3091.358017,0.007922,-0.017375,1.001484,192.000000,0.000000,0.000000,0.000000,0.000000,0.000000,0.000000,0.000000,0.000000,0.000000,1775741107.915395,0.000000
94.000000,17100.827944,19445.056551,-11431.285612,324.972013,-11130.766407,-5891.293990,1220.919337,996.641934,11308.306314,16513.424100,-119.693592,2553.955025,-15473.218617,18503.444612,3009.215356,2639.293985,0.007922,-0.017375,1.001484,192.000000,0.000000,0.000000,0.000000,0.000000,0.000000,0.000000,0.000000,0.000000,0.000000,1775741107.915408,0.000000
96.000000,17109.321607,19459.339316,-11425.630620,336.058478,-11119.746997,-5874.440774,1228.653041,1001.939297,11321.672657,16493.352234,-172.175488,2536.185388,-15523.733559,18475.750801,3574.379215,3369.413718,0.007922,-0.017375,1.001484,192.000000,0.000000,0.000000,0.000000,0.000000,0.000000,0.000000,0.000000,0.000000,0.000000,1775741107.915420,0.000000
98.000000,17128.834680,19466.380115,-11392.594742,358.633740,-11091.114413,-5856.693489,1244.433373,1024.313393,11321.829119,16531.529013,-120.498254,2559.811182,-15453.191454,18515.492203,3051.080173,2681.382320,0.007922,-0.017375,1.001484,192.000000,0.000000,0.000000,0.000000,0.000000,0.000000,0.000000,0.000000,0.000000,0.000000,1775741107.915431,0.000000
100.000000,17086.232255,19436.562888,-11451.335126,310.644544,-11142.434018,-5900.011170,1208.312954,974.536058,11302.092529,16486.534952,-162.184258,2528.541092,-15515.575172,18476.957795,3373.302921,3108.680619,0.008961,-0.016688,0.997742,192.000000,0.000000,40.000000,127.500000,64.000000,15.500000,8.000000,0.000000,0.000000,0.000000,1775741107.915443,0.000000
102.000000,17127.605334,19465.955432,-11393.242942,356.599731,-11094.109546,-5867.399975,1248.613149,1022.882882,11327.729979,16505.310417,-153.064746,2543.807333,-15507.260323,18485.540865,3361.210628,3096.677732,0.008961,-0.016688,0.997742,192.000000,0.000000,0.000000,0.000000,0.000000,0.000000,0.000000,0.000000,0.000000,0.000000,1775741107.915454,0.000000
104.000000,17092.222523,19438.641600,-11435.733609,320.635774,-11134.901480,-5903.654504,1219.086494,989.757596,11295.007026,16505.533934,-129.528359,2544.142609,-15481.578169,18491.955816,3008.701266,2628.363982,0.008961,-0.016688,0.997742,192.000000,0.000000,0.000000,0.000000,0.000000,0.000000,0.000000,0.000000,0.000000,0.000000,1775741107.915467,0.000000
106.000000,17096.536409,19448.141092,-11431.352667,325.195530,-11131.571070,-5902.738083,1228.474227,995.211422,11307.881630,16481.751678,-180.020950,2527.736429,-15539.536242,18460.082228,3565.773793,3357.008500,0.008961,-0.016688,0.997742,192.000000,0.000000,0.000000,0.000000,0.000000,0.000000,0.000000,0.000000,0.000000,0.000000,1775741107.915478,0.000000
108.000000,17112.875535,19454.556042,-11399.009693,347.457868,-11100.636256,-5891.092824,1245.193332,1020.871225,11305.378235,16511.993588,-130.668298,2550.401098,-15479.968843,18491.955816,3037.490313,2658.404727,0.008961,-0.016688,0.997742,192.000000,0.000000,0.000000,0.000000,0.000000,0.000000,0.000000,0.000000,0.000000,0.000000,1775741107.915491,0.000000
110.000000,17079.191456,19434.037141,-11450.105780,308.856405,-11142.992812,-5920.842996,1214.862015,981.420396,11287.228619,16483.673928,-164.575894,2530.843321,-15520.649018,18465.513702,3365.233942,3076.136479,0.008961,-0.016688,0.997742,192.000000,0.000000,0.000000,0.000000,0.000000,0.000000,0.000000,0.000000,0.000000,0.000000,1775741107.915503,0.000000
112.000000,17128.857032,19471.744534,-11393.175887,356.510324,-11097.886991,-5877.368853,1253.508181,1033.119980,11320.376256,16508.305551,-151.366013,2549.149400,-15498.833716,18481.808124,3363.557561,3077.678749,0.010000,-0.014000,1.000000,192.000000,0.000000,40.000000,127.500000,72.000000,15.500000,32.000000,0.000000,0.000000,0.000000,1775741107.915515,0.000000
114.000000,17098.570418,19446.665877,-11431.777350,326.357821,-11128.754750,-5901.419330,1224.249747,1000.195861,11299.723244,16518.587353,-118.978336,2558.715947,-15474.783239,18497.119069,3004.655600,2611.533119,0.010000,-0.014000,1.000000,192.000000,0.000000,0.000000,0.000000,0.000000,0.000000,0.000000,0.000000,0.000000,0.000000,1775741107.915526,0.000000
116.000000,17111.109747,19463.899072,-11425.071827,335.387926,-11121.378675,-5893.819737,1232.855169,1006.342591,11312.508442,16497.308492,-170.789679,2542.309766,-15533.389513,18473.090943,3568.813630,3358.036680,0.010000,-0.014000,1.000000,192.000000,0.000000,0.000000,0.000000,0.000000,0.000000,0.000000,0.000000,0.000000,0.000000,1775741107.915538,0.000000
118.000000,17135.964887,19479.187665,-11385.665701,362.724109,-11091.226171,-5869.568094,1253.016442,1034.885768,11317.403474,16533.428911,-116.363182,2565.957912,-15462.556835,18509.032549,3048.576778,2672.128698,0.010000,-0.014000,1.000000,192.000000,0.000000,0.000000,0.000000,0.000000,0.000000,0.000000,0.000000,0.000000,0.000000,1775741107.915550,0.000000
120.000000,17087.215732,19448.454016,-11446.484798,316.523053,-11140.444713,-5904.146243,1215.487863,984.929619,11297.219848,16501.957655,-150.986034,2546.400135,-15519.017341,18484.266816,3367.223247,3089.078139,0.010000,-0.014000,1.000000,192.000000,0.000000,0.000000,0.000000,0.000000,0.000000,0.000000,0.000000,0.000000,0.000000,1775741107.915561,0.000000
122.000000,17124.900773,19475.544331,-11391.611265,362.008853,-11089.326273,-5869.501039,1252.457649,1027.554396,11309.535659,16517.425062,-154.137630,2551.563388,-15514.390530,18486.077307,3370.978340,3101.483357,0.008000,-0.010000,1.002000,192.000000,0.000000,32.000000,127.500000,88.000000,15.500000,40.000000,0.000000,0.000000,0.000000,1775741107.915575,0.000000
124.000000,17093.742441,19446.420008,-11433.006696,327.944795,-11124.686733,-5895.093786,1221.880462,990.562259,11295.565819,16522.901240,-122.845188,2556.123144,-15455.806608,18499.935389,3008.835376,2622.798398,0.008000,-0.010000,1.002000,192.000000,0.000000,0.000000,0.000000,0.000000,0.000000,0.000000,0.000000,0.000000,0.000000,1775741107.915586,0.000000
126.000000,17099.397433,19454.466636,-11430.682114,331.275205,-11125.804320,-5893.976199,1227.401343,992.775082,11305.825270,16491.832315,-179.976246,2529.926900,-15545.057123,18468.955871,3566.846677,3368.743166,0.008000,-0.010000,1.002000,192.000000,0.000000,0.000000,0.000000,0.000000,0.000000,0.000000,0.000000,0.000000,0.000000,1775741107.915598,0.000000
128.000000,17129.728750,19474.851426,-11394.069957,357.180876,-11094.981264,-5873.300835,1248.836666,1027.621451,11304.931200,16526.388112,-126.421467,2555.184371,-15478.493628,18499.264836,3048.174447,2679.884753,0.008000,-0.010000,1.002000,192.000000,0.000000,0.000000,0.000000,0.000000,0.000000,0.000000,0.000000,0.000000,0.000000,1775741107.915610,0.000000
130.000000,17087.685119,19443.603688,-11452.139789,306.531823,-11146.636146,-5915.590336,1211.688067,981.129823,11294.850563,16494.626283,-156.082232,2535.961871,-15515.843393,18471.951004,3353.946311,3084.272514,0.008000,-0.010000,1.002000,192.000000,0.000000,0.000000,0.000000,0.000000,0.000000,0.000000,0.000000,0.000000,0.000000,1775741107.915622,0.000000
132.000000,17133.372084,19477.220711,-11388.057338,356.286807,-11090.466212,-5874.507829,1254.536361,1031.778876,11319.057503,16508.439661,-148.415583,2544.343775,-15492.463469,18476.622519,3372.207686,3091.402720,0.006000,-0.012000,1.000000,192.000000,0.000000,24.000000,127.500000,80.000000,15.500000,32.000000,0.000000,0.000000,0.000000,1775741107.915633,0.000000
134.000000,17102.772546,19449.638659,-11426.547042,324.279109,-11122.272744,-5906.739045,1225.166169,996.105492,11307.032264,16520.241382,-113.837435,2551.429278,-15473.196265,18495.733261,3006.242574,2607.107473,0.006000,-0.012000,1.000000,192.000000,0.000000,0.000000,0.000000,0.000000,0.000000,0.000000,0.000000,0.000000,0.000000,1775741107.915645,0.000000
136.000000,17115.714206,19466.514226,-11418.142786,335.276167,-11114.784910,-5893.775033,1235.157399,1005.359114,11317.559936,16489.686547,-168.532153,2530.932728,-15522.638324,18464.083190,3575.049767,3353.342814,0.006000,-0.012000,1.000000,192.000000,0.000000,0.000000,0.000000,0.000000,0.000000,0.000000,0.000000,0.000000,0.000000,1775741107.915657,0.000000
138.000000,17144.682067,19486.340223,-11379.988358,364.624007,-11080.698500,-5869.322225,1256.860942,1038.842027,11327.148834,16536.558156,-108.003629,2565.510877,-15457.907672,18506.931485,3058.836229,2673.849782,0.006000,-0.012000,1.000000,192.000000,0.000000,0.000000,0.000000,0.000000,0.000000,0.000000,0.000000,0.000000,0.000000,1775741107.915668,0.000000
140.000000,17099.240971,19457.238252,-11444.696658,316.344239,-11137.561338,-5913.668086,1216.717209,987.477718,11307.680465,16505.802155,-146.426278,2543.248539,-15502.007663,18478.120086,3362.685843,3078.125784,0.006000,-0.012000,1.000000,192.000000,0.000000,0.000000,0.000000,0.000000,0.000000,0.000000,0.000000,0.000000,0.000000,1775741107.915680,0.000000
142.000000,17142.066913,19486.295520,-11387.833820,364.601656,-11093.506049,-5876.295969,1256.592722,1038.171475,11331.730942,16518.363836,-141.531246,2551.496333,-15496.755004,18486.166714,3375.627503,3102.556241,0.008000,-0.014000,1.000000,192.000000,0.000000,32.000000,127.500000,72.000000,15.500000,32.000000,0.000000,0.000000,0.000000,1775741107.915691,0.000000
144.000000,17104.627741,19453.594917,-11428.424588,329.978803,-11126.206651,-5906.627286,1228.384820,1005.090893,11307.479299,16522.990647,-111.959888,2554.871446,-15461.752172,18492.045223,3000.811100,2610.639049,0.008000,-0.014000,1.000000,192.000000,0.000000,0.000000,0.000000,0.000000,0.000000,0.000000,0.000000,0.000000,0.000000,1775741107.915703,0.000000
146.000000,17101.520848,19454.556042,-11428.737513,332.079867,-11128.285364,-5905.643810,1232.631651,1001.156986,11319.482186,16489.373623,-166.833421,2531.245653,-15530.394379,18457.690592,3568.344244,3359.422488,0.008000,-0.014000,1.000000,192.000000,0.000000,0.000000,0.000000,0.000000,0.000000,0.000000,0.000000,0.000000,0.000000,1775741107.915715,0.000000
148.000000,17127.068892,19471.342203,-11392.706501,357.806725,-11099.317503,-5883.247362,1251.317710,1029.677812,11308.999218,16518.900277,-123.649850,2546.556598,-15463.137980,18486.412583,3052.711851,2684.332750,0.008000,-0.014000,1.000000,192.000000,0.000000,0.000000,0.000000,0.000000,0.000000,0.000000,0.000000,0.000000,0.000000,1775741107.915727,0.000000
150.000000,17090.501438,19453.103179,-11450.575167,313.572623,-11145.295041,-5914.964487,1213.655020,984.214364,11297.778642,16495.520353,-152.282435,2532.765571,-15510.568382,18467.748877,3355.309767,3079.556296,0.008000,-0.014000,1.000000,192.000000,0.000000,0.000000,0.000000,0.000000,0.000000,0.000000,0.000000,0.000000,0.000000,1775741107.915739,0.000000
152.000000,17149.733561,19502.902866,-11387.185620,365.696891,-11087.582837,-5865.813001,1254.625768,1039.579635,11333.988468,16525.024655,-141.397135,2552.300996,-15505.159259,18484.803258,3377.125070,3106.914831,0.006000,-0.020000,0.998000,192.000000,0.000000,24.000000,127.500000,48.000000,15.500000,24.000000,0.000000,0.000000,0.000000,1775741107.915751,0.000000
154.000000,17118.619933,19474.806723,-11425.228289,330.649356,-11121.624544,-5897.485423,1224.450913,1008.086027,11315.101244,16537.943964,-106.684876,2560.839362,-15460.232253,18506.976188,3000.408769,2611.421360,0.006000,-0.020000,0.998000,192.000000,0.000000,0.000000,0.000000,0.000000,0.000000,0.000000,0.000000,0.000000,0.000000,1775741107.915764,0.000000
156.000000,17117.167070,19477.421877,-11423.574260,332.236330,-11120.909288,-5898.401844,1231.447009,1011.483492,11322.030285,16502.359987,-162.161906,2536.543016,-15521.766606,18466.921862,3577.575514,3362.954064,0.006000,-0.020000,0.998000,192.000000,0.000000,0.000000,0.000000,0.000000,0.000000,0.000000,0.000000,0.000000,0.000000,1775741107.915775,0.000000
158.000000,17137.015419,19486.295520,-11382.894085,361.114783,-11084.364186,-5875.111327,1256.592722,1040.853684,11327.081779,16534.524147,-109.188272,2561.107583,-15458.712334,18501.209438,3058.456249,2684.220992,0.006000,-0.020000,0.998000,192.000000,0.000000,0.000000,0.000000,0.000000,0.000000,0.000000,0.000000,0.000000,0.000000,1775741107.915787,0.000000
160.000000,17087.349842,19450.845653,-11445.188397,313.974954,-11142.188149,-5911.008228,1217.164244,985.130785,11304.931200,16502.494097,-146.493333,2539.001708,-15501.650036,18476.041374,3357.589645,3065.832325,0.006000,-0.020000,0.998000,192.000000,0.000000,0.000000,0.000000,0.000000,0.000000,0.000000,0.000000,0.000000,0.000000,1775741107.915798,0.000000
162.000000,17124.587849,19476.393697,-11391.812431,358.007891,-11095.852983,-5876.363024,1252.122373,1026.146236,11323.192575,16514.631094,-148.437935,2545.327252,-15500.241876,18480.779944,3383.450613,3108.770026,0.002000,-0.016000,1.002000,192.000000,0.000000,8.000000,127.500000,64.000000,15.500000,40.000000,0.000000,0.000000,0.000000,1775741107.915810,0.000000
164.000000,17095.821154,19452.320868,-11427.552870,327.140132,-11125.647858,-5903.207469,1223.758009,993.602096,11297.331607,16520.241382,-119.626536,2547.741240,-15463.249739,18492.983996,3006.488443,2605.319334,0.002000,-0.016000,1.002000,192.000000,0.000000,0.000000,0.000000,0.000000,0.000000,0.000000,0.000000,0.000000,0.000000,1775741107.915821,0.000000
166.000000,17103.264285,19464.927252,-11427.284649,330.627004,-11123.837367,-5898.066568,1228.451875,999.480605,11304.953552,16492.480516,-175.438842,2528.116408,-15519.732597,18459.389324,3578.268418,3363.445802,0.002000,-0.016000,1.002000,192.000000,0.000000,0.000000,0.000000,0.000000,0.000000,0.000000,0.000000,0.000000,0.000000,1775741107.915832,0.000000
168.000000,17124.811366,19473.443267,-11390.627788,354.990405,-11093.193125,-5882.800327,1251.407117,1032.360021,11316.107072,16529.897336,-119.872406,2550.781077,-15465.864893,18494.012176,3059.953816,2689.428948,0.002000,-0.016000,1.002000,192.000000,0.000000,0.000000,0.000000,0.000000,0.000000,0.000000,0.000000,0.000000,0.000000,1775741107.915843,0.000000
170.000000,17074.184665,19436.585240,-11454.240853,303.581393,-11149.810094,-5924.933365,1213.453855,978.313503,11282.221828,16490.446507,-162.385423,2522.349658,-15514.345826,18457.422371,3346.681994,3063.619502,0.002000,-0.016000,1.002000,192.000000,0.000000,0.000000,0.000000,0.000000,0.000000,0.000000,0.000000,0.000000,0.000000,1775741107.915855,0.000000
172.000000,17122.978523,19475.901958,-11392.773556,352.330548,-11093.997788,-5883.515583,1252.100021,1025.207463,11315.257706,16507.702054,-156.261045,2532.810275,-15513.228239,18467.257138,3380.880163,3108.546508,0.004000,-0.012000,0.998000,192.000000,0.000000,16.000000,127.500000,80.000000,15.500000,24.000000,0.000000,0.000000,0.000000,1775741107.915867,0.000000
174.000000,17093.876552,19449.996287,-11428.558699,318.333545,-11123.949125,-5911.701132,1220.874634,990.204631,11293.509459,16522.208336,-123.761609,2540.566330,-15472.637471,18485.786734,2993.882059,2599.127900,0.004000,-0.012000,0.998000,192.000000,0.000000,0.000000,0.000000,0.000000,0.000000,0.000000,0.000000,0.000000,0.000000,1775741107.915879,0.000000
176.000000,17104.001892,19461.418028,-11422.903707,326.201359,-11121.199861,-5904.168594,1228.295413,996.485471,11313.223697,16496.772050,-174.030682,2523.780170,-15526.527527,18457.489426,3574.021587,3355.019194,0.004000,-0.012000,0.998000,192.000000,0.000000,0.000000,0.000000,0.000000,0.000000,0.000000,0.000000,0.000000,0.000000,1775741107.915891,0.000000
178.000000,17135.584907,19479.679403,-11383.207009,359.281940,-11085.615884,-5873.390242,1252.055317,1033.499960,11319.772758,16539.553289,-117.190196,2551.697499,-15456.253643,18497.208476,3062.926598,2686.120890,0.004000,-0.012000,0.998000,192.000000,0.000000,0.000000,0.000000,0.000000,0.000000,0.000000,0.000000,0.000000,0.000000,1775741107.915902,0.000000
180.000000,17089.450906,19450.286859,-11449.077600,310.733951,-11139.908271,-5911.902298,1210.481073,985.130785,11305.892325,16510.048987,-149.220246,2534.777228,-15505.315722,18472.599205,3348.358375,3059.730298,0.004000,-0.012000,0.998000,192.000000,0.000000,0.000000,0.000000,0.000000,0.000000,0.000000,0.000000,0.000000,0.000000,1775741107.915914,0.000000
182.000000,17135.182576,19488.553046,-11388.213800,361.293597,-11078.038642,-5866.662367,1254.737527,1035.891597,11327.350000,16526.231650,-148.214417,2545.953100,-15499.660730,18481.830476,3388.971494,3115.900232,0.006000,-0.013000,0.998000,192.000000,0.000000,32.000000,127.500000,72.000000,15.500000,24.000000,0.000000,0.000000,0.000000,1775741107.915925,0.000000
184.000000,17101.923180,19461.440380,-11426.949373,329.889396,-11119.322314,-5893.327998,1226.015535,1000.374675,11304.528869,16540.335600,-115.893795,2555.966682,-15451.649183,18500.158906,2996.072530,2600.558412,0.006000,-0.013000,0.998000,192.000000,0.000000,0.000000,0.000000,0.000000,0.000000,0.000000,0.000000,0.000000,0.000000,1775741107.915936,0.000000
186.000000,17107.868744,19472.683307,-11426.614097,334.583263,-11117.936506,-5892.478632,1230.240015,1001.492262,11314.274229,16511.144222,-172.868392,2533.637289,-15530.260268,18463.680859,3571.965226,3364.228113,0.006000,-0.013000,0.998000,192.000000,0.000000,0.000000,0.000000,0.000000,0.000000,0.000000,0.000000,0.000000,0.000000,1775741107.915950,0.000000
188.000000,17139.921145,19490.341185,-11386.939751,361.897094,-11083.179543,-5873.189077,1250.267178,1035.332803,11319.973924,16546.571737,-117.503121,2561.576970,-15465.842541,18498.281359,3064.714738,2695.262753,0.006000,-0.013000,0.998000,192.000000,0.000000,0.000000,0.000000,0.000000,0.000000,0.000000,0.000000,0.000000,0.000000,1775741107.915961,0.000000
190.000000,17099.151564,19463.206168,-11445.523673,315.785446,-11136.756675,-5909.287144,1213.252689,989.869355,11305.087662,16519.771996,-146.091002,2544.276720,-15499.191344,18471.526321,3339.440029,3055.617578,0.006000,-0.013000,0.998000,192.000000,0.000000,0.000000,0.000000,0.000000,0.000000,0.000000,0.000000,0.000000,0.000000,1775741107.915973,0.000000
192.000000,17144.391494,19499.147773,-11387.207971,357.404394,-11087.202857,-5881.459222,1250.960082,1038.663213,11329.898099,16533.808891,-143.118220,2554.670281,-15482.382832,18476.197836,3385.462270,3122.650459,0.007000,-0.011500,0.999000,192.000000,0.000000,32.000000,127.500000,88.000000,15.500000,32.000000,0.000000,0.000000,0.000000,1775741107.915985,0.000000
194.000000,17107.756985,19467.743572,-11427.284649,324.055591,-11125.737265,-5913.310458,1225.300279,1010.075332,11309.423901,16541.542595,-108.428312,2564.460345,-15466.535445,18489.184199,2994.776129,2591.573011,0.007000,-0.011500,0.999000,192.000000,0.000000,0.000000,0.000000,0.000000,0.000000,0.000000,0.000000,0.000000,0.000000,1775741108.397104,0.000000
196.000000,17106.751157,19469.934043,-11427.686981,324.256757,-11128.464178,-5911.991705,1230.396477,1009.047152,11310.519136,16502.091766,-170.923790,2536.319499,-15532.920126,18445.620650,3567.092546,3352.605206,0.007000,-0.011500,0.999000,192.000000,0.000000,0.000000,0.000000,0.000000,0.000000,0.000000,0.000000,0.000000,0.000000,1775741108.397176,0.000000
198.000000,17137.440102,19488.910674,-11384.592817,354.051632,-11091.494392,-5886.488365,1250.937730,1035.176341,11314.117767,16535.775845,-120.654717,2554.938502,-15474.023279,18478.187141,3068.648645,2685.539745,0.007000,-0.011500,0.999000,192.000000,0.000000,0.000000,0.000000,0.000000,0.000000,0.000000,0.000000,0.000000,0.000000,1775741108.397235,0.000000
200.000000,17096.603465,19465.955432,-11445.702487,311.717428,-11143.484550,-5917.557289,1211.933936,985.242544,11298.136270,16514.340522,-149.577874,2541.460400,-15504.779280,18467.279490,3342.166941,3038.697307,0.007000,-0.011500,0.999000,192.000000,0.000000,0.000000,0.000000,0.000000,0.000000,0.000000,0.000000,0.000000,0.000000,1775741108.397296,0.000000
202.000000,17140.658753,19496.376156,-11388.571428,358.276112,-11093.796622,-5883.403824,1248.479038,1028.180245,11327.193538,16531.149033,-149.309653,2550.602263,-15468.837675,18478.321252,3394.894707,3113.955631,0.007500,-0.012750,1.000500,192.000000,0.000000,32.000000,127.500000,72.000000,15.500000,40.000000,0.000000,0.000000,0.000000,1775741108.397354,0.000000
204.000000,17111.154450,19468.659993,-11422.523728,328.213016,-11120.708122,-5912.081112,1223.422733,999.949992,11310.250915,16542.883699,-111.781074,2559.162981,-15477.688966,18492.045223,2993.166803,2587.482642,0.007500,-0.012750,1.000500,192.000000,0.000000,0.000000,0.000000,0.000000,0.000000,0.000000,0.000000,0.000000,0.000000,1775741108.397380,0.000000
206.000000,17114.551915,19474.203226,-11423.663667,329.934100,-11122.697428,-5908.035446,1230.150608,1005.046189,11318.878689,16503.321112,-164.754708,2534.821932,-15532.763664,18455.254251,3570.422956,3352.962834,0.007500,-0.012750,1.000500,192.000000,0.000000,0.000000,0.000000,0.000000,0.000000,0.000000,0.000000,0.000000,0.000000,1775741108.397407,0.000000
208.000000,17129.125253,19478.673575,-11391.767727,356.666786,-11094.020139,-5887.047158,1249.015480,1029.297832,11312.709607,16534.188871,-117.927804,2556.480772,-15474.000928,18485.071478,3068.268665,2696.782672,0.007500,-0.012750,1.000500,192.000000,0.000000,0.000000,0.000000,0.000000,0.000000,0.000000,0.000000,0.000000,0.000000,1775741108.397433,0.000000
210.000000,17081.180761,19447.850519,-11455.224330,308.565832,-11151.218254,-5923.994592,1207.687105,972.278532,11279.919598,16500.035405,-159.502048,2534.039621,-15506.835640,18456.550653,3331.438104,3044.307595,0.007500,-0.012750,1.000500,192.000000,0.000000,0.000000,0.000000,0.000000,0.000000,0.000000,0.000000,0.000000,0.000000,1775741108.397459,0.000000
212.000000,17129.773453,19484.686194,-11393.309998,357.337339,-11099.183392,-5880.453394,1249.686032,1019.977155,11316.151776,16521.917763,-155.992825,2546.757763,-15517.877402,18469.648775,3392.659532,3125.489131,0.006750,-0.012375,1.000250,192.000000,0.000000,24.000000,127.500000,80.000000,15.500000,32.000000,0.000000,0.000000,0.000000,1775741108.397485,0.000000
214.000000,17098.324549,19454.488987,-11428.871623,322.267452,-11126.832500,-5911.611725,1221.701648,988.640009,11294.537639,16532.065455,-120.341792,2551.831609,-15471.765753,18485.674976,2988.249420,2590.857755,0.006750,-0.012375,1.000250,192.000000,0.000000,0.000000,0.000000,0.000000,0.000000,0.000000,0.000000,0.000000,0.000000,1775741108.397511,0.000000
216.000000,17103.666616,19463.563796,-11430.011562,321.820417,-11129.805282,-5910.047103,1225.255576,989.645838,11299.142098,16495.296835,-178.255162,2525.188330,-15535.155301,18444.771283,3572.635779,3352.091116,0.006750,-0.012375,1.000250,192.000000,0.000000,0.000000,0.000000,0.000000,0.000000,0.000000,0.000000,0.000000,0.000000,1775741108.397537,0.000000
218.000000,17141.306954,19488.016604,-11388.638483,354.588074,-11095.227134,-5889.438795,1249.998957,1029.275480,11313.067235,16538.905089,-120.855882,2558.313615,-15462.735648,18482.098696,3066.704043,2690.323018,0.006750,-0.012375,1.000250,192.000000,0.000000,0.000000,0.000000,0.000000,0.000000,0.000000,0.000000,0.000000,0.000000,1775741108.397573,0.000000
220.000000,17096.290540,19456.657106,-11450.821036,303.983725,-11147.910195,-5930.431894,1210.838701,982.090948,11294.716453,16507.880867,-150.047261,2540.521627,-15517.855050,18452.840263,3329.940537,3025.018039,0.006750,-0.012375,1.000250,192.000000,0.000000,0.000000,0.000000,0.000000,0.000000,0.000000,0.000000,0.000000,0.000000,1775741108.397599,0.000000
222.000000,17147.230166,19498.477220,-11393.220591,356.711490,-11097.842288,-5880.811021,1254.625768,1036.405687,11324.488977,16530.389074,-145.398098,2553.843266,-15507.640303,18464.239653,3389.552640,3118.582442,0.010375,-0.010188,1.000125,192.000000,0.000000,56.000000,127.500000,96.000000,15.500000,32.000000,0.000000,0.000000,0.000000,1775741108.397625,0.000000
224.000000,17104.985369,19456.344182,-11430.369190,318.042972,-11124.619678,-5922.184100,1221.075800,992.395102,11293.755328,16533.250097,-116.765513,2555.005557,-15471.206960,18475.303766,2986.193059,2582.207630,0.010375,-0.010188,1.000125,192.000000,0.000000,0.000000,0.000000,0.000000,0.000000,0.000000,0.000000,0.000000,0.000000,1775741108.397651,0.000000
226.000000,17116.071834,19469.688173,-11429.095141,323.049763,-11129.224137,-5915.813853,1225.032058,995.569050,11305.087662,16497.017920,-174.209496,2529.770437,-15531.288449,18436.076455,3583.945761,3347.441953,0.010375,-0.010188,1.000125,192.000000,0.000000,0.000000,0.000000,0.000000,0.000000,0.000000,0.000000,0.000000,0.000000,1775741108.397676,0.000000
228.000000,17149.822968,19491.503476,-11385.866867,355.102164,-11092.433166,-5889.304684,1248.568445,1031.376544,11320.108035,16534.904127,-117.346658,2559.118278,-15467.585977,18469.648775,3081.947932,2697.185003,0.010375,-0.010188,1.000125,192.000000,0.000000,0.000000,0.000000,0.000000,0.000000,0.000000,0.000000,0.000000,0.000000,1775741108.397702,0.000000
230.000000,17110.081567,19467.385944,-11447.356516,306.330658,-11145.339745,-5927.637926,1208.916451,983.521460,11305.937029,16511.971237,-140.413659,2546.869522,-15502.812326,18451.163882,3330.208758,3030.471865,0.010375,-0.010188,1.000125,192.000000,0.000000,0.000000,0.000000,0.000000,0.000000,0.000000,0.000000,0.000000,0.000000,1775741108.397728,0.000000
232.000000,17152.974564,19499.483049,-11391.097175,353.090507,-11100.457442,-5893.126833,1247.987300,1032.248262,11329.696933,16522.096577,-142.402964,2551.809257,-15493.469297,18455.075437,3404.796529,3127.321974,0.009188,-0.009094,0.999062,192.000000,0.000000,32.000000,127.500000,96.000000,15.500000,24.000000,0.000000,0.000000,0.000000,1775741108.397754,0.000000
234.000000,17120.251610,19470.671650,-11429.676286,325.463751,-11129.782931,-5919.479539,1222.752180,1003.168643,11302.248991,16532.736007,-108.473016,2563.678034,-15468.703564,18472.286281,2987.020074,2583.548735,0.009188,-0.009094,0.999062,192.000000,0.000000,0.000000,0.000000,0.000000,0.000000,0.000000,0.000000,0.000000,0.000000,1775741108.397780,0.000000
236.000000,17125.548974,19480.729935,-11433.230213,328.078905,-11133.046285,-5914.919783,1225.479093,1001.738131,11310.496785,16499.498963,-168.800374,2543.136781,-15536.675219,18436.434083,3569.350072,3350.325328,0.009188,-0.009094,0.999062,192.000000,0.000000,0.000000,0.000000,0.000000,0.000000,0.000000,0.000000,0.000000,0.000000,1775741108.397805,0.000000
238.000000,17152.438122,19497.583151,-11389.867829,357.650263,-11098.088157,-5890.690492,1249.730736,1032.002393,11320.800939,16540.849691,-115.446760,2569.623598,-15471.788105,18478.008327,3071.979054,2696.760320,0.009188,-0.009094,0.999062,192.000000,0.000000,0.000000,0.000000,0.000000,0.000000,0.000000,0.000000,0.000000,0.000000,1775741108.397831,0.000000
240.000000,17104.985369,19462.066229,-11453.816170,308.856405,-11151.307660,-5930.141321,1210.145797,977.262971,11298.695063,16509.758414,-148.996729,2545.751935,-15500.599504,18453.488464,3319.971659,3016.546728,0.009188,-0.009094,0.999062,192.000000,0.000000,0.000000,0.000000,0.000000,0.000000,0.000000,0.000000,0.000000,0.000000,1775741108.397856,0.000000
242.000000,17153.220433,19500.444174,-11396.752166,358.231408,-11099.473965,-5891.159879,1250.781268,1027.420286,11326.210061,16521.537783,-149.577874,2553.753859,-15495.525658,18461.378629,3400.259125,3126.338497,0.008594,-0.010547,1.000531,192.000000,0.000000,32.000000,127.500000,80.000000,15.500000,40.000000,0.000000,0.000000,0.000000,1775741108.397882,0.000000
244.000000,17128.141776,19476.348993,-11430.592707,327.698925,-11129.000620,-5913.109292,1223.646250,1000.620544,11313.156642,16539.642696,-113.077475,2563.096888,-15467.518922,18481.562255,2978.571114,2577.737281,0.008594,-0.010547,1.000531,192.000000,0.000000,0.000000,0.000000,0.000000,0.000000,0.000000,0.000000,0.000000,0.000000,1775741108.397908,0.000000
246.000000,17125.951305,19478.405354,-11431.866757,327.810684,-11123.099759,-5908.303667,1226.887253,1000.933468,11317.515232,16504.326940,-167.168697,2539.113467,-15526.952210,18447.229975,3567.584284,3347.151380,0.008594,-0.010547,1.000531,192.000000,0.000000,0.000000,0.000000,0.000000,0.000000,0.000000,0.000000,0.000000,0.000000,1775741108.397934,0.000000
248.000000,17149.353582,19493.336319,-11391.119527,362.187667,-11088.163982,-5875.379548,1252.189428,1034.058754,11317.179956,16541.967278,-120.162978,2564.527400,-15470.402297,18481.696365,3075.242409,2704.270506,0.008594,-0.010547,1.000531,192.000000,0.000000,0.000000,0.000000,0.000000,0.000000,0.000000,0.000000,0.000000,0.000000,1775741108.397960,0.000000
250.000000,17095.016491,19456.344182,-11459.962900,311.471559,-11148.401934,-5917.177310,1209.296430,972.256180,11297.465717,16508.506716,-155.210513,2543.114429,-15495.458602,18459.635193,3308.706380,3016.680839,0.008594,-0.010547,1.000531,192.000000,0.000000,0.000000,0.000000,0.000000,0.000000,0.000000,0.000000,0.000000,0.000000,1775741108.397988,0.000000
252.000000,17134.400265,19485.669671,-11401.557791,354.722185,-11097.752881,-5882.308588,1246.623844,1013.115169,11313.827194,16518.162670,-167.503973,2542.645042,-15513.451757,18458.070571,3393.508898,3138.587253,0.008594,-0.010547,1.000531,192.000000,0.000000,0.000000,0.000000,0.000000,0.000000,0.000000,0.000000,0.000000,0.000000,1775741108.398014,0.000000
254.000000,17118.508174,19468.950566,-11429.676286,330.649356,-11126.340762,-5903.118062,1223.534491,993.043303,11301.511383,16538.055722,-123.336926,2555.653758,-15462.199207,18479.930577,2981.365082,2579.145441,0.006000,-0.008000,0.994000,192.000000,0.000000,24.000000,127.500000,96.000000,15.500000,8.000000,0.000000,0.000000,0.000000,1775741108.398039,0.000000
0.000000,17123.716131,19477.578339,-11433.565489,329.643527,-11135.303811,-5907.789577,1225.970832,994.004428,11314.609505,16511.434795,-172.622522,2539.404039,-15530.036751,18447.207623,3558.330662,3353.633386,0.006000,-0.008000,0.994000,192.000000,0.000000,0.000000,0.000000,0.000000,0.000000,0.000000,0.000000,0.000000,0.000000,1775741108.398065,0.000000
2.000000,17148.705381,19491.749345,-11389.532553,360.734804,-11098.468137,-5890.802251,1251.228303,1029.543701,11315.592982,16539.553289,-119.112446,2562.851019,-15472.212788,18474.543807,3079.131613,2708.159710,0.006000,-0.008000,0.994000,192.000000,0.000000,0.000000,0.000000,0.000000,0.000000,0.000000,0.000000,0.000000,0.000000,1775741108.398091,0.000000
4.000000,17105.007721,19461.507435,-11452.877397,313.013829,-11151.598233,-5927.325002,1211.665715,977.307675,11297.622180,16514.429929,-149.063784,2543.181484,-15509.786071,18449.308687,3313.713171,3017.686667,0.006000,-0.008000,0.994000,192.000000,0.000000,0.000000,0.000000,0.000000,0.000000,0.000000,0.000000,0.000000,0.000000,1775741108.398116,0.000000
6.000000,17141.686933,19486.451982,-11397.646236,355.079812,-11104.883087,-5896.814870,1247.361451,1019.641879,11319.437482,16521.269562,-154.741127,2547.227150,-15505.002797,18450.090998,3407.344628,3138.207273,0.006000,-0.008000,0.994000,192.000000,0.000000,0.000000,0.000000,0.000000,0.000000,0.000000,0.000000,0.000000,0.000000,1775741108.398142,0.000000
8.000000,17134.109692,19479.433534,-11421.875527,334.449152,-11121.535137,-5912.885775,1227.490750,1003.079236,11307.658113,16537.541632,-110.842301,2563.812144,-15439.489834,18469.894644,2983.130870,2579.391310,0.004000,-0.016000,0.998000,192.000000,0.000000,16.000000,127.500000,64.000000,15.500000,24.000000,0.000000,0.000000,0.000000,1775741108.398168,0.000000
10.000000,17141.552823,19491.950511,-11424.289516,334.180931,-11125.245526,-5913.489272,1229.614166,1004.889727,11328.244070,16512.753548,-157.490391,2549.194103,-15534.887080,18440.591507,3570.266494,3352.269930,0.004000,-0.016000,0.998000,192.000000,0.000000,0.000000,0.000000,0.000000,0.000000,0.000000,0.000000,0.000000,0.000000,1775741108.398194,0.000000
12.000000,17173.739335,19514.346959,-11380.927131,367.105051,-11091.025006,-5877.592370,1256.235094,1043.155914,11331.574480,16553.366667,-104.270888,2576.440880,-15470.514056,18476.890740,3080.249200,2714.574661,0.004000,-0.016000,0.998000,192.000000,0.000000,0.000000,0.000000,0.000000,0.000000,0.000000,0.000000,0.000000,0.000000,1775741108.398219,0.000000
14.000000,17122.889116,19476.170179,-11448.094123,316.210129,-11146.144408,-5917.110254,1214.616145,989.310561,11309.848584,16523.840013,-132.657603,2557.330138,-15504.041672,18454.583699,3306.158281,3013.842167,0.004000,-0.016000,0.998000,192.000000,0.000000,0.000000,0.000000,0.000000,0.000000,0.000000,0.000000,0.000000,0.000000,1775741108.398245,0.000000
16.000000,17157.087285,19500.935912,-11395.075786,362.746461,-11099.943352,-5882.845030,1252.547056,1029.208425,11329.138139,16528.623286,-142.514723,2558.492429,-15506.746233,18457.444722,3402.159024,3142.677622,0.004000,-0.016000,0.998000,192.000000,0.000000,0.000000,0.000000,0.000000,0.000000,0.000000,0.000000,0.000000,0.000000,1775741108.398270,0.000000
18.000000,17122.799709,19471.677479,-11430.704466,332.325737,-11135.102646,-5912.103464,1225.702611,997.915983,11299.946761,16534.747664,-115.603222,2562.694557,-15471.519884,18471.660432,2970.479783,2577.156136,0.006000,-0.014000,0.996000,192.000000,0.000000,24.000000,127.500000,72.000000,15.500000,16.000000,0.000000,0.000000,0.000000,1775741108.398286,0.000000
20.000000,17124.587849,19480.171142,-11436.180644,329.084734,-11141.919928,-5912.528147,1225.546148,996.507823,11302.293694,16498.202562,-172.533115,2542.376821,-15541.637306,18432.656638,3556.251950,3350.884122,0.006000,-0.014000,0.996000,192.000000,0.000000,0.000000,0.000000,0.000000,0.000000,0.000000,0.000000,0.000000,0.000000,1775741108.398298,0.000000
22.000000,17161.356468,19506.367386,-11388.370262,363.819344,-11095.316541,-5885.303722,1253.977567,1040.093725,11317.470529,16536.200528,-116.921975,2569.735357,-15481.064079,18466.497179,3072.828421,2715.580489,0.006000,-0.014000,0.996000,192.000000,0.000000,0.000000,0.000000,0.000000,0.000000,0.000000,0.000000,0.000000,0.000000,1775741108.398309,0.000000
24.000000,17116.965904,19476.304290,-11451.580996,313.773789,-11149.988908,-5928.330830,1214.169111,990.964590,11301.556087,16515.256943,-137.753801,2556.033737,-15508.377911,18443.117254,3296.658790,3000.855804,0.006000,-0.014000,0.996000,192.000000,0.000000,0.000000,0.000000,0.000000,0.000000,0.000000,0.000000,0.000000,0.000000,1775741108.398321,0.000000
26.000000,17161.401172,19509.004892,-11395.075786,363.014682,-11103.854907,-5887.538897,1254.066974,1037.344460,11331.373314,16529.942039,-137.507932,2567.589589,-15507.014454,18452.996725,3399.499166,3141.381221,0.006000,-0.014000,0.996000,192.000000,0.000000,0.000000,0.000000,0.000000,0.000000,0.000000,0.000000,0.000000,0.000000,1775741108.398334,0.000000
28.000000,17133.528547,19485.423802,-11424.893013,336.192588,-11125.849024,-5909.309496,1228.295413,1006.096721,11310.228564,16537.385170,-103.555632,2573.624560,-15463.786180,18472.219225,2962.880190,2569.355377,0.004000,-0.014000,1.002000,192.000000,0.000000,16.000000,127.500000,72.000000,15.500000,40.000000,0.000000,0.000000,0.000000,1775741108.398346,0.000000
30.000000,17129.795805,19491.056441,-11430.369190,331.409315,-11136.086123,-5916.305592,1227.960137,998.966515,11316.107072,16509.847821,-164.285322,2548.858827,-15518.458547,18434.645943,3561.214037,3352.940482,0.004000,-0.014000,1.002000,192.000000,0.000000,0.000000,0.000000,0.000000,0.000000,0.000000,0.000000,0.000000,0.000000,1775741108.398357,0.000000
32.000000,17160.440047,19507.596732,-11389.040815,366.926237,-11102.379692,-5887.471841,1253.441126,1035.981004,11316.285886,16547.599917,-111.401094,2577.513764,-15476.929006,18468.911167,3073.834249,2711.981858,0.004000,-0.014000,1.002000,192.000000,0.000000,0.000000,0.000000,0.000000,0.000000,0.000000,0.000000,0.000000,0.000000,1775741108.398369,0.000000
34.000000,17110.238029,19467.743572,-11451.893920,311.985649,-11158.571977,-5930.096618,1211.643363,981.867430,11290.491973,16510.652484,-142.000633,2552.949196,-15518.615010,18439.943306,3291.517888,3002.688647,0.004000,-0.014000,1.002000,192.000000,0.000000,0.000000,0.000000,0.000000,0.000000,0.000000,0.000000,0.000000,0.000000,1775741108.398381,0.000000
36.000000,17148.951250,19499.147773,-11396.796870,358.611388,-11113.577916,-5890.914010,1251.004785,1028.224948,11315.660037,16518.050911,-144.101697,2558.000691,-15514.055254,18442.424350,3406.249393,3155.485172,0.004000,-0.014000,1.002000,192.000000,0.000000,0.000000,0.000000,0.000000,0.000000,0.000000,0.000000,0.000000,0.000000,1775741108.398392,0.000000
38.000000,17115.602447,19469.352897,-11429.296306,333.778600,-11139.438884,-5913.645734,1226.082590,996.396064,11291.631912,16532.445435,-109.031809,2565.622636,-15488.551913,18463.971432,2966.434117,2572.350511,0.006000,-0.012000,1.008000,192.000000,0.000000,24.000000,127.500000,80.000000,15.500000,64.000000,0.000000,0.000000,0.000000,1775741108.398404,0.000000
40.000000,17114.931895,19476.728973,-11433.140806,331.699888,-11139.818864,-5913.422217,1226.641384,990.629314,11297.398662,16505.668045,-172.689578,2542.019193,-15547.225243,18432.231955,3565.572627,3360.562427,0.006000,-0.012000,1.008000,192.000000,0.000000,0.000000,0.000000,0.000000,0.000000,0.000000,0.000000,0.000000,0.000000,1775741108.398415,0.000000
42.000000,17141.798692,19489.022432,-11387.811469,362.321778,-11101.843250,-5891.450452,1249.887198,1023.955765,11300.617313,16533.808891,-124.610975,2563.834496,-15493.469297,18461.624499,3089.189898,2721.079018,0.006000,-0.012000,1.008000,192.000000,0.000000,0.000000,0.000000,0.000000,0.000000,0.000000,0.000000,0.000000,0.000000,1775741108.398427,0.000000
44.000000,17102.794898,19465.061362,-11448.764676,310.197510,-11156.493265,-5932.845883,1210.726942,978.849945,11282.981787,16509.199620,-146.538037,2547.115391,-15516.692760,18437.082283,3302.067912,2999.179423,0.006000,-0.012000,1.008000,192.000000,0.000000,0.000000,0.000000,0.000000,0.000000,0.000000,0.000000,0.000000,0.000000,1775741108.398439,0.000000
46.000000,17148.995954,19500.466526,-11389.711367,358.253760,-11104.413701,-5891.204583,1253.686995,1031.443600,11313.469567,16522.498908,-144.280510,2558.380670,-15517.005684,18442.558461,3419.816902,3159.106154,0.006000,-0.012000,1.008000,192.000000,0.000000,0.000000,0.000000,0.000000,0.000000,0.000000,0.000000,0.000000,0.000000,1775741108.398451,0.000000
48.000000,17124.587849,19477.891264,-11424.177757,331.990460,-11129.559413,-5912.975182,1228.742448,1005.202652,11292.593037,16542.861348,-103.957963,2572.484621,-15470.022317,18467.100676,2970.412728,2567.589589,0.008000,-0.016000,1.002000,192.000000,0.000000,32.000000,127.500000,64.000000,15.500000,40.000000,0.000000,0.000000,0.000000,1775741108.398462,0.000000
50.000000,17119.893982,19480.059383,-11429.631582,333.420972,-11135.124998,-5911.567022,1232.385782,1000.039399,11299.119747,16507.366777,-165.224095,2548.344737,-15534.797673,18431.963734,3568.925389,3358.997805,0.008000,-0.016000,1.002000,192.000000,0.000000,0.000000,0.000000,0.000000,0.000000,0.000000,0.000000,0.000000,0.000000,1775741108.398474,0.000000
52.000000,17147.833663,19492.621063,-11382.067070,365.741595,-11093.148421,-5885.236667,1258.134992,1033.589367,11307.412244,16538.860385,-115.290298,2570.763537,-15469.999965,18465.200778,3082.394967,2720.162597,0.008000,-0.016000,1.002000,192.000000,0.000000,0.000000,0.000000,0.000000,0.000000,0.000000,0.000000,0.000000,0.000000,1775741108.398485,0.000000
54.000000,17098.771584,19458.936984,-11447.244757,310.353972,-11144.468027,-5927.772037,1214.996125,982.292114,11283.831153,16507.858516,-140.860694,2548.881179,-15504.734576,18443.027847,3294.513022,2992.630362,0.008000,-0.016000,1.002000,192.000000,0.000000,0.000000,0.000000,0.000000,0.000000,0.000000,0.000000,0.000000,0.000000,1775741108.398497,0.000000
56.000000,17143.676238,19494.967996,-11392.840611,357.940836,-11104.190183,-5887.181269,1253.508181,1030.817751,11308.216907,16516.933324,-147.588569,2555.899627,-15505.293370,18440.077417,3418.833425,3163.308282,0.008000,-0.016000,1.002000,192.000000,0.000000,0.000000,0.000000,0.000000,0.000000,0.000000,0.000000,0.000000,0.000000,1775741108.398508,0.000000
58.000000,17124.587849,19474.985537,-11420.713236,336.594920,-11126.497224,-5905.934382,1233.548073,1011.237623,11298.024511,16545.029467,-101.655734,2577.223191,-15471.564588,18470.565196,2961.114402,2571.367034,0.008000,-0.014000,1.000000,192.000000,0.000000,32.000000,127.500000,72.000000,15.500000,32.000000,0.000000,0.000000,0.000000,1775741108.877187,0.000000
60.000000,17119.312837,19474.627909,-11429.542175,332.281033,-11133.985059,-5908.750702,1234.822122,1002.386332,11302.941895,16503.835202,-160.753746,2551.183409,-15533.657734,18429.236821,3563.449212,3364.049299,0.008000,-0.014000,1.000000,192.000000,0.000000,0.000000,0.000000,0.000000,0.000000,0.000000,0.000000,0.000000,0.000000,1775741108.877272,0.000000
62.000000,17140.099959,19483.546255,-11389.912533,362.791164,-11104.033721,-5891.182231,1257.419736,1029.253129,11302.986598,16534.233574,-120.453551,2569.042452,-15488.261341,18458.741124,3080.785642,2732.791332,0.008000,-0.014000,1.000000,192.000000,0.000000,0.000000,0.000000,0.000000,0.000000,0.000000,0.000000,0.000000,0.000000,1775741108.877326,0.000000
64.000000,17093.720090,19455.226595,-11454.687888,311.113931,-11158.974309,-5936.019830,1213.789131,976.503012,11276.030395,16505.556286,-150.203723,2548.322385,-15514.926972,18436.434083,3286.533449,2990.238725,0.008000,-0.014000,1.000000,192.000000,0.000000,0.000000,0.000000,0.000000,0.000000,0.000000,0.000000,0.000000,0.000000,1775741108.877380,0.000000
66.000000,17142.156320,19494.051575,-11396.036911,358.052594,-11104.033721,-5885.728405,1252.234131,1027.755562,11301.533735,16516.776862,-156.037528,2556.592531,-15519.397321,18446.022981,3421.068599,3166.705747,0.008000,-0.014000,1.000000,192.000000,0.000000,0.000000,0.000000,0.000000,0.000000,0.000000,0.000000,0.000000,0.000000,1775741108.877435,0.000000
68.000000,17120.631590,19472.638604,-11417.539289,333.555083,-11122.295096,-5909.175385,1232.922224,1008.935393,11289.553200,16534.702961,-108.093036,2573.311636,-15463.763829,18466.161903,2963.953073,2561.308749,0.007000,-0.014000,0.998000,192.000000,0.000000,24.000000,127.500000,72.000000,15.500000,16.000000,0.000000,0.000000,0.000000,1775741108.877463,0.000000
70.000000,17121.123328,19479.411182,-11424.535385,328.458885,-11123.971477,-5909.667124,1233.190445,1006.275535,11297.845697,16504.729271,-161.893685,2551.183409,-15525.029960,18435.204737,3573.261627,3354.885084,0.007000,-0.014000,0.998000,192.000000,0.000000,0.000000,0.000000,0.000000,0.000000,0.000000,0.000000,0.000000,0.000000,1775741108.877490,0.000000
72.000000,17153.980393,19498.253703,-11379.474268,362.791164,-11084.587703,-5884.476708,1260.481925,1041.859513,11310.809709,16547.801083,-110.395266,2578.631351,-15457.952375,18472.643909,3096.945953,2721.570757,0.007000,-0.014000,0.998000,192.000000,0.000000,0.000000,0.000000,0.000000,0.000000,0.000000,0.000000,0.000000,0.000000,1775741108.877517,0.000000
74.000000,17106.170011,19465.150769,-11445.791894,311.695076,-11147.217291,-5926.050952,1217.499520,985.801337,11285.686348,16517.760339,-140.011327,2558.090098,-15500.800669,18447.162920,3290.400301,2976.268885,0.007000,-0.014000,0.998000,192.000000,0.000000,0.000000,0.000000,0.000000,0.000000,0.000000,0.000000,0.000000,0.000000,1775741108.877543,0.000000
76.000000,17152.885157,19500.913560,-11388.660835,363.037033,-11094.467174,-5880.252228,1256.793887,1032.918815,11315.503575,16532.624249,-142.559426,2565.734394,-15516.625704,18455.991859,3427.148274,3166.325768,0.007000,-0.014000,0.998000,192.000000,0.000000,0.000000,0.000000,0.000000,0.000000,0.000000,0.000000,0.000000,0.000000,1775741108.877572,0.000000
78.000000,17120.318666,19470.872816,-11420.690885,338.070135,-11122.339800,-5902.961600,1230.843512,1004.420341,11293.397700,16548.136359,-103.376818,2573.289284,-15466.155465,18475.907263,2960.421498,2565.823801,0.008500,-0.012000,0.997000,192.000000,0.000000,40.000000,127.500000,88.000000,15.500000,16.000000,0.000000,0.000000,0.000000,1775741108.877599,0.000000
80.000000,17118.441119,19475.924310,-11430.592707,335.544388,-11129.045323,-5900.212336,1229.748276,1000.106454,11295.252895,16513.334693,-165.268799,2548.098868,-15534.641210,18441.440873,3564.142116,3365.412756,0.008500,-0.012000,0.997000,192.000000,0.000000,0.000000,0.000000,0.000000,0.000000,0.000000,0.000000,0.000000,0.000000,1775741108.877625,0.000000
82.000000,17153.265137,19495.258569,-11384.078727,370.055481,-11085.481773,-5866.841181,1256.615073,1039.043193,11308.440424,16554.864234,-113.859786,2577.871392,-15469.798800,18479.081211,3091.782700,2745.420068,0.008500,-0.012000,0.997000,192.000000,0.000000,0.000000,0.000000,0.000000,0.000000,0.000000,0.000000,0.000000,0.000000,1775741108.877652,0.000000
84.000000,17097.162258,19455.941851,-11449.770504,316.925385,-11141.629355,-5907.476653,1214.482035,980.012236,11289.150869,16522.029522,-138.111429,2557.576008,-15501.203001,18455.924804,3278.799746,2990.797519,0.008500,-0.012000,0.997000,192.000000,0.000000,0.000000,0.000000,0.000000,0.000000,0.000000,0.000000,0.000000,0.000000,1775741108.877678,0.000000
86.000000,17132.679180,19486.228464,-11395.120489,359.684272,-11096.098852,-5873.546704,1251.876503,1019.932451,11305.959380,16528.153900,-154.048223,2558.917112,-15509.987236,18455.477769,3424.711934,3186.419986,0.008500,-0.012000,0.997000,192.000000,0.000000,0.000000,0.000000,0.000000,0.000000,0.000000,0.000000,0.000000,0.000000,1775741108.877705,0.000000
88.000000,17110.618008,19467.095371,-11421.227327,334.069173,-11111.812128,-5896.948981,1226.864901,996.865451,11286.960398,16543.174272,-114.798560,2569.377729,-15453.973765,18475.348470,2967.819925,2568.170734,0.007250,-0.011000,0.998500,192.000000,0.000000,24.000000,127.500000,88.000000,15.500000,32.000000,0.000000,0.000000,0.000000,1775741108.877731,0.000000
90.000000,17110.707415,19470.336374,-11428.536347,331.699888,-11118.785872,-5897.798347,1226.820198,991.836308,11298.829174,16511.032463,-170.253238,2547.495371,-15525.476995,18442.334943,3573.239276,3358.729584,0.007250,-0.011000,0.998500,192.000000,0.000000,0.000000,0.000000,0.000000,0.000000,0.000000,0.000000,0.000000,0.000000,1775741108.877767,0.000000
92.000000,17142.312782,19488.620101,-11381.083593,365.205153,-11083.917151,-5879.782841,1255.162210,1032.672946,11305.422939,16548.963374,-119.738295,2572.730490,-15459.807570,18475.259063,3095.381331,2733.394829,0.007250,-0.011000,0.998500,192.000000,0.000000,0.000000,0.000000,0.000000,0.000000,0.000000,0.000000,0.000000,0.000000,1775741108.877794,0.000000
94.000000,17096.447002,19453.483159,-11445.993059,310.421027,-11145.965594,-5928.666106,1214.593794,984.124957,11287.541543,16519.414368,-139.072554,2555.944330,-15502.834678,18448.056990,3277.860973,2963.997777,0.007250,-0.011000,0.998500,192.000000,0.000000,0.000000,0.000000,0.000000,0.000000,0.000000,0.000000,0.000000,0.000000,1775741108.877820,0.000000
96.000000,17136.300163,19484.775601,-11391.588913,358.343167,-11099.652779,-5891.785728,1254.201085,1030.840103,11313.313104,16525.136414,-147.968548,2560.727604,-15497.000873,18442.379647,3431.573919,3166.057547,0.007250,-0.011000,0.998500,192.000000,0.000000,0.000000,0.000000,0.000000,0.000000,0.000000,0.000000,0.000000,0.000000,1775741108.877846,0.000000
98.000000,17108.002854,19459.629888,-11424.624792,331.901053,-11122.406855,-5911.857594,1227.021364,1002.252221,11284.702871,16542.146092,-111.579908,2570.651778,-15479.030070,18467.234786,2964.377757,2552.703327,0.010625,-0.009500,0.999250,192.000000,0.000000,56.000000,127.500000,96.000000,15.500000,32.000000,0.000000,0.000000,0.000000,1775741108.877873,0.000000
100.000000,17106.706453,19469.084676,-11432.134978,333.689193,-11130.095855,-5907.834280,1228.049544,997.156024,11295.319950,16515.256943,-167.593380,2552.390403,-15530.349675,18439.496272,3560.990520,3352.426392,0.010625,-0.009500,0.999250,192.000000,0.000000,0.000000,0.000000,0.000000,0.000000,0.000000,0.000000,0.000000,0.000000,1775741108.877900,0.000000
102.000000,17133.550898,19481.020508,-11387.610303,368.513211,-11091.293227,-5877.301798,1252.345890,1030.907158,11296.169316,16547.219938,-121.682897,2573.088118,-15462.825055,18470.498141,3098.644686,2743.743687,0.010625,-0.009500,0.999250,192.000000,0.000000,0.000000,0.000000,0.000000,0.000000,0.000000,0.000000,0.000000,0.000000,1775741108.877926,0.000000
104.000000,17085.695813,19447.537595,-11449.837559,316.768922,-11148.714858,-5918.026676,1211.330439,980.816898,11272.163543,16517.670932,-145.979243,2553.753859,-15511.618914,18448.436969,3273.301217,2977.185306,0.010625,-0.009500,0.999250,192.000000,0.000000,0.000000,0.000000,0.000000,0.000000,0.000000,0.000000,0.000000,0.000000,1775741108.877952,0.000000
106.000000,17123.962000,19476.706621,-11396.238076,356.912655,-11101.418567,-5879.849896,1246.176809,1023.285213,11299.030340,16518.922629,-154.607016,2554.580874,-15519.799652,18442.536109,3438.346498,3191.471480,0.010625,-0.009500,0.999250,192.000000,0.000000,0.000000,0.000000,0.000000,0.000000,0.000000,0.000000,0.000000,0.000000,1775741108.877978,0.000000
108.000000,17102.012587,19457.618231,-11420.422664,336.997251,-11115.209593,-5889.438795,1224.517968,1000.374675,11281.774793,16543.196624,-110.909356,2570.718833,-15465.261396,18472.241577,2968.378719,2577.469060,0.010313,-0.012750,1.000625,192.000000,0.000000,40.000000,127.500000,64.000000,15.500000,40.000000,0.000000,0.000000,0.000000,1775741108.878004,0.000000
110.000000,17108.069910,19469.017621,-11427.374056,332.526902,-11116.126015,-5886.175440,1224.428561,997.290134,11288.614427,16513.289990,-170.342644,2547.942406,-15527.712170,18439.540975,3575.675616,3372.967645,0.010313,-0.012750,1.000625,192.000000,0.000000,0.000000,0.000000,0.000000,0.000000,0.000000,0.000000,0.000000,0.000000,1775741108.878030,0.000000
112.000000,17137.775378,19486.094354,-11377.015576,366.166278,-11071.489581,-5864.002510,1253.083498,1036.785667,11307.412244,16550.080961,-115.826740,2576.463232,-15465.373154,18472.599205,3115.654363,2762.295635,0.010313,-0.012750,1.000625,192.000000,0.000000,0.000000,0.000000,0.000000,0.000000,0.000000,0.000000,0.000000,0.000000,1775741108.878056,0.000000
114.000000,17088.847409,19446.531766,-11444.406086,309.012867,-11133.985059,-5912.684609,1209.005858,983.141480,11283.250008,16522.387150,-136.747973,2556.324310,-15476.929006,18450.962716,3290.087377,2969.630417,0.010313,-0.012750,1.000625,192.000000,0.000000,0.000000,0.000000,0.000000,0.000000,0.000000,0.000000,0.000000,0.000000,1775741108.878084,0.000000
116.000000,17134.064988,19482.965110,-11388.571428,353.694004,-11086.375843,-5881.280408,1248.233169,1031.220082,11308.261610,16528.332714,-144.571083,2558.783002,-15501.292408,18449.912184,3446.080201,3183.894239,0.010313,-0.012750,1.000625,192.000000,0.000000,0.000000,0.000000,0.000000,0.000000,0.000000,0.000000,0.000000,0.000000,1775741108.878110,0.000000
118.000000,17107.756985,19457.327659,-11414.097120,329.844693,-11116.438939,-5913.042237,1228.518930,1008.644820,11290.871953,16543.822473,-101.856899,2571.411737,-15471.050497,18465.156074,2978.302893,2553.642101,0.008156,-0.016375,1.003312,192.000000,0.000000,24.000000,127.500000,48.000000,15.500000,56.000000,0.000000,0.000000,0.000000,1775741108.878137,0.000000
120.000000,17099.106860,19459.965165,-11430.592707,326.134303,-11132.196919,-5915.098597,1224.249747,997.871279,11293.107127,16509.065510,-164.508839,2544.567292,-15532.562498,18426.666370,3573.820421,3347.531360,0.008156,-0.016375,1.003312,192.000000,0.000000,0.000000,0.000000,0.000000,0.000000,0.000000,0.000000,0.000000,0.000000,1775741108.878163,0.000000
122.000000,17134.154395,19483.099220,-11380.658910,368.066176,-11086.800526,-5876.988873,1253.977567,1038.171475,11298.605656,16552.830226,-115.871443,2574.205705,-15470.536407,18464.083190,3110.982849,2747.051745,0.008156,-0.016375,1.003312,192.000000,0.000000,0.000000,0.000000,0.000000,0.000000,0.000000,0.000000,0.000000,0.000000,1775741108.878203,0.000000
124.000000,17085.204075,19452.052647,-11446.574205,319.115856,-11149.139541,-5918.227842,1211.598660,984.013198,11279.941950,16532.803063,-135.876255,2560.615845,-15498.610198,18454.740161,3264.986368,2955.504114,0.008156,-0.016375,1.003312,192.000000,0.000000,0.000000,0.000000,0.000000,0.000000,0.000000,0.000000,0.000000,0.000000,1775741108.878230,0.000000
126.000000,17120.810404,19478.606520,-11395.165193,359.751327,-11111.700369,-5887.471841,1246.176809,1022.391143,11297.912752,16537.340467,-150.203723,2557.151324,-15513.451757,18452.169711,3434.501998,3184.944771,0.008156,-0.016375,1.003312,192.000000,0.000000,0.000000,0.000000,0.000000,0.000000,0.000000,0.000000,0.000000,0.000000,1775741108.878244,0.000000
128.000000,17099.777412,19457.685287,-11418.098082,340.528827,-11128.955916,-5899.251211,1227.468399,1001.559317,11287.318026,16555.825359,-104.337943,2569.690653,-15454.487855,18476.778981,2964.511867,2573.490450,0.009078,-0.018188,1.002656,192.000000,0.000000,40.000000,127.500000,48.000000,15.500000,40.000000,0.000000,0.000000,0.000000,1775741108.878257,0.000000
130.000000,17093.340110,19462.692077,-11430.570356,336.796085,-11128.218308,-5899.810004,1225.501445,990.964590,11286.245142,16518.587353,-167.548676,2543.270891,-15533.054237,18436.322324,3554.284996,3358.818991,0.009078,-0.018188,1.002656,192.000000,0.000000,0.000000,0.000000,0.000000,0.000000,0.000000,0.000000,0.000000,0.000000,1775741108.878270,0.000000
132.000000,17122.687950,19479.634700,-11387.275027,369.943722,-11080.966721,-5866.505905,1248.791963,1021.050038,11290.737842,16556.272394,-127.136722,2569.824764,-15471.989271,18470.766362,3112.681581,2773.002121,0.009078,-0.018188,1.002656,192.000000,0.000000,0.000000,0.000000,0.000000,0.000000,0.000000,0.000000,0.000000,0.000000,1775741108.878281,0.000000
134.000000,17070.496627,19438.954525,-11455.179626,314.869024,-11138.589518,-5907.230783,1204.133177,963.941331,11269.637796,16529.852632,-152.818877,2550.423449,-15490.317701,18452.415580,3270.462545,2975.039539,0.009078,-0.018188,1.002656,192.000000,0.000000,0.000000,0.000000,0.000000,0.000000,0.000000,0.000000,0.000000,0.000000,1775741108.878294,0.000000
136.000000,17117.547049,19476.192531,-11399.255562,357.314987,-11088.879238,-5865.388318,1241.281777,1012.109341,11294.180011,16532.847766,-163.950046,2552.457458,-15510.166050,18449.062818,3445.767277,3200.054550,0.009078,-0.018188,1.002656,192.000000,0.000000,0.000000,0.000000,0.000000,0.000000,0.000000,0.000000,0.000000,0.000000,1775741108.878305,0.000000
138.000000,17094.256532,19454.332525,-11419.528594,331.968109,-11104.480756,-5884.275542,1220.762875,993.110358,11282.110069,16553.903109,-113.233937,2571.679958,-15456.946547,18476.130781,2971.887943,2580.464194,0.009539,-0.018094,1.001328,192.000000,0.000000,40.000000,127.500000,56.000000,15.500000,32.000000,0.000000,0.000000,0.000000,1775741108.878318,0.000000
140.000000,17095.351767,19464.055534,-11427.932850,327.184835,-11116.438939,-5888.723539,1220.673468,988.260029,11282.288883,16512.619437,-171.996674,2543.695574,-15532.562498,18436.098806,3567.830153,3353.320462,0.009539,-0.018094,1.001328,192.000000,0.000000,0.000000,0.000000,0.000000,0.000000,0.000000,0.000000,0.000000,0.000000,1775741108.878330,0.000000
142.000000,17130.354599,19485.870836,-11381.173000,366.993292,-11076.831648,-5860.225065,1248.903721,1027.487341,11298.784470,16557.300574,-120.766475,2574.831554,-15476.325509,18472.420391,3120.907023,2765.693100,0.009539,-0.018094,1.001328,192.000000,0.000000,0.000000,0.000000,0.000000,0.000000,0.000000,0.000000,0.000000,0.000000,1775741108.878343,0.000000
144.000000,17083.684156,19451.292688,-11444.786065,316.657164,-11135.393218,-5902.514565,1208.178843,974.156079,11271.180066,16525.874022,-143.744069,2555.072612,-15496.330320,18450.090998,3264.673443,2953.961844,0.009539,-0.018094,1.001328,192.000000,0.000000,0.000000,0.000000,0.000000,0.000000,0.000000,0.000000,0.000000,0.000000,1775741108.878355,0.000000
146.000000,17128.566459,19486.362575,-11391.343044,361.941798,-11090.600323,-5868.606969,1247.249692,1021.430018,11304.394758,16534.948830,-151.142496,2561.800487,-15504.868687,18449.733371,3441.542797,3192.142033,0.009539,-0.018094,1.001328,192.000000,0.000000,0.000000,0.000000,0.000000,0.000000,0.000000,0.000000,0.000000,0.000000,1775741108.878367,0.000000
148.000000,17107.198192,19465.307232,-11412.398387,340.640585,-11113.980247,-5895.853745,1229.927090,1007.773102,11287.318026,16548.158711,-106.550766,2577.111432,-15459.516997,18467.257138,2968.512829,2563.208647,0.009539,-0.018094,1.001328,192.000000,0.000000,0.000000,0.000000,0.000000,0.000000,0.000000,0.000000,0.000000,0.000000,1775741108.878379,0.000000
150.000000,17095.597636,19464.569624,-11429.139844,333.868007,-11132.532195,-5911.142339,1227.021364,997.513652,11288.212095,16510.965408,-163.212438,2555.184371,-15514.770510,18426.465205,3556.006081,3335.416715,0.014000,-0.018000,0.996000,192.000000,0.000000,56.000000,127.500000,56.000000,15.500000,16.000000,0.000000,0.000000,0.000000,1775741108.878391,0.000000
152.000000,17125.705436,19482.160447,-11381.664739,371.061310,-11095.115375,-5881.123946,1254.156381,1034.125809,11293.174183,16550.617403,-118.598356,2582.073519,-15489.356576,18457.355315,3106.557203,2763.279112,0.014000,-0.018000,0.996000,192.000000,0.000000,0.000000,0.000000,0.000000,0.000000,0.000000,0.000000,0.000000,0.000000,1775741108.878403,0.000000
154.000000,17076.688060,19443.246060,-11446.328336,314.354934,-11154.302794,-5924.598089,1208.044733,978.358207,11265.256854,16518.699112,-142.537074,2558.403022,-15508.623780,18432.008437,3258.236141,2942.048364,0.014000,-0.018000,0.996000,192.000000,0.000000,0.000000,0.000000,0.000000,0.000000,0.000000,0.000000,0.000000,0.000000,1775741108.878415,0.000000
156.000000,17130.153433,19487.480162,-11389.487849,360.555990,-11100.904477,-5882.241533,1246.288567,1028.336707,11297.868049,16524.443510,-149.957854,2558.514781,-15514.234068,18432.164899,3445.364946,3185.369454,0.014000,-0.018000,0.996000,192.000000,0.000000,0.000000,0.000000,0.000000,0.000000,0.000000,0.000000,0.000000,0.000000,1775741108.878427,0.000000
158.000000,17100.380909,19458.333487,-11415.997018,337.578397,-11125.558451,-5904.414464,1224.070933,1005.202652,11284.814630,16547.801083,-100.582850,2577.334950,-15458.175893,18461.669202,2959.929759,2563.968606,0.014000,-0.018000,0.996000,192.000000,0.000000,0.000000,0.000000,0.000000,0.000000,0.000000,0.000000,0.000000,0.000000,1775741108.878439,0.000000
160.000000,17094.144773,19461.261566,-11431.978516,329.397658,-11142.009335,-5908.124853,1219.555881,995.949029,11273.258778,16504.841030,-168.554505,2545.528417,-15539.737408,18414.842297,3557.302482,3350.012404,0.010000,-0.018000,0.998000,192.000000,0.000000,40.000000,127.500000,56.000000,15.500000,24.000000,0.000000,0.000000,0.000000,1775741108.878452,0.000000
162.000000,17128.030017,19482.026336,-11382.491753,368.468507,-11092.343759,-5870.059832,1251.273006,1034.863417,11290.849601,16549.857444,-119.760647,2574.675092,-15464.948471,18455.567176,3120.862320,2779.640589,0.010000,-0.018000,0.998000,192.000000,0.000000,0.000000,0.000000,0.000000,0.000000,0.000000,0.000000,0.000000,0.000000,1775741108.878464,0.000000
164.000000,17077.090392,19444.184833,-11448.563510,314.511396,-11143.149274,-5910.896469,1206.390703,977.598247,11265.435668,16515.256943,-142.157095,2555.229074,-15506.366254,18433.841280,3261.343033,2952.151352,0.010000,-0.018000,0.998000,192.000000,0.000000,0.000000,0.000000,0.000000,0.000000,0.000000,0.000000,0.000000,0.000000,1775741108.878476,0.000000
166.000000,17118.932857,19479.589996,-11396.819222,357.605560,-11098.736358,-5870.797440,1242.108791,1019.843044,11287.608598,16522.565964,-154.763479,2557.799525,-15518.749120,18431.002609,3456.496114,3203.027332,0.010000,-0.018000,0.998000,192.000000,0.000000,0.000000,0.000000,0.000000,0.000000,0.000000,0.000000,0.000000,0.000000,1775741108.878488,0.000000
168.000000,17111.467375,19470.269319,-11410.610248,342.205208,-11106.782986,-5882.979141,1227.334288,1008.555413,11278.913770,16548.046952,-106.528414,2575.747976,-15448.408180,18461.669202,2975.106594,2571.188220,0.010000,-0.018000,0.998000,192.000000,0.000000,0.000000,0.000000,0.000000,0.000000,0.000000,0.000000,0.000000,0.000000,1775741108.878500,0.000000
170.000000,17104.113651,19470.537540,-11425.004771,330.828170,-11122.339800,-5896.703112,1222.953346,999.368846,11282.847677,16517.805042,-157.669205,2557.196028,-15514.390530,18425.861707,3564.745613,3343.262177,0.010000,-0.016000,1.008000,192.000000,0.000000,40.000000,127.500000,64.000000,15.500000,64.000000,0.000000,0.000000,0.000000,1775741108.878512,0.000000
172.000000,17136.836605,19493.269264,-11372.612282,369.720205,-11082.084308,-5870.775088,1255.430431,1040.071373,11299.455023,16555.467731,-110.372914,2581.090043,-15479.655919,18455.813045,3128.327802,2767.145964,0.010000,-0.016000,1.008000,192.000000,0.000000,0.000000,0.000000,0.000000,0.000000,0.000000,0.000000,0.000000,0.000000,1775741108.878524,0.000000
174.000000,17076.106915,19447.604650,-11445.009583,316.031315,-11144.713896,-5917.289068,1209.452892,976.257143,11267.179104,16529.651467,-137.016194,2563.812144,-15492.865800,18439.384513,3251.463562,2929.151407,0.010000,-0.016000,1.008000,192.000000,0.000000,0.000000,0.000000,0.000000,0.000000,0.000000,0.000000,0.000000,0.000000,1775741108.878536,0.000000
176.000000,17123.023227,19486.943720,-11390.270160,361.852391,-11096.300017,-5878.553495,1246.579140,1018.636050,11291.341340,16534.322981,-154.763479,2563.052185,-15504.846335,18437.864594,3450.036460,3191.516184,0.010000,-0.016000,1.008000,192.000000,0.000000,0.000000,0.000000,0.000000,0.000000,0.000000,0.000000,0.000000,0.000000,1775741108.878548,0.000000
178.000000,17101.409090,19465.597804,-11411.861946,341.936987,-11113.086177,-5896.367836,1225.970832,998.430073,11280.903075,16557.322926,-107.310725,2576.776156,-15441.590898,18466.407772,2964.601274,2557.285435,0.010000,-0.016000,1.008000,192.000000,0.000000,0.000000,0.000000,0.000000,0.000000,0.000000,0.000000,0.000000,0.000000,1775741109.358057,0.000000
180.000000,17098.659825,19468.771752,-11431.889109,331.744591,-11127.011314,-5901.307571,1218.930032,988.572954,11281.260703,16521.403673,-165.827592,2551.585740,-15523.174765,18428.543917,3560.007043,3335.796694,0.010000,-0.020000,1.000000,192.000000,0.000000,40.000000,127.500000,48.000000,15.500000,32.000000,0.000000,0.000000,0.000000,1775741109.358128,0.000000
182.000000,17135.651962,19488.173066,-11380.658910,372.447118,-11085.101793,-5865.768297,1250.602454,1031.220082,11294.962322,16560.608633,-118.777170,2578.229019,-15468.033012,18463.278528,3126.405552,2777.047786,0.010000,-0.020000,1.000000,192.000000,0.000000,0.000000,0.000000,0.000000,0.000000,0.000000,0.000000,0.000000,0.000000,1775741109.358178,0.000000
184.000000,17078.006813,19446.420008,-11448.496455,322.043934,-11141.204672,-5905.934382,1208.581174,974.580762,11267.804953,16534.926478,-138.893740,2563.074537,-15472.503361,18447.833472,3246.345013,2939.187341,0.010000,-0.020000,1.000000,192.000000,0.000000,0.000000,0.000000,0.000000,0.000000,0.000000,0.000000,0.000000,0.000000,1775741109.358241,0.000000
186.000000,17120.095148,19483.345089,-11397.579181,366.613313,-11096.612942,-5867.176457,1244.343966,1017.116131,11285.261665,16534.322981,-160.507877,2562.403984,-15522.392454,18439.786844,3458.060736,3214.024390,0.010000,-0.020000,1.000000,192.000000,0.000000,0.000000,0.000000,0.000000,0.000000,0.000000,0.000000,0.000000,0.000000,1775741109.358297,0.000000
188.000000,17109.098090,19472.415086,-11412.957181,349.581283,-11108.057035,-5880.341635,1227.557805,1003.995657,11277.729127,16569.571682,-106.081379,2586.879145,-15458.466465,18475.080249,2971.597370,2576.060900,0.010000,-0.020000,1.000000,192.000000,0.000000,0.000000,0.000000,0.000000,0.000000,0.000000,0.000000,0.000000,0.000000,1775741109.358355,0.000000
190.000000,17111.579133,19480.595825,-11423.998943,337.220769,-11116.930678,-5885.862516,1223.154512,998.608887,11285.641645,16534.702961,-160.329063,2563.923903,-15517.542126,18438.535147,3563.449212,3348.514837,0.010000,-0.020000,1.000000,192.000000,0.000000,40.000000,127.500000,48.000000,15.500000,32.000000,0.000000,0.000000,0.000000,1775741109.358402,0.000000
192.000000,17153.376896,19506.166220,-11369.907721,379.040882,-11071.914264,-5853.184265,1256.279797,1045.681661,11306.831098,16576.970110,-104.516757,2594.948124,-15450.151616,18472.040411,3137.559073,2785.921429,0.010000,-0.020000,1.000000,192.000000,0.000000,0.000000,0.000000,0.000000,0.000000,0.000000,0.000000,0.000000,0.000000,1775741109.358427,0.000000
194.000000,17106.281770,19473.823246,-11434.884242,330.202321,-11127.659515,-5897.731292,1216.292526,994.451463,11284.009967,16554.350144,-121.861711,2581.805299,-15467.787143,18455.142493,3250.793010,2932.481817,0.010000,-0.020000,1.000000,192.000000,0.000000,0.000000,0.000000,0.000000,0.000000,0.000000,0.000000,0.000000,0.000000,1775741109.358452,0.000000
196.000000,17140.636401,19503.886343,-11388.482021,371.418938,-11092.723738,-5868.472858,1251.563579,1035.533969,11306.294657,16562.955566,-137.932615,2586.074482,-15499.727786,18453.443760,3458.485420,3210.068132,0.010000,-0.020000,1.000000,192.000000,0.000000,0.000000,0.000000,0.000000,0.000000,0.000000,0.000000,0.000000,0.000000,1775741109.358476,0.000000
198.000000,17119.156375,19479.925272,-11408.889164,352.755231,-11108.168794,-5891.115176,1237.549035,1017.831387,11285.865162,16581.842790,-97.520661,2599.910212,-15450.486893,18474.454400,2969.518658,2559.610016,0.010000,-0.020000,1.000000,192.000000,0.000000,0.000000,0.000000,0.000000,0.000000,0.000000,0.000000,0.000000,0.000000,1775741109.358500,0.000000
200.000000,17103.085471,19470.671650,-11430.972687,334.315042,-11135.080294,-5900.793481,1225.255576,995.703160,11278.712604,16536.334638,-160.798450,2566.583761,-15520.738425,18431.159071,3556.587226,3333.360354,0.006000,-0.018000,1.004000,192.000000,0.000000,24.000000,127.500000,56.000000,15.500000,48.000000,0.000000,0.000000,0.000000,1775741109.358525,0.000000
202.000000,17138.535337,19492.889284,-11378.334329,373.542353,-11085.772346,-5874.083146,1255.586893,1034.662251,11289.977883,16567.247101,-118.218376,2584.643970,-15469.083544,18456.036562,3132.731096,2773.315045,0.006000,-0.018000,1.004000,192.000000,0.000000,0.000000,0.000000,0.000000,0.000000,0.000000,0.000000,0.000000,0.000000,1775741109.358549,0.000000
204.000000,17092.311930,19461.105104,-11446.037763,323.228577,-11147.910195,-5916.953792,1212.448026,983.163832,11261.546464,16543.867176,-136.412696,2568.818935,-15490.317701,18438.870423,3236.622004,2916.857948,0.006000,-0.018000,1.004000,192.000000,0.000000,0.000000,0.000000,0.000000,0.000000,0.000000,0.000000,0.000000,0.000000,1775741109.358574,0.000000
206.000000,17139.340000,19499.572456,-11393.667626,366.032167,-11097.439956,-5877.882943,1247.316748,1027.464989,11292.369520,16547.354048,-147.812086,2571.568200,-15489.244817,18437.439911,3453.165704,3213.040914,0.006000,-0.018000,1.004000,192.000000,0.000000,0.000000,0.000000,0.000000,0.000000,0.000000,0.000000,0.000000,0.000000,1775741109.358598,0.000000
208.000000,17124.073759,19486.027299,-11412.800719,354.275150,-11110.023988,-5881.459222,1232.743410,1014.188053,11279.114935,16573.058554,-98.884117,2593.159985,-15456.343050,18470.140513,2964.154239,2566.919037,0.006000,-0.018000,1.004000,192.000000,0.000000,0.000000,0.000000,0.000000,0.000000,0.000000,0.000000,0.000000,0.000000,1775741109.358622,0.000000
210.000000,17105.767680,19478.114781,-11433.632545,335.700850,-11123.792663,-5893.842088,1221.120503,990.428149,11273.996386,16532.512490,-166.587551,2563.812144,-15528.338018,18429.616801,3554.664976,3349.051279,0.008000,-0.012000,0.998000,192.000000,0.000000,32.000000,127.500000,80.000000,15.500000,24.000000,0.000000,0.000000,0.000000,1775741109.358646,0.000000
212.000000,17150.158244,19505.808593,-11373.618111,376.626894,-11074.440011,-5856.224103,1256.615073,1037.277405,11290.715491,16570.778676,-118.508949,2586.275647,-15464.546140,18462.384458,3144.063430,2794.638609,0.008000,-0.012000,0.998000,192.000000,0.000000,0.000000,0.000000,0.000000,0.000000,0.000000,0.000000,0.000000,0.000000,1775741109.358671,0.000000
214.000000,17105.298293,19471.498665,-11439.578109,320.412257,-11130.498186,-5905.085016,1211.241032,981.062768,11269.838961,16543.889528,-132.188217,2568.684825,-15478.113649,18442.692571,3241.740554,2928.391448,0.008000,-0.012000,0.998000,192.000000,0.000000,0.000000,0.000000,0.000000,0.000000,0.000000,0.000000,0.000000,0.000000,1775741109.358695,0.000000
216.000000,17152.147550,19514.168145,-11387.543248,363.282903,-11085.951160,-5874.127850,1248.188466,1027.688507,11303.791261,16554.037220,-142.849999,2574.965665,-15487.501381,18441.016190,3468.856629,3222.607460,0.008000,-0.012000,0.998000,192.000000,0.000000,0.000000,0.000000,0.000000,0.000000,0.000000,0.000000,0.000000,0.000000,1775741109.358719,0.000000
218.000000,17134.601430,19498.119592,-11405.648161,347.815495,-11106.425358,-5888.589428,1233.637480,1016.624393,11287.541543,16578.825304,-97.431254,2593.942296,-15426.726988,18464.306708,2971.597370,2563.879199,0.008000,-0.012000,0.998000,192.000000,0.000000,0.000000,0.000000,0.000000,0.000000,0.000000,0.000000,0.000000,0.000000,1775741109.358743,0.000000
220.000000,17126.755968,19498.477220,-11420.221498,338.114838,-11121.915117,-5899.452376,1231.357602,1007.683695,11287.452136,16544.269507,-153.131801,2573.490450,-15525.186422,18428.923896,3560.431726,3333.472113,0.009000,-0.011000,0.998000,192.000000,0.000000,40.000000,127.500000,88.000000,15.500000,24.000000,0.000000,0.000000,0.000000,1775741109.358767,0.000000
222.000000,17162.898739,19521.633628,-11369.930073,377.900944,-11079.089174,-5869.881018,1263.566466,1051.649577,11301.712549,16579.741726,-107.422484,2597.697389,-15467.608329,18459.121103,3143.862265,2786.636685,0.009000,-0.011000,0.998000,192.000000,0.000000,0.000000,0.000000,0.000000,0.000000,0.000000,0.000000,0.000000,0.000000,1775741109.358792,0.000000
224.000000,17110.394491,19483.210979,-11437.432341,324.547329,-11138.745980,-5916.573813,1221.813407,995.881974,11274.890456,16554.216034,-122.398153,2583.816956,-15483.478067,18443.005495,3234.565644,2906.218518,0.009000,-0.011000,0.998000,192.000000,0.000000,0.000000,0.000000,0.000000,0.000000,0.000000,0.000000,0.000000,0.000000,1775741109.358816,0.000000
226.000000,17151.767570,19517.766776,-11389.107870,366.836830,-11100.949180,-5880.855725,1255.028099,1034.729306,11296.661055,16553.768999,-143.609958,2579.480717,-15478.538332,18432.254306,3462.866361,3213.063265,0.009000,-0.011000,0.998000,192.000000,0.000000,0.000000,0.000000,0.000000,0.000000,0.000000,0.000000,0.000000,0.000000,1775741109.358840,0.000000
228.000000,17139.384704,19502.634645,-11402.474213,355.280978,-11111.007465,-5890.377568,1242.064088,1022.748771,11287.921523,16583.496819,-92.200946,2599.306714,-15467.809494,18465.021964,2961.829658,2558.872409,0.009000,-0.011000,0.998000,192.000000,0.000000,0.000000,0.000000,0.000000,0.000000,0.000000,0.000000,0.000000,0.000000,1775741109.358864,0.000000
230.000000,17127.582982,19498.030185,-11422.255507,341.378193,-11129.827634,-5901.486385,1233.369259,1006.320239,11287.072156,16540.045028,-150.427240,2573.401043,-15522.973600,18421.257248,3551.289863,3335.707287,0.010500,-0.011500,1.001000,192.000000,0.000000,48.000000,127.500000,80.000000,15.500000,48.000000,0.000000,0.000000,0.000000,1775741109.358888,0.000000
232.000000,17162.518759,19520.739558,-11372.411117,377.923295,-11087.158154,-5870.082184,1263.477059,1047.223931,11297.890401,16580.524037,-105.142606,2598.882031,-15468.435343,18452.527339,3140.285986,2799.287772,0.010500,-0.011500,1.001000,192.000000,0.000000,0.000000,0.000000,0.000000,0.000000,0.000000,0.000000,0.000000,0.000000,1775741109.358912,0.000000
234.000000,17110.506250,19481.400488,-11438.706391,323.742667,-11144.356268,-5911.455263,1220.628765,994.227945,11273.102316,16553.813702,-121.124103,2579.570124,-15487.903713,18432.388417,3228.597728,2914.063980,0.010500,-0.011500,1.001000,192.000000,0.000000,0.000000,0.000000,0.000000,0.000000,0.000000,0.000000,0.000000,0.000000,1775741109.358937,0.000000
236.000000,17149.264175,19512.312950,-11389.577256,365.339263,-11097.305846,-5871.579751,1254.223437,1031.376544,11299.007988,16550.952679,-140.324252,2578.653703,-15504.287541,18426.241687,3464.766260,3230.832902,0.010500,-0.011500,1.001000,192.000000,0.000000,0.000000,0.000000,0.000000,0.000000,0.000000,0.000000,0.000000,0.000000,1775741109.358961,0.000000
