Sample_index,EXG Channel 0,EXG Channel 1,EXG Channel 2,EXG Channel 3,EXG Channel 4,EXG Channel 5,EXG Channel 6,EXG Channel 7,EXG Channel 8,EXG Channel 9,EXG Channel 10,EXG Channel 11,EXG Channel 12,EXG Channel 13,EXG Channel 14,EXG Channel 15,Accel Channel 0,Accel Channel 1,Accel Channel 2,Not Used,Digital Channel 0 (D11),Digital Channel 1 (D12),Digital Channel 2 (D13),Digital Channel 3 (D17),Not Used,Digital Channel 4 (D18),Analog Channel 0,Analog Channel 1,Analog Channel 2,Timestamp,Marker Channel
90.000000,17196.426355,19120.956257,-12800.017035,-42.982405,-12906.724263,-4493.348836,1244.656890,-127.539054,12038.537805,16291.672443,-702.269459,2516.359391,-17003.351987,18251.160473,2734.423010,1742.676108,-0.002000,-0.018000,1.000000,192.000000,0.000000,0.000000,0.000000,0.000000,0.000000,0.000000,0.000000,0.000000,0.000000,1775740056.189965,101.000000
92.000000,17193.006539,19113.311960,-12793.512677,-48.860913,-12901.829231,-4502.557755,1242.667585,-126.533225,12013.056816,16305.910505,-651.463944,2529.725734,-16939.895384,18269.958290,2414.390733,1184.217773,-0.002000,-0.018000,1.000000,192.000000,0.000000,0.000000,0.000000,0.000000,0.000000,0.000000,0.000000,0.000000,0.000000,1775740056.190042,0.000000
94.000000,17173.605224,19106.449974,-12824.514547,-75.459489,-12927.623144,-4526.272956,1228.563634,-152.014214,12029.105369,16275.266263,-699.743712,2506.904603,-16988.152801,18238.218813,2762.429745,1775.890800,-0.002000,-0.012000,1.004000,192.000000,127.500000,120.000000,127.500000,80.000000,15.500000,48.000000,0.000000,0.000000,0.000000,1775740056.190102,0.000000
96.000000,17213.391329,19129.271105,-12764.298947,-37.573282,-12878.359899,-4500.367284,1260.191352,-105.656696,12035.743837,16299.763775,-665.970226,2524.316612,-16960.414286,18251.674563,2560.079403,1407.712866,-0.002000,-0.012000,1.004000,192.000000,0.000000,0.000000,0.000000,0.000000,0.000000,0.000000,0.000000,0.000000,0.000000,1775740056.190163,0.000000
98.000000,17168.374916,19094.625902,-12825.162748,-85.808347,-12929.120711,-4538.454656,1224.339154,-153.422374,12011.067511,16282.351766,-663.489182,2515.733542,-16960.369582,18239.582269,2551.272816,1390.367912,-0.002000,-0.012000,1.004000,192.000000,0.000000,0.000000,0.000000,0.000000,0.000000,0.000000,0.000000,0.000000,0.000000,1775740056.190219,0.000000
100.000000,17196.806335,19116.642370,-12785.220180,-54.650015,-12897.045958,-4513.063075,1250.401288,-126.533225,12043.499892,16280.273054,-694.647514,2508.491577,-16993.941902,18230.395702,2751.052708,1725.845245,-0.002000,-0.012000,1.004000,192.000000,0.000000,0.000000,0.000000,0.000000,0.000000,0.000000,0.000000,0.000000,0.000000,1775740056.190257,0.000000
102.000000,17188.692652,19109.154535,-12789.087032,-57.198114,-12897.314179,-4511.923136,1242.421716,-129.483656,12015.448453,16303.272999,-646.971243,2525.613013,-16933.279268,18255.340249,2424.828997,1163.967093,-0.002000,-0.012000,1.004000,192.000000,0.000000,0.000000,0.000000,0.000000,0.000000,0.000000,0.000000,0.000000,0.000000,1775740056.190285,0.000000
104.000000,17178.835533,19114.027216,-12825.386265,-76.755890,-12928.584269,-4522.674325,1226.149646,-151.544827,12026.780787,16275.176856,-702.537680,2505.809367,-16998.993397,18227.869955,2768.196496,1756.914169,0.004000,-0.010000,1.002000,192.000000,0.000000,16.000000,127.500000,88.000000,15.500000,40.000000,0.000000,0.000000,0.000000,1775740056.190313,0.000000
106.000000,17224.388388,19143.218594,-12768.210503,-30.264262,-12882.182048,-4493.773519,1258.872599,-103.198004,12045.086866,16315.365292,-661.723395,2532.787923,-16955.161626,18257.284851,2555.564351,1398.548651,0.004000,-0.010000,1.002000,192.000000,0.000000,0.000000,0.000000,0.000000,0.000000,0.000000,0.000000,0.000000,0.000000,1775740056.190341,0.000000
108.000000,17166.631480,19101.107907,-12837.679724,-75.280675,-12941.972964,-4525.244775,1220.829930,-157.356281,12009.189964,16288.073812,-667.825421,2521.008554,-16960.034306,18240.901022,2542.309766,1393.541860,0.004000,-0.010000,1.002000,192.000000,0.000000,0.000000,0.000000,0.000000,0.000000,0.000000,0.000000,0.000000,0.000000,1775740056.190369,0.000000
110.000000,17194.258236,19127.058283,-12799.882925,-38.802628,-12907.819499,-4498.713255,1247.093230,-129.573063,12037.688439,16288.654958,-702.090645,2517.298164,-17003.351987,18236.095397,2735.339431,1741.223245,0.004000,-0.010000,1.002000,192.000000,0.000000,0.000000,0.000000,0.000000,0.000000,0.000000,0.000000,0.000000,0.000000,1775740056.190411,0.000000
112.000000,17192.067765,19115.122451,-12799.949980,-42.982405,-12904.533792,-4502.043665,1241.862922,-131.204740,12010.776938,16310.336150,-654.928464,2533.190254,-16940.543585,18257.262499,2412.401427,1181.513212,0.004000,-0.010000,1.002000,192.000000,0.000000,0.000000,0.000000,0.000000,0.000000,0.000000,0.000000,0.000000,0.000000,1775740056.190440,0.000000
114.000000,17176.734469,19110.517992,-12828.269640,-69.133946,-12928.628973,-4517.555775,1228.094247,-152.729470,12028.904203,16275.378022,-705.666924,2509.944440,-16998.680472,18224.897173,2762.139173,1776.404891,0.004000,-0.016000,1.010000,192.000000,0.000000,16.000000,127.500000,64.000000,15.500000,72.000000,0.000000,0.000000,0.000000,1775740056.190468,0.000000
116.000000,17210.373844,19136.647181,-12766.310604,-29.906634,-12876.236484,-4486.352740,1259.587855,-107.467187,12035.252098,16305.351711,-669.144174,2527.490560,-16959.140236,18246.153682,2556.257255,1419.201662,0.004000,-0.016000,1.010000,192.000000,0.000000,0.000000,0.000000,0.000000,0.000000,0.000000,0.000000,0.000000,0.000000,1775740056.190495,0.000000
118.000000,17170.900663,19101.599646,-12826.861480,-83.684931,-12928.651324,-4526.004735,1221.455779,-155.590493,12008.541764,16288.364385,-667.490145,2520.136836,-16959.430809,18236.967115,2553.619749,1401.253212,0.004000,-0.016000,1.010000,192.000000,0.000000,0.000000,0.000000,0.000000,0.000000,0.000000,0.000000,0.000000,0.000000,1775740056.190523,0.000000
120.000000,17206.395233,19129.204050,-12783.856724,-52.280730,-12892.866181,-4501.842499,1250.758916,-121.191158,12048.998421,16287.604426,-691.942953,2514.146568,-16985.381184,18226.752368,2756.439478,1744.553655,0.004000,-0.016000,1.010000,192.000000,0.000000,0.000000,0.000000,0.000000,0.000000,0.000000,0.000000,0.000000,0.000000,1775740056.190551,0.000000
122.000000,17189.720832,19111.568524,-12791.948055,-56.147582,-12899.549353,-4509.106816,1242.891102,-129.394249,12015.783729,16304.658807,-645.652490,2527.579966,-16930.127672,18245.259612,2427.511207,1175.634703,0.004000,-0.016000,1.010000,192.000000,0.000000,0.000000,0.000000,0.000000,0.000000,0.000000,0.000000,0.000000,0.000000,1775740056.190580,0.000000
124.000000,17173.314652,19106.897009,-12827.152053,-76.510021,-12929.098359,-4524.596575,1228.183654,-153.623540,12020.410540,16271.466466,-704.526985,2502.389550,-16998.993397,18214.682426,2766.050728,1763.485582,0.008000,-0.012000,1.002000,192.000000,0.000000,32.000000,127.500000,80.000000,15.500000,40.000000,0.000000,0.000000,0.000000,1775740056.190608,0.000000
126.000000,17212.117280,19131.886260,-12768.992814,-34.689907,-12881.556199,-4495.829880,1259.431393,-108.048333,12039.834206,16300.255513,-667.579552,2522.796693,-16955.563957,18233.457891,2554.983205,1407.109369,0.008000,-0.012000,1.002000,192.000000,0.000000,0.000000,0.000000,0.000000,0.000000,0.000000,0.000000,0.000000,0.000000,1775740056.190635,0.000000
128.000000,17165.916224,19100.884390,-12831.890623,-83.416710,-12935.267441,-4530.184511,1223.087457,-156.462211,12007.088900,16281.144772,-668.540677,2518.885138,-16955.228681,18223.913696,2543.337946,1385.025845,0.008000,-0.012000,1.002000,192.000000,0.000000,0.000000,0.000000,0.000000,0.000000,0.000000,0.000000,0.000000,0.000000,1775740056.190685,0.000000
130.000000,17207.602228,19137.898879,-12791.948055,-49.196190,-12904.913772,-4503.451825,1250.311881,-119.693592,12047.500854,16286.486839,-694.044017,2517.745199,-16989.024519,18218.750443,2741.732030,1730.941442,0.008000,-0.012000,1.002000,192.000000,0.000000,0.000000,0.000000,0.000000,0.000000,0.000000,0.000000,0.000000,0.000000,1775740056.190714,0.000000
132.000000,17201.299036,19122.163251,-12793.266808,-51.073736,-12902.991522,-4505.709351,1244.388669,-122.219339,12023.070398,16310.671426,-642.322080,2537.727658,-16927.512518,18242.353885,2412.401427,1168.526848,0.008000,-0.012000,1.002000,192.000000,0.000000,0.000000,0.000000,0.000000,0.000000,0.000000,0.000000,0.000000,0.000000,1775740056.190741,0.000000
134.000000,17177.449724,19112.999035,-12829.789559,-70.095071,-12931.802920,-4518.651011,1228.541282,-150.561351,12028.054837,16273.187551,-700.883651,2514.392437,-16993.070184,18210.972036,2757.154734,1763.284417,0.008000,-0.012000,1.004000,192.000000,0.000000,32.000000,127.500000,80.000000,15.500000,56.000000,0.000000,0.000000,0.000000,1775740056.190769,0.000000
136.000000,17214.710082,19135.753111,-12768.165799,-25.279823,-12872.637853,-4481.234191,1260.794849,-107.467187,12038.202529,16303.675330,-668.205400,2536.274795,-16954.535777,18237.548260,2554.737336,1417.614689,0.008000,-0.012000,1.004000,192.000000,0.000000,0.000000,0.000000,0.000000,0.000000,0.000000,0.000000,0.000000,0.000000,1775740056.190797,0.000000
138.000000,17168.263157,19104.952407,-12829.074303,-71.257361,-12917.587211,-4507.676304,1224.361506,-157.579798,12008.608819,16290.085469,-669.971188,2526.596490,-16948.590213,18232.742635,2550.378746,1394.815909,0.008000,-0.012000,1.004000,192.000000,0.000000,0.000000,0.000000,0.000000,0.000000,0.000000,0.000000,0.000000,0.000000,1775740056.190824,0.000000
140.000000,17193.699443,19118.363454,-12791.210448,-48.615044,-12885.311292,-4487.000941,1246.020346,-135.272757,12039.029543,16285.212789,-703.543508,2516.828777,-16985.939978,18222.393778,2760.909827,1746.207684,0.008000,-0.012000,1.004000,192.000000,0.000000,0.000000,0.000000,0.000000,0.000000,0.000000,0.000000,0.000000,0.000000,1775740056.190852,0.000000
142.000000,17192.067765,19110.249771,-12787.656520,-52.794820,-12882.383213,-4486.419795,1241.907625,-133.819894,12012.453319,16300.031996,-653.140325,2528.809312,-16924.517384,18241.169243,2436.027221,1183.279000,0.008000,-0.012000,1.004000,192.000000,0.000000,0.000000,0.000000,0.000000,0.000000,0.000000,0.000000,0.000000,0.000000,1775740056.190879,0.000000
144.000000,17172.286471,19100.929093,-12824.514547,-79.773376,-12915.754368,-4504.949391,1225.009707,-159.479697,12026.579622,16266.862007,-704.281116,2504.334152,-16987.348138,18207.909847,2778.433595,1771.442803,0.007000,-0.011000,1.006000,192.000000,0.000000,24.000000,127.500000,88.000000,15.500000,64.000000,0.000000,0.000000,0.000000,1775740056.190907,0.000000
146.000000,17199.801469,19117.491736,-12774.021956,-38.333242,-12873.397812,-4478.149650,1253.686995,-118.196025,12028.144244,16289.571379,-676.542601,2521.142664,-16955.698068,18224.047807,2567.097851,1420.609822,0.007000,-0.011000,1.006000,192.000000,0.000000,0.000000,0.000000,0.000000,0.000000,0.000000,0.000000,0.000000,0.000000,1775740056.190935,0.000000
148.000000,17159.165997,19094.223570,-12839.020829,-82.969675,-12927.869013,-4517.779293,1216.717209,-165.782889,11995.465993,16276.585016,-679.515383,2516.046466,-16956.323916,18215.665903,2544.366127,1387.126909,0.007000,-0.011000,1.006000,192.000000,0.000000,0.000000,0.000000,0.000000,0.000000,0.000000,0.000000,0.000000,0.000000,1775740056.190963,0.000000
150.000000,17189.854943,19118.139937,-12802.006340,-51.185495,-12903.237391,-4495.338141,1243.248730,-137.127952,12033.195738,16279.200170,-710.003163,2511.956097,-16994.992434,18205.518211,2745.062440,1739.457457,0.007000,-0.011000,1.006000,192.000000,0.000000,0.000000,0.000000,0.000000,0.000000,0.000000,0.000000,0.000000,0.000000,1775740056.190991,0.000000
152.000000,17190.324329,19110.763861,-12796.261942,-52.303082,-12903.259743,-4500.970781,1243.606358,-133.216397,12005.926610,16296.790993,-656.537790,2529.345754,-16935.469739,18224.807766,2416.245927,1168.929180,0.007000,-0.011000,1.006000,192.000000,0.000000,0.000000,0.000000,0.000000,0.000000,0.000000,0.000000,0.000000,0.000000,1775740056.191018,0.000000
154.000000,17175.438067,19108.685149,-12829.096655,-72.956094,-12929.098359,-4514.560642,1230.307070,-151.790697,12023.025694,16270.773562,-702.895308,2513.744237,-16997.696995,18195.526981,2757.624120,1757.249446,0.005500,-0.010500,1.004000,192.000000,0.000000,16.000000,127.500000,88.000000,15.500000,40.000000,0.000000,0.000000,0.000000,1775740056.191046,0.000000
156.000000,17222.197917,19138.904707,-12763.538988,-26.442114,-12877.108202,-4477.099118,1264.393480,-99.621725,12037.777846,16303.652978,-663.422127,2536.699478,-16945.103341,18218.929257,2554.603226,1413.054933,0.005500,-0.010500,1.004000,192.000000,0.000000,0.000000,0.000000,0.000000,0.000000,0.000000,0.000000,0.000000,0.000000,1775740056.191073,0.000000
158.000000,17181.920073,19109.623922,-12824.313381,-72.799632,-12922.750464,-4509.553851,1226.484922,-146.649795,12014.442624,16295.762813,-658.616502,2535.000746,-16949.417227,18216.314103,2543.248539,1384.914086,0.005500,-0.010500,1.004000,192.000000,0.000000,0.000000,0.000000,0.000000,0.000000,0.000000,0.000000,0.000000,0.000000,1775740056.191100,0.000000
160.000000,17211.692597,19132.914440,-12787.477706,-41.663652,-12891.301559,-4483.648179,1251.585931,-116.117312,12050.227767,16294.868743,-689.260744,2529.301051,-16988.555132,18207.619275,2750.382155,1748.040527,0.005500,-0.010500,1.004000,192.000000,0.000000,0.000000,0.000000,0.000000,0.000000,0.000000,0.000000,0.000000,0.000000,1775740056.191128,0.000000
162.000000,17201.991940,19119.637504,-12787.388299,-42.691832,-12890.541600,-4490.040778,1246.646195,-120.006516,12020.254078,16313.912429,-640.824514,2546.668356,-16926.551393,18232.362656,2423.174968,1185.134195,0.005500,-0.010500,1.004000,192.000000,0.000000,0.000000,0.000000,0.000000,0.000000,0.000000,0.000000,0.000000,0.000000,1775740056.191155,0.000000
164.000000,17176.578006,19103.253675,-12828.671971,-73.358425,-12925.320914,-4508.972705,1225.568500,-157.624502,12023.718598,16276.406202,-702.202404,2514.839472,-16994.187772,18196.398699,2769.202324,1767.844172,0.007750,-0.009250,1.003000,192.000000,0.000000,40.000000,127.500000,96.000000,15.500000,40.000000,0.000000,0.000000,0.000000,1775740056.191183,0.000000
166.000000,17215.447690,19121.850326,-12769.059869,-34.756963,-12868.592187,-4488.118528,1256.883294,-112.898661,12033.933346,16291.761850,-671.692273,2523.064914,-16958.737905,18202.813650,2573.065766,1420.296898,0.007750,-0.009250,1.003000,192.000000,0.000000,0.000000,0.000000,0.000000,0.000000,0.000000,0.000000,0.000000,0.000000,1775740056.191210,0.000000
168.000000,17167.391439,19089.730869,-12835.802178,-84.556649,-12924.695066,-4528.530482,1220.047619,-161.714871,11998.863458,16270.840618,-671.915790,2514.303030,-16957.642669,18189.961396,2554.893798,1378.946171,0.007750,-0.009250,1.003000,192.000000,0.000000,0.000000,0.000000,0.000000,0.000000,0.000000,0.000000,0.000000,0.000000,1775740056.191238,0.000000
170.000000,17202.528382,19115.927114,-12800.888753,-53.018338,-12899.974036,-4507.408083,1246.221512,-128.097847,12032.547537,16269.298347,-705.286945,2509.810330,-16999.641597,18178.629062,2758.227618,1737.535207,0.007750,-0.009250,1.003000,192.000000,0.000000,0.000000,0.000000,0.000000,0.000000,0.000000,0.000000,0.000000,0.000000,1775740056.191267,0.000000
172.000000,17202.774251,19113.155498,-12796.843087,-52.191323,-12902.522135,-4503.340066,1243.472248,-123.694554,12004.697264,16292.745327,-653.699118,2531.782094,-16940.498881,18203.215981,2422.772637,1167.699834,0.007750,-0.009250,1.003000,192.000000,0.000000,0.000000,0.000000,0.000000,0.000000,0.000000,0.000000,0.000000,0.000000,1775740056.191295,0.000000
174.000000,17191.710137,19115.524783,-12831.600050,-74.453661,-12937.681429,-4518.226328,1227.758971,-146.895665,12024.836186,16268.203112,-701.241279,2514.705362,-16998.166382,18177.131495,2755.925388,1752.175600,0.006875,-0.011625,1.004500,192.000000,0.000000,24.000000,127.500000,72.000000,15.500000,56.000000,0.000000,0.000000,0.000000,1775740056.191323,0.000000
176.000000,17236.681847,19143.084484,-12767.517599,-29.549006,-12885.490106,-4483.245848,1261.487754,-99.375856,12041.421180,16301.574266,-664.249142,2535.894815,-16956.323916,18203.640664,2551.563388,1409.411598,0.006875,-0.011625,1.004500,192.000000,0.000000,0.000000,0.000000,0.000000,0.000000,0.000000,0.000000,0.000000,0.000000,1775740056.191350,0.000000
178.000000,17197.879219,19118.966951,-12822.771111,-73.470184,-12931.400589,-4511.856081,1228.541282,-138.491409,12017.795386,16290.756022,-655.800182,2533.927862,-16948.545509,18199.460888,2530.440990,1372.799441,0.006875,-0.011625,1.004500,192.000000,0.000000,0.000000,0.000000,0.000000,0.000000,0.000000,0.000000,0.000000,0.000000,1775740056.191378,0.000000
180.000000,17226.154176,19143.643277,-12783.789669,-43.496495,-12895.302522,-4486.352740,1253.105849,-107.042504,12054.429895,16291.471278,-682.689331,2531.983260,-16981.581388,18190.877818,2743.542521,1739.904492,0.006875,-0.011625,1.004500,192.000000,0.000000,0.000000,0.000000,0.000000,0.000000,0.000000,0.000000,0.000000,0.000000,1775740056.191406,0.000000
182.000000,17221.728530,19129.651085,-12779.118154,-43.541198,-12891.458022,-4488.923191,1250.647158,-108.137740,12032.860462,16311.699606,-629.156903,2550.490505,-16916.738977,18211.441423,2419.643393,1175.008854,0.006875,-0.011625,1.004500,192.000000,0.000000,0.000000,0.000000,0.000000,0.000000,0.000000,0.000000,0.000000,0.000000,1775740056.191427,0.000000
184.000000,17191.508972,19109.959198,-12821.117082,-68.172821,-12926.863185,-4507.095159,1232.072858,-143.900531,12036.548500,16269.432458,-686.042093,2520.427408,-16985.023556,18174.650451,2755.545408,1764.983149,0.006438,-0.012813,1.003250,192.000000,0.000000,24.000000,127.500000,72.000000,15.500000,40.000000,0.000000,0.000000,0.000000,1775740056.191441,0.000000
186.000000,17212.854888,19118.654027,-12769.641014,-32.857064,-12883.657263,-4481.748281,1256.346852,-112.205757,12032.502834,16283.737574,-664.249142,2527.110580,-16956.994469,18184.440516,2565.600284,1429.885796,0.006438,-0.012813,1.003250,192.000000,0.000000,0.000000,0.000000,0.000000,0.000000,0.000000,0.000000,0.000000,0.000000,1775740056.191455,0.000000
188.000000,17167.436143,19087.026308,-12834.908108,-80.175707,-12930.394760,-4510.604383,1217.231300,-163.547714,11996.002435,16265.789123,-672.072252,2513.721885,-16959.542568,18173.912844,2546.355432,1387.171613,0.006438,-0.012813,1.003250,192.000000,0.000000,0.000000,0.000000,0.000000,0.000000,0.000000,0.000000,0.000000,0.000000,1775740056.191467,0.000000
190.000000,17195.487582,19111.233248,-12798.564172,-53.465373,-12899.929333,-4487.470327,1240.745335,-134.825723,12032.256965,16263.151617,-706.918622,2507.172824,-17000.334501,18163.005193,2759.501667,1752.309710,0.006438,-0.012813,1.003250,192.000000,0.000000,0.000000,0.000000,0.000000,0.000000,0.000000,0.000000,0.000000,0.000000,1775740056.191480,0.000000
192.000000,17186.435126,19094.715309,-12799.972332,-60.416765,-12899.258780,-4503.652990,1235.291509,-135.853903,12003.669084,16279.826019,-657.655377,2524.182501,-16939.180128,18180.596016,2429.791085,1175.768814,0.006438,-0.012813,1.003250,192.000000,0.000000,0.000000,0.000000,0.000000,0.000000,0.000000,0.000000,0.000000,0.000000,1775740056.191492,0.000000
194.000000,17164.150436,19085.551093,-12836.517434,-83.528469,-12929.098359,-4520.707371,1220.964041,-163.726528,12004.294932,16241.626888,-715.077009,2496.846318,-17008.537592,18142.642753,2770.722243,1751.035661,0.004219,-0.013406,1.002625,192.000000,0.000000,8.000000,127.500000,72.000000,15.500000,40.000000,0.000000,0.000000,0.000000,1775740056.191504,0.000000
196.000000,17211.670245,19117.894068,-12773.306700,-36.209826,-12878.650472,-4484.810470,1256.548018,-113.949193,12023.539784,16282.061193,-677.481374,2519.510987,-16965.935167,18167.989632,2573.155173,1413.345505,0.004219,-0.013406,1.002625,192.000000,0.000000,0.000000,0.000000,0.000000,0.000000,0.000000,0.000000,0.000000,0.000000,1775740056.191517,0.000000
198.000000,17173.895797,19092.010747,-12832.717637,-79.751024,-12931.847624,-4522.093179,1222.975698,-152.081269,11996.449470,16273.031088,-671.513459,2517.700495,-16959.184940,18166.469713,2547.294205,1361.780031,0.004219,-0.013406,1.002625,192.000000,0.000000,0.000000,0.000000,0.000000,0.000000,0.000000,0.000000,0.000000,0.000000,1775740056.191529,0.000000
200.000000,17212.921943,19127.997056,-12787.969445,-45.932835,-12897.917676,-4493.304133,1250.669509,-113.010420,12039.968317,16279.043708,-693.954610,2523.668411,-16990.991472,18160.345335,2754.740745,1734.428314,0.004219,-0.013406,1.002625,192.000000,0.000000,0.000000,0.000000,0.000000,0.000000,0.000000,0.000000,0.000000,0.000000,1775740056.191542,0.000000
202.000000,17222.399082,19130.880431,-12779.542837,-41.104858,-12891.502725,-4491.717159,1251.049489,-103.287411,12024.769130,16311.207868,-631.973223,2551.853961,-16919.264724,18190.073155,2419.509282,1170.359691,0.004219,-0.013406,1.002625,192.000000,0.000000,0.000000,0.000000,0.000000,0.000000,0.000000,0.000000,0.000000,0.000000,1775740056.191554,0.000000
204.000000,17199.443841,19115.837707,-12819.664218,-64.887114,-12927.712551,-4510.045589,1234.352736,-131.629423,12031.809930,16278.194341,-682.756386,2529.658679,-16983.458934,18159.227748,2755.411298,1753.628463,0.004219,-0.013406,1.002625,192.000000,0.000000,0.000000,0.000000,0.000000,0.000000,0.000000,0.000000,0.000000,0.000000,1775740056.191566,0.000000
206.000000,17226.288286,19133.607344,-12766.467067,-21.837654,-12885.087774,-4479.244885,1264.393480,-96.984219,12042.918747,16305.061138,-655.800182,2541.683917,-16944.544547,18177.824399,2556.324310,1424.722543,0.006000,-0.012000,0.998000,192.000000,0.000000,24.000000,127.500000,80.000000,15.500000,24.000000,0.000000,0.000000,0.000000,1775740056.191579,0.000000
208.000000,17176.801524,19097.442221,-12831.443588,-69.178649,-12940.453045,-4516.080560,1226.350811,-152.707118,11998.483479,16282.754097,-664.807935,2527.825836,-16947.450274,18163.116951,2526.127103,1376.666293,0.006000,-0.012000,0.998000,192.000000,0.000000,0.000000,0.000000,0.000000,0.000000,0.000000,0.000000,0.000000,0.000000,1775740056.191591,0.000000
210.000000,17197.588646,19114.161326,-12801.604009,-48.592692,-12917.341342,-4498.534441,1245.103925,-131.249443,12029.194776,16274.439248,-703.141177,2516.046466,-17003.486097,18144.766169,2741.664975,1750.007480,0.006000,-0.012000,0.998000,192.000000,0.000000,0.000000,0.000000,0.000000,0.000000,0.000000,0.000000,0.000000,0.000000,1775740056.671859,0.000000
212.000000,17191.397213,19101.823163,-12800.441718,-52.057213,-12911.485185,-4497.170984,1240.186541,-130.936519,11995.175421,16287.783240,-658.884723,2528.764609,-16947.517329,18162.848730,2410.456826,1176.707587,0.006000,-0.012000,0.998000,192.000000,0.000000,0.000000,0.000000,0.000000,0.000000,0.000000,0.000000,0.000000,0.000000,1775740056.671937,0.000000
214.000000,17167.592605,19090.490829,-12842.977088,-81.583867,-12941.950612,-4512.101950,1218.505349,-163.547714,11999.936342,16253.316850,-715.926375,2503.998876,-17010.303379,18131.489233,2751.969129,1757.964701,0.006000,-0.012000,0.998000,192.000000,0.000000,0.000000,0.000000,0.000000,0.000000,0.000000,0.000000,0.000000,0.000000,1775740056.672000,0.000000
216.000000,17207.848097,19113.379015,-12782.202695,-39.696698,-12889.960455,-4478.261409,1252.144724,-120.274737,12011.112214,16282.351766,-687.472604,2515.442969,-16977.043984,18150.376457,2565.063842,1429.192892,0.008000,-0.012000,0.998000,192.000000,0.000000,32.000000,127.500000,80.000000,15.500000,24.000000,0.000000,0.000000,0.000000,1775740056.672060,0.000000
218.000000,17169.336041,19086.869846,-12839.959602,-83.863745,-12930.148891,-4505.396426,1217.544224,-165.626426,11987.061737,16268.918367,-682.041130,2509.787978,-16964.884635,18148.655373,2535.626594,1373.335883,0.008000,-0.012000,0.998000,192.000000,0.000000,0.000000,0.000000,0.000000,0.000000,0.000000,0.000000,0.000000,0.000000,1775740056.672129,0.000000
220.000000,17195.442879,19108.796908,-12801.447547,-52.817172,-12899.661112,-4483.916400,1242.824047,-136.725621,12025.394979,16267.756077,-711.366619,2506.435216,-16999.798059,18142.396884,2757.534713,1752.533228,0.008000,-0.012000,0.998000,192.000000,0.000000,0.000000,0.000000,0.000000,0.000000,0.000000,0.000000,0.000000,0.000000,1775740056.672160,0.000000
222.000000,17205.210591,19111.635579,-12791.299855,-48.972672,-12892.419147,-4485.659836,1244.254559,-123.113408,12001.903296,16294.622874,-654.615540,2531.938557,-16929.814748,18164.726277,2432.182721,1177.109918,0.008000,-0.012000,0.998000,192.000000,0.000000,0.000000,0.000000,0.000000,0.000000,0.000000,0.000000,0.000000,0.000000,1775740056.672190,0.000000
224.000000,17195.264065,19117.625847,-12821.005323,-65.647073,-12915.262629,-4502.781272,1233.592776,-135.362164,12012.498023,16272.427591,-698.201442,2523.131969,-16992.801963,18134.707884,2774.432632,1754.813105,0.008000,-0.012000,0.998000,192.000000,0.000000,0.000000,0.000000,0.000000,0.000000,0.000000,0.000000,0.000000,0.000000,1775740056.672219,0.000000
226.000000,17241.196900,19146.660763,-12760.856779,-20.563605,-12867.027565,-4470.393595,1265.958102,-84.556649,12036.056761,16310.067929,-654.794354,2551.943368,-16954.021687,18161.373515,2583.436976,1429.662279,0.010000,-0.014000,0.994000,192.000000,0.000000,40.000000,127.500000,72.000000,15.500000,8.000000,0.000000,0.000000,0.000000,1775740056.672249,0.000000
228.000000,17189.162038,19110.249771,-12825.408617,-64.931818,-12917.967191,-4506.424607,1230.642346,-135.429220,12004.496098,16292.030071,-651.083964,2545.662528,-16944.969230,18152.119893,2544.880217,1373.313531,0.010000,-0.014000,0.994000,192.000000,0.000000,0.000000,0.000000,0.000000,0.000000,0.000000,0.000000,0.000000,0.000000,1775740056.672279,0.000000
230.000000,17215.492393,19131.416873,-12794.943189,-32.275919,-12889.491068,-4480.563638,1253.307015,-114.999725,12034.179215,16284.586940,-692.032360,2533.771400,-16992.891370,18138.798253,2757.758231,1758.501143,0.010000,-0.014000,0.994000,192.000000,0.000000,0.000000,0.000000,0.000000,0.000000,0.000000,0.000000,0.000000,0.000000,1775740056.672304,0.000000
232.000000,17209.412719,19122.297361,-12793.400919,-35.226349,-12886.004196,-4481.569467,1248.881370,-119.090094,12004.205525,16308.480955,-646.479505,2549.059993,-16933.458082,18164.011021,2421.409180,1189.224564,0.010000,-0.014000,0.994000,192.000000,0.000000,0.000000,0.000000,0.000000,0.000000,0.000000,0.000000,0.000000,0.000000,1775740056.672318,0.000000
234.000000,17174.320480,19099.945617,-12838.462035,-72.486707,-12923.555127,-4506.603421,1224.205044,-160.127897,12005.256057,16264.202149,-708.080913,2516.582908,-17000.826240,18123.911992,2756.886513,1763.597341,0.010000,-0.014000,0.994000,192.000000,0.000000,0.000000,0.000000,0.000000,0.000000,0.000000,0.000000,0.000000,0.000000,1775740056.672331,0.000000
236.000000,17213.927771,19123.236134,-12778.894636,-31.739477,-12870.626196,-4472.025272,1256.793887,-114.530339,12017.348351,16290.510153,-679.671845,2532.787923,-16964.527007,18140.966373,2568.751880,1438.088887,0.008000,-0.014000,1.000000,192.000000,0.000000,32.000000,127.500000,72.000000,15.500000,32.000000,0.000000,0.000000,0.000000,1775740056.672345,0.000000
238.000000,17167.279681,19086.355756,-12841.345411,-82.746158,-12922.839871,-4506.424607,1216.985430,-166.341682,11979.104516,16270.170065,-680.431805,2519.287469,-16964.929338,18131.019846,2538.487618,1376.353368,0.008000,-0.014000,1.000000,192.000000,0.000000,0.000000,0.000000,0.000000,0.000000,0.000000,0.000000,0.000000,0.000000,1775740056.672359,0.000000
240.000000,17192.224227,19106.114698,-12806.588448,-54.940588,-12894.073176,-4483.648179,1240.030079,-140.972452,12010.687531,16265.185626,-715.322878,2506.971658,-17009.074033,18119.352236,2761.781545,1759.037585,0.008000,-0.014000,1.000000,192.000000,0.000000,0.000000,0.000000,0.000000,0.000000,0.000000,0.000000,0.000000,0.000000,1775740056.672374,0.000000
242.000000,17200.315559,19105.824126,-12797.245419,-48.682099,-12884.819553,-4484.966932,1241.058259,-131.964699,11994.527220,16292.275940,-656.113107,2528.541092,-16941.929393,18144.967335,2431.601576,1185.782395,0.008000,-0.014000,1.000000,192.000000,0.000000,0.000000,0.000000,0.000000,0.000000,0.000000,0.000000,0.000000,0.000000,1775740056.672393,0.000000
244.000000,17184.646986,19102.225495,-12829.297820,-68.262228,-12915.463795,-4494.846403,1228.138951,-156.126935,12011.469842,16260.938795,-703.990543,2510.369123,-17000.647426,18118.458166,2765.715452,1762.390347,0.008000,-0.014000,1.000000,192.000000,0.000000,0.000000,0.000000,0.000000,0.000000,0.000000,0.000000,0.000000,0.000000,1775740056.672409,0.000000
246.000000,17227.182356,19131.618039,-12767.986985,-22.284689,-12867.161675,-4463.688071,1262.515934,-106.103731,12026.177290,16295.248722,-667.713662,2535.358374,-16961.420114,18141.771035,2579.503069,1441.285186,0.006000,-0.014000,1.000000,192.000000,0.000000,24.000000,127.500000,72.000000,15.500000,32.000000,0.000000,0.000000,0.000000,1775740056.672439,0.000000
248.000000,17186.479829,19104.259503,-12829.186062,-68.932780,-12922.482243,-4503.876508,1225.277928,-148.884970,11995.376586,16282.597635,-662.125726,2533.123199,-16959.050829,18135.937230,2541.818028,1372.285351,0.006000,-0.014000,1.000000,192.000000,0.000000,0.000000,0.000000,0.000000,0.000000,0.000000,0.000000,0.000000,0.000000,1775740056.672453,0.000000
250.000000,17216.475870,19127.795890,-12792.350387,-39.428477,-12895.414280,-4486.285685,1249.998957,-118.665411,12031.720523,16279.378984,-693.373465,2529.055182,-16995.819449,18120.939210,2761.356862,1755.662472,0.006000,-0.014000,1.000000,192.000000,0.000000,0.000000,0.000000,0.000000,0.000000,0.000000,0.000000,0.000000,0.000000,1775740056.672470,0.000000
252.000000,17221.907344,19126.275972,-12786.136602,-37.975614,-12890.094565,-4491.717159,1250.580102,-113.971545,12003.691435,16302.557743,-641.070383,2549.350566,-16932.720474,18144.140320,2424.001983,1178.920410,0.006000,-0.014000,1.000000,192.000000,0.000000,0.000000,0.000000,0.000000,0.000000,0.000000,0.000000,0.000000,0.000000,1775740056.672489,0.000000
254.000000,17189.989053,19110.070957,-12827.666143,-67.234047,-12927.712551,-4515.767636,1230.754105,-147.610920,12014.599087,16270.773562,-695.429825,2524.450722,-16997.473478,18110.076262,2757.110030,1749.336928,0.006000,-0.014000,1.000000,192.000000,0.000000,0.000000,0.000000,0.000000,0.000000,0.000000,0.000000,0.000000,0.000000,1775740056.672506,0.000000
0.000000,17224.969533,19133.205012,-12768.858703,-22.463503,-12879.119859,-4480.429528,1264.214666,-104.717923,12024.210337,16295.494592,-668.674787,2537.168865,-16954.826350,18125.566021,2571.031758,1433.082096,0.008000,-0.010000,1.000000,192.000000,0.000000,32.000000,127.500000,88.000000,15.500000,32.000000,0.000000,0.000000,0.000000,1775740056.672520,0.000000
2.000000,17177.762649,19097.911608,-12836.048047,-74.721882,-12935.714476,-4515.432360,1224.316803,-156.261045,11986.279426,16281.368289,-671.625217,2527.468208,-16967.790361,18115.775957,2531.022135,1365.669234,0.008000,-0.010000,1.000000,192.000000,0.000000,0.000000,0.000000,0.000000,0.000000,0.000000,0.000000,0.000000,0.000000,1775740056.672534,0.000000
4.000000,17207.468117,19121.090367,-12802.006340,-50.067908,-12904.131461,-4488.967894,1244.299262,-130.377725,12022.176328,16278.574321,-707.477415,2518.706324,-17008.716405,18105.740023,2753.511399,1756.198914,0.008000,-0.010000,1.000000,192.000000,0.000000,0.000000,0.000000,0.000000,0.000000,0.000000,0.000000,0.000000,0.000000,1775740056.672547,0.000000
6.000000,17212.027873,19117.894068,-12790.741061,-49.196190,-12890.854524,-4486.017464,1242.935806,-125.482693,12002.976179,16300.881362,-653.274435,2536.431257,-16939.917736,18128.851727,2423.487893,1185.447119,0.008000,-0.010000,1.000000,192.000000,0.000000,0.000000,0.000000,0.000000,0.000000,0.000000,0.000000,0.000000,0.000000,1775740056.672561,0.000000
8.000000,17187.217437,19104.974759,-12829.119006,-73.492536,-12924.762121,-4499.830842,1227.088419,-152.014214,12007.580639,16265.096219,-703.275288,2510.369123,-17003.240228,18094.810020,2762.340339,1764.357300,0.008000,-0.010000,1.000000,192.000000,0.000000,0.000000,0.000000,0.000000,0.000000,0.000000,0.000000,0.000000,0.000000,1775740056.672575,0.000000
10.000000,17228.858737,19132.065073,-12770.177456,-25.324526,-12869.910940,-4459.843571,1260.705443,-104.852033,12021.595183,16294.444060,-669.904133,2527.602318,-16965.465780,18118.234648,2577.200839,1450.494105,0.004000,-0.012000,1.002000,192.000000,0.000000,16.000000,127.500000,80.000000,15.500000,40.000000,0.000000,0.000000,0.000000,1775740056.672588,0.000000
12.000000,17184.043489,19100.035024,-12834.371666,-69.603332,-12923.286906,-4496.835708,1223.936823,-154.338795,11993.923723,16283.245836,-667.199572,2525.568309,-16956.882710,18117.295875,2533.749048,1379.057929,0.004000,-0.012000,1.002000,192.000000,0.000000,0.000000,0.000000,0.000000,0.000000,0.000000,0.000000,0.000000,0.000000,1775740056.672602,0.000000
14.000000,17216.341760,19127.840594,-12798.228895,-39.406125,-12898.185897,-4478.417871,1248.076707,-124.141589,12030.781750,16282.418821,-700.481319,2523.579004,-16997.138202,18107.774032,2753.377289,1768.402966,0.004000,-0.012000,1.002000,192.000000,0.000000,0.000000,0.000000,0.000000,0.000000,0.000000,0.000000,0.000000,0.000000,1775740056.672616,0.000000
16.000000,17214.195992,19122.207954,-12790.785765,-37.752096,-12897.045958,-4487.425624,1249.194294,-116.586699,11999.377549,16301.931894,-648.692328,2541.907435,-16935.916774,18127.041236,2420.917442,1185.625933,0.004000,-0.012000,1.002000,192.000000,0.000000,0.000000,0.000000,0.000000,0.000000,0.000000,0.000000,0.000000,0.000000,1775740056.672629,0.000000
18.000000,17185.474001,19108.014596,-12831.957678,-70.542106,-12934.842758,-4518.785121,1228.764800,-149.801391,12007.625342,16269.790086,-698.268497,2518.907490,-17002.457917,18092.083107,2745.442420,1751.236826,0.004000,-0.012000,1.002000,192.000000,0.000000,0.000000,0.000000,0.000000,0.000000,0.000000,0.000000,0.000000,0.000000,1775740056.672643,0.000000
20.000000,17223.047283,19133.964972,-12771.764430,-24.475160,-12886.361824,-4490.912496,1264.169963,-103.063894,12018.041255,16293.125307,-670.261761,2533.614937,-16970.718440,18106.701148,2567.991920,1430.355183,0.003000,-0.016000,1.003000,192.000000,0.000000,8.000000,127.500000,48.000000,15.500000,48.000000,0.000000,0.000000,0.000000,1775740056.672656,0.000000
22.000000,17173.404059,19091.697823,-12837.612669,-76.934704,-12943.850511,-4532.173816,1223.467436,-158.339758,11983.932493,16274.551007,-667.624255,2526.149455,-16964.504655,18095.927608,2520.226243,1351.498228,0.003000,-0.016000,1.003000,192.000000,0.000000,0.000000,0.000000,0.000000,0.000000,0.000000,0.000000,0.000000,0.000000,1775740056.672670,0.000000
24.000000,17195.442879,19109.758033,-12804.487384,-53.152448,-12914.972057,-4511.341990,1244.388669,-136.390345,12010.151089,16259.441228,-708.617354,2509.542109,-17013.030292,18075.878093,2748.035222,1744.799524,0.003000,-0.016000,1.003000,192.000000,0.000000,0.000000,0.000000,0.000000,0.000000,0.000000,0.000000,0.000000,0.000000,1775740056.672684,0.000000
26.000000,17198.885047,19106.114698,-12800.441718,-52.280730,-12911.909868,-4508.123339,1242.086439,-128.142551,11983.306644,16282.865856,-657.096583,2529.636327,-16953.351134,18096.933436,2412.043799,1168.616255,0.003000,-0.016000,1.003000,192.000000,0.000000,0.000000,0.000000,0.000000,0.000000,0.000000,0.000000,0.000000,0.000000,1775740056.672699,0.000000
28.000000,17178.924940,19097.576332,-12839.266698,-79.549859,-12942.487054,-4522.227290,1222.014573,-155.925769,11990.906237,16250.992268,-705.823386,2509.542109,-17010.728062,18070.625433,2746.716469,1743.726640,0.003000,-0.016000,1.003000,192.000000,0.000000,0.000000,0.000000,0.000000,0.000000,0.000000,0.000000,0.000000,0.000000,1775740056.672712,0.000000
30.000000,17228.769330,19132.132129,-12772.792610,-33.460561,-12882.047937,-4483.111737,1255.385727,-104.539109,12012.922706,16280.407164,-671.759328,2526.060048,-16969.913777,18091.926645,2566.360243,1436.524264,0.003500,-0.017000,1.002500,192.000000,0.000000,16.000000,127.500000,56.000000,15.500000,40.000000,0.000000,0.000000,0.000000,1775740056.672726,0.000000
32.000000,17192.604207,19106.829954,-12827.286163,-76.890001,-12928.137234,-4511.856081,1223.109808,-145.889836,11994.638979,16273.634586,-657.342453,2528.496388,-16953.127617,18091.859590,2526.663545,1363.590522,0.003500,-0.017000,1.002500,192.000000,0.000000,0.000000,0.000000,0.000000,0.000000,0.000000,0.000000,0.000000,0.000000,1775740056.672740,0.000000
34.000000,17216.051187,19124.197259,-12791.769241,-47.631567,-12900.510478,-4489.705502,1247.070878,-122.286394,12029.306534,16265.967937,-690.423034,2519.488635,-16993.159591,18080.035517,2755.634815,1763.798507,0.003500,-0.017000,1.002500,192.000000,0.000000,0.000000,0.000000,0.000000,0.000000,0.000000,0.000000,0.000000,0.000000,1775740056.672753,0.000000
36.000000,17221.996751,19123.169079,-12782.739137,-41.037803,-12892.530905,-4486.084519,1248.479038,-114.284469,12009.324075,16290.331339,-634.320156,2542.823856,-16926.506689,18108.154012,2416.290631,1186.587058,0.003500,-0.017000,1.002500,192.000000,0.000000,0.000000,0.000000,0.000000,0.000000,0.000000,0.000000,0.000000,0.000000,1775740056.672766,0.000000
38.000000,17196.068728,19110.406233,-12824.492195,-71.123251,-12931.244127,-4515.901746,1229.234186,-146.806258,12017.907145,16257.116646,-686.533831,2521.209719,-16988.108097,18073.553511,2749.175161,1749.895722,0.003500,-0.017000,1.002500,192.000000,0.000000,0.000000,0.000000,0.000000,0.000000,0.000000,0.000000,0.000000,0.000000,1775740056.672780,0.000000
40.000000,17235.251336,19133.450882,-12767.495247,-24.609271,-12885.311292,-4486.889182,1263.186486,-98.794710,12020.879927,16278.864894,-661.879857,2537.638251,-16961.688335,18086.137543,2570.160040,1439.497046,0.002750,-0.016500,1.000250,192.000000,0.000000,8.000000,127.500000,64.000000,15.500000,24.000000,0.000000,0.000000,0.000000,1775740056.672793,0.000000
42.000000,17184.043489,19105.332387,-12831.622402,-68.508097,-12937.837891,-4525.334182,1227.468399,-141.195970,11987.464069,16265.453847,-656.962473,2533.883158,-16959.095533,18076.950976,2521.477940,1354.649824,0.002750,-0.016500,1.000250,192.000000,0.000000,0.000000,0.000000,0.000000,0.000000,0.000000,0.000000,0.000000,0.000000,1775740056.672807,0.000000
44.000000,17205.568219,19118.564620,-12799.011207,-45.798724,-12915.396740,-4510.269107,1247.428506,-120.274737,12021.237555,16258.010716,-692.099415,2522.215548,-17005.520106,18061.572976,2750.292748,1750.678033,0.002750,-0.016500,1.000250,192.000000,0.000000,0.000000,0.000000,0.000000,0.000000,0.000000,0.000000,0.000000,0.000000,1775740056.672820,0.000000
46.000000,17206.462289,19108.998073,-12794.071471,-49.933797,-12910.613467,-4514.493586,1242.488771,-123.113408,11992.113232,16277.032051,-642.635005,2537.370031,-16942.622297,18082.762430,2415.105988,1168.929180,0.002750,-0.016500,1.000250,192.000000,0.000000,0.000000,0.000000,0.000000,0.000000,0.000000,0.000000,0.000000,0.000000,1775740056.672834,0.000000
48.000000,17185.988091,19100.839686,-12837.389152,-79.482803,-12944.185787,-4532.576148,1222.260442,-154.875237,11998.930514,16244.398504,-701.665962,2511.374952,-17011.085690,18050.486511,2743.475466,1731.723753,0.002750,-0.016500,1.000250,192.000000,0.000000,0.000000,0.000000,0.000000,0.000000,0.000000,0.000000,0.000000,0.000000,1775740056.672847,0.000000
50.000000,17225.953010,19129.271105,-12777.799401,-32.521788,-12894.587266,-4495.807528,1257.240922,-104.539109,12011.313380,16274.953338,-672.675749,2531.983260,-16976.686356,18072.726497,2561.196990,1429.148189,0.003375,-0.016250,1.001125,192.000000,0.000000,16.000000,127.500000,64.000000,15.500000,40.000000,0.000000,0.000000,0.000000,1775740056.672861,0.000000
52.000000,17198.996806,19110.339178,-12833.768169,-71.838507,-12940.162473,-4520.774427,1225.523797,-139.296071,11984.178362,16267.957242,-659.845848,2533.838455,-16965.286966,18073.173532,2510.503234,1346.737307,0.003375,-0.016250,1.001125,192.000000,0.000000,0.000000,0.000000,0.000000,0.000000,0.000000,0.000000,0.000000,0.000000,1775740056.672874,0.000000
54.000000,17226.623562,19136.535422,-12796.798384,-42.848294,-12910.144080,-4497.260391,1249.909550,-108.875347,12033.866290,16275.914464,-685.192726,2536.833589,-16998.725176,18070.178398,2741.083830,1756.109507,0.003375,-0.016250,1.001125,192.000000,0.000000,0.000000,0.000000,0.000000,0.000000,0.000000,0.000000,0.000000,0.000000,1775740056.672887,0.000000
56.000000,17231.652705,19135.820167,-12783.342634,-35.628681,-12893.357920,-4489.012598,1251.027137,-101.365161,12003.870249,16299.741423,-631.190912,2558.514781,-16933.480434,18096.687567,2411.708523,1181.602619,0.003375,-0.016250,1.001125,192.000000,0.000000,0.000000,0.000000,0.000000,0.000000,0.000000,0.000000,0.000000,0.000000,1775740056.672901,0.000000
58.000000,17211.357321,19124.934867,-12819.328942,-61.400242,-12923.197499,-4502.602458,1232.519893,-135.071592,12020.477595,16273.276958,-677.369616,2537.884121,-16988.130449,18071.452447,2746.738821,1749.538094,0.003375,-0.016250,1.001125,192.000000,0.000000,0.000000,0.000000,0.000000,0.000000,0.000000,0.000000,0.000000,0.000000,1775740056.672916,0.000000
60.000000,17249.109417,19147.331315,-12758.174569,-13.947489,-12872.950777,-4467.443164,1266.561600,-91.016303,12039.096599,16302.267170,-650.458115,2551.786906,-16944.768065,18096.128773,2572.372862,1450.471753,0.003687,-0.016125,1.003563,192.000000,0.000000,16.000000,127.500000,64.000000,15.500000,56.000000,0.000000,0.000000,0.000000,1775740056.672930,0.000000
62.000000,17204.182411,19114.541306,-12822.346428,-59.790916,-12924.605659,-4504.055322,1230.374125,-135.004537,11999.802232,16285.749231,-647.418278,2545.349603,-16942.309373,18088.328014,2524.741295,1359.500153,0.003687,-0.016125,1.003563,192.000000,0.000000,0.000000,0.000000,0.000000,0.000000,0.000000,0.000000,0.000000,0.000000,1775740056.672944,0.000000
64.000000,17235.318391,19138.547079,-12792.931532,-36.545102,-12902.030397,-4490.443109,1250.848323,-108.249498,12035.743837,16282.307062,-681.080005,2538.331156,-16990.678548,18078.225026,2757.244141,1760.311635,0.003687,-0.016125,1.003563,192.000000,0.000000,0.000000,0.000000,0.000000,0.000000,0.000000,0.000000,0.000000,0.000000,1775740056.672957,0.000000
66.000000,17221.169737,19117.692902,-12793.244456,-41.104858,-12902.611542,-4498.176813,1245.081573,-114.552690,12007.513584,16293.371176,-633.068458,2551.518685,-16933.078102,18090.943169,2418.078770,1177.020511,0.003687,-0.016125,1.003563,192.000000,0.000000,0.000000,0.000000,0.000000,0.000000,0.000000,0.000000,0.000000,0.000000,1775740056.672971,0.000000
68.000000,17184.602283,19091.854285,-12839.847844,-75.750062,-12941.972964,-4527.032915,1220.606413,-158.987958,12002.037406,16248.846501,-698.492014,2516.560556,-17005.654216,18050.464159,2748.906940,1736.417620,0.003687,-0.016125,1.003563,192.000000,0.000000,0.000000,0.000000,0.000000,0.000000,0.000000,0.000000,0.000000,0.000000,1775740056.672985,0.000000
70.000000,17219.985094,19113.982512,-12778.939340,-32.901768,-12892.553257,-4494.511127,1255.162210,-115.200891,12008.966447,16274.461600,-675.201497,2527.535263,-16975.233492,18067.496189,2574.563333,1431.651584,0.004844,-0.015062,1.001781,192.000000,0.000000,24.000000,127.500000,72.000000,15.500000,32.000000,0.000000,0.000000,0.000000,1775740056.672999,0.000000
72.000000,17180.824838,19085.104058,-12834.416370,-78.141699,-12942.040019,-4526.742342,1221.254614,-158.250351,11971.683737,16260.223539,-670.105299,2521.299126,-16966.650422,18063.517578,2514.615955,1339.070659,0.004844,-0.015062,1.001781,192.000000,0.000000,0.000000,0.000000,0.000000,0.000000,0.000000,0.000000,0.000000,0.000000,1775740056.673013,0.000000
74.000000,17212.340797,19113.960160,-12799.301779,-49.889094,-12911.306371,-4500.769615,1243.941634,-128.276661,12018.488290,16264.358612,-700.391913,2519.041600,-17004.715443,18058.108456,2746.738821,1750.052184,0.004844,-0.015062,1.001781,192.000000,0.000000,0.000000,0.000000,0.000000,0.000000,0.000000,0.000000,0.000000,0.000000,1775740057.152725,0.000000
76.000000,17222.823766,19113.803698,-12790.383433,-44.412916,-12901.203382,-4493.840574,1245.908588,-113.680972,11995.220124,16285.481010,-644.780772,2541.885083,-16935.536794,18085.154067,2414.502491,1174.718282,0.004844,-0.015062,1.001781,192.000000,0.000000,0.000000,0.000000,0.000000,0.000000,0.000000,0.000000,0.000000,0.000000,1775740057.152829,0.000000
78.000000,17213.078405,19116.731777,-12824.112216,-66.250571,-12922.281077,-4502.177775,1230.798808,-135.362164,12019.516470,16265.342088,-683.985732,2529.032830,-16983.324824,18064.858683,2743.989556,1740.463286,0.004844,-0.015062,1.001781,192.000000,0.000000,0.000000,0.000000,0.000000,0.000000,0.000000,0.000000,0.000000,0.000000,1775740057.152917,0.000000
80.000000,17250.338763,19141.229289,-12764.589520,-21.167102,-12873.576626,-4475.556848,1263.968797,-90.859841,12033.396904,16296.411013,-651.620406,2550.222284,-16955.429847,18089.043270,2573.557505,1446.604901,0.005422,-0.016531,1.003891,192.000000,0.000000,24.000000,127.500000,56.000000,15.500000,56.000000,0.000000,0.000000,0.000000,1775740057.152995,0.000000
82.000000,17207.624579,19113.334312,-12826.950887,-64.350672,-12923.890403,-4511.297287,1228.161303,-137.843208,11998.036444,16283.044670,-648.200589,2547.316557,-16946.220928,18080.393145,2517.544033,1351.833505,0.005422,-0.016531,1.003891,192.000000,0.000000,0.000000,0.000000,0.000000,0.000000,0.000000,0.000000,0.000000,0.000000,1775740057.153074,0.000000
84.000000,17225.438920,19128.667608,-12800.039387,-38.445000,-12902.253914,-4491.605400,1248.300224,-118.397190,12030.222956,16279.378984,-688.411377,2536.319499,-16993.092536,18065.261014,2754.092545,1761.675091,0.005422,-0.016531,1.003891,192.000000,0.000000,0.000000,0.000000,0.000000,0.000000,0.000000,0.000000,0.000000,0.000000,1775740057.153151,0.000000
86.000000,17214.084234,19107.299341,-12792.864477,-41.931873,-12899.772871,-4498.623848,1244.723945,-120.073571,11991.241514,16289.906656,-644.892531,2546.176618,-16939.716570,18082.874189,2419.710448,1176.908753,0.005422,-0.016531,1.003891,192.000000,0.000000,0.000000,0.000000,0.000000,0.000000,0.000000,0.000000,0.000000,0.000000,1775740057.153228,0.000000
88.000000,17184.781097,19091.563713,-12833.321134,-76.510021,-12942.889386,-4527.748171,1224.093285,-156.886894,11990.056871,16247.036010,-699.542546,2513.543071,-17007.330597,18044.518595,2747.856408,1733.355431,0.005422,-0.016531,1.003891,192.000000,0.000000,0.000000,0.000000,0.000000,0.000000,0.000000,0.000000,0.000000,0.000000,1775740057.153279,0.000000
90.000000,17220.320370,19115.055396,-12777.218256,-35.248701,-12899.370539,-4498.713255,1255.005748,-113.323344,11999.846935,16268.828961,-672.519287,2525.568309,-16981.022594,18061.081238,2575.122127,1430.601052,0.005422,-0.016531,1.003891,192.000000,0.000000,0.000000,0.000000,0.000000,0.000000,0.000000,0.000000,0.000000,0.000000,1775740057.153300,0.000000
92.000000,17178.857884,19085.528742,-12843.737047,-82.701454,-12954.601700,-4533.269052,1217.723038,-159.457345,11965.939339,16258.211882,-668.808898,2519.868615,-16973.378297,18054.576880,2512.760760,1329.302946,0.008000,-0.018000,1.004000,192.000000,0.000000,32.000000,127.500000,56.000000,15.500000,48.000000,0.000000,0.000000,0.000000,1775740057.153314,0.000000
94.000000,17212.363149,19112.820222,-12810.030617,-53.957111,-12918.816557,-4509.375037,1242.242902,-128.522531,12001.255095,16254.277975,-706.046904,2515.152397,-17020.115795,18035.689656,2753.332585,1745.559483,0.008000,-0.018000,1.004000,192.000000,0.000000,0.000000,0.000000,0.000000,0.000000,0.000000,0.000000,0.000000,0.000000,1775740057.153327,0.000000
96.000000,17222.510841,19114.295437,-12796.753680,-47.139829,-12896.867144,-4500.590801,1244.813352,-117.547824,11987.464069,16283.536408,-646.904188,2536.632423,-16948.299640,18073.821732,2416.223576,1168.392738,0.008000,-0.018000,1.004000,192.000000,0.000000,0.000000,0.000000,0.000000,0.000000,0.000000,0.000000,0.000000,0.000000,1775740057.153340,0.000000
98.000000,17201.276684,19105.578256,-12835.086922,-74.408957,-12930.484167,-4514.292421,1224.920300,-144.749897,11999.466956,16250.589937,-693.976962,2515.822949,-16999.663949,18041.948145,2744.593053,1735.322384,0.008000,-0.018000,1.004000,192.000000,0.000000,0.000000,0.000000,0.000000,0.000000,0.000000,0.000000,0.000000,0.000000,1775740057.153353,0.000000
100.000000,17251.076371,19141.251640,-12765.841218,-25.279823,-12874.224827,-4472.472307,1261.554809,-91.753911,12022.422197,16282.351766,-656.269569,2537.593548,-16959.453161,18069.977232,2572.015234,1447.163695,0.008000,-0.018000,1.004000,192.000000,0.000000,0.000000,0.000000,0.000000,0.000000,0.000000,0.000000,0.000000,0.000000,1775740057.153366,0.000000
102.000000,17207.155193,19109.288646,-12822.681704,-68.798669,-12925.164452,-4505.686999,1226.864901,-139.161961,11996.583581,16278.350804,-643.752592,2539.158170,-16945.215099,18071.653613,2510.749103,1346.558493,0.008000,-0.016000,1.006000,192.000000,0.000000,32.000000,127.500000,64.000000,15.500000,56.000000,0.000000,0.000000,0.000000,1775740057.153379,0.000000
104.000000,17226.198879,19126.141861,-12793.445622,-45.217579,-12904.176164,-4494.242906,1247.249692,-118.352487,12023.450377,16269.521865,-683.493994,2529.390458,-16994.858324,18053.906328,2752.416164,1760.579856,0.008000,-0.016000,1.006000,192.000000,0.000000,0.000000,0.000000,0.000000,0.000000,0.000000,0.000000,0.000000,0.000000,1775740057.153392,0.000000
106.000000,17233.820824,19123.012617,-12788.841163,-40.322547,-12900.532830,-4496.388673,1245.685070,-113.502158,11994.169592,16291.672443,-635.705964,2546.668356,-16936.162643,18074.469933,2418.570509,1176.774642,0.008000,-0.016000,1.006000,192.000000,0.000000,0.000000,0.000000,0.000000,0.000000,0.000000,0.000000,0.000000,0.000000,1775740057.153405,0.000000
108.000000,17201.477850,19107.500506,-12834.192852,-70.899733,-12936.541490,-4515.119435,1223.556843,-147.610920,12004.697264,16265.498551,-685.729168,2525.680068,-16995.953559,18045.658534,2744.324832,1735.434143,0.008000,-0.016000,1.006000,192.000000,0.000000,0.000000,0.000000,0.000000,0.000000,0.000000,0.000000,0.000000,0.000000,1775740057.153418,0.000000
110.000000,17231.183318,19122.364416,-12778.961692,-30.197207,-12887.322949,-4489.549040,1255.497486,-108.808292,12009.391130,16277.926121,-668.652435,2532.586757,-16971.210178,18057.415552,2575.546810,1446.001404,0.008000,-0.016000,1.006000,192.000000,0.000000,0.000000,0.000000,0.000000,0.000000,0.000000,0.000000,0.000000,0.000000,1775740057.153430,0.000000
112.000000,17170.766553,19074.576387,-12846.821588,-83.684931,-12943.492883,-4538.745229,1214.593794,-169.225057,11961.223121,16255.663783,-674.754462,2519.846263,-16971.992489,18042.752807,2519.466283,1334.019164,0.008000,-0.016000,1.006000,192.000000,0.000000,0.000000,127.500000,56.000000,15.500000,56.000000,0.000000,0.000000,0.000000,1775740057.153443,0.000000
114.000000,17193.990015,19092.524838,-12817.049064,-62.249608,-12921.275249,-4521.176758,1235.403268,-150.516647,11992.381453,16238.989382,-718.027439,2502.769530,-17021.903935,18020.602229,2760.820420,1745.224207,0.008000,-0.016000,1.006000,192.000000,0.000000,0.000000,0.000000,0.000000,0.000000,0.000000,0.000000,0.000000,0.000000,1775740057.153456,0.000000
116.000000,17189.519666,19085.551093,-12808.644808,-62.160201,-12915.441443,-4521.221461,1234.308032,-146.292167,11960.239644,16257.541330,-670.261761,2514.548899,-16965.130504,18041.031723,2417.743494,1160.971959,0.008000,-0.016000,1.006000,192.000000,0.000000,0.000000,0.000000,0.000000,0.000000,0.000000,0.000000,0.000000,0.000000,1775740057.153468,0.000000
118.000000,17178.835533,19085.908721,-12842.105370,-87.238859,-12943.649345,-4535.504226,1218.997087,-164.464136,11970.566150,16227.746454,-714.808788,2495.818138,-17023.446205,18013.784947,2741.419106,1720.033791,0.008000,-0.016000,1.006000,192.000000,0.000000,0.000000,0.000000,0.000000,0.000000,0.000000,0.000000,0.000000,0.000000,1775740057.153481,0.000000
120.000000,17233.709065,19125.203088,-12773.709032,-34.019355,-12878.315196,-4483.916400,1256.771535,-104.404998,12001.724482,16275.199208,-669.524153,2527.423504,-16975.836989,18045.412665,2576.999673,1443.587416,0.008000,-0.016000,1.006000,192.000000,0.000000,0.000000,0.000000,0.000000,0.000000,0.000000,0.000000,0.000000,0.000000,1775740057.153494,0.000000
122.000000,17203.780079,19103.834820,-12828.426102,-69.938608,-12920.694103,-4505.262316,1225.546148,-143.922883,11981.786726,16273.791048,-653.497953,2532.966737,-16953.574652,18058.421380,2519.488635,1341.685813,0.008000,-0.016000,1.006000,192.000000,0.000000,0.000000,127.500000,72.000000,15.500000,48.000000,0.000000,0.000000,0.000000,1775740057.153508,0.000000
124.000000,17224.388388,19125.851289,-12802.833355,-40.523713,-12901.605714,-4481.167135,1246.154457,-118.911281,12026.825491,16279.088411,-689.260744,2532.989089,-16992.600798,18053.392238,2754.450173,1768.917056,0.008000,-0.016000,1.006000,192.000000,0.000000,0.000000,0.000000,0.000000,0.000000,0.000000,0.000000,0.000000,0.000000,1775740057.153521,0.000000
126.000000,17225.863603,19120.464518,-12791.702186,-32.790009,-12892.419147,-4479.826031,1249.551922,-109.434141,11992.962598,16300.344920,-639.550464,2553.865618,-16936.028533,18077.554474,2412.312020,1189.090453,0.008000,-0.016000,1.006000,192.000000,0.000000,0.000000,0.000000,0.000000,0.000000,0.000000,0.000000,0.000000,0.000000,1775740057.153534,0.000000
128.000000,17202.707196,19109.489812,-12834.706942,-63.166030,-12931.199423,-4507.028104,1229.413000,-141.330080,12004.116118,16269.365402,-688.858412,2532.318536,-16995.551228,18046.127921,2735.384135,1741.871445,0.008000,-0.016000,1.006000,192.000000,0.000000,0.000000,0.000000,0.000000,0.000000,0.000000,0.000000,0.000000,0.000000,1775740057.153547,0.000000
130.000000,17233.239679,19126.611248,-12775.564227,-23.245814,-12889.513420,-4485.279856,1260.593684,-99.688780,12014.889659,16290.130173,-664.830287,2544.276720,-16968.505617,18060.745962,2568.126031,1455.970282,0.008000,-0.016000,1.006000,192.000000,0.000000,0.000000,0.000000,0.000000,0.000000,0.000000,0.000000,0.000000,0.000000,1775740057.153560,0.000000
132.000000,17184.602283,19086.959253,-12835.980992,-73.157260,-12940.810673,-4524.082485,1223.646250,-150.829572,11972.019013,16267.197283,-661.544581,2532.340888,-16963.476475,18048.474854,2508.580984,1340.814095,0.008000,-0.016000,1.006000,192.000000,0.000000,0.000000,127.500000,112.000000,15.500000,16.000000,0.000000,0.000000,0.000000,1775740057.153573,0.000000
134.000000,17194.504105,19092.882465,-12810.343541,-54.180629,-12921.051731,-4512.034894,1240.745335,-138.022022,12000.718653,16250.075847,-705.935145,2512.850167,-17007.531763,18026.927772,2756.283016,1758.188219,0.008000,-0.016000,1.006000,192.000000,0.000000,0.000000,0.000000,0.000000,0.000000,0.000000,0.000000,0.000000,0.000000,1775740057.153586,0.000000
136.000000,17192.604207,19084.701727,-12803.079224,-53.621835,-12913.385083,-4515.432360,1239.068954,-137.642042,11967.526313,16267.934891,-657.342453,2524.607184,-16959.967251,18048.005467,2422.325602,1172.371348,0.008000,-0.016000,1.006000,192.000000,0.000000,0.000000,0.000000,0.000000,0.000000,0.000000,0.000000,0.000000,0.000000,1775740057.153598,0.000000
138.000000,17166.698535,19075.470457,-12848.632079,-88.244687,-12952.880615,-4540.041630,1214.817311,-172.466060,11972.421345,16230.875698,-711.098398,2497.539222,-17025.547269,18014.231982,2750.091583,1720.704343,0.008000,-0.016000,1.006000,192.000000,0.000000,0.000000,0.000000,0.000000,0.000000,0.000000,0.000000,0.000000,0.000000,1775740057.153611,0.000000
140.000000,17210.575010,19102.069032,-12788.148259,-44.569378,-12900.264609,-4503.697694,1247.607320,-122.956946,11983.820734,16257.027239,-689.663075,2509.139777,-16995.752394,18031.755749,2592.265915,1435.563139,0.008000,-0.016000,1.006000,192.000000,0.000000,0.000000,0.000000,0.000000,0.000000,0.000000,0.000000,0.000000,0.000000,1775740057.153625,0.000000
142.000000,17183.037660,19080.164323,-12840.049009,-81.226239,-12940.520101,-4529.290441,1217.924204,-155.702252,11959.569092,16254.546196,-676.967284,2515.018286,-16969.757315,18036.896650,2525.478903,1322.865644,0.006000,-0.016000,0.998000,192.000000,0.000000,24.000000,127.500000,64.000000,15.500000,24.000000,0.000000,0.000000,0.000000,1775740057.153638,0.000000
144.000000,17221.549716,19116.396501,-12805.113233,-45.262283,-12907.059539,-4495.226383,1243.315785,-123.158112,12010.128738,16262.279899,-706.046904,2519.309821,-17010.415138,18033.923868,2771.370443,1754.321367,0.006000,-0.016000,0.998000,192.000000,0.000000,0.000000,0.000000,0.000000,0.000000,0.000000,0.000000,0.000000,0.000000,1775740057.153651,0.000000
146.000000,17225.394216,19122.029140,-12792.551552,-28.543178,-12891.234504,-4484.318731,1248.546094,-110.372914,11994.750738,16299.361443,-645.406621,2550.669319,-16937.839024,18070.290157,2425.723067,1181.848488,0.006000,-0.016000,0.998000,192.000000,0.000000,0.000000,0.000000,0.000000,0.000000,0.000000,0.000000,0.000000,0.000000,1775740057.153664,0.000000
148.000000,17209.189201,19114.943637,-12834.617535,-52.750117,-12928.226641,-4499.428511,1229.167131,-139.407830,12002.618552,16276.741478,-687.785529,2533.480827,-16990.835010,18050.933546,2739.362745,1744.039565,0.006000,-0.016000,0.998000,192.000000,0.000000,0.000000,0.000000,0.000000,0.000000,0.000000,0.000000,0.000000,0.000000,1775740057.153677,0.000000
150.000000,17261.514635,19148.247736,-12769.328090,-5.297363,-12873.844847,-4461.072917,1266.248675,-87.708245,12029.708866,16310.693778,-652.939159,2554.200894,-16952.546472,18077.554474,2574.943313,1471.996483,0.006000,-0.016000,0.998000,192.000000,0.000000,0.000000,0.000000,0.000000,0.000000,0.000000,0.000000,0.000000,0.000000,1775740057.153691,0.000000
152.000000,17204.271818,19111.501469,-12831.287126,-56.169934,-12928.517214,-4500.791967,1228.273061,-137.642042,11993.655502,16295.807516,-645.563083,2549.149400,-16942.354076,18072.838256,2506.591678,1355.141563,0.006000,-0.016000,1.002000,192.000000,0.000000,24.000000,127.500000,64.000000,15.500000,40.000000,0.000000,0.000000,0.000000,1775740057.153704,0.000000
154.000000,17222.577896,19121.090367,-12800.732291,-36.366288,-12907.484222,-4483.491717,1249.753088,-117.816045,12020.701113,16281.010661,-688.411377,2529.859844,-16997.518182,18051.917023,2750.404507,1779.757652,0.006000,-0.016000,1.002000,192.000000,0.000000,0.000000,0.000000,0.000000,0.000000,0.000000,0.000000,0.000000,0.000000,1775740057.153718,0.000000
156.000000,17218.956914,19107.344044,-12791.143392,-37.863855,-12900.309312,-4492.946505,1249.417812,-115.670278,11992.381453,16297.014510,-642.992633,2541.818028,-16937.034361,18068.591424,2417.229404,1192.934953,0.006000,-0.016000,1.002000,192.000000,0.000000,0.000000,0.000000,0.000000,0.000000,0.000000,0.000000,0.000000,0.000000,1775740057.153731,0.000000
158.000000,17177.673242,19081.036041,-12838.685553,-74.408957,-12935.781531,-4522.875491,1225.009707,-160.463173,11990.101575,16251.484007,-702.247107,2509.139777,-16994.768917,18027.754787,2741.173237,1737.848131,0.006000,-0.016000,1.002000,192.000000,0.000000,0.000000,0.000000,0.000000,0.000000,0.000000,0.000000,0.000000,0.000000,1775740057.153744,0.000000
160.000000,17211.826707,19096.704614,-12780.906294,-38.154428,-12889.982806,-4501.574278,1252.480001,-124.834493,11992.202639,16262.838693,-684.410415,2515.018286,-16983.414231,18032.940392,2584.822784,1455.836172,0.006000,-0.016000,1.002000,192.000000,0.000000,0.000000,0.000000,0.000000,0.000000,0.000000,0.000000,0.000000,0.000000,1775740057.153757,0.000000
162.000000,17169.827780,19066.797980,-12838.842015,-85.182498,-12937.122635,-4544.042593,1215.420808,-171.862563,11953.891749,16243.169158,-677.101395,2505.585850,-16974.227664,18026.905421,2522.081437,1327.961842,0.004000,-0.020000,1.008000,192.000000,0.000000,16.000000,127.500000,48.000000,15.500000,64.000000,0.000000,0.000000,0.000000,1775740057.153769,0.000000
164.000000,17199.756765,19096.525800,-12805.940247,-58.338053,-12908.802975,-4526.429418,1239.136009,-143.229978,11992.426156,16240.106969,-710.383142,2500.623763,-17016.852440,18009.761633,2777.986560,1757.674129,0.004000,-0.020000,1.008000,192.000000,0.000000,0.000000,0.000000,0.000000,0.000000,0.000000,0.000000,0.000000,0.000000,1775740057.153782,0.000000
166.000000,17209.680940,19102.583123,-12791.299855,-50.358480,-12898.901152,-4523.903671,1246.042698,-123.515740,11969.962653,16270.281824,-652.380365,2526.037696,-16953.418190,18036.650781,2444.029146,1173.220715,0.004000,-0.020000,1.008000,192.000000,0.000000,0.000000,0.000000,0.000000,0.000000,0.000000,0.000000,0.000000,0.000000,1775740057.153795,0.000000
168.000000,17195.755803,19101.621998,-12834.729294,-78.298161,-12937.860243,-4541.762715,1227.133122,-143.677013,11979.976234,16243.593841,-696.145081,2512.738408,-17012.136222,18009.068729,2762.653263,1718.089189,0.004000,-0.020000,1.008000,192.000000,0.000000,0.000000,0.000000,0.000000,0.000000,0.000000,0.000000,0.000000,0.000000,1775740057.153808,0.000000
170.000000,17245.823711,19136.736588,-12773.306700,-24.430457,-12884.864257,-4498.154461,1264.214666,-87.618838,12004.518450,16281.055365,-661.812802,2539.895778,-16977.736888,18037.947182,2599.887860,1451.678747,0.004000,-0.020000,1.008000,192.000000,0.000000,0.000000,0.000000,0.000000,0.000000,0.000000,0.000000,0.000000,0.000000,1775740057.153821,0.000000
172.000000,17209.368015,19109.378053,-12833.187024,-61.355539,-12932.898156,-4525.624755,1230.351774,-130.489484,11978.009281,16277.546141,-646.904188,2544.433182,-16962.515350,18047.513729,2520.002725,1336.768429,0.004000,-0.018000,1.007000,192.000000,0.000000,16.000000,127.500000,64.000000,15.500000,56.000000,0.000000,0.000000,0.000000,1775740057.153833,0.000000
174.000000,17236.458330,19130.098120,-12803.593314,-31.024221,-12906.433690,-4499.294400,1251.988262,-108.741237,12021.014037,16275.489780,-683.426938,2537.012403,-17001.988530,18039.981191,2759.792240,1779.310617,0.004000,-0.018000,1.007000,192.000000,0.000000,0.000000,0.000000,0.000000,0.000000,0.000000,0.000000,0.000000,0.000000,1775740057.153846,0.000000
176.000000,17236.167757,19121.336236,-12789.668177,-23.067000,-12895.213115,-4488.364397,1255.028099,-101.409865,12002.484441,16300.076699,-627.212301,2558.224208,-16936.743788,18071.452447,2414.681305,1201.741541,0.004000,-0.018000,1.007000,192.000000,0.000000,0.000000,0.000000,0.000000,0.000000,0.000000,0.000000,0.000000,0.000000,1775740057.153858,0.000000
178.000000,17205.769385,19106.673492,-12830.482463,-58.695681,-12932.808749,-4515.588822,1233.726887,-135.943310,12000.428081,16259.687097,-680.297694,2529.681030,-16995.506525,18036.114339,2733.148960,1747.414678,0.004000,-0.018000,1.007000,192.000000,0.000000,0.000000,0.000000,0.000000,0.000000,0.000000,0.000000,0.000000,0.000000,1775740057.153871,0.000000
180.000000,17244.303792,19123.437300,-12770.110401,-23.134056,-12889.826344,-4494.153499,1266.159268,-91.530394,12015.336694,16283.916388,-651.732165,2541.661566,-16965.845760,18047.625488,2571.523496,1473.091718,0.004000,-0.018000,1.007000,192.000000,0.000000,0.000000,0.000000,0.000000,0.000000,0.000000,0.000000,0.000000,0.000000,1775740057.153884,0.000000
182.000000,17190.279626,19083.070050,-12833.857576,-77.202925,-12942.867034,-4542.612081,1226.551977,-144.369917,11968.979176,16256.848425,-651.530999,2529.122237,-16963.320012,18031.800453,2507.999838,1334.510903,0.003000,-0.014000,1.006500,192.000000,0.000000,8.000000,127.500000,88.000000,15.500000,56.000000,0.000000,0.000000,0.000000,1775740057.153897,0.000000
184.000000,17214.553620,19105.622960,-12808.398939,-56.594617,-12920.247068,-4524.238947,1244.232207,-128.030792,12005.479575,16246.007829,-697.240317,2513.811292,-17011.443318,18009.359301,2757.221789,1763.932617,0.003000,-0.014000,1.006500,192.000000,0.000000,0.000000,0.000000,0.000000,0.000000,0.000000,0.000000,0.000000,0.000000,1775740057.153910,0.000000
186.000000,17206.864620,19089.574407,-12798.653579,-55.074698,-12908.870031,-4528.351668,1242.466419,-127.471999,11971.437868,16261.117609,-650.726336,2529.435161,-16954.871053,18028.045360,2419.129302,1175.455889,0.003000,-0.014000,1.006500,192.000000,0.000000,0.000000,0.000000,0.000000,0.000000,0.000000,0.000000,0.000000,0.000000,1775740057.153924,0.000000
188.000000,17185.429297,19079.180846,-12842.932384,-84.735463,-12941.369467,-4547.730630,1219.332364,-164.397080,11974.410650,16226.584163,-705.085779,2502.054274,-17017.187717,17996.261179,2748.973995,1719.676163,0.003000,-0.014000,1.006500,192.000000,0.000000,0.000000,0.000000,0.000000,0.000000,0.000000,0.000000,0.000000,0.000000,1775740057.153937,0.000000
190.000000,17227.651742,19105.175925,-12781.152163,-40.724878,-12885.668920,-4513.331296,1251.116544,-117.994859,11993.789613,16258.636565,-679.716549,2518.214586,-16983.660100,18020.758691,2597.607982,1453.489238,0.003000,-0.014000,1.006500,192.000000,0.000000,0.000000,0.000000,0.000000,0.000000,0.000000,0.000000,0.000000,0.000000,1775740057.153950,0.000000
192.000000,17189.005576,19079.136143,-12835.064570,-80.958018,-12927.779606,-4536.778276,1219.712343,-154.003519,11962.988909,16251.148731,-666.908999,2520.338001,-16969.220873,18022.166851,2528.228167,1322.686830,0.003000,-0.014000,1.006500,192.000000,0.000000,0.000000,127.500000,72.000000,15.500000,40.000000,0.000000,0.000000,0.000000,1775740057.153963,0.000000
194.000000,17221.661475,19115.569486,-12804.733253,-52.034861,-12898.320007,-4509.017409,1242.734640,-121.191158,12004.630209,16252.154559,-699.430787,2518.862786,-17010.012807,18016.645970,2781.004045,1765.430184,0.003000,-0.014000,1.006500,192.000000,0.000000,0.000000,0.000000,0.000000,0.000000,0.000000,0.000000,0.000000,0.000000,1775740057.633640,0.000000
196.000000,17232.144443,19115.234210,-12792.350387,-40.277844,-12882.450269,-4496.791005,1247.584969,-109.545900,11993.364929,16290.666615,-637.807028,2548.501199,-16935.894422,18054.331011,2439.335279,1187.391721,0.003000,-0.014000,1.006500,192.000000,0.000000,0.000000,0.000000,0.000000,0.000000,0.000000,0.000000,0.000000,0.000000,1775740057.633714,0.000000
198.000000,17209.122146,19104.863000,-12836.897413,-67.278751,-12922.705760,-4513.912441,1223.690954,-145.263987,11999.601066,16252.869815,-690.735959,2523.288432,-17000.133336,18026.480738,2748.303443,1743.726640,0.003000,-0.014000,1.006500,192.000000,0.000000,0.000000,0.000000,0.000000,0.000000,0.000000,0.000000,0.000000,0.000000,1775740057.633759,0.000000
200.000000,17251.702219,19131.059245,-12771.339747,-16.897919,-12873.107239,-4478.909609,1259.341986,-96.425426,12018.376531,16282.642339,-659.532924,2542.466228,-16962.537701,18051.112360,2590.276610,1482.501803,0.003000,-0.014000,1.006500,192.000000,0.000000,0.000000,0.000000,0.000000,0.000000,0.000000,0.000000,0.000000,0.000000,1775740057.633811,0.000000
202.000000,17217.280533,19106.874657,-12825.028637,-61.042614,-12919.442406,-4510.358514,1227.066067,-134.892778,11988.939284,16274.953338,-642.791467,2543.203836,-16943.628126,18053.973383,2507.552803,1347.810191,0.002500,-0.015000,1.005250,192.000000,0.000000,8.000000,127.500000,64.000000,15.500000,48.000000,0.000000,0.000000,0.000000,1775740057.633860,0.000000
204.000000,17233.150272,19120.665684,-12797.178363,-39.517884,-12898.945856,-4504.122377,1249.484867,-112.719847,12028.010133,16267.040821,-680.118880,2532.944385,-16987.415193,18036.091988,2762.139173,1786.016141,0.002500,-0.015000,1.005250,192.000000,0.000000,0.000000,0.000000,0.000000,0.000000,0.000000,0.000000,0.000000,0.000000,1775740057.633916,0.000000
206.000000,17229.864565,19112.104966,-12789.332901,-37.394468,-12895.436632,-4510.045589,1251.876503,-105.991972,11997.432947,16287.894999,-630.498008,2549.752897,-16928.227774,18055.560357,2415.977706,1191.906773,0.002500,-0.015000,1.005250,192.000000,0.000000,0.000000,0.000000,0.000000,0.000000,0.000000,0.000000,0.000000,0.000000,1775740057.633959,0.000000
208.000000,17197.722757,19093.553018,-12837.210338,-74.408957,-12935.937993,-4545.271938,1228.384820,-146.962720,11994.214296,16246.723085,-686.824404,2519.443932,-16996.579408,18015.617790,2732.299594,1726.381686,0.002500,-0.015000,1.005250,192.000000,0.000000,0.000000,0.000000,0.000000,0.000000,0.000000,0.000000,0.000000,0.000000,1775740057.633973,0.000000
210.000000,17231.049208,19116.128280,-12776.972386,-30.286614,-12885.490106,-4513.219537,1261.800678,-104.427350,12005.077243,16269.432458,-666.864296,2531.178597,-16971.456047,18030.213479,2584.331046,1459.658320,0.002500,-0.015000,1.005250,192.000000,0.000000,0.000000,0.000000,0.000000,0.000000,0.000000,0.000000,0.000000,0.000000,1775740057.633987,0.000000
212.000000,17198.438012,19092.658948,-12831.957678,-75.012454,-12929.187766,-4540.354555,1226.283756,-147.409755,11968.196865,16263.710411,-656.940121,2528.518740,-16958.402629,18033.230964,2507.239879,1322.887996,0.002250,-0.015500,1.001625,192.000000,0.000000,8.000000,127.500000,64.000000,15.500000,24.000000,0.000000,0.000000,0.000000,1775740057.634000,0.000000
214.000000,17222.086158,19117.849364,-12800.128794,-50.380832,-12899.236429,-4517.578127,1245.975643,-123.828664,12009.391130,16263.553949,-690.400683,2524.808350,-16988.532780,18025.407854,2778.612408,1769.565257,0.002250,-0.015500,1.001625,192.000000,0.000000,0.000000,0.000000,0.000000,0.000000,0.000000,0.000000,0.000000,0.000000,1775740057.634014,0.000000
216.000000,17232.926754,19117.782309,-12786.360119,-44.681137,-12879.186914,-4511.051418,1245.975643,-116.139664,11985.720633,16287.470315,-639.170484,2544.030850,-16942.264669,18051.961726,2447.918349,1186.005913,0.002250,-0.015500,1.001625,192.000000,0.000000,0.000000,0.000000,0.000000,0.000000,0.000000,0.000000,0.000000,0.000000,1775740057.634028,0.000000
218.000000,17203.914190,19104.393614,-12834.349314,-75.303027,-12909.317065,-4521.087351,1224.048582,-150.270778,11990.190982,16256.893129,-692.010008,2523.735466,-16993.919551,18026.748958,2764.910789,1731.254367,0.002250,-0.015500,1.001625,192.000000,0.000000,0.000000,0.000000,0.000000,0.000000,0.000000,0.000000,0.000000,0.000000,1775740057.634048,0.000000
220.000000,17251.389295,19136.110739,-12771.920892,-27.403239,-12852.230710,-4477.389691,1259.945483,-99.979353,12002.283275,16280.831847,-669.300636,2538.822894,-16961.978908,18049.435979,2618.864491,1475.818631,0.002250,-0.015500,1.001625,192.000000,0.000000,0.000000,0.000000,0.000000,0.000000,0.000000,0.000000,0.000000,0.000000,1775740057.634062,0.000000
222.000000,17211.111452,19105.712367,-12832.069437,-70.095071,-12899.459946,-4508.816243,1222.483959,-147.990900,11978.255150,16277.233216,-652.961511,2541.102772,-16938.755445,18056.387372,2535.201911,1336.388449,0.003125,-0.014750,1.000812,192.000000,0.000000,16.000000,127.500000,72.000000,15.500000,32.000000,0.000000,0.000000,0.000000,1775740057.634075,0.000000
224.000000,17240.034609,19129.025236,-12804.755605,-40.233140,-12876.795277,-4484.922228,1243.628710,-123.381629,12018.488290,16269.007774,-692.971133,2527.781132,-16986.252902,18041.322296,2788.089548,1790.531193,0.003125,-0.014750,1.000812,192.000000,0.000000,0.000000,0.000000,0.000000,0.000000,0.000000,0.000000,0.000000,0.000000,1775740057.634089,0.000000
226.000000,17250.204653,19131.483928,-12789.310549,-27.984384,-12868.435725,-4481.435356,1249.507219,-108.785940,12001.098633,16299.562609,-632.621423,2552.189237,-16919.063558,18073.508808,2433.836750,1207.374180,0.003125,-0.014750,1.000812,192.000000,0.000000,0.000000,0.000000,0.000000,0.000000,0.000000,0.000000,0.000000,0.000000,1775740057.634102,0.000000
228.000000,17224.723664,19118.922248,-12834.528128,-58.002777,-12918.146004,-4512.414874,1228.742448,-141.553598,12009.972275,16271.444115,-677.235505,2533.503179,-16976.842818,18047.536081,2738.938062,1742.519646,0.003125,-0.014750,1.000812,192.000000,0.000000,0.000000,0.000000,0.000000,0.000000,0.000000,0.000000,0.000000,0.000000,1775740057.634116,0.000000
230.000000,17259.301813,19139.485853,-12777.777049,-14.148654,-12879.253969,-4488.856135,1262.292416,-97.878289,12021.371665,16295.516943,-656.403679,2550.021118,-16956.726248,18060.723610,2579.212496,1481.853602,0.003125,-0.014750,1.000812,192.000000,0.000000,0.000000,0.000000,0.000000,0.000000,0.000000,0.000000,0.000000,0.000000,1775740057.634130,0.000000
232.000000,17218.174603,19111.568524,-12834.885756,-58.695681,-12934.418074,-4530.586842,1228.742448,-138.469057,11986.905275,16281.815324,-651.061612,2547.025984,-16950.534815,18053.213424,2491.280733,1333.706240,0.003563,-0.015375,0.998406,192.000000,0.000000,16.000000,127.500000,64.000000,15.500000,16.000000,0.000000,0.000000,0.000000,1775740057.634144,0.000000
234.000000,17238.671152,19130.455748,-12808.711864,-38.534407,-12918.280115,-4519.969764,1245.774477,-119.045391,12012.632133,16272.338184,-690.065407,2535.939519,-17004.380167,18033.074502,2749.353975,1776.896629,0.003563,-0.015375,0.998406,192.000000,0.000000,0.000000,0.000000,0.000000,0.000000,0.000000,0.000000,0.000000,0.000000,1775740057.634158,0.000000
236.000000,17241.934507,19128.913478,-12795.166706,-36.142771,-12911.552240,-4519.321563,1246.288567,-112.093998,11984.714804,16292.365347,-637.896435,2550.691670,-16944.253974,18051.984078,2411.172081,1187.749349,0.003563,-0.015375,0.998406,192.000000,0.000000,0.000000,0.000000,0.000000,0.000000,0.000000,0.000000,0.000000,0.000000,1775740057.634172,0.000000
238.000000,17217.660513,19112.149669,-12835.019867,-69.379815,-12942.174130,-4536.241834,1225.367335,-143.654662,11991.375624,16258.077771,-685.282133,2524.651888,-17001.519144,18019.574048,2731.673745,1725.107637,0.003563,-0.015375,0.998406,192.000000,0.000000,0.000000,0.000000,0.000000,0.000000,0.000000,0.000000,0.000000,0.000000,1775740057.634188,0.000000
240.000000,17260.017068,19143.218594,-12768.098744,-23.379925,-12884.797202,-4495.159327,1261.241884,-95.777225,12012.989761,16287.336205,-654.302615,2543.315595,-16966.337498,18043.803339,2593.227040,1470.163640,0.003563,-0.015375,0.998406,192.000000,0.000000,0.000000,0.000000,0.000000,0.000000,0.000000,0.000000,0.000000,0.000000,1775740057.634203,0.000000
242.000000,17220.096853,19109.690977,-12822.480538,-67.859896,-12923.689237,-4520.863834,1227.826026,-139.832513,11986.994682,16282.731746,-641.383307,2542.130952,-16946.176224,18050.352401,2516.962888,1327.671269,0.003563,-0.015375,0.998406,192.000000,0.000000,0.000000,0.000000,0.000000,0.000000,0.000000,0.000000,0.000000,0.000000,1775740057.634218,0.000000
244.000000,17250.584632,19138.614135,-12792.640959,-41.238969,-12896.151888,-4496.925115,1249.954253,-110.797597,12026.177290,16277.881417,-679.940066,2536.610071,-16992.444336,18038.997714,2782.188688,1778.863582,0.004000,-0.012000,1.000000,192.000000,0.000000,16.000000,127.500000,80.000000,15.500000,32.000000,0.000000,0.000000,0.000000,1775740057.634232,0.000000
246.000000,17257.088990,19140.156405,-12779.028747,-28.789047,-12880.863295,-4487.783252,1255.139858,-99.822891,12006.686569,16309.196211,-624.887720,2563.700386,-16925.143233,18069.060811,2440.922253,1194.477224,0.004000,-0.012000,1.000000,192.000000,0.000000,0.000000,0.000000,0.000000,0.000000,0.000000,0.000000,0.000000,0.000000,1775740057.634246,0.000000
248.000000,17220.029798,19119.771614,-12829.498986,-65.423556,-12925.678542,-4519.746246,1227.602509,-144.772249,12003.311456,16272.315833,-681.817613,2535.671298,-16984.889446,18035.644953,2752.058536,1732.193140,0.004000,-0.012000,1.000000,192.000000,0.000000,0.000000,0.000000,0.000000,0.000000,0.000000,0.000000,0.000000,0.000000,1775740057.634260,0.000000
250.000000,17257.960708,19144.291478,-12771.093878,-23.134056,-12877.130553,-4490.152537,1261.130126,-99.554670,12016.275467,16293.997025,-659.957607,2547.473019,-16962.671812,18042.238717,2597.764444,1480.803070,0.004000,-0.012000,1.000000,192.000000,0.000000,0.000000,0.000000,0.000000,0.000000,0.000000,0.000000,0.000000,0.000000,1775740057.634275,0.000000
252.000000,17217.235830,19113.468422,-12828.761378,-68.061062,-12930.059484,-4533.894901,1228.049544,-144.258159,11980.020938,16276.294443,-648.826438,2538.442914,-16947.606736,18045.770293,2507.262231,1326.352516,0.004000,-0.012000,1.000000,192.000000,0.000000,0.000000,0.000000,0.000000,0.000000,0.000000,0.000000,0.000000,0.000000,1775740057.634289,0.000000
254.000000,17237.665324,19130.478100,-12804.934419,-42.691832,-12911.015798,-4514.270069,1247.629672,-124.320403,12018.689456,16263.710411,-686.533831,2527.155283,-16996.534705,18023.776176,2766.430708,1780.696426,0.006000,-0.016000,0.998000,192.000000,0.000000,24.000000,127.500000,64.000000,15.500000,24.000000,0.000000,0.000000,0.000000,1775740057.634302,0.000000
0.000000,17242.113321,19125.314847,-12791.903352,-35.651032,-12896.956551,-4511.073769,1251.809448,-111.378743,11990.526258,16282.687042,-639.125781,2546.333080,-16937.257878,18045.971459,2421.409180,1195.080721,0.006000,-0.016000,0.998000,192.000000,0.000000,0.000000,0.000000,0.000000,0.000000,0.000000,0.000000,0.000000,0.000000,1775740057.634316,0.000000
2.000000,17222.667303,19115.793004,-12835.399846,-66.228219,-12933.389894,-4533.827845,1231.201140,-138.491409,11995.801270,16253.048629,-686.466776,2528.295222,-16993.718385,18018.009426,2729.706792,1727.208701,0.006000,-0.016000,0.998000,192.000000,0.000000,0.000000,0.000000,0.000000,0.000000,0.000000,0.000000,0.000000,0.000000,1775740057.634330,0.000000
4.000000,17271.192941,19153.433341,-12769.708070,-18.015506,-12875.610635,-4496.858060,1266.963931,-86.769472,12020.231726,16289.124344,-655.733127,2552.479810,-16962.604757,18041.903441,2588.510822,1478.210268,0.006000,-0.016000,0.998000,192.000000,0.000000,0.000000,0.000000,0.000000,0.000000,0.000000,0.000000,0.000000,0.000000,1775740057.634344,0.000000
6.000000,17235.631315,19131.126300,-12821.139434,-61.064966,-12915.553202,-4524.328354,1233.413963,-127.494350,11993.476688,16295.047557,-637.650566,2558.693595,-16940.275364,18049.614793,2506.882251,1323.759714,0.006000,-0.016000,0.998000,192.000000,0.000000,0.000000,0.000000,0.000000,0.000000,0.000000,0.000000,0.000000,0.000000,1775740057.634357,0.000000
8.000000,17265.739115,19158.574242,-12790.226971,-38.467352,-12890.251027,-4496.902763,1251.071841,-102.862728,12035.341505,16294.086432,-673.167488,2550.222284,-16981.223760,18039.578860,2776.265475,1779.310617,0.004000,-0.014000,0.996000,192.000000,0.000000,16.000000,127.500000,72.000000,15.500000,16.000000,0.000000,0.000000,0.000000,1775740057.634371,0.000000
10.000000,17270.567092,19152.628678,-12772.971424,-29.839579,-12872.704908,-4489.861964,1255.653948,-90.815138,12012.967409,16321.020284,-616.975202,2571.255275,-16917.364826,18068.703183,2442.263358,1194.276058,0.004000,-0.014000,0.996000,192.000000,0.000000,0.000000,0.000000,0.000000,0.000000,0.000000,0.000000,0.000000,0.000000,1775740057.634385,0.000000
12.000000,17236.927716,19135.976629,-12823.709884,-63.970693,-12913.385083,-4510.023237,1232.028154,-127.919034,12011.603953,16288.140868,-667.043110,2548.300034,-16976.820466,18039.869432,2753.891379,1723.990050,0.004000,-0.014000,0.996000,192.000000,0.000000,0.000000,0.000000,0.000000,0.000000,0.000000,0.000000,0.000000,0.000000,1775740057.634399,0.000000
14.000000,17273.294005,19160.854120,-12768.635186,-21.390619,-12865.798219,-4481.614170,1263.432355,-84.511946,12025.506738,16313.174822,-649.184066,2558.984167,-16952.702934,18056.119151,2606.213403,1481.674788,0.004000,-0.014000,0.996000,192.000000,0.000000,0.000000,0.000000,0.000000,0.000000,0.000000,0.000000,0.000000,0.000000,1775740057.634412,0.000000
16.000000,17228.769330,19127.482966,-12826.727370,-63.702472,-12910.881688,-4511.833729,1228.809503,-131.741182,11992.940246,16299.808478,-640.243368,2555.005557,-16932.027570,18051.268822,2516.292336,1327.715972,0.004000,-0.014000,0.996000,192.000000,0.000000,0.000000,0.000000,0.000000,0.000000,0.000000,0.000000,0.000000,0.000000,1775740057.634426,0.000000
18.000000,17247.321278,19143.553870,-12802.475727,-42.624777,-12890.340434,-4494.801699,1246.176809,-116.966679,12024.009171,16281.368289,-685.170375,2535.716001,-16985.045908,18035.197918,2777.740690,1792.341684,0.006000,-0.018000,0.996000,192.000000,0.000000,24.000000,127.500000,56.000000,15.500000,16.000000,0.000000,0.000000,0.000000,1775740057.634440,0.000000
20.000000,17248.371810,19138.077693,-12790.025805,-34.689907,-12883.679615,-4494.511127,1249.462515,-109.232975,12001.098633,16309.240914,-632.308499,2552.636272,-16929.635934,18062.779971,2428.360573,1205.451930,0.006000,-0.018000,0.996000,192.000000,0.000000,0.000000,0.000000,0.000000,0.000000,0.000000,0.000000,0.000000,0.000000,1775740057.634454,0.000000
22.000000,17219.448652,19126.052454,-12837.277393,-66.250571,-12928.874842,-4520.305040,1227.177826,-143.632310,11996.583581,16273.411068,-684.522174,2527.490560,-16994.143068,18030.392293,2739.318042,1730.270890,0.006000,-0.018000,0.996000,192.000000,0.000000,0.000000,0.000000,0.000000,0.000000,0.000000,0.000000,0.000000,0.000000,1775740057.634468,0.000000
24.000000,17260.888786,19150.617021,-12775.072488,-19.825997,-12880.885646,-4491.180717,1263.968797,-95.888984,12016.543688,16308.190383,-657.945950,2549.618787,-16965.577539,18055.739171,2592.243563,1487.754463,0.006000,-0.018000,0.996000,192.000000,0.000000,0.000000,0.000000,0.000000,0.000000,0.000000,0.000000,0.000000,0.000000,1775740057.634481,0.000000
26.000000,17214.687731,19115.122451,-12830.705980,-63.322492,-12925.723246,-4532.374982,1231.134085,-138.089077,11975.483534,16290.957188,-649.318176,2544.075554,-16954.066390,18048.161930,2496.488690,1321.971574,0.006000,-0.018000,0.996000,192.000000,0.000000,0.000000,0.000000,0.000000,0.000000,0.000000,0.000000,0.000000,0.000000,1775740057.634497,0.000000
28.000000,17240.928679,19140.223460,-12800.531125,-39.696698,-12899.616408,-4512.280764,1250.088364,-113.725676,12010.933401,16281.837676,-687.472604,2535.917167,-17000.066280,18033.119206,2764.866086,1779.087100,0.006000,-0.014000,0.998000,192.000000,0.000000,24.000000,127.500000,72.000000,15.500000,24.000000,0.000000,0.000000,0.000000,1775740057.634510,0.000000
30.000000,17249.399990,19137.876527,-12782.359157,-33.415858,-12884.260760,-4503.720046,1253.150553,-102.281583,11994.929551,16309.397377,-629.782752,2556.726641,-16936.050884,18059.024877,2429.880491,1191.459738,0.006000,-0.014000,0.998000,192.000000,0.000000,0.000000,0.000000,0.000000,0.000000,0.000000,0.000000,0.000000,0.000000,1775740057.634524,0.000000
32.000000,17225.774196,19126.655951,-12825.386265,-66.004701,-12915.441443,-4520.573261,1230.508236,-136.144475,12003.780842,16279.893074,-672.787508,2536.565368,-16986.074088,18034.728531,2743.497818,1716.613974,0.006000,-0.014000,0.998000,192.000000,0.000000,0.000000,0.000000,0.000000,0.000000,0.000000,0.000000,0.000000,0.000000,1775740057.634537,0.000000
34.000000,17267.817827,19150.952298,-12766.109439,-22.284689,-12867.943986,-4485.458670,1262.985320,-91.239821,12020.991686,16302.513039,-651.776868,2550.088173,-16958.559091,18054.018087,2608.158005,1479.931352,0.006000,-0.014000,0.998000,192.000000,0.000000,0.000000,0.000000,0.000000,0.000000,0.000000,0.000000,0.000000,0.000000,1775740057.634550,0.000000
36.000000,17230.982152,19121.515050,-12822.659352,-64.082451,-12912.066330,-4517.220499,1231.022326,-131.852941,11992.984950,16292.231237,-638.477580,2552.166885,-16936.319105,18053.347534,2515.219452,1318.507054,0.006000,-0.014000,0.998000,192.000000,0.000000,0.000000,0.000000,0.000000,0.000000,0.000000,0.000000,0.000000,0.000000,1775740057.634564,0.000000
38.000000,17242.493301,19134.255544,-12799.704111,-45.999890,-12901.918638,-4507.810415,1248.099059,-116.407885,12022.019866,16275.087449,-680.990598,2536.163036,-16991.416155,18032.493357,2781.629894,1789.078330,0.006000,-0.012000,0.998000,192.000000,0.000000,24.000000,127.500000,80.000000,15.500000,24.000000,0.000000,0.000000,0.000000,1775740057.634577,0.000000
40.000000,17245.667248,19128.265277,-12788.528238,-39.830809,-12892.083870,-4503.809453,1248.523742,-108.003629,11994.057833,16293.304121,-630.676822,2552.032775,-16932.228736,18050.955898,2438.105933,1203.730846,0.006000,-0.012000,0.998000,192.000000,0.000000,0.000000,0.000000,0.000000,0.000000,0.000000,0.000000,0.000000,0.000000,1775740057.634591,0.000000
42.000000,17218.733396,19116.821184,-12834.684591,-69.983312,-12931.221775,-4530.318621,1226.216701,-141.777115,11990.883886,16258.770676,-681.728206,2527.289394,-16996.467650,18026.659551,2739.563911,1728.303937,0.006000,-0.012000,0.998000,192.000000,0.000000,0.000000,0.000000,0.000000,0.000000,0.000000,0.000000,0.000000,0.000000,1775740057.634604,0.000000
44.000000,17257.848949,19143.129187,-12774.714860,-22.843483,-12881.019757,-4497.774482,1260.459573,-95.799577,12010.084034,16288.878475,-655.353147,2546.891874,-16965.577539,18046.016162,2598.233831,1491.800128,0.006000,-0.012000,0.998000,192.000000,0.000000,0.000000,0.000000,0.000000,0.000000,0.000000,0.000000,0.000000,0.000000,1775740057.634618,0.000000
46.000000,17219.046321,19113.356663,-12828.493157,-65.669425,-12927.869013,-4534.207825,1226.641384,-137.262063,11972.689566,16275.199208,-646.390098,2540.387516,-16958.514387,18043.423360,2499.327362,1322.284498,0.006000,-0.012000,0.998000,192.000000,0.000000,0.000000,0.000000,0.000000,0.000000,0.000000,0.000000,0.000000,0.000000,1775740057.634631,0.000000
48.000000,17245.220214,19135.864870,-12797.468936,-45.597559,-12902.276266,-4518.472197,1246.892064,-114.418580,12017.549517,16269.030126,-681.527040,2531.200949,-16997.339368,18030.772272,2769.761118,1782.842193,0.006000,-0.016000,1.000000,192.000000,0.000000,24.000000,127.500000,64.000000,15.500000,32.000000,0.000000,0.000000,0.000000,1775740057.634645,0.000000
50.000000,17253.065676,19136.244850,-12777.039442,-34.779314,-12886.428879,-4509.531499,1255.966873,-97.744179,11998.103499,16296.634531,-626.161769,2551.585740,-16920.516422,18059.024877,2434.194378,1188.866936,0.006000,-0.016000,1.000000,192.000000,0.000000,0.000000,0.000000,0.000000,0.000000,0.000000,0.000000,0.000000,0.000000,1775740057.634658,0.000000
52.000000,17224.500146,19123.861983,-12825.520375,-69.580980,-12930.506519,-4534.744267,1231.581119,-134.311632,12003.065586,16269.834789,-671.848735,2532.184426,-16981.268463,18033.029799,2739.943891,1707.762683,0.006000,-0.016000,1.000000,192.000000,0.000000,0.000000,0.000000,0.000000,0.000000,0.000000,0.000000,0.000000,0.000000,1775740057.634672,0.000000
54.000000,17270.187112,19154.528577,-12762.689622,-22.687021,-12877.912864,-4501.440168,1267.388614,-87.484728,12023.428026,16297.841525,-648.289996,2548.747068,-16952.032382,18053.906328,2602.838290,1471.437689,0.006000,-0.016000,1.000000,192.000000,0.000000,0.000000,0.000000,0.000000,0.000000,0.000000,0.000000,0.000000,0.000000,1775740057.634685,0.000000
56.000000,17223.203745,19119.928076,-12820.290067,-68.105765,-12923.689237,-4536.398296,1231.402306,-132.456438,11991.599142,16286.330376,-634.320156,2545.751935,-16949.596041,18053.951031,2506.859899,1302.905536,0.006000,-0.016000,1.000000,192.000000,0.000000,0.000000,0.000000,0.000000,0.000000,0.000000,0.000000,0.000000,0.000000,1775740057.634698,0.000000
58.000000,17241.062789,19137.340085,-12799.815869,-47.877437,-12908.288885,-4519.388618,1246.690899,-115.133836,12016.454281,16269.968899,-679.962418,2531.424467,-17002.055586,18036.606078,2779.350016,1772.739204,0.004000,-0.016000,1.001000,192.000000,0.000000,8.000000,127.500000,64.000000,15.500000,40.000000,0.000000,0.000000,0.000000,1775740058.113816,0.000000
60.000000,17245.823711,19131.640390,-12788.081203,-37.930910,-12897.492993,-4511.990191,1249.797791,-105.366123,11990.906237,16291.292464,-630.386249,2551.608092,-16926.730207,18062.467046,2434.730820,1187.905811,0.004000,-0.016000,1.001000,192.000000,0.000000,0.000000,0.000000,0.000000,0.000000,0.000000,0.000000,0.000000,0.000000,1775740058.113901,0.000000
62.000000,17207.065786,19110.808565,-12839.981954,-72.151431,-12934.820406,-4534.856026,1222.640422,-148.281473,11983.820734,16256.826074,-686.869107,2526.797655,-17011.018635,18031.286363,2737.485199,1717.865672,0.004000,-0.016000,1.001000,192.000000,0.000000,0.000000,0.000000,0.000000,0.000000,0.000000,0.000000,0.000000,0.000000,1775740058.113950,0.000000
64.000000,17245.242565,19134.836690,-12779.587541,-25.905672,-12880.416260,-4495.740473,1255.229265,-107.601298,12002.864421,16283.603464,-669.725319,2536.386554,-16975.367603,18050.777084,2602.324200,1494.415283,0.004000,-0.016000,1.001000,192.000000,0.000000,0.000000,0.000000,0.000000,0.000000,0.000000,0.000000,0.000000,0.000000,1775740058.113998,0.000000
66.000000,17201.142573,19099.722099,-12835.891585,-71.324417,-12927.690199,-4530.899767,1220.025268,-153.467077,11964.039441,16270.773562,-659.622331,2528.898719,-16973.691222,18051.537043,2501.987219,1326.106647,0.004000,-0.016000,1.001000,192.000000,0.000000,0.000000,0.000000,0.000000,0.000000,0.000000,0.000000,0.000000,0.000000,1775740058.114043,0.000000
68.000000,17226.154176,19123.839632,-12807.393111,-52.213675,-12909.160603,-4509.889127,1238.957195,-131.182388,12002.931476,16262.682231,-698.894346,2515.688838,-17014.103176,18037.321334,2777.740690,1793.571030,0.004000,-0.014000,1.002500,192.000000,0.000000,16.000000,127.500000,80.000000,15.500000,48.000000,0.000000,0.000000,0.000000,1775740058.114082,0.000000
70.000000,17243.633240,19130.478100,-12784.460221,-39.719050,-12888.172315,-4500.322580,1248.479038,-109.635307,11990.660368,16294.019377,-638.991670,2539.113467,-16938.800149,18067.853816,2436.965994,1201.450968,0.004000,-0.014000,1.002500,192.000000,0.000000,0.000000,0.000000,0.000000,0.000000,0.000000,0.000000,0.000000,0.000000,1775740058.114134,0.000000
72.000000,17211.647893,19111.523820,-12834.438721,-73.716053,-12935.736827,-4530.408028,1225.657907,-146.381574,11993.923723,16263.553949,-682.756386,2517.655792,-16993.494868,18038.595383,2739.698021,1719.810274,0.004000,-0.014000,1.002500,192.000000,0.000000,0.000000,0.000000,0.000000,0.000000,0.000000,0.000000,0.000000,0.000000,1775740058.114149,0.000000
74.000000,17254.362077,19139.821129,-12774.513695,-24.072829,-12883.903132,-4499.160290,1261.979492,-99.442911,12012.945058,16290.979539,-661.075194,2534.598414,-16964.303489,18058.935470,2600.446653,1489.699064,0.004000,-0.014000,1.002500,192.000000,0.000000,0.000000,0.000000,0.000000,0.000000,0.000000,0.000000,0.000000,0.000000,1775740058.114164,0.000000
76.000000,17216.364111,19113.446070,-12826.414445,-62.651940,-12928.204289,-4530.273918,1231.581119,-139.340775,11977.495191,16284.206961,-647.060650,2535.134856,-16939.381294,18060.991831,2496.801614,1309.946336,0.004000,-0.014000,1.002500,192.000000,0.000000,0.000000,0.000000,0.000000,0.000000,0.000000,0.000000,0.000000,0.000000,1775740058.114179,0.000000
78.000000,17237.397103,19133.830861,-12800.687587,-40.501361,-12913.563897,-4516.304078,1250.311881,-117.301955,12011.447491,16275.601539,-686.600886,2524.517778,-17008.135260,18050.218290,2770.901057,1780.741129,0.005000,-0.014000,1.003250,192.000000,0.000000,24.000000,127.500000,72.000000,15.500000,48.000000,0.000000,0.000000,0.000000,1775740058.114194,0.000000
80.000000,17248.014182,19137.898879,-12782.582674,-27.537349,-12896.844792,-4508.123339,1258.269102,-99.957001,11989.453374,16307.139851,-630.341545,2549.752897,-16931.200556,18078.895578,2433.233253,1194.946610,0.005000,-0.014000,1.003250,192.000000,0.000000,0.000000,0.000000,0.000000,0.000000,0.000000,0.000000,0.000000,0.000000,1775740058.114209,0.000000
82.000000,17211.424376,19116.016521,-12835.243384,-65.490611,-12942.263537,-4537.024145,1231.648175,-142.358260,11986.391185,16272.159370,-679.828308,2528.161112,-17002.144993,18048.251337,2736.434667,1711.137797,0.005000,-0.014000,1.003250,192.000000,0.000000,0.000000,0.000000,0.000000,0.000000,0.000000,0.000000,0.000000,0.000000,1775740058.114223,0.000000
84.000000,17249.623507,19138.949411,-12778.224084,-16.920271,-12891.905056,-4501.596630,1265.935751,-99.733484,12000.405729,16293.773507,-665.165563,2540.007536,-16980.173228,18062.601157,2602.480662,1486.636875,0.005000,-0.014000,1.003250,192.000000,0.000000,0.000000,0.000000,0.000000,0.000000,0.000000,0.000000,0.000000,0.000000,1775740058.114236,0.000000
86.000000,17204.182411,19105.064166,-12836.182158,-61.936684,-12938.709609,-4535.683040,1229.345945,-147.990900,11967.548665,16284.721051,-652.022738,2539.225225,-16961.129542,18065.238662,2496.175766,1312.360324,0.005000,-0.014000,1.003250,192.000000,0.000000,0.000000,0.000000,0.000000,0.000000,0.000000,0.000000,0.000000,0.000000,1775740058.114250,0.000000
88.000000,17222.041455,19122.319713,-12811.170555,-45.686966,-12912.870993,-4516.818168,1244.343966,-130.623595,11995.801270,16269.633623,-699.967229,2519.958022,-17009.923400,18042.104607,2778.321836,1791.179394,0.004500,-0.012000,1.003625,192.000000,0.000000,16.000000,127.500000,88.000000,15.500000,48.000000,0.000000,0.000000,0.000000,1775740058.114264,0.000000
90.000000,17240.861623,19130.098120,-12789.556419,-35.360460,-12892.486202,-4502.244830,1250.669509,-110.328211,11974.611816,16294.891095,-644.132572,2539.784019,-16941.281192,18067.943223,2439.111762,1208.044733,0.004500,-0.012000,1.003625,192.000000,0.000000,0.000000,0.000000,0.000000,0.000000,0.000000,0.000000,0.000000,0.000000,1775740058.114282,0.000000
92.000000,17220.990923,19122.431472,-12832.807044,-71.279713,-12927.332571,-4522.093179,1226.931957,-139.407830,11984.737156,16263.330431,-682.398758,2520.829740,-17000.334501,18040.741150,2739.586263,1729.801503,0.004500,-0.012000,1.003625,192.000000,0.000000,0.000000,0.000000,0.000000,0.000000,0.000000,0.000000,0.000000,0.000000,1775740058.114295,0.000000
94.000000,17263.146313,19148.828882,-12767.159971,-23.111704,-12877.532885,-4487.962066,1265.689882,-88.647019,12010.687531,16289.169048,-651.978034,2544.276720,-16953.731114,18061.349459,2604.693485,1511.827291,0.004500,-0.012000,1.003625,192.000000,0.000000,0.000000,0.000000,0.000000,0.000000,0.000000,0.000000,0.000000,0.000000,1775740058.114308,0.000000
96.000000,17222.890821,19121.291533,-12822.189966,-64.887114,-12926.818481,-4521.377924,1232.139913,-132.299975,11973.851856,16279.267225,-638.634043,2542.734449,-16960.481341,18059.404857,2507.418693,1327.358344,0.004500,-0.012000,1.003625,192.000000,0.000000,0.000000,0.000000,0.000000,0.000000,0.000000,0.000000,0.000000,0.000000,1775740058.114322,0.000000
98.000000,17246.181339,19143.129187,-12797.759509,-39.674346,-12906.277228,-4505.418778,1252.748221,-110.171748,12012.632133,16275.199208,-677.391967,2534.151379,-17002.055586,18049.659497,2778.791222,1797.504937,0.005250,-0.014000,1.000812,192.000000,0.000000,24.000000,127.500000,64.000000,15.500000,24.000000,0.000000,0.000000,0.000000,1775740058.114335,0.000000
100.000000,17254.272670,19144.045609,-12780.168686,-28.878454,-12892.374443,-4506.446958,1259.543152,-96.939516,11989.609836,16299.227333,-624.798313,2554.335005,-16938.375466,18075.833389,2432.517997,1209.050561,0.005250,-0.014000,1.000812,192.000000,0.000000,0.000000,0.000000,0.000000,0.000000,0.000000,0.000000,0.000000,0.000000,1775740058.114348,0.000000
102.000000,17225.863603,19130.053416,-12829.566041,-63.523658,-12938.396685,-4535.392467,1235.336213,-132.188217,11991.800307,16269.611272,-672.675749,2531.983260,-16991.550266,18047.401970,2731.696097,1715.541090,0.005250,-0.014000,1.000812,192.000000,0.000000,0.000000,0.000000,0.000000,0.000000,0.000000,0.000000,0.000000,0.000000,1775740058.114362,0.000000
104.000000,17268.331917,19157.590766,-12764.522465,-18.037858,-12881.086812,-4500.255525,1270.651969,-83.751986,12008.407653,16295.606350,-649.854618,2550.691670,-16967.522140,18068.881997,2604.827595,1490.839003,0.005250,-0.014000,1.000812,192.000000,0.000000,0.000000,0.000000,0.000000,0.000000,0.000000,0.000000,0.000000,0.000000,1775740058.114375,0.000000
106.000000,17227.450577,19122.856155,-12821.541765,-61.824925,-12930.752388,-4534.029011,1235.716192,-130.780057,11974.880037,16285.682176,-635.661261,2549.484676,-16946.757370,18068.636128,2500.534356,1302.257335,0.005250,-0.014000,1.000812,192.000000,0.000000,0.000000,0.000000,0.000000,0.000000,0.000000,0.000000,0.000000,0.000000,1775740058.114388,0.000000
108.000000,17238.402931,19132.802681,-12802.140451,-42.937701,-12917.453100,-4530.028049,1250.803620,-120.833531,12000.025749,16262.257548,-684.723340,2530.351583,-16996.959388,18044.563299,2779.662940,1780.607019,0.006625,-0.016000,1.001406,192.000000,0.000000,32.000000,127.500000,56.000000,15.500000,40.000000,0.000000,0.000000,0.000000,1775740058.114401,0.000000
110.000000,17243.968516,19134.099082,-12783.856724,-29.794875,-12896.867144,-4519.790950,1258.403213,-106.640173,11974.611816,16287.447964,-634.230749,2550.155228,-16948.299640,18069.530197,2437.323622,1193.963134,0.006625,-0.016000,1.001406,192.000000,0.000000,0.000000,0.000000,0.000000,0.000000,0.000000,0.000000,0.000000,0.000000,1775740058.114414,0.000000
112.000000,17214.173641,19117.871716,-12832.605878,-67.055233,-12935.915641,-4542.545026,1234.509198,-141.128914,11976.846990,16251.573414,-680.632970,2527.401153,-17002.726138,18043.199842,2738.915710,1707.695628,0.006625,-0.016000,1.001406,192.000000,0.000000,0.000000,0.000000,0.000000,0.000000,0.000000,0.000000,0.000000,0.000000,1775740058.114427,0.000000
114.000000,17257.200749,19147.890109,-12768.434020,-22.195282,-12878.963396,-4502.088368,1269.020291,-92.156242,11996.516525,16276.070926,-658.929427,2542.265063,-16971.031364,18058.354325,2613.209500,1498.662114,0.006625,-0.016000,1.001406,192.000000,0.000000,0.000000,0.000000,0.000000,0.000000,0.000000,0.000000,0.000000,0.000000,1775740058.114441,0.000000
116.000000,17223.784891,19127.214745,-12821.899393,-63.993044,-12918.078949,-4524.887148,1234.106867,-132.702307,11970.677909,16275.892112,-639.259891,2545.796638,-16945.684486,18066.088029,2509.005667,1317.009487,0.006625,-0.016000,1.001406,192.000000,0.000000,0.000000,0.000000,0.000000,0.000000,0.000000,0.000000,0.000000,0.000000,1775740058.114455,0.000000
118.000000,17245.890766,19146.593707,-12797.111308,-41.216617,-12895.838963,-4503.876508,1250.893027,-115.737333,12011.246325,16270.885321,-681.415281,2534.620766,-16994.523048,18052.632279,2785.183821,1806.847967,0.007313,-0.014000,1.001703,192.000000,0.000000,32.000000,127.500000,80.000000,15.500000,40.000000,0.000000,0.000000,0.000000,1775740058.114468,0.000000
120.000000,17253.512711,19142.101007,-12779.364023,-29.191378,-12875.253007,-4497.059226,1256.480963,-105.433179,11988.581656,16296.433365,-631.101505,2549.819952,-16934.665076,18084.103535,2447.516018,1224.406210,0.007313,-0.014000,1.001703,192.000000,0.000000,0.000000,0.000000,0.000000,0.000000,0.000000,0.000000,0.000000,0.000000,1775740058.114482,0.000000
122.000000,17224.991885,19125.471309,-12827.777902,-64.216562,-12915.843775,-4520.327392,1232.028154,-143.475848,11993.275522,16266.750248,-677.995465,2526.685897,-16981.626091,18057.415552,2740.994423,1734.428314,0.007313,-0.014000,1.001703,192.000000,0.000000,0.000000,0.000000,0.000000,0.000000,0.000000,0.000000,0.000000,0.000000,1775740058.114497,0.000000
124.000000,17264.822693,19153.142769,-12764.500113,-19.825997,-12868.525132,-4491.538345,1268.573257,-93.899678,12007.759453,16290.152525,-657.901246,2540.655737,-16956.972117,18076.280424,2615.757598,1515.291812,0.007313,-0.014000,1.001703,192.000000,0.000000,0.000000,0.000000,0.000000,0.000000,0.000000,0.000000,0.000000,0.000000,1775740058.114511,0.000000
126.000000,17229.529289,19125.918344,-12819.373646,-64.641245,-12920.962324,-4530.139807,1235.492675,-132.635252,11976.779935,16283.134077,-637.404697,2542.980318,-16927.646628,18075.721631,2501.897812,1314.461388,0.007313,-0.014000,1.001703,192.000000,0.000000,0.000000,0.000000,0.000000,0.000000,0.000000,0.000000,0.000000,0.000000,1775740058.114525,0.000000
128.000000,17243.901461,19139.955239,-12795.770204,-43.340032,-12909.629990,-4521.199110,1254.156381,-114.172711,12010.799290,16264.537426,-680.163584,2529.345754,-17004.402519,18054.442770,2781.853411,1794.018065,0.007313,-0.014000,1.001703,192.000000,0.000000,0.000000,0.000000,0.000000,0.000000,0.000000,0.000000,0.000000,0.000000,1775740058.114538,0.000000
130.000000,17249.332935,19137.585954,-12777.084145,-29.928986,-12894.944894,-4515.968801,1260.616036,-104.650868,11985.385357,16283.357594,-627.704040,2548.724717,-16936.162643,18081.130753,2437.793009,1198.388779,0.006000,-0.012000,0.994000,192.000000,0.000000,24.000000,127.500000,80.000000,15.500000,8.000000,0.000000,0.000000,0.000000,1775740058.114552,0.000000
132.000000,17214.397158,19116.910591,-12828.582564,-66.384681,-12938.597851,-4544.422572,1231.447009,-147.297996,11983.776031,16251.908690,-676.922581,2525.300089,-16993.941902,18053.638107,2732.612518,1702.800596,0.006000,-0.012000,0.994000,192.000000,0.000000,0.000000,0.000000,0.000000,0.000000,0.000000,0.000000,0.000000,0.000000,1775740058.114565,0.000000
134.000000,17261.089952,19149.387675,-12764.768334,-17.948451,-12880.282149,-4507.832767,1266.315730,-98.168862,11998.952865,16277.210865,-659.242351,2538.018231,-16968.393858,18071.184226,2615.288212,1493.387102,0.006000,-0.012000,0.994000,192.000000,0.000000,0.000000,0.000000,0.000000,0.000000,0.000000,0.000000,0.000000,0.000000,1775740058.114578,0.000000
136.000000,17222.153213,19118.408158,-12820.066550,-60.975559,-12921.789339,-4540.399258,1232.072858,-138.066726,11968.085106,16277.032051,-641.830342,2542.756801,-16944.879823,18079.946110,2510.503234,1300.938583,0.006000,-0.012000,0.994000,192.000000,0.000000,0.000000,0.000000,0.000000,0.000000,0.000000,0.000000,0.000000,0.000000,1775740058.114592,0.000000
138.000000,17245.421379,19140.156405,-12794.160878,-37.930910,-12893.134402,-4516.549947,1253.105849,-115.491464,12000.517488,16264.939757,-684.097491,2530.150417,-16989.806830,18064.590462,2793.006932,1790.330027,0.006000,-0.012000,0.994000,192.000000,0.000000,0.000000,0.000000,0.000000,0.000000,0.000000,0.000000,0.000000,0.000000,1775740058.114606,0.000000
140.000000,17256.887824,19144.291478,-12776.994738,-25.480989,-12873.598978,-4507.005752,1259.476097,-99.577022,11981.384394,16295.248722,-627.860502,2554.357356,-16913.207401,18094.921779,2450.444096,1206.323648,0.006000,-0.016000,1.002000,192.000000,0.000000,24.000000,127.500000,64.000000,15.500000,40.000000,0.000000,0.000000,0.000000,1775740058.114619,0.000000
142.000000,17223.337856,19124.711350,-12826.839128,-62.249608,-12919.777682,-4530.408028,1233.190445,-139.251368,11982.591389,16263.308080,-674.575648,2531.916205,-16998.658120,18067.205616,2741.776734,1714.982297,0.006000,-0.016000,1.002000,192.000000,0.000000,0.000000,0.000000,0.000000,0.000000,0.000000,0.000000,0.000000,0.000000,1775740058.114632,0.000000
144.000000,17262.654574,19149.387675,-12762.309642,-18.283727,-12865.954681,-4494.980513,1268.103870,-92.916202,12004.116118,16283.826981,-654.347319,2542.823856,-16966.024574,18081.823657,2622.060790,1513.794245,0.006000,-0.016000,1.002000,192.000000,0.000000,0.000000,0.000000,0.000000,0.000000,0.000000,0.000000,0.000000,0.000000,1775740058.114645,0.000000
146.000000,17223.628428,19118.363454,-12819.016018,-60.752041,-12911.619295,-4520.707371,1232.497541,-136.122124,11970.633205,16278.842542,-639.192836,2542.957967,-16940.700047,18085.422288,2508.111597,1321.390429,0.006000,-0.016000,1.002000,192.000000,0.000000,0.000000,0.000000,0.000000,0.000000,0.000000,0.000000,0.000000,0.000000,1775740058.114659,0.000000
148.000000,17242.582708,19135.104911,-12796.127831,-37.394468,-12891.793298,-4508.056284,1251.809448,-115.670278,12003.222049,16268.560740,-684.075139,2532.676164,-16992.444336,18068.010279,2793.543374,1810.647763,0.006000,-0.016000,1.002000,192.000000,0.000000,0.000000,0.000000,0.000000,0.000000,0.000000,0.000000,0.000000,0.000000,1775740058.114672,0.000000
150.000000,17249.735266,19138.502376,-12776.525352,-25.078657,-12874.716565,-4499.786139,1259.319634,-103.063894,11981.317339,16300.367272,-630.185083,2556.525476,-16926.864317,18098.274541,2449.505323,1224.048582,0.006000,-0.016000,1.004000,192.000000,0.000000,24.000000,127.500000,64.000000,15.500000,48.000000,0.000000,0.000000,0.000000,1775740058.114685,0.000000
152.000000,17217.638161,19120.956257,-12828.068474,-63.456603,-12920.761159,-4528.508130,1231.871692,-143.475848,11978.188095,16265.051516,-679.023645,2529.792789,-16983.749507,18068.278500,2740.569739,1721.106675,0.006000,-0.016000,1.004000,192.000000,0.000000,0.000000,0.000000,0.000000,0.000000,0.000000,0.000000,0.000000,0.000000,1775740058.114699,0.000000
154.000000,17262.453409,19149.521786,-12766.243549,-17.166140,-12871.788486,-4495.762825,1267.679187,-94.838452,11994.638979,16286.419783,-658.840020,2543.784981,-16961.308355,18085.936378,2616.472854,1509.659172,0.006000,-0.016000,1.004000,192.000000,0.000000,0.000000,0.000000,0.000000,0.000000,0.000000,0.000000,0.000000,0.000000,1775740058.114714,0.000000
156.000000,17227.696446,19122.789100,-12819.775977,-59.790916,-12923.845699,-4535.437171,1235.827951,-135.608034,11964.464124,16284.586940,-640.757458,2544.701403,-16942.734056,18085.221122,2497.427463,1305.006600,0.006000,-0.016000,1.004000,192.000000,0.000000,0.000000,0.000000,0.000000,0.000000,0.000000,0.000000,0.000000,0.000000,1775740058.114727,0.000000
158.000000,17244.504958,19139.463501,-12800.352311,-39.093201,-12909.004141,-4527.390543,1252.725870,-118.799522,11999.511659,16271.131190,-684.209250,2533.234958,-16997.473478,18065.596290,2783.462737,1789.637123,0.006000,-0.016000,1.004000,192.000000,0.000000,0.000000,0.000000,0.000000,0.000000,0.000000,0.000000,0.000000,0.000000,1775740058.114740,0.000000
160.000000,17253.691525,19139.262335,-12779.609892,-23.446980,-12889.558123,-4519.813302,1261.510105,-100.269926,11974.298891,16291.314815,-631.883816,2552.949196,-16923.131576,18085.958730,2439.938776,1199.439311,0.006000,-0.018000,1.004000,192.000000,0.000000,24.000000,127.500000,56.000000,15.500000,48.000000,0.000000,0.000000,0.000000,1775740058.114753,0.000000
162.000000,17224.656609,19125.583068,-12829.498986,-62.115498,-12929.992429,-4545.674270,1235.537378,-135.742144,11973.874208,16260.648222,-674.329778,2534.196083,-16998.658120,18061.416514,2733.663050,1700.520718,0.006000,-0.018000,1.004000,192.000000,0.000000,0.000000,0.000000,0.000000,0.000000,0.000000,0.000000,0.000000,0.000000,1775740058.114766,0.000000
164.000000,17267.102571,19155.132074,-12765.125962,-16.674401,-12878.091678,-4510.559679,1270.540210,-87.127100,11996.784746,16289.660786,-650.435764,2551.094002,-16969.690260,18078.694413,2612.449540,1497.857451,0.006000,-0.018000,1.004000,192.000000,0.000000,0.000000,0.000000,0.000000,0.000000,0.000000,0.000000,0.000000,0.000000,1775740058.114780,0.000000
166.000000,17220.096853,19122.587934,-12818.144300,-61.400242,-12918.637743,-4540.823941,1234.956233,-132.523493,11956.797475,16280.362461,-636.957662,2549.641138,-16950.065428,18078.113267,2504.468263,1295.641219,0.006000,-0.018000,1.004000,192.000000,0.000000,0.000000,0.000000,0.000000,0.000000,0.000000,0.000000,0.000000,0.000000,1775740058.114798,0.000000
168.000000,17244.348496,19144.202071,-12796.619570,-42.311852,-12898.543525,-4523.166063,1251.876503,-118.196025,11996.829450,16271.399411,-683.628104,2535.000746,-16997.786402,18062.377639,2789.497708,1794.062769,0.006000,-0.018000,1.004000,192.000000,0.000000,0.000000,0.000000,0.000000,0.000000,0.000000,0.000000,0.000000,0.000000,1775740058.114816,0.000000
170.000000,17245.309621,19137.049513,-12782.113288,-34.712259,-12884.618388,-4517.689886,1254.044623,-107.824815,11974.656519,16294.131135,-634.163694,2550.289339,-16935.268573,18088.953863,2444.252663,1206.010724,0.012000,-0.012000,1.002000,192.000000,0.000000,48.000000,127.500000,80.000000,15.500000,40.000000,0.000000,0.000000,0.000000,1775740058.114835,0.000000
172.000000,17219.962742,19124.979571,-12828.582564,-67.323454,-12920.358827,-4535.325412,1232.139913,-139.296071,11971.013185,16254.277975,-680.565915,2526.372972,-16986.610530,18060.589500,2728.879777,1709.461416,0.012000,-0.012000,1.002000,192.000000,0.000000,0.000000,0.000000,0.000000,0.000000,0.000000,0.000000,0.000000,0.000000,1775740058.114853,0.000000
174.000000,17260.844083,19153.880376,-12765.327128,-21.770599,-12873.844847,-4502.691865,1267.209800,-89.339923,11993.946075,16281.994138,-655.934293,2545.103734,-16952.412361,18076.056907,2618.484511,1510.866166,0.012000,-0.012000,1.002000,192.000000,0.000000,0.000000,0.000000,0.000000,0.000000,0.000000,0.000000,0.000000,0.000000,1775740058.114871,0.000000
176.000000,17222.734359,19123.727873,-12818.792500,-61.333187,-12917.766025,-4536.197130,1235.649137,-131.070629,11961.245473,16275.869760,-636.711793,2547.696537,-16946.846777,18079.230854,2498.008609,1305.744208,0.012000,-0.012000,1.002000,192.000000,0.000000,0.000000,0.000000,0.000000,0.000000,0.000000,0.000000,0.000000,0.000000,1775740058.114896,0.000000
178.000000,17240.056961,19138.256507,-12798.005378,-42.870646,-12901.762176,-4526.027086,1252.390594,-118.464246,11998.192906,16260.670574,-681.750558,2532.631461,-16992.511391,18059.561319,2779.148850,1798.756635,0.012000,-0.012000,1.002000,192.000000,0.000000,0.000000,0.000000,0.000000,0.000000,0.000000,0.000000,0.000000,0.000000,1775740058.595551,0.000000
180.000000,17241.442769,19133.182661,-12779.833410,-33.415858,-12885.646568,-4521.936717,1257.822067,-107.958926,11973.807153,16284.206961,-632.196740,2550.043470,-16930.753521,18085.489343,2437.994175,1202.546203,0.010000,-0.010000,1.002000,192.000000,0.000000,40.000000,127.500000,88.000000,15.500000,40.000000,0.000000,0.000000,0.000000,1775740058.595640,0.000000
182.000000,17217.660513,19123.057320,-12827.956716,-66.831716,-12926.907888,-4547.060078,1234.620957,-140.860694,11973.941263,16254.188568,-680.990598,2526.529435,-16987.415193,18061.237700,2727.851597,1692.898773,0.010000,-0.010000,1.002000,192.000000,0.000000,0.000000,0.000000,0.000000,0.000000,0.000000,0.000000,0.000000,0.000000,1775740058.595708,0.000000
184.000000,17251.411647,19145.878452,-12765.237721,-22.172930,-12880.773888,-4517.488720,1268.930884,-93.832623,11991.822659,16284.274016,-658.437688,2545.550769,-16952.814693,18080.504904,2613.544776,1495.219945,0.010000,-0.010000,1.002000,192.000000,0.000000,0.000000,0.000000,0.000000,0.000000,0.000000,0.000000,0.000000,0.000000,1775740058.595771,0.000000
186.000000,17218.398120,19119.548097,-12813.919820,-62.808402,-12922.817519,-4550.882226,1238.063125,-131.875292,11950.181359,16275.959167,-642.500894,2543.203836,-16951.250070,18080.504904,2498.343885,1284.890030,0.010000,-0.010000,1.002000,192.000000,0.000000,0.000000,0.000000,0.000000,0.000000,0.000000,0.000000,0.000000,0.000000,1775740058.595835,0.000000
188.000000,17241.845100,19138.122396,-12793.199753,-43.340032,-12904.645551,-4534.341935,1252.122373,-115.759685,11995.264828,16266.660841,-680.498860,2532.206778,-16993.383109,18065.149255,2785.161470,1782.261048,0.010000,-0.010000,1.002000,192.000000,0.000000,0.000000,0.000000,0.000000,0.000000,0.000000,0.000000,0.000000,0.000000,1775740058.595864,0.000000
190.000000,17242.895632,19133.316771,-12775.653634,-30.487779,-12886.540638,-4519.388618,1257.732661,-103.689743,11972.287234,16289.191400,-628.754572,2551.630444,-16929.524175,18094.206523,2444.498532,1199.081683,0.008000,-0.004000,0.996000,192.000000,0.000000,32.000000,127.500000,112.000000,15.500000,16.000000,0.000000,0.000000,0.000000,1775740058.595893,0.000000
192.000000,17216.453518,19121.537402,-12828.068474,-66.898771,-12924.538603,-4540.466313,1231.447009,-142.492371,11966.319319,16253.115684,-680.811784,2525.925937,-16985.671757,18066.713878,2738.692193,1699.045503,0.008000,-0.004000,0.996000,192.000000,0.000000,0.000000,0.000000,0.000000,0.000000,0.000000,0.000000,0.000000,0.000000,1775740058.595922,0.000000
194.000000,17263.615699,19154.170949,-12768.970462,-19.311907,-12869.888588,-4500.233173,1265.309902,-92.513870,11998.774052,16285.995100,-658.504743,2545.684880,-16957.709725,18089.780878,2624.407723,1511.894347,0.008000,-0.004000,0.996000,192.000000,0.000000,0.000000,0.000000,0.000000,0.000000,0.000000,0.000000,0.000000,0.000000,1775740058.595950,0.000000
196.000000,17222.287324,19122.275009,-12823.240497,-61.891980,-12913.720359,-4529.625717,1232.586948,-134.110467,11967.056926,16279.177818,-640.466886,2549.261159,-16944.298678,18090.652596,2498.723864,1307.219423,0.008000,-0.004000,0.996000,192.000000,0.000000,0.000000,0.000000,0.000000,0.000000,0.000000,0.000000,0.000000,0.000000,1775740058.595978,0.000000
198.000000,17230.959801,19132.623867,-12804.397977,-45.217579,-12901.784528,-4520.059171,1247.495562,-124.655679,11989.341615,16258.234234,-689.841889,2530.686859,-17002.212048,18068.971404,2789.073025,1804.992772,0.008000,-0.004000,0.996000,192.000000,0.000000,0.000000,0.000000,0.000000,0.000000,0.000000,0.000000,0.000000,0.000000,1775740058.596006,0.000000
200.000000,17239.811091,19133.607344,-12784.415517,-31.404201,-12886.473583,-4511.364342,1254.826934,-111.803426,11965.157028,16283.737574,-638.522284,2546.824818,-16941.035323,18093.603026,2444.699698,1218.728866,0.006000,-0.012000,1.004000,192.000000,0.000000,24.000000,127.500000,80.000000,15.500000,48.000000,0.000000,0.000000,0.000000,1775740058.596035,0.000000
202.000000,17207.356358,19116.709425,-12835.221033,-68.396338,-12929.701856,-4539.102857,1229.502407,-149.644929,11963.927682,16252.422780,-686.310314,2523.914280,-16993.047833,18065.015145,2729.863254,1710.623707,0.006000,-0.012000,1.004000,192.000000,0.000000,0.000000,0.000000,0.000000,0.000000,0.000000,0.000000,0.000000,0.000000,1775740058.596052,0.000000
204.000000,17253.490359,19146.124321,-12773.418459,-21.256509,-12875.767097,-4508.995057,1267.120393,-97.319495,11986.190019,16278.775487,-666.327854,2539.202874,-16963.431771,18080.996642,2619.579747,1515.001239,0.006000,-0.012000,1.004000,192.000000,0.000000,0.000000,0.000000,0.000000,0.000000,0.000000,0.000000,0.000000,0.000000,1775740058.596071,0.000000
206.000000,17216.386463,19120.777443,-12823.955753,-60.573227,-12921.945801,-4544.869607,1237.079649,-129.371897,11955.299909,16271.779391,-645.384269,2544.321423,-16954.558129,18083.410631,2493.024170,1294.545984,0.006000,-0.012000,1.004000,192.000000,0.000000,0.000000,0.000000,0.000000,0.000000,0.000000,0.000000,0.000000,0.000000,1775740058.596084,0.000000
208.000000,17232.971458,19140.312867,-12804.755605,-42.714184,-12908.355940,-4534.453694,1252.569408,-114.396228,11992.448508,16264.760943,-685.818575,2537.459438,-16999.574542,18068.546721,2780.959342,1790.710007,0.006000,-0.012000,1.004000,192.000000,0.000000,0.000000,0.000000,0.000000,0.000000,0.000000,0.000000,0.000000,0.000000,1775740058.596097,0.000000
210.000000,17242.247432,19142.615097,-12781.420384,-28.610233,-12893.849658,-4528.128150,1260.124297,-99.889946,11966.945167,16290.778374,-635.236577,2557.888932,-16938.867204,18096.285235,2435.155503,1199.573421,0.005000,-0.009000,1.002000,192.000000,0.000000,16.000000,127.500000,104.000000,15.500000,32.000000,0.000000,0.000000,0.000000,1775740058.596110,0.000000
212.000000,17213.905420,19125.225440,-12829.029599,-66.049405,-12933.233432,-4553.922064,1235.000936,-138.781981,11971.102592,16260.178835,-678.062520,2536.051278,-16981.648443,18069.194921,2725.862292,1690.507137,0.005000,-0.009000,1.002000,192.000000,0.000000,0.000000,0.000000,0.000000,0.000000,0.000000,0.000000,0.000000,0.000000,1775740058.596123,0.000000
214.000000,17249.802321,19145.967859,-12767.607006,-23.446980,-12886.987673,-4523.411932,1267.545076,-93.810271,11993.253171,16279.490743,-655.174333,2548.255330,-16978.943882,18083.969424,2616.383447,1501.970172,0.005000,-0.009000,1.002000,192.000000,0.000000,0.000000,0.000000,0.000000,0.000000,0.000000,0.000000,0.000000,0.000000,1775740058.596136,0.000000
216.000000,17208.831574,19114.451899,-12820.781806,-64.484783,-12930.104188,-4552.156276,1234.464495,-134.177522,11945.107513,16266.012641,-642.590301,2544.857865,-16962.716515,18081.086049,2495.885193,1286.409949,0.005000,-0.009000,1.002000,192.000000,0.000000,0.000000,0.000000,0.000000,0.000000,0.000000,0.000000,0.000000,0.000000,1775740058.596148,0.000000
218.000000,17232.412664,19138.390617,-12801.760471,-45.061117,-12910.233487,-4529.156331,1249.663681,-118.061914,11984.178362,16260.670574,-685.729168,2534.978394,-17012.315036,18066.870340,2787.284885,1792.609905,0.005000,-0.009000,1.002000,192.000000,0.000000,0.000000,0.000000,0.000000,0.000000,0.000000,0.000000,0.000000,0.000000,1775740058.596162,0.000000
220.000000,17247.611850,19142.615097,-12781.420384,-29.370192,-12884.730146,-4511.923136,1256.860942,-104.136777,11962.631281,16290.398394,-636.577682,2552.613920,-16941.795283,18097.246360,2450.734669,1210.726942,0.003500,-0.010500,1.003000,192.000000,0.000000,8.000000,127.500000,80.000000,15.500000,48.000000,0.000000,0.000000,0.000000,1775740058.596176,0.000000
222.000000,17211.938466,19122.029140,-12833.187024,-68.016358,-12924.292734,-4534.408991,1227.356640,-146.873313,11960.083182,16256.423742,-683.896325,2528.429333,-17002.279103,18072.637090,2737.328736,1708.254422,0.003500,-0.010500,1.003000,192.000000,0.000000,0.000000,0.000000,0.000000,0.000000,0.000000,0.000000,0.000000,0.000000,1775740058.596188,0.000000
224.000000,17256.574900,19152.539271,-12768.858703,-21.591785,-12872.950777,-4498.668551,1263.164134,-98.079455,11985.161839,16280.653033,-664.874991,2543.874388,-16972.551283,18090.004395,2627.469912,1527.317050,0.003500,-0.010500,1.003000,192.000000,0.000000,0.000000,0.000000,0.000000,0.000000,0.000000,0.000000,0.000000,0.000000,1775740058.596201,0.000000
226.000000,17216.162946,19122.297361,-12822.055855,-64.931818,-12923.264554,-4536.063020,1231.201140,-138.603167,11953.154141,16273.209902,-644.244330,2545.059031,-16948.970193,18092.396032,2495.482861,1309.767522,0.003500,-0.010500,1.003000,192.000000,0.000000,0.000000,0.000000,0.000000,0.000000,0.000000,0.000000,0.000000,0.000000,1775740058.596214,0.000000
228.000000,17233.597306,19140.603440,-12800.844050,-44.725841,-12909.629990,-4523.657802,1250.423640,-119.201853,11987.151144,16260.782333,-685.684465,2532.385592,-17001.452089,18076.012203,2783.708606,1807.429112,0.003500,-0.010500,1.003000,192.000000,0.000000,0.000000,0.000000,0.000000,0.000000,0.000000,0.000000,0.000000,0.000000,1775740058.596226,0.000000
230.000000,17242.962687,19138.144748,-12780.459259,-33.013527,-12889.021681,-4523.993078,1257.553847,-101.454568,11963.011260,16282.307062,-633.716659,2550.222284,-16939.247184,18101.023805,2439.625852,1214.392628,0.003750,-0.012250,1.003500,192.000000,0.000000,16.000000,127.500000,72.000000,15.500000,48.000000,0.000000,0.000000,0.000000,1775740058.596239,0.000000
232.000000,17215.291228,19123.750225,-12830.147187,-66.988178,-12931.601755,-4552.424497,1231.759933,-136.591510,11964.888807,16247.214824,-676.229677,2528.295222,-16990.075051,18066.780933,2723.895338,1696.318590,0.003750,-0.012250,1.003500,192.000000,0.000000,0.000000,0.000000,0.000000,0.000000,0.000000,0.000000,0.000000,0.000000,1775740058.596251,0.000000
234.000000,17263.950975,19157.702524,-12766.176494,-16.786160,-12875.185952,-4515.588822,1268.237980,-86.389492,11992.537915,16279.021356,-654.101450,2549.059993,-16963.811751,18089.937340,2612.270726,1511.290850,0.003750,-0.012250,1.003500,192.000000,0.000000,0.000000,0.000000,0.000000,0.000000,0.000000,0.000000,0.000000,0.000000,1775740058.596264,0.000000
236.000000,17217.727568,19120.352759,-12821.005323,-59.612102,-12922.571650,-4552.938587,1233.056335,-131.987051,11958.876188,16275.109801,-638.276415,2550.892836,-16935.916774,18094.452392,2485.089300,1283.280704,0.003750,-0.012250,1.003500,192.000000,0.000000,0.000000,0.000000,0.000000,0.000000,0.000000,0.000000,0.000000,0.000000,1775740058.596277,0.000000
