Sample_index,EXG Channel 0,EXG Channel 1,EXG Channel 2,EXG Channel 3,EXG Channel 4,EXG Channel 5,EXG Channel 6,EXG Channel 7,EXG Channel 8,EXG Channel 9,EXG Channel 10,EXG Channel 11,EXG Channel 12,EXG Channel 13,EXG Channel 14,EXG Channel 15,Accel Channel 0,Accel Channel 1,Accel Channel 2,Not Used,Digital Channel 0 (D11),Digital Channel 1 (D12),Digital Channel 2 (D13),Digital Channel 3 (D17),Not Used,Digital Channel 4 (D18),Analog Channel 0,Analog Channel 1,Analog Channel 2,Timestamp,Marker Channel
90.000000,16807.997740,18805.886067,-12963.140066,-232.167570,-13410.107900,-4510.939659,1366.473897,-112.317516,11586.429070,16030.648772,-889.599429,3046.408659,-17211.849059,16900.779832,2395.749378,637.874083,0.004000,-0.014000,1.006000,192.000000,0.000000,0.000000,0.000000,0.000000,0.000000,0.000000,0.000000,0.000000,0.000000,1775739713.258133,101.000000
92.000000,16799.235856,18807.160116,-12974.248883,-240.147142,-13428.056351,-4522.450807,1365.982159,-126.108542,11610.546602,15977.742192,-969.641026,3005.281449,-17306.732214,16849.817854,2738.245158,1294.657742,0.004000,-0.014000,1.006000,192.000000,0.000000,0.000000,0.000000,0.000000,0.000000,0.000000,0.000000,0.000000,0.000000,1775739713.258194,0.000000
94.000000,16831.422368,18809.842325,-12919.554164,-205.747808,-13383.732841,-4501.373112,1391.798424,-83.774338,11597.873163,16002.642036,-911.750008,3026.537958,-17237.330048,16873.331889,2436.876587,724.285927,0.006000,-0.014000,1.006000,192.000000,0.000000,24.000000,127.500000,72.000000,15.500000,56.000000,0.000000,0.000000,0.000000,1775739713.258240,0.000000
96.000000,16790.362214,18790.955101,-12988.799869,-254.631073,-13440.573328,-4534.118418,1356.505019,-132.612900,11591.569971,15972.131905,-936.158113,3017.686667,-17271.014127,16848.812026,2602.659476,1027.710858,0.006000,-0.014000,1.006000,192.000000,0.000000,0.000000,0.000000,0.000000,0.000000,0.000000,0.000000,0.000000,0.000000,1775739713.258284,0.000000
98.000000,16845.347505,18828.461329,-12917.140176,-204.987848,-13377.161429,-4497.483909,1395.709979,-78.834603,11637.636916,16000.988007,-931.196026,3032.774095,-17266.834350,16864.905282,2628.989831,1072.190830,0.006000,-0.014000,1.006000,192.000000,0.000000,0.000000,0.000000,0.000000,0.000000,0.000000,0.000000,0.000000,0.000000,1775739713.258328,0.000000
100.000000,16821.006456,18805.170811,-12948.298508,-235.118000,-13401.234257,-4520.036819,1372.307703,-102.795673,11595.526230,15998.708129,-885.486708,3040.440743,-17210.507954,16875.790581,2407.528747,635.616557,0.006000,-0.014000,1.006000,192.000000,0.000000,0.000000,0.000000,0.000000,0.000000,0.000000,0.000000,0.000000,0.000000,1775739713.258375,0.000000
102.000000,16830.483595,18814.916171,-12951.874787,-234.559206,-13403.625894,-4517.041685,1375.638113,-105.656696,11648.857492,15975.305852,-941.924863,3022.112313,-17276.624415,16851.293069,2751.924426,1273.892972,0.006000,-0.014000,1.006000,192.000000,0.000000,0.000000,0.000000,0.000000,0.000000,0.000000,0.000000,0.000000,0.000000,1775739713.258410,0.000000
104.000000,16863.899453,18831.210593,-12905.181993,-198.774063,-13364.510341,-4494.935810,1399.152148,-69.983312,11637.860434,16008.162917,-886.023150,3043.502932,-17207.289303,16884.552465,2449.795896,713.020648,0.002000,-0.014000,1.004000,192.000000,0.000000,8.000000,127.500000,72.000000,15.500000,48.000000,0.000000,0.000000,0.000000,1775739713.258441,0.000000
106.000000,16810.031749,18799.828744,-12987.101136,-254.072279,-13440.662735,-4531.927947,1358.986063,-128.924862,11616.559221,15984.470068,-922.970584,3026.292089,-17253.758580,16863.363011,2612.293078,1024.425152,0.002000,-0.014000,1.004000,192.000000,0.000000,0.000000,0.000000,0.000000,0.000000,0.000000,0.000000,0.000000,0.000000,1775739713.258452,0.000000
108.000000,16844.319325,18819.721796,-12919.174185,-206.284250,-13389.521943,-4500.926077,1396.335828,-81.829736,11637.882786,15989.186286,-933.140628,3026.225034,-17274.188074,16861.261947,2634.018974,1073.107251,0.002000,-0.014000,1.004000,192.000000,0.000000,0.000000,0.000000,0.000000,0.000000,0.000000,0.000000,0.000000,0.000000,1775739713.258464,0.000000
110.000000,16822.392264,18800.253427,-12950.086647,-234.805076,-13415.762891,-4516.080560,1374.028787,-104.695571,11595.548582,15987.174629,-885.710226,3036.708002,-17220.856812,16872.638985,2407.059360,640.042202,0.002000,-0.014000,1.004000,192.000000,0.000000,0.000000,0.000000,0.000000,0.000000,0.000000,0.000000,0.000000,0.000000,1775739713.258475,0.000000
112.000000,16810.881115,18800.298131,-12961.106057,-234.738020,-13429.196290,-4515.588822,1372.441813,-116.899624,11628.137425,15953.982288,-955.671186,3011.539937,-17304.832316,16839.983087,2744.347184,1286.924039,0.002000,-0.014000,1.004000,192.000000,0.000000,0.000000,0.000000,0.000000,0.000000,0.000000,0.000000,0.000000,0.000000,1775739713.258486,0.000000
114.000000,16849.013191,18825.935581,-12913.630952,-198.304677,-13387.040900,-4491.180717,1395.441758,-79.751024,11621.409550,16002.306760,-899.009514,3039.613728,-17233.060865,16876.975224,2448.164218,730.253843,0.002000,-0.014000,1.004000,192.000000,0.000000,0.000000,127.500000,104.000000,15.500000,24.000000,0.000000,0.000000,0.000000,1775739713.258498,0.000000
116.000000,16793.513810,18781.656776,-12992.934941,-254.318148,-13450.408095,-4538.968747,1354.828638,-137.329118,11596.822631,15965.627547,-940.673165,3013.417484,-17275.730345,16850.086075,2606.280459,1038.462047,0.002000,-0.014000,1.004000,192.000000,0.000000,0.000000,0.000000,0.000000,0.000000,0.000000,0.000000,0.000000,0.000000,1775739713.258509,0.000000
118.000000,16840.139549,18820.615866,-12921.118786,-203.177357,-13385.141001,-4509.710313,1395.687627,-81.002722,11643.604832,15977.988062,-937.007479,3024.325135,-17268.041345,16859.272642,2619.132712,1081.265638,0.002000,-0.014000,1.004000,192.000000,0.000000,0.000000,0.000000,0.000000,0.000000,0.000000,0.000000,0.000000,0.000000,1775739713.258520,0.000000
120.000000,16830.975334,18812.591590,-12951.785380,-237.643747,-13402.441252,-4522.540214,1370.273694,-104.874385,11605.718625,15989.543914,-886.984275,3033.712868,-17205.389405,16871.968433,2404.533613,648.424107,0.002000,-0.014000,1.004000,192.000000,0.000000,0.000000,0.000000,0.000000,0.000000,0.000000,0.000000,0.000000,0.000000,1775739713.258531,0.000000
122.000000,16823.889831,18813.038625,-12958.245034,-241.890578,-13406.218696,-4525.714162,1373.872325,-110.216452,11651.137370,15974.098858,-946.261102,3016.211452,-17275.797400,16847.560328,2756.931216,1279.905591,0.002000,-0.014000,1.004000,192.000000,0.000000,0.000000,0.000000,0.000000,0.000000,0.000000,0.000000,0.000000,0.000000,1775739713.258542,0.000000
124.000000,16848.119122,18816.391387,-12909.920562,-207.871223,-13370.366498,-4505.955220,1397.721636,-75.548896,11624.851719,16000.093937,-895.477938,3035.232787,-17219.023969,16871.320232,2457.194323,719.636764,0.005000,-0.011000,1.001000,192.000000,0.000000,32.000000,127.500000,96.000000,15.500000,24.000000,0.000000,0.000000,0.000000,1775739713.258553,0.000000
126.000000,16795.167839,18793.391442,-12983.055470,-258.721442,-13433.443121,-4540.421610,1358.762545,-131.160036,11603.550506,15961.358364,-928.893796,3016.054990,-17261.760504,16845.369857,2622.150197,1027.643803,0.005000,-0.011000,1.001000,192.000000,0.000000,0.000000,0.000000,0.000000,0.000000,0.000000,0.000000,0.000000,0.000000,1775739713.258564,0.000000
128.000000,16847.314459,18837.625544,-12915.575554,-201.545680,-13378.815458,-4496.947467,1397.565174,-78.946361,11652.187902,15992.494344,-928.849093,3030.896548,-17264.710935,16862.468942,2645.306605,1070.782670,0.005000,-0.011000,1.001000,192.000000,0.000000,0.000000,0.000000,0.000000,0.000000,0.000000,0.000000,0.000000,0.000000,1775739713.258574,0.000000
130.000000,16815.619685,18806.243695,-12955.182845,-231.944052,-13414.667656,-4523.791912,1369.312569,-111.781074,11596.017968,16003.089071,-890.314685,3042.117124,-17220.141556,16884.373651,2418.525805,647.798258,0.005000,-0.011000,1.001000,192.000000,0.000000,0.000000,0.000000,0.000000,0.000000,0.000000,0.000000,0.000000,0.000000,1775739713.258585,0.000000
132.000000,16814.122118,18813.418605,-12964.056488,-231.362907,-13423.340133,-4519.634488,1370.318397,-116.966679,11626.952783,15969.874378,-956.967587,3014.468016,-17299.244380,16849.795502,2747.141152,1277.357492,0.005000,-0.011000,1.001000,192.000000,0.000000,0.000000,0.000000,0.000000,0.000000,0.000000,0.000000,0.000000,0.000000,1775739713.258596,0.000000
134.000000,16847.113293,18825.868526,-12918.391874,-196.494186,-13380.625949,-4495.874583,1393.072473,-82.366178,11620.582535,16001.859725,-902.362275,3038.362031,-17223.963705,16882.049070,2442.173951,725.872901,0.007500,-0.011500,1.001500,192.000000,0.000000,40.000000,127.500000,80.000000,15.500000,40.000000,0.000000,0.000000,0.000000,1775739713.258607,0.000000
136.000000,16792.977368,18789.815162,-12991.482078,-248.909026,-13434.739522,-4519.500377,1356.259150,-134.222225,11601.762367,15973.271844,-932.671241,3019.430103,-17264.912100,16860.278471,2608.515633,1043.133562,0.007500,-0.011500,1.001500,192.000000,0.000000,0.000000,0.000000,0.000000,0.000000,0.000000,0.000000,0.000000,0.000000,1775739713.258618,0.000000
138.000000,16842.531185,18826.717892,-12923.756292,-201.210404,-13376.289711,-4477.747318,1395.374703,-82.410882,11643.068390,15996.048271,-930.793694,3027.879063,-17266.901406,16873.086020,2639.808075,1091.435682,0.007500,-0.011500,1.001500,192.000000,0.000000,0.000000,0.000000,0.000000,0.000000,0.000000,0.000000,0.000000,0.000000,1775739713.258629,0.000000
140.000000,16823.286333,18804.254389,-12960.994299,-235.073296,-13407.939781,-4504.100025,1371.391281,-106.371952,11598.789584,16001.949132,-885.576115,3040.641909,-17218.509879,16887.748764,2406.008828,670.060595,0.007500,-0.011500,1.001500,192.000000,0.000000,0.000000,0.000000,0.000000,0.000000,0.000000,0.000000,0.000000,0.000000,1775739713.258640,0.000000
142.000000,16814.099767,18807.227171,-12965.039964,-241.667061,-13416.992237,-4518.405142,1372.844144,-110.909356,11629.299716,15977.965710,-949.077421,3022.738161,-17301.479554,16854.757590,2739.586263,1288.354550,0.007500,-0.011500,1.001500,192.000000,0.000000,0.000000,0.000000,0.000000,0.000000,0.000000,0.000000,0.000000,0.000000,1775739713.258650,0.000000
144.000000,16840.094845,18831.009427,-12914.748539,-207.223023,-13374.054536,-4497.975647,1396.335828,-73.313722,11602.567029,16007.157088,-896.170842,3044.397002,-17242.336839,16875.768229,2453.349823,723.905948,0.007750,-0.012750,1.002750,192.000000,0.000000,32.000000,127.500000,72.000000,15.500000,48.000000,0.000000,0.000000,0.000000,1775739713.258661,0.000000
146.000000,16795.570170,18796.185410,-12987.034081,-261.068375,-13433.957211,-4538.521712,1355.566246,-131.405906,11588.664244,15987.174629,-926.949194,3029.667202,-17275.551531,16861.641927,2618.260994,1020.804169,0.007750,-0.012750,1.002750,192.000000,0.000000,0.000000,0.000000,0.000000,0.000000,0.000000,0.000000,0.000000,0.000000,1775739713.258671,0.000000
148.000000,16838.038485,18830.428282,-12917.184879,-208.139444,-13375.261530,-4503.876508,1395.978200,-80.712149,11624.158814,15997.769356,-932.112447,3032.170598,-17276.177380,16868.593319,2638.466971,1056.544609,0.007750,-0.012750,1.002750,192.000000,0.000000,0.000000,0.000000,0.000000,0.000000,0.000000,0.000000,0.000000,0.000000,1775739713.258682,0.000000
150.000000,16812.892772,18811.988093,-12954.780514,-236.839084,-13408.632685,-4532.017354,1369.469031,-111.445798,11583.970378,16006.486536,-891.141700,3043.815856,-17217.302885,16889.648663,2415.597727,638.052897,0.007750,-0.012750,1.002750,192.000000,0.000000,0.000000,0.000000,0.000000,0.000000,0.000000,0.000000,0.000000,0.000000,1775739713.258693,0.000000
152.000000,16815.999665,18823.588648,-12958.736772,-235.140352,-13413.684179,-4522.942546,1373.648807,-116.854920,11623.018875,15984.403012,-959.135706,3021.285298,-17289.767240,16868.950947,2744.168370,1257.464440,0.007750,-0.012750,1.002750,192.000000,0.000000,0.000000,0.000000,0.000000,0.000000,0.000000,0.000000,0.000000,0.000000,1775739713.258704,0.000000
154.000000,16831.400017,18821.845212,-12912.222792,-205.233718,-13375.216827,-4496.008694,1394.614744,-84.556649,11611.038340,16014.980199,-905.022133,3038.987880,-17222.443786,16894.208419,2447.851294,715.792264,0.006875,-0.010375,1.002375,192.000000,0.000000,24.000000,127.500000,96.000000,15.500000,40.000000,0.000000,0.000000,0.000000,1775739713.258715,0.000000
156.000000,16786.852990,18792.698537,-12985.715328,-253.826410,-13432.705514,-4516.192319,1357.197923,-135.988013,11592.396986,15966.611024,-938.147418,3012.322248,-17257.804246,16866.760476,2610.683752,1025.587443,0.006875,-0.010375,1.002375,192.000000,0.000000,0.000000,0.000000,0.000000,0.000000,0.000000,0.000000,0.000000,0.000000,1775739713.258726,0.000000
158.000000,16837.412636,18828.349570,-12923.130443,-204.451407,-13371.685251,-4472.941693,1394.123005,-83.953152,11634.954707,15994.215428,-933.967642,3028.013173,-17257.401914,16884.261892,2633.795456,1075.677702,0.006875,-0.010375,1.002375,192.000000,0.000000,0.000000,0.000000,0.000000,0.000000,0.000000,0.000000,0.000000,0.000000,1775739713.258737,0.000000
160.000000,16803.370929,18797.973549,-12964.659985,-232.771067,-13406.911600,-4494.689941,1369.111403,-113.233937,11585.132669,15997.590542,-899.434197,3036.238615,-17212.765481,16900.645721,2411.127378,670.954665,0.006875,-0.010375,1.002375,192.000000,0.000000,0.000000,0.000000,0.000000,0.000000,0.000000,0.000000,0.000000,0.000000,1775739713.258748,0.000000
162.000000,16797.917104,18800.611055,-12974.204180,-233.754544,-13415.047635,-4495.651066,1370.631322,-124.141589,11616.313352,15971.193131,-969.864544,3011.159958,-17297.880923,16869.062706,2731.830207,1290.723835,0.006875,-0.010375,1.002375,192.000000,0.000000,0.000000,0.000000,0.000000,0.000000,0.000000,0.000000,0.000000,0.000000,1775739713.258759,0.000000
164.000000,16823.666313,18824.102738,-12920.805862,-200.606906,-13374.859199,-4486.598609,1394.055950,-84.757815,11594.319236,16000.563324,-916.175653,3036.618595,-17231.585649,16901.919770,2446.599596,743.687242,0.007437,-0.008188,1.002188,192.000000,0.000000,32.000000,127.500000,104.000000,15.500000,40.000000,0.000000,0.000000,0.000000,1775739713.258770,0.000000
166.000000,16780.013356,18799.091136,-12992.331444,-264.510544,-13421.842566,-4515.924098,1352.437002,-143.922883,11572.146305,15965.694602,-951.603168,3017.396094,-17266.230853,16870.806142,2616.986944,1042.798286,0.007437,-0.008188,1.002188,192.000000,0.000000,0.000000,0.000000,0.000000,0.000000,0.000000,0.000000,0.000000,0.000000,1775739713.258780,0.000000
168.000000,16828.024903,18823.119262,-12919.308295,-212.900366,-13377.139077,-4503.116548,1390.971409,-89.451681,11628.919736,15971.081373,-952.005500,3022.179368,-17264.755638,16873.913035,2642.155009,1075.744757,0.007437,-0.008188,1.002188,192.000000,0.000000,0.000000,0.000000,0.000000,0.000000,0.000000,0.000000,0.000000,0.000000,1775739713.258791,0.000000
170.000000,16799.839354,18799.515819,-12960.234339,-241.756468,-13421.149662,-4541.740363,1363.881095,-119.984164,11585.982035,15998.350501,-906.989087,3035.433952,-17207.848097,16893.627273,2425.991288,660.114069,0.007437,-0.008188,1.002188,192.000000,0.000000,0.000000,0.000000,0.000000,0.000000,0.000000,0.000000,0.000000,0.000000,1775739713.258802,0.000000
172.000000,16807.908333,18810.959913,-12963.877674,-235.319166,-13407.716263,-4535.325412,1371.972426,-118.955984,11622.057750,15965.649899,-973.172602,3009.282411,-17286.772107,16875.008270,2751.276225,1271.747204,0.007437,-0.008188,1.002188,192.000000,0.000000,0.000000,0.000000,0.000000,0.000000,0.000000,0.000000,0.000000,0.000000,1775739713.258812,0.000000
174.000000,16844.453435,18825.645009,-12913.049807,-201.970363,-13381.654129,-4513.688924,1397.006380,-77.024111,11628.830329,15995.578885,-909.112502,3040.217226,-17210.575010,16897.762346,2447.426611,714.764084,0.006719,-0.007094,1.003094,192.000000,0.000000,24.000000,127.500000,104.000000,15.500000,48.000000,0.000000,0.000000,0.000000,1775739713.258822,0.000000
176.000000,16809.696473,18805.126107,-12986.922322,-248.864323,-13434.650115,-4555.173761,1361.087127,-125.862673,11614.771082,15974.188265,-939.063840,3024.213377,-17247.924775,16879.366860,2608.470930,1032.181207,0.006719,-0.007094,1.003094,192.000000,0.000000,0.000000,0.000000,0.000000,0.000000,0.000000,0.000000,0.000000,0.000000,1775739713.258833,0.000000
178.000000,16860.233767,18850.008410,-12916.693141,-200.539851,-13381.765888,-4515.231194,1398.414540,-72.553763,11661.329765,15985.475896,-934.727601,3034.696345,-17244.639068,16879.635081,2627.313450,1068.078109,0.006719,-0.007094,1.003094,192.000000,0.000000,0.000000,0.000000,0.000000,0.000000,0.000000,0.000000,0.000000,0.000000,1775739713.258844,0.000000
180.000000,16842.151206,18839.190166,-12955.763990,-232.301680,-13414.265324,-4541.650956,1373.246476,-98.682952,11609.697236,16023.630324,-893.980371,3046.341604,-17179.461381,16901.785660,2405.673552,658.281226,0.006719,-0.007094,1.003094,192.000000,0.000000,0.000000,0.000000,0.000000,0.000000,0.000000,0.000000,0.000000,0.000000,1775739713.258855,0.000000
182.000000,16864.547654,18864.604099,-12953.618223,-232.122866,-13425.284734,-4540.309851,1380.399034,-92.491519,11667.476495,15990.750908,-951.200837,3029.041353,-17265.649708,16874.449477,2734.490065,1277.826879,0.006719,-0.007094,1.003094,192.000000,0.000000,0.000000,0.000000,0.000000,0.000000,0.000000,0.000000,0.000000,0.000000,1775739713.258866,0.000000
184.000000,16900.355148,18883.871303,-12902.835060,-199.668133,-13384.515153,-4520.997944,1401.610840,-57.019300,11676.752469,16008.811117,-887.610124,3052.689499,-17200.784946,16883.591340,2441.391640,731.214968,0.005359,-0.009547,1.004547,192.000000,0.000000,16.000000,127.500000,80.000000,15.500000,56.000000,0.000000,0.000000,0.000000,1775739713.258877,0.000000
186.000000,16876.550541,18863.553567,-12962.625976,-257.380337,-13436.818235,-4563.578017,1365.490421,-104.494405,11672.684452,15984.335957,-909.246613,3039.032583,-17230.021027,16864.033564,2609.655572,1039.490228,0.005359,-0.009547,1.004547,192.000000,0.000000,0.000000,0.000000,0.000000,0.000000,0.000000,0.000000,0.000000,0.000000,1775739713.258888,0.000000
188.000000,16911.039282,18883.401916,-12908.691217,-213.101532,-13375.596806,-4505.955220,1397.028732,-68.418690,11687.570713,15974.143562,-920.333078,3026.448551,-17236.033647,16872.437820,2642.378526,1075.722405,0.005359,-0.009547,1.004547,192.000000,0.000000,0.000000,0.000000,0.000000,0.000000,0.000000,0.000000,0.000000,0.000000,1775739713.258898,0.000000
190.000000,16893.582570,18870.549663,-12944.409304,-244.930416,-13410.912563,-4552.178628,1373.090014,-89.742254,11655.294794,15993.366062,-874.802574,3038.652603,-17201.924885,16873.153075,2421.096256,659.287054,0.005359,-0.009547,1.004547,192.000000,0.000000,0.000000,0.000000,0.000000,0.000000,0.000000,0.000000,0.000000,0.000000,1775739713.258910,0.000000
192.000000,16920.270553,18919.432928,-12950.466627,-240.348308,-13416.276981,-4565.589674,1379.482613,-84.869574,11716.829147,15968.466219,-940.337889,3028.683725,-17280.334804,16843.425255,2762.519152,1273.267123,0.005359,-0.009547,1.004547,192.000000,0.000000,0.000000,0.000000,0.000000,0.000000,0.000000,0.000000,0.000000,0.000000,1775739713.258921,0.000000
194.000000,16953.194672,18902.914989,-12908.221830,-208.809997,-13386.392699,-4530.944470,1399.241555,-51.856047,11693.449222,16004.832507,-874.176726,3053.360051,-17224.433091,16867.766305,2457.619006,720.463779,0.005359,-0.009547,1.004547,192.000000,0.000000,0.000000,0.000000,0.000000,0.000000,0.000000,0.000000,0.000000,0.000000,1775739713.258932,0.000000
196.000000,16917.588343,18903.250266,-12988.419889,-253.312320,-13458.477075,-4577.525506,1361.511810,-102.460397,11669.868132,15978.144524,-909.961869,3039.077287,-17270.611795,16860.770209,2619.870319,1030.795399,0.002000,-0.014000,1.006000,192.000000,0.000000,8.000000,127.500000,72.000000,15.500000,56.000000,0.000000,0.000000,0.000000,1775739713.258943,0.000000
198.000000,16979.480324,18949.943060,-12917.788377,-203.132654,-13409.571458,-4561.342843,1403.242517,-46.826905,11709.229554,16002.887905,-909.492482,3056.802220,-17279.440734,16856.009287,2629.861549,1057.125754,0.002000,-0.014000,1.006000,192.000000,0.000000,0.000000,0.000000,0.000000,0.000000,0.000000,0.000000,0.000000,0.000000,1775739713.258954,0.000000
200.000000,16966.113981,18939.862423,-12952.478284,-235.766201,-13443.166130,-4584.387491,1378.454432,-71.436175,11684.240304,16018.154146,-861.480935,3065.988787,-17228.657571,16866.045221,2404.511262,639.952795,0.002000,-0.014000,1.006000,192.000000,0.000000,0.000000,0.000000,0.000000,0.000000,0.000000,0.000000,0.000000,0.000000,1775739713.258964,0.000000
202.000000,16990.455030,18972.697136,-12948.924357,-231.876997,-13453.045601,-4576.922009,1386.568116,-62.584884,11727.960316,15997.836411,-916.488578,3045.112258,-17299.400842,16840.184252,2727.493969,1251.161248,0.002000,-0.014000,1.006000,192.000000,0.000000,0.000000,0.000000,0.000000,0.000000,0.000000,0.000000,0.000000,0.000000,1775739713.258975,0.000000
204.000000,17029.235307,18995.451211,-12896.040129,-202.462101,-13410.242010,-4558.012433,1409.009267,-26.799742,11726.105121,16041.154091,-852.406127,3080.048034,-17229.573992,16874.114200,2430.305175,699.140215,0.002000,-0.014000,1.006000,192.000000,0.000000,0.000000,0.000000,0.000000,0.000000,0.000000,0.000000,0.000000,0.000000,1775739713.258986,0.000000
206.000000,16991.371452,18973.993537,-12966.872807,-253.491134,-13469.541188,-4592.210602,1371.301874,-79.013417,11722.484138,16007.827641,-878.423557,3059.707947,-17259.793551,16845.369857,2601.027799,1009.337724,0.002000,-0.010000,1.000000,192.000000,0.000000,8.000000,127.500000,88.000000,15.500000,32.000000,0.000000,0.000000,0.000000,1775739713.258996,0.000000
208.000000,17049.597746,19019.211116,-12896.285998,-199.981058,-13405.995179,-4556.045479,1411.780883,-26.352707,11758.917482,16020.098748,-879.719958,3065.742918,-17258.675964,16853.349430,2618.462159,1052.588350,0.002000,-0.010000,1.000000,192.000000,0.000000,0.000000,0.000000,0.000000,0.000000,0.000000,0.000000,0.000000,0.000000,1775739713.259008,0.000000
210.000000,17017.232420,18995.942950,-12940.162473,-233.732192,-13437.645249,-4580.855916,1382.120118,-60.729690,11716.538574,16031.766359,-840.157371,3075.108299,-17207.669283,16864.972337,2405.114759,641.517418,0.002000,-0.010000,1.000000,192.000000,0.000000,0.000000,0.000000,0.000000,0.000000,0.000000,0.000000,0.000000,0.000000,1775739713.739273,0.000000
212.000000,17021.233382,19007.387043,-12942.934089,-231.117038,-13441.400342,-4577.681968,1385.696398,-61.936684,11757.330508,16013.281466,-905.603278,3055.371708,-17285.654519,16843.738180,2736.747591,1266.718062,0.002000,-0.010000,1.000000,192.000000,0.000000,0.000000,0.000000,0.000000,0.000000,0.000000,0.000000,0.000000,0.000000,1775739713.739334,0.000000
214.000000,17044.322734,19017.668845,-12893.022644,-200.584555,-13387.756155,-4546.367174,1406.952906,-27.827922,11734.062342,16042.830472,-852.182609,3075.242409,-17219.403949,16871.119067,2445.750230,722.117808,0.002000,-0.010000,1.000000,192.000000,0.000000,0.000000,0.000000,0.000000,0.000000,0.000000,0.000000,0.000000,0.000000,1775739713.739379,0.000000
216.000000,17000.982702,18993.841886,-12966.001089,-251.457125,-13447.994107,-4575.312683,1368.262037,-78.544030,11723.780539,16012.208582,-882.156298,3056.332833,-17250.942260,16850.890738,2622.217253,1032.494132,0.004000,-0.012000,1.006000,192.000000,0.000000,16.000000,127.500000,80.000000,15.500000,56.000000,0.000000,0.000000,0.000000,1775739713.739424,0.000000
218.000000,17047.966069,19026.475433,-12898.096490,-202.909136,-13389.253722,-4542.656784,1406.349409,-25.391582,11757.308156,16033.465091,-881.955133,3065.720566,-17257.133693,16861.373706,2640.903311,1065.015920,0.004000,-0.012000,1.006000,192.000000,0.000000,0.000000,0.000000,0.000000,0.000000,0.000000,0.000000,0.000000,0.000000,1775739713.739480,0.000000
220.000000,17026.664856,19012.997331,-12933.434598,-230.670003,-13415.204098,-4570.305892,1384.757624,-43.340032,11720.114853,16045.892661,-833.183626,3082.886706,-17199.108565,16875.142381,2425.991288,648.737031,0.004000,-0.012000,1.006000,192.000000,0.000000,0.000000,0.000000,0.000000,0.000000,0.000000,0.000000,0.000000,0.000000,1775739713.739533,0.000000
222.000000,17044.903880,19037.450139,-12934.015743,-226.713744,-13420.367351,-4564.025052,1393.743026,-35.427515,11759.297461,16034.739141,-891.342865,3071.688482,-17278.099630,16861.708982,2754.986615,1257.285626,0.004000,-0.012000,1.006000,192.000000,0.000000,0.000000,0.000000,0.000000,0.000000,0.000000,0.000000,0.000000,0.000000,1775739713.739574,0.000000
224.000000,17071.167179,19051.777607,-12889.982806,-195.466005,-13379.664824,-4555.620796,1414.150168,-0.111759,11758.716316,16075.776944,-827.416876,3102.645648,-17201.701367,16890.185105,2449.974710,698.983753,0.004000,-0.012000,1.006000,192.000000,0.000000,0.000000,0.000000,0.000000,0.000000,0.000000,0.000000,0.000000,0.000000,1775739713.739587,0.000000
226.000000,17030.531708,19027.950648,-12962.402458,-243.499904,-13442.763799,-4591.897677,1378.968522,-49.397355,11733.235327,16040.908222,-863.649054,3081.567953,-17247.678905,16863.206549,2614.595308,1013.539852,0.002000,-0.012000,1.008000,192.000000,0.000000,8.000000,127.500000,80.000000,15.500000,64.000000,0.000000,0.000000,0.000000,1775739713.739599,0.000000
228.000000,17084.689985,19066.797980,-12893.737900,-190.436863,-13393.232333,-4557.855971,1420.341601,4.984439,11781.179819,16059.862502,-856.697661,3096.454215,-17245.779007,16877.377555,2624.474779,1041.345422,0.002000,-0.012000,1.008000,192.000000,0.000000,0.000000,0.000000,0.000000,0.000000,0.000000,0.000000,0.000000,0.000000,1775739713.739611,0.000000
230.000000,17050.938851,19037.986581,-12935.222737,-220.701125,-13436.281793,-4585.594485,1395.017075,-26.799742,11732.207147,16061.136551,-819.392600,3102.980924,-17199.957931,16886.385308,2399.973857,643.931406,0.002000,-0.012000,1.008000,192.000000,0.000000,0.000000,0.000000,0.000000,0.000000,0.000000,0.000000,0.000000,0.000000,1775739713.739624,0.000000
232.000000,17063.701697,19054.079837,-12932.294659,-217.705991,-13441.579156,-4584.409843,1403.711904,-23.826960,11770.428630,16039.991801,-875.294313,3083.713720,-17271.349403,16865.106447,2724.923518,1250.289530,0.002000,-0.012000,1.008000,192.000000,0.000000,0.000000,0.000000,0.000000,0.000000,0.000000,0.000000,0.000000,0.000000,1775739713.739635,0.000000
234.000000,17091.976654,19065.300413,-12886.205362,-189.095758,-13406.196345,-4569.031843,1423.560253,10.505320,11757.576377,16075.218150,-820.107856,3108.345343,-17212.363149,16890.118049,2427.868834,708.460892,0.002000,-0.012000,1.008000,192.000000,0.000000,0.000000,0.000000,0.000000,0.000000,0.000000,0.000000,0.000000,0.000000,1775739713.739647,0.000000
236.000000,17050.268298,19041.629915,-12956.680412,-241.510599,-13468.825933,-4602.805329,1385.741101,-41.171913,11747.406333,16040.014153,-845.275920,3090.218078,-17242.873280,16861.351354,2596.848023,1017.272594,0.008000,-0.016000,1.008000,192.000000,0.000000,32.000000,127.500000,64.000000,15.500000,64.000000,0.000000,0.000000,0.000000,1775739713.739659,0.000000
238.000000,17095.530581,19076.386878,-12889.379309,-195.734226,-13406.263400,-4566.215523,1420.989802,4.470349,11785.516058,16063.818760,-849.656862,3097.527098,-17248.818844,16874.225959,2610.281421,1044.653481,0.008000,-0.016000,1.008000,192.000000,0.000000,0.000000,0.000000,0.000000,0.000000,0.000000,0.000000,0.000000,0.000000,1775739713.739671,0.000000
240.000000,17063.992270,19048.402494,-12925.946763,-228.188959,-13428.078702,-4583.918105,1392.647790,-27.045611,11741.684287,16066.992708,-810.250737,3105.037284,-17190.972530,16885.513590,2406.232346,642.813819,0.008000,-0.016000,1.008000,192.000000,0.000000,0.000000,0.000000,0.000000,0.000000,0.000000,0.000000,0.000000,0.000000,1775739713.739684,0.000000
242.000000,17064.171083,19054.683334,-12927.846662,-226.110247,-13429.062179,-4580.855916,1397.520470,-29.750172,11775.994215,16044.886833,-873.729691,3083.199630,-17268.533083,16859.272642,2735.182969,1250.445992,0.008000,-0.016000,1.008000,192.000000,0.000000,0.000000,0.000000,0.000000,0.000000,0.000000,0.000000,0.000000,0.000000,1775739713.739695,0.000000
244.000000,17093.161296,19067.423829,-12882.159696,-195.756578,-13391.064214,-4569.523581,1416.005363,2.168119,11753.709525,16065.450438,-822.097161,3099.985790,-17204.696501,16879.523323,2459.541256,714.093532,0.008000,-0.016000,1.008000,192.000000,0.000000,0.000000,0.000000,0.000000,0.000000,0.000000,0.000000,0.000000,0.000000,1775739713.739708,0.000000
246.000000,17063.388772,19053.208119,-12947.784418,-241.912930,-13436.460607,-4607.812119,1382.589505,-43.809419,11747.272223,16046.071475,-849.209827,3086.820613,-17233.440844,16865.508779,2625.324145,1019.485416,0.010000,-0.018000,1.006000,192.000000,0.000000,40.000000,127.500000,56.000000,15.500000,56.000000,0.000000,0.000000,0.000000,1775739713.739719,0.000000
248.000000,17097.296369,19077.057430,-12889.088737,-196.740055,-13392.271208,-4563.130982,1414.708962,-4.850329,11792.422747,16071.731278,-848.025185,3097.772968,-17233.552603,16875.455305,2636.723535,1048.006242,0.010000,-0.018000,1.006000,192.000000,0.000000,0.000000,0.000000,0.000000,0.000000,0.000000,0.000000,0.000000,0.000000,1775739713.739732,0.000000
250.000000,17071.100124,19054.795093,-12926.237336,-226.087895,-13420.076778,-4576.430270,1391.507851,-30.420724,11729.927269,16068.244406,-818.118551,3099.024665,-17197.901571,16888.821648,2432.383887,658.728261,0.010000,-0.018000,1.006000,192.000000,0.000000,0.000000,0.000000,0.000000,0.000000,0.000000,0.000000,0.000000,0.000000,1775739713.739754,0.000000
252.000000,17073.424706,19058.639593,-12927.600792,-226.244357,-13419.741502,-4590.645980,1395.866441,-32.812361,11779.794011,16052.464074,-871.181592,3084.406624,-17264.755638,16863.608880,2750.359803,1247.093230,0.010000,-0.018000,1.006000,192.000000,0.000000,0.000000,0.000000,0.000000,0.000000,0.000000,0.000000,0.000000,0.000000,1775739713.739766,0.000000
254.000000,17098.615122,19070.307204,-12882.651434,-193.119072,-13386.973844,-4557.163067,1417.815854,0.379980,11756.011755,16070.345470,-817.135074,3101.326895,-17203.154230,16890.967416,2460.703547,711.232509,0.010000,-0.018000,1.006000,192.000000,0.000000,0.000000,0.000000,0.000000,0.000000,0.000000,0.000000,0.000000,0.000000,1775739713.739779,0.000000
0.000000,17060.930081,19049.475378,-12951.204235,-240.527122,-13447.770589,-4603.788805,1383.349464,-47.072774,11751.854331,16051.793522,-845.790010,3087.245296,-17235.027818,16873.108372,2615.534081,1012.779893,0.006000,-0.012000,1.008000,192.000000,0.000000,24.000000,127.500000,80.000000,15.500000,64.000000,0.000000,0.000000,0.000000,1775739713.739791,0.000000
2.000000,17098.503363,19075.135180,-12885.803030,-190.548621,-13394.573438,-4559.062965,1421.168616,-0.312924,11783.146773,16070.054897,-848.226350,3097.057712,-17237.777083,16887.592302,2625.055924,1036.740963,0.006000,-0.012000,1.008000,192.000000,0.000000,0.000000,0.000000,0.000000,0.000000,0.000000,0.000000,0.000000,0.000000,1775739713.739803,0.000000
4.000000,17064.685174,19047.754293,-12925.186804,-221.461084,-13427.430502,-4588.701378,1393.765377,-33.147637,11737.079827,16077.609787,-809.781350,3106.378389,-17186.457477,16900.690425,2411.261488,645.764249,0.006000,-0.012000,1.008000,192.000000,0.000000,0.000000,0.000000,0.000000,0.000000,0.000000,0.000000,0.000000,0.000000,1775739713.739814,0.000000
6.000000,17072.083601,19060.919471,-12925.365618,-218.041267,-13433.130197,-4584.074567,1399.643886,-31.225387,11775.971863,16048.574871,-872.120365,3081.299732,-17260.508807,16871.186122,2726.756361,1243.807524,0.006000,-0.012000,1.008000,192.000000,0.000000,0.000000,0.000000,0.000000,0.000000,0.000000,0.000000,0.000000,0.000000,1775739713.739827,0.000000
8.000000,17100.403261,19074.866959,-12879.321024,-187.307619,-13391.466545,-4575.625607,1420.833340,4.649163,11772.306177,16091.110240,-812.128283,3110.111130,-17189.229094,16905.540753,2439.156465,705.242241,0.006000,-0.012000,1.008000,192.000000,0.000000,0.000000,0.000000,0.000000,0.000000,0.000000,0.000000,0.000000,0.000000,1775739713.739839,0.000000
10.000000,17054.962165,19045.675581,-12949.930185,-238.917796,-13448.061162,-4600.950134,1383.081243,-48.458582,11753.396601,16051.592356,-848.606330,3084.607790,-17229.350475,16879.657433,2608.068598,1019.239547,0.006000,-0.012000,1.008000,192.000000,0.000000,0.000000,127.500000,96.000000,15.500000,32.000000,0.000000,0.000000,0.000000,1775739713.739850,0.000000
12.000000,17114.306046,19090.982567,-12881.958530,-192.895555,-13397.725033,-4574.664482,1420.274546,5.699695,11803.218639,16085.008214,-839.173894,3099.538755,-17221.102681,16894.364881,2619.065657,1035.556321,0.006000,-0.012000,1.008000,192.000000,0.000000,0.000000,0.000000,0.000000,0.000000,0.000000,0.000000,0.000000,0.000000,1775739713.739862,0.000000
14.000000,17073.111781,19052.291698,-12922.169318,-228.390125,-13421.909621,-4596.055102,1394.234764,-28.699640,11750.356764,16071.060726,-806.249774,3101.282191,-17182.545922,16895.549523,2414.547195,641.472714,0.006000,-0.012000,1.008000,192.000000,0.000000,0.000000,0.000000,0.000000,0.000000,0.000000,0.000000,0.000000,0.000000,1775739713.739874,0.000000
16.000000,17085.271130,19069.435486,-12925.678542,-227.652517,-13428.816310,-4610.740198,1397.654581,-30.577186,11788.131212,16034.403865,-869.438156,3077.030549,-17258.027763,16857.573909,2730.086771,1231.737582,0.006000,-0.012000,1.008000,192.000000,0.000000,0.000000,0.000000,0.000000,0.000000,0.000000,0.000000,0.000000,0.000000,1775739713.739886,0.000000
18.000000,17116.004779,19085.014651,-12880.997405,-195.890688,-13396.339225,-4588.164936,1419.201662,3.553927,11771.009776,16064.332850,-815.235176,3100.321066,-17197.253370,16887.994634,2438.552968,696.882689,0.006000,-0.012000,1.008000,192.000000,0.000000,0.000000,0.000000,0.000000,0.000000,0.000000,0.000000,0.000000,0.000000,1775739713.739898,0.000000
20.000000,17083.773563,19066.395648,-12948.812598,-246.875018,-13453.023249,-4622.161939,1385.159956,-43.004756,11769.042822,16026.133719,-842.593711,3082.126746,-17229.484585,16859.250290,2604.380560,999.502957,0.004000,-0.013000,1.005000,192.000000,0.000000,8.000000,127.500000,72.000000,15.500000,40.000000,0.000000,0.000000,0.000000,1775739713.739910,0.000000
22.000000,17136.501329,19115.882411,-12888.708757,-193.275534,-13406.621028,-4575.290331,1421.749761,7.532538,11808.739520,16063.617595,-839.755039,3098.599982,-17232.814995,16882.183180,2612.203671,1022.301736,0.004000,-0.013000,1.005000,192.000000,0.000000,0.000000,0.000000,0.000000,0.000000,0.000000,0.000000,0.000000,0.000000,1775739713.739940,0.000000
24.000000,17106.304122,19084.455858,-12922.638705,-226.065543,-13434.672467,-4618.518605,1399.643886,-19.222500,11753.463656,16065.405734,-805.020428,3106.154872,-17190.525495,16890.386270,2409.830977,631.705002,0.004000,-0.013000,1.005000,192.000000,0.000000,0.000000,0.000000,0.000000,0.000000,0.000000,0.000000,0.000000,0.000000,1775739713.739952,0.000000
26.000000,17121.950343,19102.359605,-12925.298563,-224.322107,-13444.618993,-4619.412675,1403.376627,-19.356611,11794.635569,16044.395094,-859.737499,3089.033435,-17261.827560,16862.021907,2721.391943,1218.415942,0.004000,-0.013000,1.005000,192.000000,0.000000,0.000000,0.000000,0.000000,0.000000,0.000000,0.000000,0.000000,0.000000,1775739713.739965,0.000000
28.000000,17147.967773,19113.177849,-12877.264664,-193.856680,-13405.749310,-4602.045369,1424.677840,15.288593,11783.057366,16069.361993,-804.573393,3109.842910,-17191.799544,16880.797372,2437.658899,678.733072,0.004000,-0.013000,1.005000,192.000000,0.000000,0.000000,0.000000,0.000000,0.000000,0.000000,0.000000,0.000000,0.000000,1775739713.739978,0.000000
30.000000,17098.592770,19082.779477,-12951.159531,-246.025651,-13472.737488,-4631.862596,1386.568116,-39.473181,11765.868874,16038.226013,-835.418801,3092.386197,-17235.944240,16860.054953,2595.193993,988.975285,0.004000,-0.012500,1.004500,192.000000,0.000000,16.000000,127.500000,80.000000,15.500000,48.000000,0.000000,0.000000,0.000000,1775739713.739990,0.000000
32.000000,17150.940555,19118.408158,-12882.293806,-199.869299,-13409.303237,-4608.057989,1423.582604,8.605422,11802.481032,16047.881967,-840.090315,3092.989694,-17238.849966,16862.714811,2615.981116,1011.639954,0.004000,-0.012500,1.004500,192.000000,0.000000,0.000000,0.000000,0.000000,0.000000,0.000000,0.000000,0.000000,0.000000,1775739713.740002,0.000000
34.000000,17128.253535,19101.197314,-12921.789339,-228.010145,-13441.467397,-4623.815968,1397.788691,-19.222500,11772.395584,16066.545673,-796.146786,3107.026590,-17182.121239,16881.847904,2406.567622,622.026696,0.004000,-0.012500,1.004500,192.000000,0.000000,0.000000,0.000000,0.000000,0.000000,0.000000,0.000000,0.000000,0.000000,1775739713.740014,0.000000
36.000000,17122.956171,19101.085556,-12922.392836,-224.612680,-13442.763799,-4616.462245,1403.935421,-20.138922,11801.072872,16042.226975,-859.625740,3085.613619,-17259.190054,16858.155055,2721.950736,1216.985430,0.004000,-0.012500,1.004500,192.000000,0.000000,0.000000,0.000000,0.000000,0.000000,0.000000,0.000000,0.000000,0.000000,1775739713.740026,0.000000
38.000000,17157.534320,19119.481041,-12875.722393,-194.370770,-13407.805670,-4589.930724,1423.783770,14.550986,11783.549104,16076.380441,-804.260469,3108.613564,-17194.638216,16893.806087,2429.276994,672.854563,0.004000,-0.012500,1.004500,192.000000,0.000000,0.000000,0.000000,0.000000,0.000000,0.000000,0.000000,0.000000,0.000000,1775739713.740038,0.000000
40.000000,17123.000875,19103.231323,-12942.755275,-239.923625,-13455.459589,-4623.704210,1390.680837,-32.722954,11779.995177,16049.826568,-830.859045,3091.737997,-17223.114338,16873.711869,2591.148328,985.331951,0.004000,-0.015250,1.002250,192.000000,0.000000,16.000000,127.500000,56.000000,15.500000,32.000000,0.000000,0.000000,0.000000,1775739713.740050,0.000000
42.000000,17162.027021,19132.243887,-12875.521228,-194.571935,-13391.265379,-4597.843241,1426.331869,11.488797,11819.177785,16067.640909,-830.344955,3101.952744,-17214.844193,16880.730317,2610.460235,1002.721608,0.004000,-0.015250,1.002250,192.000000,0.000000,0.000000,0.000000,0.000000,0.000000,0.000000,0.000000,0.000000,0.000000,1775739713.740061,0.000000
44.000000,17129.348770,19107.411099,-12919.352999,-222.690430,-13427.139929,-4621.938422,1398.615706,-21.949413,11771.702680,16072.223016,-792.861079,3111.251069,-17169.648966,16893.001424,2407.573451,610.269679,0.004000,-0.015250,1.002250,192.000000,0.000000,0.000000,0.000000,0.000000,0.000000,0.000000,0.000000,0.000000,0.000000,1775739713.740073,0.000000
46.000000,17124.409035,19107.187582,-12925.656191,-226.400820,-13439.723961,-4626.073495,1399.263906,-28.386715,11798.345959,16040.930574,-864.185496,3081.277380,-17255.122036,16859.853787,2725.303498,1223.087457,0.004000,-0.015250,1.002250,192.000000,0.000000,0.000000,0.000000,0.000000,0.000000,0.000000,0.000000,0.000000,0.000000,1775739713.740085,0.000000
48.000000,17158.160169,19127.639428,-12876.325891,-190.190994,-13397.881496,-4597.306800,1423.582604,14.305116,11779.391680,16074.189970,-803.768731,3107.965363,-17191.844248,16888.039337,2434.820227,673.815688,0.004000,-0.015250,1.002250,192.000000,0.000000,0.000000,0.000000,0.000000,0.000000,0.000000,0.000000,0.000000,0.000000,1775739713.740097,0.000000
50.000000,17106.482936,19096.302282,-12951.204235,-243.455201,-13470.368203,-4647.128838,1385.629342,-41.596596,11764.706584,16043.322211,-835.865836,3092.497956,-17232.412664,16865.285261,2603.486491,990.584611,0.005000,-0.015625,1.002125,192.000000,0.000000,24.000000,127.500000,64.000000,15.500000,40.000000,0.000000,0.000000,0.000000,1775739713.740109,0.000000
52.000000,17162.921090,19138.524728,-12878.494010,-186.659418,-13406.308103,-4593.328189,1431.986860,19.848349,11796.043729,16061.471827,-837.944548,3100.477529,-17240.705161,16873.376593,2612.114264,1012.824597,0.005000,-0.015625,1.002125,192.000000,0.000000,0.000000,0.000000,0.000000,0.000000,0.000000,0.000000,0.000000,0.000000,1775739713.740121,0.000000
54.000000,17132.008628,19111.143841,-12920.828214,-216.029610,-13435.968868,-4605.845166,1402.929592,-11.555852,11762.426706,16078.101525,-788.524841,3118.962421,-17185.339890,16901.182163,2393.670665,619.612708,0.005000,-0.015625,1.002125,192.000000,0.000000,0.000000,0.000000,0.000000,0.000000,0.000000,0.000000,0.000000,0.000000,1775739713.740133,0.000000
56.000000,17129.795805,19115.435376,-12927.779606,-216.096665,-13444.395476,-4613.780035,1402.996648,-20.116570,11791.595732,16044.372743,-859.603388,3090.396892,-17263.570996,16866.604014,2723.336544,1235.962061,0.005000,-0.015625,1.002125,192.000000,0.000000,0.000000,0.000000,0.000000,0.000000,0.000000,0.000000,0.000000,0.000000,1775739713.740146,0.000000
58.000000,17161.423524,19133.227364,-12873.755440,-183.686636,-13393.768775,-4598.379683,1425.281337,17.300250,11782.923255,16080.627272,-802.494681,3114.939107,-17189.810239,16897.360015,2433.210901,681.415281,0.005000,-0.015625,1.002125,192.000000,0.000000,0.000000,0.000000,0.000000,0.000000,0.000000,0.000000,0.000000,0.000000,1775739713.740159,0.000000
60.000000,17120.475128,19107.187582,-12945.415133,-234.045116,-13454.364354,-4614.607050,1387.395130,-35.762791,11775.033090,16051.704115,-832.513074,3097.460043,-17222.421434,16878.048107,2618.328049,1004.465044,0.005000,-0.015625,1.002125,192.000000,0.000000,0.000000,127.500000,88.000000,15.500000,40.000000,0.000000,0.000000,0.000000,1775739713.740171,0.000000
62.000000,17170.833608,19144.872623,-12879.075155,-187.531136,-13386.280940,-4575.826773,1422.666183,12.986364,11820.451834,16076.760420,-830.479065,3108.367694,-17215.201821,16893.917846,2625.145331,1030.996565,0.005000,-0.015625,1.002125,192.000000,0.000000,0.000000,0.000000,0.000000,0.000000,0.000000,0.000000,0.000000,0.000000,1775739713.740182,0.000000
64.000000,17137.037770,19124.867812,-12922.392836,-222.288099,-13425.754121,-4600.748968,1393.273639,-23.067000,11773.468467,16076.782772,-798.896050,3109.529985,-17170.610091,16902.076233,2421.453884,627.726391,0.005000,-0.015625,1.002125,192.000000,0.000000,0.000000,0.000000,0.000000,0.000000,0.000000,0.000000,0.000000,0.000000,1775739713.740194,0.000000
66.000000,17140.926974,19127.281800,-12921.387007,-217.393067,-13423.138967,-4587.561439,1398.638058,-21.792951,11818.283715,16060.287185,-858.374042,3090.128671,-17238.268821,16880.998538,2743.073135,1238.152532,0.005000,-0.015625,1.002125,192.000000,0.000000,0.000000,0.000000,0.000000,0.000000,0.000000,0.000000,0.000000,0.000000,1775739713.740208,0.000000
68.000000,17166.229149,19135.194318,-12873.129591,-186.972342,-13380.491839,-4567.400165,1417.771151,11.220576,11795.484936,16087.198685,-803.232289,3110.021724,-17172.018250,16908.848811,2453.327471,679.582438,0.005000,-0.015625,1.002125,192.000000,0.000000,0.000000,0.000000,0.000000,0.000000,0.000000,0.000000,0.000000,0.000000,1775739713.740221,0.000000
70.000000,17115.781261,19100.616169,-12949.997240,-240.102439,-13448.485845,-4604.660523,1377.694473,-47.162181,11780.688081,16054.073400,-836.804609,3092.542659,-17212.787832,16886.273549,2629.526273,1004.979134,0.003500,-0.013813,1.003062,192.000000,0.000000,8.000000,127.500000,80.000000,15.500000,48.000000,0.000000,0.000000,0.000000,1775739713.740235,0.000000
72.000000,17157.042582,19131.685094,-12884.283112,-191.509746,-13393.500554,-4571.959921,1415.759494,1.922250,11808.717168,16066.702135,-843.845408,3097.571802,-17224.835423,16888.329910,2638.042288,1035.332803,0.003500,-0.013813,1.003062,192.000000,0.000000,0.000000,0.000000,0.000000,0.000000,0.000000,0.000000,0.000000,0.000000,1775739713.740247,0.000000
74.000000,17131.136910,19110.629751,-12923.868051,-219.874110,-13425.217679,-4599.072587,1391.932534,-23.715201,11768.215807,16076.648662,-802.271164,3111.519290,-17178.410849,16905.741919,2413.809587,634.051935,0.003500,-0.013813,1.003062,192.000000,0.000000,0.000000,0.000000,0.000000,0.000000,0.000000,0.000000,0.000000,0.000000,1775739713.740259,0.000000
76.000000,17130.265192,19116.530611,-12924.695066,-222.221043,-13423.518947,-4592.143547,1395.888793,-27.492646,11801.899886,16052.084095,-864.207848,3090.575706,-17255.814940,16874.203607,2744.168370,1245.908588,0.003500,-0.013813,1.003062,192.000000,0.000000,0.000000,0.000000,0.000000,0.000000,0.000000,0.000000,0.000000,0.000000,1775739714.220156,0.000000
78.000000,17151.007611,19123.526707,-12882.271455,-195.443654,-13395.735728,-4583.091090,1414.887776,1.497567,11777.938816,16078.794429,-811.636545,3109.060598,-17195.644044,16898.745823,2456.926102,684.700988,0.003500,-0.013813,1.003062,192.000000,0.000000,0.000000,0.000000,0.000000,0.000000,0.000000,0.000000,0.000000,0.000000,1775739714.220226,0.000000
80.000000,17106.639398,19095.877599,-12955.495769,-248.596102,-13455.750162,-4605.018151,1377.694473,-49.240893,11760.973842,16042.025810,-848.449868,3085.837136,-17237.352400,16866.894587,2624.161854,1012.936355,0.003500,-0.013813,1.003062,192.000000,0.000000,0.000000,0.000000,0.000000,0.000000,0.000000,0.000000,0.000000,0.000000,1775739714.220280,0.000000
82.000000,17154.159207,19125.828937,-12886.965321,-198.371732,-13395.646321,-4573.010453,1416.966488,2.101064,11806.034959,16064.131685,-844.180685,3095.850718,-17233.865527,16879.679785,2631.269709,1033.812885,0.012000,-0.022000,1.008000,192.000000,0.000000,48.000000,127.500000,40.000000,15.500000,64.000000,0.000000,0.000000,0.000000,1775739714.220333,0.000000
84.000000,17126.420692,19101.666701,-12923.711589,-230.938224,-13424.480072,-4596.993875,1391.686665,-26.084486,11754.245967,16066.031583,-801.779425,3103.740883,-17183.238826,16890.922712,2420.716276,637.181179,0.012000,-0.022000,1.008000,192.000000,0.000000,0.000000,0.000000,0.000000,0.000000,0.000000,0.000000,0.000000,0.000000,1775739714.220387,0.000000
86.000000,17129.192308,19110.853268,-12924.806824,-227.071372,-13427.296391,-4581.638227,1396.849918,-24.922195,11796.244895,16045.311516,-861.458583,3085.948895,-17253.378600,16866.671069,2745.084792,1238.912492,0.012000,-0.022000,1.008000,192.000000,0.000000,0.000000,0.000000,0.000000,0.000000,0.000000,0.000000,0.000000,0.000000,1775739714.220434,0.000000
88.000000,17151.298183,19120.732739,-12881.913827,-196.427130,-13395.065176,-4569.255360,1415.960659,7.376076,11779.078755,16076.112220,-807.747341,3109.686447,-17190.413736,16896.510648,2444.654995,690.110110,0.012000,-0.022000,1.008000,192.000000,0.000000,0.000000,0.000000,0.000000,0.000000,0.000000,0.000000,0.000000,0.000000,1775739714.220460,0.000000
90.000000,17106.281770,19091.139029,-12951.584214,-246.271520,-13451.816255,-4603.811157,1379.549668,-44.457620,11768.104049,16045.646792,-839.419763,3093.347322,-17229.015199,16874.449477,2613.298906,1010.388256,0.012000,-0.022000,1.008000,192.000000,0.000000,0.000000,0.000000,0.000000,0.000000,0.000000,0.000000,0.000000,0.000000,1775739714.220496,0.000000
92.000000,17165.826817,19137.474196,-12886.115955,-195.734226,-13395.735728,-4564.449735,1416.966488,9.275974,11814.014532,16070.233711,-837.564568,3101.662171,-17229.730455,16886.139439,2620.026782,1028.090838,0.010000,-0.014000,1.002000,192.000000,0.000000,40.000000,127.500000,72.000000,15.500000,40.000000,0.000000,0.000000,0.000000,1775739714.220522,0.000000
94.000000,17106.125308,19084.098230,-12923.622182,-227.898386,-13426.469377,-4590.243648,1392.871307,-25.168064,11761.934967,16076.112220,-798.158443,3111.429883,-17184.781097,16900.332797,2405.897070,631.861464,0.010000,-0.014000,1.002000,192.000000,0.000000,0.000000,0.000000,0.000000,0.000000,0.000000,0.000000,0.000000,0.000000,1775739714.220548,0.000000
96.000000,17092.513095,19075.895140,-12924.270382,-228.881863,-13427.966944,-4588.969599,1395.933496,-30.800704,11784.443174,16035.253231,-867.694720,3080.271552,-17261.089952,16866.358145,2736.412315,1237.414925,0.010000,-0.014000,1.002000,192.000000,0.000000,0.000000,0.000000,0.000000,0.000000,0.000000,0.000000,0.000000,0.000000,1775739714.220574,0.000000
98.000000,17104.203058,19071.827122,-12877.599940,-197.544717,-13382.637606,-4567.109593,1417.368819,0.491738,11762.404354,16063.327022,-814.519920,3101.148081,-17189.162038,16896.465945,2446.353727,685.416244,0.010000,-0.014000,1.002000,192.000000,0.000000,0.000000,0.000000,0.000000,0.000000,0.000000,0.000000,0.000000,0.000000,1775739714.220600,0.000000
100.000000,17049.016601,19032.800976,-12950.667793,-250.540704,-13439.209871,-4602.961791,1379.527316,-52.750117,11746.869892,16027.765397,-851.199132,3078.058729,-17225.014237,16872.929558,2618.149235,1006.744922,0.010000,-0.014000,1.002000,192.000000,0.000000,0.000000,0.000000,0.000000,0.000000,0.000000,0.000000,0.000000,0.000000,1775739714.220626,0.000000
102.000000,17089.428555,19061.746485,-12886.451231,-199.645781,-13381.810591,-4564.449735,1418.575814,-1.721084,11780.710433,16051.167673,-850.439173,3088.251124,-17223.494318,16886.340605,2629.861549,1022.592309,0.004000,-0.010000,1.004000,192.000000,0.000000,16.000000,127.500000,88.000000,15.500000,48.000000,0.000000,0.000000,0.000000,1775739714.220652,0.000000
104.000000,17050.067133,19024.821404,-12928.740731,-229.641823,-13417.774548,-4585.102747,1392.156052,-33.952300,11728.966144,16046.607917,-813.178815,3092.833232,-17181.718908,16895.415413,2416.670611,633.247272,0.004000,-0.010000,1.004000,192.000000,0.000000,0.000000,0.000000,0.000000,0.000000,0.000000,0.000000,0.000000,0.000000,1775739714.220678,0.000000
106.000000,17059.410162,19037.226622,-12929.858319,-226.423171,-13421.641400,-4580.408881,1396.112310,-33.594672,11767.098220,16023.585620,-873.684987,3070.682653,-17260.374696,16871.499046,2738.669841,1241.125314,0.004000,-0.010000,1.004000,192.000000,0.000000,0.000000,0.000000,0.000000,0.000000,0.000000,0.000000,0.000000,0.000000,1775739714.220703,0.000000
108.000000,17084.645281,19050.995296,-12885.646568,-197.254145,-13384.045766,-4561.856933,1415.938308,-2.749265,11751.675517,16059.706039,-818.990269,3095.381331,-17196.918094,16900.846887,2442.978614,694.200479,0.004000,-0.010000,1.004000,192.000000,0.000000,0.000000,0.000000,0.000000,0.000000,0.000000,0.000000,0.000000,0.000000,1775739714.220728,0.000000
110.000000,17037.304287,19025.179032,-12954.780514,-247.970253,-13445.043677,-4600.279582,1381.807194,-54.225332,11735.179929,16028.413597,-855.535371,3075.331816,-17239.587574,16877.064631,2614.125921,1010.768236,0.004000,-0.010000,1.004000,192.000000,0.000000,0.000000,0.000000,0.000000,0.000000,0.000000,0.000000,0.000000,0.000000,1775739714.220754,0.000000
112.000000,17082.477162,19061.970003,-12886.451231,-197.656476,-13389.007853,-4563.175686,1420.319250,-5.297363,11770.003947,16048.507815,-853.635472,3085.479508,-17240.772216,16885.044203,2622.999564,1027.017954,0.006000,-0.014000,1.002000,192.000000,0.000000,24.000000,127.500000,72.000000,15.500000,40.000000,0.000000,0.000000,0.000000,1775739714.220780,0.000000
114.000000,17051.475293,19024.195555,-12924.628010,-227.518407,-13418.869784,-4589.774262,1393.966543,-35.494570,11730.240194,16054.185159,-809.826053,3094.308447,-17187.731527,16901.740957,2414.100160,637.784676,0.006000,-0.014000,1.002000,192.000000,0.000000,0.000000,0.000000,0.000000,0.000000,0.000000,0.000000,0.000000,0.000000,1775739714.220806,0.000000
116.000000,17063.277014,19041.540508,-12921.118786,-224.724439,-13412.723054,-4587.159108,1399.330962,-33.706431,11771.456810,16031.967525,-871.673330,3071.979054,-17259.435923,16875.678822,2737.373440,1240.097134,0.006000,-0.014000,1.002000,192.000000,0.000000,0.000000,0.000000,0.000000,0.000000,0.000000,0.000000,0.000000,0.000000,1775739714.220831,0.000000
118.000000,17088.780354,19057.633764,-12876.102373,-191.934430,-13372.020527,-4548.043555,1419.849863,-1.676381,11766.494723,16075.531074,-809.714295,3101.684523,-17174.208721,16914.660265,2450.935835,687.606715,0.006000,-0.014000,1.002000,192.000000,0.000000,0.000000,0.000000,0.000000,0.000000,0.000000,0.000000,0.000000,0.000000,1775739714.220856,0.000000
120.000000,17035.136167,19016.238334,-12953.417057,-245.600968,-13442.875557,-4595.205736,1378.074453,-63.009568,11736.521034,16027.966562,-857.457621,3072.828421,-17225.260106,16881.177352,2626.017049,1028.269652,0.006000,-0.014000,1.002000,192.000000,0.000000,0.000000,0.000000,0.000000,0.000000,0.000000,0.000000,0.000000,0.000000,1775739714.220882,0.000000
122.000000,17087.215732,19057.812578,-12884.841905,-191.621505,-13383.241103,-4550.144619,1418.888738,-8.828939,11779.436383,16053.939289,-853.367252,3085.725377,-17221.929696,16896.264779,2628.475741,1040.518408,0.006000,-0.014000,1.006000,192.000000,0.000000,24.000000,127.500000,72.000000,15.500000,56.000000,0.000000,0.000000,0.000000,1775739714.220910,0.000000
124.000000,17067.479142,19045.854395,-12918.794205,-218.756523,-13406.419862,-4569.680043,1397.833395,-31.895939,11745.908766,16064.623423,-811.010696,3097.460043,-17169.738373,16912.983884,2423.778465,653.185028,0.006000,-0.014000,1.006000,192.000000,0.000000,0.000000,0.000000,0.000000,0.000000,0.000000,0.000000,0.000000,0.000000,1775739714.220936,0.000000
126.000000,17069.155522,19054.057485,-12920.984676,-222.735133,-13412.298371,-4573.926875,1399.219203,-35.628681,11789.673482,16048.060781,-868.029996,3080.249200,-17240.213423,16892.286169,2737.418143,1243.852227,0.006000,-0.014000,1.006000,192.000000,0.000000,0.000000,0.000000,0.000000,0.000000,0.000000,0.000000,0.000000,0.000000,1775739714.220962,0.000000
128.000000,17093.206000,19063.914605,-12877.734050,-191.442691,-13373.048708,-4552.044517,1420.855692,-3.151596,11765.958281,16070.166656,-819.325545,3095.716607,-17181.115410,16913.408567,2450.086468,699.408436,0.006000,-0.014000,1.006000,192.000000,0.000000,0.000000,0.000000,0.000000,0.000000,0.000000,0.000000,0.000000,0.000000,1775739714.220988,0.000000
130.000000,17044.702714,19033.136253,-12948.991412,-242.672890,-13434.940688,-4589.394282,1384.399996,-57.935722,11752.703697,16044.529205,-850.461525,3080.919752,-17220.923867,16895.393061,2609.387351,1020.290079,0.006000,-0.014000,1.006000,192.000000,0.000000,0.000000,0.000000,0.000000,0.000000,0.000000,0.000000,0.000000,0.000000,1775739714.221013,0.000000
132.000000,17076.084563,19049.296564,-12889.893399,-202.797377,-13391.064214,-4569.478878,1415.759494,-20.004811,11773.423764,16050.184196,-861.033900,3077.678749,-17234.446673,16891.749727,2635.270671,1028.247300,0.014000,-0.018000,1.004000,192.000000,0.000000,56.000000,127.500000,56.000000,15.500000,48.000000,0.000000,0.000000,0.000000,1775739714.221039,0.000000
134.000000,17037.572508,19022.765043,-12933.926336,-233.799247,-13424.681237,-4587.270866,1388.691531,-51.274902,11716.382112,16044.551557,-831.954280,3075.644741,-17199.957931,16897.963512,2424.985459,646.904188,0.014000,-0.018000,1.004000,192.000000,0.000000,0.000000,0.000000,0.000000,0.000000,0.000000,0.000000,0.000000,0.000000,1775739714.221064,0.000000
136.000000,17046.133226,19036.712532,-12934.015743,-230.446485,-13426.558784,-4585.639189,1394.815909,-48.011547,11753.955395,16024.859670,-887.408958,3060.356147,-17272.019955,16876.684651,2738.334565,1237.526684,0.014000,-0.018000,1.004000,192.000000,0.000000,0.000000,0.000000,0.000000,0.000000,0.000000,0.000000,0.000000,0.000000,1775739714.221090,0.000000
138.000000,17071.345993,19043.932145,-12888.619350,-201.568031,-13390.281903,-4568.428346,1414.686610,-14.595689,11732.497720,16050.139493,-834.502379,3083.087871,-17211.983170,16898.119974,2449.840599,695.183956,0.014000,-0.018000,1.004000,192.000000,0.000000,0.000000,0.000000,0.000000,0.000000,0.000000,0.000000,0.000000,0.000000,1775739714.221116,0.000000
140.000000,17025.413159,19009.912790,-12958.177979,-250.227779,-13444.931918,-4598.737311,1378.208563,-67.010530,11729.279069,16020.501080,-864.118441,3065.988787,-17247.634202,16877.198741,2621.412590,1015.707972,0.014000,-0.018000,1.004000,192.000000,0.000000,0.000000,0.000000,0.000000,0.000000,0.000000,0.000000,0.000000,0.000000,1775739714.221137,0.000000
142.000000,17067.769714,19038.321857,-12892.419147,-202.752674,-13388.694929,-4563.242741,1415.021886,-20.876529,11758.872778,16034.157995,-865.526601,3065.832325,-17249.668211,16885.491238,2630.621508,1031.622414,0.010000,-0.014000,1.004000,192.000000,0.000000,40.000000,127.500000,72.000000,15.500000,48.000000,0.000000,0.000000,0.000000,1775739714.221148,0.000000
144.000000,17039.785330,19016.394796,-12928.874842,-231.720535,-13413.035978,-4580.207715,1390.278505,-48.145658,11719.757225,16040.215318,-824.444094,3078.237543,-17197.163963,16903.260875,2423.800817,648.804086,0.010000,-0.014000,1.004000,192.000000,0.000000,0.000000,0.000000,0.000000,0.000000,0.000000,0.000000,0.000000,0.000000,1775739714.221160,0.000000
146.000000,17036.969010,19020.015779,-12934.999220,-231.787590,-13420.635572,-4584.365140,1391.284334,-52.459544,11755.967052,16016.410710,-887.140737,3056.690461,-17269.158932,16876.617596,2739.854484,1233.816294,0.010000,-0.014000,1.004000,192.000000,0.000000,0.000000,0.000000,0.000000,0.000000,0.000000,0.000000,0.000000,0.000000,1775739714.221171,0.000000
148.000000,17064.796932,19029.895250,-12888.798164,-201.903308,-13379.374251,-4563.019224,1411.669125,-17.926099,11740.544348,16044.193929,-834.949414,3077.432880,-17204.070652,16902.232695,2447.471314,699.900174,0.010000,-0.014000,1.004000,192.000000,0.000000,0.000000,0.000000,0.000000,0.000000,0.000000,0.000000,0.000000,0.000000,1775739714.221182,0.000000
150.000000,17026.977781,19006.962360,-12952.187711,-250.831276,-13430.760912,-4599.519622,1377.247438,-68.217524,11735.694019,16010.040463,-863.447888,3058.679766,-17234.267859,16880.439744,2619.467988,1016.892614,0.010000,-0.014000,1.004000,192.000000,0.000000,0.000000,0.000000,0.000000,0.000000,0.000000,0.000000,0.000000,0.000000,1775739714.221194,0.000000
152.000000,17072.128304,19044.379180,-12890.563952,-200.897479,-13381.855295,-4552.335090,1412.250270,-20.451846,11784.085546,16039.880042,-859.603388,3070.727357,-17228.501109,16895.214247,2629.705087,1029.901329,0.009000,-0.013000,1.004000,192.000000,0.000000,32.000000,127.500000,80.000000,15.500000,48.000000,0.000000,0.000000,0.000000,1775739714.221206,0.000000
154.000000,17027.983609,19003.319025,-12925.946763,-225.640860,-13405.034054,-4559.934683,1391.016113,-44.994062,11727.736798,16045.289164,-824.220577,3081.679712,-17183.171771,16914.660265,2409.227480,647.507685,0.009000,-0.013000,1.004000,192.000000,0.000000,0.000000,0.000000,0.000000,0.000000,0.000000,0.000000,0.000000,0.000000,1775739714.221218,0.000000
156.000000,17008.112908,18988.365708,-12934.172205,-228.591291,-13409.035016,-4561.119325,1388.579773,-58.382757,11764.170142,16022.669199,-884.190307,3061.116107,-17248.729437,16894.186067,2727.292803,1239.672451,0.009000,-0.013000,1.004000,192.000000,0.000000,0.000000,0.000000,0.000000,0.000000,0.000000,0.000000,0.000000,0.000000,1775739714.221230,0.000000
158.000000,17002.837897,18976.452229,-12897.515344,-208.295907,-13378.211961,-4563.041575,1401.879060,-39.272015,11721.120682,16032.168690,-854.060156,3064.021833,-17202.483678,16904.803146,2454.489762,706.471587,0.009000,-0.013000,1.004000,192.000000,0.000000,0.000000,0.000000,0.000000,0.000000,0.000000,0.000000,0.000000,0.000000,1775739714.221242,0.000000
160.000000,16950.490111,18939.504795,-12966.939863,-254.273445,-13431.498519,-4587.919067,1366.675063,-89.317571,11702.926362,15998.328149,-892.326342,3041.021888,-17241.263955,16881.423221,2634.220139,1025.743905,0.009000,-0.013000,1.004000,192.000000,0.000000,0.000000,0.000000,0.000000,0.000000,0.000000,0.000000,0.000000,0.000000,1775739714.221253,0.000000
162.000000,16986.409365,18962.214167,-12901.717472,-202.663267,-13374.836847,-4544.042593,1406.416465,-38.780277,11735.470502,16025.686684,-887.833642,3054.097659,-17239.229946,16900.824535,2630.666212,1040.116076,0.007500,-0.014500,1.004000,192.000000,0.000000,24.000000,127.500000,64.000000,15.500000,48.000000,0.000000,0.000000,0.000000,1775739714.221264,0.000000
164.000000,16953.306431,18936.576716,-12940.520101,-233.665137,-13405.928124,-4560.895808,1381.628380,-69.960960,11691.236400,16026.580754,-851.534409,3058.925636,-17192.157172,16913.185050,2427.734724,664.204438,0.007500,-0.014500,1.004000,192.000000,0.000000,0.000000,0.000000,0.000000,0.000000,0.000000,0.000000,0.000000,0.000000,1775739714.221276,0.000000
166.000000,16940.275364,18920.706978,-12943.470531,-234.872131,-13409.571458,-4560.337014,1382.477746,-76.085338,11727.803853,16001.077414,-916.667392,3037.177388,-17265.113266,16888.575779,2738.491027,1251.384765,0.007500,-0.014500,1.004000,192.000000,0.000000,0.000000,0.000000,0.000000,0.000000,0.000000,0.000000,0.000000,0.000000,1775739714.221287,0.000000
168.000000,16951.875919,18928.105405,-12897.403586,-202.104473,-13368.891283,-4536.867683,1405.053008,-41.462486,11697.606647,16030.089978,-861.346824,3057.428069,-17199.823821,16919.063558,2446.778410,714.942898,0.007500,-0.014500,1.004000,192.000000,0.000000,0.000000,0.000000,0.000000,0.000000,0.000000,0.000000,0.000000,0.000000,1775739714.221299,0.000000
170.000000,16903.260875,18892.007338,-12967.453953,-250.428945,-13427.810482,-4567.355462,1368.418499,-97.140681,11681.021652,15999.468088,-896.819043,3038.540845,-17238.917022,16901.204515,2619.467988,1033.432905,0.007500,-0.014500,1.004000,192.000000,0.000000,0.000000,0.000000,0.000000,0.000000,0.000000,0.000000,0.000000,0.000000,1775739714.221311,0.000000
172.000000,16936.766140,18914.426138,-12906.679560,-202.685619,-13372.624024,-4528.552834,1401.744950,-53.353614,11706.927324,16016.857745,-904.329229,3045.291072,-17241.152196,16911.732186,2622.150197,1041.680699,0.006750,-0.015250,1.002000,192.000000,0.000000,24.000000,127.500000,64.000000,15.500000,32.000000,0.000000,0.000000,0.000000,1775739714.221323,0.000000
174.000000,16895.996558,18889.369832,-12943.425827,-235.721497,-13400.340188,-4552.603311,1376.018092,-83.193193,11664.056678,16023.965600,-868.454679,3050.431973,-17194.124126,16925.791434,2421.923270,665.523191,0.006750,-0.015250,1.002000,192.000000,0.000000,0.000000,0.000000,0.000000,0.000000,0.000000,0.000000,0.000000,0.000000,1775739714.221334,0.000000
176.000000,16902.903247,18894.018995,-12944.498711,-235.006241,-13401.614237,-4546.277767,1379.370854,-86.255382,11695.729100,16004.318417,-928.335002,3027.476731,-17262.296946,16902.255047,2736.211149,1245.238035,0.006750,-0.015250,1.002000,192.000000,0.000000,0.000000,0.000000,0.000000,0.000000,0.000000,0.000000,0.000000,0.000000,1775739714.221345,0.000000
178.000000,16923.377445,18896.276521,-12900.264609,-206.105436,-13361.202283,-4523.233118,1398.414540,-56.192286,11676.126620,16030.604068,-875.294313,3046.296900,-17195.554637,16931.669942,2450.757021,712.528910,0.006750,-0.015250,1.002000,192.000000,0.000000,0.000000,0.000000,0.000000,0.000000,0.000000,0.000000,0.000000,0.000000,1775739714.221357,0.000000
180.000000,16885.066555,18869.253262,-12970.069107,-254.251093,-13417.081644,-4555.956072,1362.539990,-105.343772,11664.570768,15998.283446,-906.653810,3027.275566,-17233.507899,16910.122861,2624.117151,1032.047097,0.006750,-0.015250,1.002000,192.000000,0.000000,0.000000,0.000000,0.000000,0.000000,0.000000,0.000000,0.000000,0.000000,1775739714.221368,0.000000
182.000000,16920.315256,18897.796440,-12905.830193,-205.837215,-13361.403449,-4518.561604,1399.599183,-56.281693,11701.361740,16018.534126,-904.999781,3036.819760,-17231.943277,16924.025646,2629.190997,1042.932396,0.004375,-0.016625,1.003000,192.000000,0.000000,8.000000,127.500000,56.000000,15.500000,48.000000,0.000000,0.000000,0.000000,1775739714.221380,0.000000
184.000000,16874.807104,18869.409724,-12949.729019,-238.671927,-13394.796955,-4543.081468,1370.139583,-91.843318,11648.477512,16017.125966,-875.584886,3041.424220,-17194.146477,16933.838062,2430.439285,670.731148,0.004375,-0.016625,1.003000,192.000000,0.000000,0.000000,0.000000,0.000000,0.000000,0.000000,0.000000,0.000000,0.000000,1775739714.221391,0.000000
186.000000,16882.116125,18885.793553,-12951.003069,-236.414401,-13397.434461,-4538.164084,1374.140546,-92.379760,11680.909894,16000.093937,-937.968604,3021.665278,-17267.750772,16912.536849,2741.307347,1250.557751,0.004375,-0.016625,1.003000,192.000000,0.000000,0.000000,0.000000,0.000000,0.000000,0.000000,0.000000,0.000000,0.000000,1775739714.221404,0.000000
188.000000,16904.691387,18876.472876,-12906.634856,-207.424189,-13358.788295,-4518.651011,1393.631267,-59.455640,11663.140257,16026.133719,-883.832679,3042.005365,-17203.601265,16936.542623,2454.266245,716.619279,0.004375,-0.016625,1.003000,192.000000,0.000000,0.000000,0.000000,0.000000,0.000000,0.000000,0.000000,0.000000,0.000000,1775739714.221416,0.000000
190.000000,16856.769247,18849.002582,-12978.719232,-257.827372,-13421.462586,-4557.408936,1356.661481,-113.278641,11645.728248,15994.170725,-920.221319,3022.067609,-17246.471911,16911.419262,2623.938337,1033.187036,0.004375,-0.016625,1.003000,192.000000,0.000000,0.000000,0.000000,0.000000,0.000000,0.000000,0.000000,0.000000,0.000000,1775739714.221428,0.000000
192.000000,16905.004311,18883.737193,-12913.161565,-210.039343,-13368.466600,-4519.813302,1394.547688,-62.808402,11678.205333,16014.331998,-918.008497,3029.309574,-17249.042362,16921.723416,2622.708991,1044.228797,0.003188,-0.017313,1.001500,192.000000,0.000000,8.000000,127.500000,56.000000,15.500000,32.000000,0.000000,0.000000,0.000000,1775739714.221439,0.000000
194.000000,16870.403811,18855.462236,-12949.997240,-242.985814,-13396.450984,-4546.590691,1370.027825,-91.910373,11634.731190,16014.197888,-879.608200,3035.858635,-17205.434108,16930.798224,2427.287689,670.060595,0.003188,-0.017313,1.001500,192.000000,0.000000,0.000000,0.000000,0.000000,0.000000,0.000000,0.000000,0.000000,0.000000,1775739714.221451,0.000000
196.000000,16876.215264,18867.353364,-12949.483150,-239.051907,-13398.529696,-4542.925005,1375.101671,-89.563440,11668.951710,15988.515733,-936.381630,3015.719714,-17274.657461,16901.584494,2745.956510,1246.377974,0.003188,-0.017313,1.001500,192.000000,0.000000,0.000000,0.000000,0.000000,0.000000,0.000000,0.000000,0.000000,0.000000,1775739714.701075,0.000000
198.000000,16891.883837,18872.784838,-12910.814632,-209.011162,-13363.750382,-4523.546043,1392.916011,-61.132021,11646.845835,16022.289219,-884.167955,3041.223054,-17212.094928,16933.122806,2458.580131,720.799055,0.003188,-0.017313,1.001500,192.000000,0.000000,0.000000,0.000000,0.000000,0.000000,0.000000,0.000000,0.000000,0.000000,1775739714.701147,0.000000
200.000000,16851.985973,18851.371867,-12977.892217,-253.334672,-13415.472319,-4551.530427,1360.058947,-107.534243,11632.227794,15995.690643,-920.400133,3023.743990,-17252.171606,16912.872125,2625.502959,1034.550492,0.003188,-0.017313,1.001500,192.000000,0.000000,0.000000,0.000000,0.000000,0.000000,0.000000,0.000000,0.000000,0.000000,1775739714.701193,0.000000
202.000000,16895.549523,18884.519504,-12914.837946,-206.731284,-13362.252815,-4517.913403,1396.000552,-59.634454,11673.287949,16024.189117,-913.471092,3038.965528,-17244.236737,16931.222907,2626.374677,1041.859513,0.003594,-0.015656,1.001750,192.000000,0.000000,16.000000,127.500000,72.000000,15.500000,40.000000,0.000000,0.000000,0.000000,1775739714.701238,0.000000
204.000000,16868.749782,18855.819864,-12952.411229,-239.342480,-13393.388795,-4543.819075,1369.558438,-87.194155,11633.054809,16017.461242,-879.496441,3042.161827,-17201.611960,16934.128634,2429.053477,668.384214,0.003594,-0.015656,1.001750,192.000000,0.000000,0.000000,0.000000,0.000000,0.000000,0.000000,0.000000,0.000000,0.000000,1775739714.701290,0.000000
206.000000,16872.482523,18866.414591,-12952.254766,-234.045116,-13394.640493,-4538.700526,1376.688644,-85.495423,11672.975024,16001.680911,-932.984165,3024.682763,-17268.801304,16913.363864,2735.250024,1243.114620,0.003594,-0.015656,1.001750,192.000000,0.000000,0.000000,0.000000,0.000000,0.000000,0.000000,0.000000,0.000000,0.000000,1775739714.701337,0.000000
208.000000,16882.585512,18873.924777,-12911.082853,-207.535947,-13360.889359,-4522.696677,1393.117177,-56.371100,11648.455161,16031.945173,-880.211697,3046.118086,-17210.105623,16940.990620,2451.494628,723.391858,0.003594,-0.015656,1.001750,192.000000,0.000000,0.000000,0.000000,0.000000,0.000000,0.000000,0.000000,0.000000,0.000000,1775739714.701370,0.000000
210.000000,16853.438837,18859.574957,-12969.130334,-250.004262,-13406.643380,-4549.362308,1363.948150,-97.408902,11639.983850,16005.771280,-909.268964,3030.360106,-17242.605059,16920.002332,2632.811979,1033.701126,0.003594,-0.015656,1.001750,192.000000,0.000000,0.000000,0.000000,0.000000,0.000000,0.000000,0.000000,0.000000,0.000000,1775739714.701381,0.000000
212.000000,16883.613692,18879.803286,-12915.396740,-202.551508,-13371.215865,-4516.080560,1396.492290,-57.287521,11674.450239,16028.055969,-908.307839,3039.949005,-17244.214385,16933.122806,2630.286232,1045.771068,0.002797,-0.014828,1.003875,192.000000,0.000000,8.000000,127.500000,72.000000,15.500000,56.000000,0.000000,0.000000,0.000000,1775739714.701394,0.000000
214.000000,16854.668183,18851.349515,-12956.389839,-233.463971,-13402.955342,-4539.415781,1368.709072,-89.049350,11618.839099,16029.486481,-880.658732,3043.994670,-17212.161984,16943.918698,2424.069038,684.835098,0.002797,-0.014828,1.003875,192.000000,0.000000,0.000000,0.000000,0.000000,0.000000,0.000000,0.000000,0.000000,0.000000,1775739714.701406,0.000000
216.000000,16860.881968,18871.957823,-12958.155627,-226.177302,-13403.201211,-4530.966822,1374.475822,-86.300085,11658.111114,16013.057949,-938.639157,3028.169635,-17283.754621,16923.958591,2734.445361,1253.284663,0.002797,-0.014828,1.003875,192.000000,0.000000,0.000000,0.000000,0.000000,0.000000,0.000000,0.000000,0.000000,0.000000,1775739714.701418,0.000000
218.000000,16882.272587,18881.993757,-12915.955533,-201.299811,-13360.442324,-4515.052380,1392.424273,-57.935722,11637.122826,16047.569042,-886.291371,3051.326043,-17220.923867,16953.619355,2451.382870,723.973003,0.002797,-0.014828,1.003875,192.000000,0.000000,0.000000,0.000000,0.000000,0.000000,0.000000,0.000000,0.000000,0.000000,1775739714.701437,0.000000
220.000000,16838.239651,18849.740189,-12983.033119,-253.558189,-13410.599638,-4554.614968,1357.332034,-109.165920,11624.516442,16009.414614,-920.690706,3025.576833,-17258.139522,16924.249163,2629.436866,1033.052925,0.002797,-0.014828,1.003875,192.000000,0.000000,0.000000,0.000000,0.000000,0.000000,0.000000,0.000000,0.000000,0.000000,1775739714.701450,0.000000
222.000000,16884.485410,18872.740134,-12921.744635,-207.513596,-13358.117742,-4520.796778,1392.379569,-62.227257,11658.021707,16021.395149,-922.277680,3029.354278,-17260.084124,16929.926506,2628.095761,1042.351251,0.002797,-0.014828,1.003875,192.000000,0.000000,0.000000,0.000000,0.000000,0.000000,0.000000,0.000000,0.000000,0.000000,1775739714.701462,0.000000
224.000000,16837.189119,18838.229041,-12961.106057,-242.359965,-13400.541353,-4555.374927,1365.378662,-98.146510,11609.429015,16020.098748,-887.699531,3035.746877,-17216.945257,16937.324934,2428.986422,681.862316,0.008000,-0.012000,1.004000,192.000000,0.000000,32.000000,127.500000,80.000000,15.500000,48.000000,0.000000,0.000000,0.000000,1775739714.701474,0.000000
226.000000,16840.631287,18854.054076,-12958.893235,-237.777858,-13403.715301,-4534.408991,1371.190115,-97.677123,11643.805998,15993.500172,-947.512799,3010.556461,-17290.437793,16909.541715,2743.341356,1248.121410,0.008000,-0.012000,1.004000,192.000000,0.000000,0.000000,0.000000,0.000000,0.000000,0.000000,0.000000,0.000000,0.000000,1775739714.701486,0.000000
228.000000,16863.251253,18854.165835,-12915.933182,-208.877052,-13368.220731,-4519.165101,1390.747892,-66.339978,11629.456178,16024.636152,-891.141700,3035.255138,-17224.611905,16939.448349,2459.250684,723.995355,0.008000,-0.012000,1.004000,192.000000,0.000000,0.000000,0.000000,0.000000,0.000000,0.000000,0.000000,0.000000,0.000000,1775739714.701498,0.000000
230.000000,16822.660485,18828.729549,-12982.854305,-254.631073,-13423.563650,-4552.491552,1356.281502,-117.011382,11615.531041,15992.829620,-925.786904,3015.920879,-17262.319298,16918.393006,2624.206558,1037.590329,0.008000,-0.012000,1.004000,192.000000,0.000000,0.000000,0.000000,0.000000,0.000000,0.000000,0.000000,0.000000,0.000000,1775739714.701510,0.000000
232.000000,16860.680802,18859.038515,-12922.303429,-208.832348,-13372.199341,-4518.919232,1390.658485,-73.514888,11645.527082,16009.906353,-928.379706,3022.782865,-17262.252243,16930.597059,2623.066619,1044.787591,0.008000,-0.012000,1.004000,192.000000,0.000000,0.000000,0.000000,0.000000,0.000000,0.000000,0.000000,0.000000,0.000000,1775739714.701522,0.000000
234.000000,16830.304781,18833.825747,-12960.234339,-240.325956,-13401.770699,-4547.149485,1364.953979,-106.036676,11608.847869,16011.336864,-894.919145,3028.996650,-17214.374806,16940.655344,2427.175930,678.978941,0.004000,-0.006000,0.996000,192.000000,0.000000,16.000000,127.500000,104.000000,15.500000,16.000000,0.000000,0.000000,0.000000,1775739714.701535,0.000000
236.000000,16833.366970,18837.089102,-12960.346098,-236.816733,-13398.909676,-4532.307927,1369.267865,-108.450664,11645.772951,15992.963730,-955.894703,3007.337809,-17279.977176,16919.734111,2733.573643,1242.220550,0.004000,-0.006000,0.996000,192.000000,0.000000,0.000000,0.000000,0.000000,0.000000,0.000000,0.000000,0.000000,0.000000,1775739714.701547,0.000000
238.000000,16855.070514,18846.901518,-12918.011894,-209.547604,-13361.179931,-4516.527595,1388.222145,-76.264152,11630.238489,16016.924801,-904.932726,3027.588490,-17212.698425,16947.427922,2454.936797,725.783494,0.004000,-0.006000,0.996000,192.000000,0.000000,0.000000,0.000000,0.000000,0.000000,0.000000,0.000000,0.000000,0.000000,1775739714.701558,0.000000
240.000000,16814.390339,18826.472023,-12986.095308,-257.290930,-13413.594772,-4551.083392,1351.721746,-124.856845,11623.197689,15991.801440,-933.922939,3010.869385,-17246.918946,16925.903192,2625.793532,1035.846893,0.004000,-0.006000,0.996000,192.000000,0.000000,0.000000,0.000000,0.000000,0.000000,0.000000,0.000000,0.000000,0.000000,1775739714.701570,0.000000
242.000000,16854.824645,18851.170701,-12923.286906,-209.234680,-13364.979728,-4514.068903,1389.496194,-76.666483,11650.489169,16014.466109,-933.632366,3019.228938,-17249.467045,16936.676733,2626.575843,1041.211312,0.004000,-0.006000,0.996000,192.000000,0.000000,0.000000,0.000000,0.000000,0.000000,0.000000,0.000000,0.000000,0.000000,1775739714.701582,0.000000
244.000000,16831.020037,18829.869488,-12961.351926,-240.057735,-13398.641455,-4539.192264,1365.602179,-104.494405,11603.863430,16018.042388,-899.925935,3026.381496,-17213.190164,16945.840948,2430.707506,683.941029,0.004000,-0.006000,0.996000,192.000000,0.000000,0.000000,127.500000,80.000000,15.500000,24.000000,0.000000,0.000000,0.000000,1775739714.701594,0.000000
246.000000,16832.539956,18839.726608,-12960.010822,-238.649576,-13402.307141,-4541.136866,1370.899543,-100.985181,11637.458102,15996.674120,-954.419488,3009.461225,-17285.162781,16921.991637,2732.679574,1239.940672,0.004000,-0.006000,0.996000,192.000000,0.000000,0.000000,0.000000,0.000000,0.000000,0.000000,0.000000,0.000000,0.000000,1775739714.701607,0.000000
248.000000,16863.608880,18855.819864,-12914.793243,-207.133616,-13364.286824,-4519.388618,1392.021941,-64.440079,11624.583498,16026.580754,-896.707284,3036.037449,-17219.806280,16949.752504,2452.388698,719.122674,0.004000,-0.006000,0.996000,192.000000,0.000000,0.000000,0.000000,0.000000,0.000000,0.000000,0.000000,0.000000,0.000000,1775739714.701619,0.000000
250.000000,16816.893735,18838.877241,-12980.574427,-253.401727,-13418.534508,-4552.804476,1360.036595,-112.183405,11611.865355,15999.065757,-924.602261,3020.726504,-17259.972365,16928.987733,2624.072447,1028.515521,0.004000,-0.006000,0.996000,192.000000,0.000000,0.000000,0.000000,0.000000,0.000000,0.000000,0.000000,0.000000,0.000000,1775739714.701633,0.000000
252.000000,16850.220186,18842.744093,-12926.930240,-211.179282,-13379.016623,-4531.771485,1391.016113,-72.553763,11637.972193,16010.867478,-927.463284,3022.671106,-17267.214330,16931.938163,2621.904328,1031.801228,0.004000,-0.006000,0.996000,192.000000,0.000000,0.000000,0.000000,0.000000,0.000000,0.000000,0.000000,0.000000,0.000000,1775739714.701645,0.000000
254.000000,16821.542897,18823.365131,-12963.207121,-239.320128,-13408.945609,-4540.958052,1366.295083,-102.192176,11589.603018,16006.218315,-898.093092,3026.113275,-17224.790719,16938.174300,2422.817340,686.846755,0.002000,-0.010000,1.000000,192.000000,0.000000,8.000000,127.500000,88.000000,15.500000,32.000000,0.000000,0.000000,0.000000,1775739714.701657,0.000000
0.000000,16829.164842,18834.228079,-12961.687203,-232.033459,-13405.592848,-4532.576148,1372.866496,-98.526490,11629.634992,15992.919027,-952.497238,3009.841205,-17287.710880,16922.505727,2721.280184,1239.739506,0.002000,-0.010000,1.000000,192.000000,0.000000,0.000000,0.000000,0.000000,0.000000,0.000000,0.000000,0.000000,0.000000,1775739714.701669,0.000000
2.000000,16854.467017,18844.264012,-12922.012856,-204.406703,-13371.104106,-4516.482892,1389.406787,-71.324417,11615.240468,16024.502042,-899.724770,3031.768266,-17224.589553,16950.244242,2440.430515,720.553186,0.002000,-0.010000,1.000000,192.000000,0.000000,0.000000,0.000000,0.000000,0.000000,0.000000,0.000000,0.000000,0.000000,1775739714.701681,0.000000
4.000000,16799.749947,18811.988093,-12991.549133,-254.094631,-13428.615144,-4559.130020,1352.079374,-127.583757,11604.265762,15995.757699,-935.934596,3014.289202,-17261.984022,16930.664114,2609.968497,1037.210350,0.002000,-0.010000,1.000000,192.000000,0.000000,0.000000,0.000000,0.000000,0.000000,0.000000,0.000000,0.000000,0.000000,1775739714.701692,0.000000
6.000000,16837.502043,18837.245564,-12928.830138,-213.928546,-13378.413126,-4531.413857,1386.366950,-86.054216,11627.176300,16002.776146,-944.942349,3011.271717,-17269.382449,16925.232640,2623.468950,1038.551454,0.002000,-0.010000,1.000000,192.000000,0.000000,0.000000,0.000000,0.000000,0.000000,0.000000,0.000000,0.000000,0.000000,1775739714.701705,0.000000
8.000000,16809.718825,18811.228134,-12966.850456,-245.153933,-13408.520926,-4552.312738,1360.304816,-115.312650,11590.988826,16003.692568,-908.754874,3017.038467,-17223.159042,16935.425035,2435.244910,679.604790,0.004000,-0.012000,0.996000,192.000000,0.000000,16.000000,127.500000,80.000000,15.500000,16.000000,0.000000,0.000000,0.000000,1775739714.701716,0.000000
10.000000,16823.822775,18828.975419,-12964.592929,-238.537817,-13406.352807,-4547.171837,1366.920932,-110.216452,11632.630126,15987.465201,-962.980206,2996.407806,-17286.950920,16914.526154,2732.634870,1238.130181,0.004000,-0.012000,0.996000,192.000000,0.000000,0.000000,0.000000,0.000000,0.000000,0.000000,0.000000,0.000000,0.000000,1775739714.701729,0.000000
12.000000,16846.554499,18842.319410,-12922.661057,-209.502901,-13369.807705,-4521.199110,1387.305723,-76.755890,11617.363884,16017.841222,-908.799578,3021.352353,-17225.014237,16943.583422,2452.075774,722.967174,0.004000,-0.012000,0.996000,192.000000,0.000000,0.000000,0.000000,0.000000,0.000000,0.000000,0.000000,0.000000,0.000000,1775739714.701741,0.000000
14.000000,16820.201793,18826.382616,-12983.770726,-252.239436,-13417.618086,-4547.797686,1357.779069,-119.112446,11614.413454,15996.092975,-934.347622,3012.434007,-17254.920871,16929.926506,2620.384409,1035.109286,0.004000,-0.012000,0.996000,192.000000,0.000000,0.000000,0.000000,0.000000,0.000000,0.000000,0.000000,0.000000,0.000000,1775739714.701753,0.000000
16.000000,16840.988915,18852.869434,-12922.281077,-205.345476,-13368.310138,-4515.521767,1392.692494,-75.526545,11644.945937,16013.549687,-932.671241,3018.200757,-17254.764408,16937.749617,2624.295965,1038.126771,0.004000,-0.012000,0.996000,192.000000,0.000000,0.000000,0.000000,0.000000,0.000000,0.000000,0.000000,0.000000,0.000000,1775739714.701765,0.000000
18.000000,16808.780051,18818.961837,-12961.888368,-235.319166,-13397.054481,-4536.554758,1367.703243,-109.031809,11596.330893,16018.355312,-902.339924,3023.207548,-17214.620675,16948.143178,2431.758038,687.539659,0.008000,-0.018000,1.002000,192.000000,0.000000,32.000000,127.500000,56.000000,15.500000,40.000000,0.000000,0.000000,0.000000,1775739714.701777,0.000000
20.000000,16811.931647,18824.326256,-12962.268348,-232.324032,-13396.339225,-4535.571281,1371.726557,-110.730542,11628.070370,15991.823791,-964.924808,3001.012266,-17284.447525,16922.684541,2732.813684,1243.204027,0.008000,-0.018000,1.002000,192.000000,0.000000,0.000000,0.000000,0.000000,0.000000,0.000000,0.000000,0.000000,0.000000,1775739714.701789,0.000000
22.000000,16830.237726,18830.517689,-12922.214022,-208.832348,-13363.191588,-4511.543156,1388.177441,-83.372007,11612.938239,16025.887850,-910.811235,3025.129798,-17222.443786,16954.312259,2459.474201,724.822369,0.008000,-0.018000,1.002000,192.000000,0.000000,0.000000,0.000000,0.000000,0.000000,0.000000,0.000000,0.000000,0.000000,1775739714.701801,0.000000
24.000000,16800.331092,18812.971570,-12981.669662,-251.747698,-13410.510231,-4536.308889,1357.913179,-122.576967,11595.950913,15994.550704,-944.696479,3004.588545,-17266.342612,16931.133500,2635.471837,1031.175379,0.008000,-0.018000,1.002000,192.000000,0.000000,0.000000,0.000000,0.000000,0.000000,0.000000,0.000000,0.000000,0.000000,1775739714.701813,0.000000
26.000000,16827.354351,18832.015256,-12928.718380,-209.145273,-13375.306234,-4521.221461,1388.378607,-84.780167,11636.362867,16015.427234,-939.689689,3014.244499,-17263.079257,16939.694219,2634.018974,1030.571882,0.008000,-0.018000,1.002000,192.000000,0.000000,0.000000,0.000000,0.000000,0.000000,0.000000,0.000000,0.000000,0.000000,1775739714.701827,0.000000
28.000000,16797.648883,18812.524535,-12963.989432,-236.995546,-13405.056406,-4543.126171,1364.864572,-111.401094,11580.841134,16008.542896,-910.051275,3015.943231,-17232.457367,16939.828329,2434.730820,694.088721,0.006000,-0.018000,1.010000,192.000000,0.000000,24.000000,127.500000,56.000000,15.500000,72.000000,0.000000,0.000000,0.000000,1775739714.701840,0.000000
30.000000,16800.912237,18820.079424,-12962.089534,-232.279328,-13401.971865,-4538.879340,1371.212467,-109.009458,11626.773969,15995.020091,-959.560389,3003.225089,-17289.789592,16922.036340,2734.199492,1247.920245,0.006000,-0.018000,1.010000,192.000000,0.000000,0.000000,0.000000,0.000000,0.000000,0.000000,0.000000,0.000000,0.000000,1775739714.701852,0.000000
32.000000,16826.192060,18825.801471,-12920.001199,-208.921755,-13360.017641,-4522.540214,1387.372778,-79.952190,11607.372654,16019.338789,-910.364200,3021.888795,-17227.182356,16944.946879,2452.835733,731.773762,0.006000,-0.018000,1.010000,192.000000,0.000000,0.000000,0.000000,0.000000,0.000000,0.000000,0.000000,0.000000,0.000000,1775739714.701864,0.000000
34.000000,16788.819944,18804.924942,-12979.926226,-253.155858,-13406.732787,-4535.593633,1356.639130,-125.125065,11598.163736,15991.264998,-939.421468,3004.230917,-17259.212406,16926.193765,2629.950956,1041.635995,0.006000,-0.018000,1.010000,192.000000,0.000000,0.000000,0.000000,0.000000,0.000000,0.000000,0.000000,0.000000,0.000000,1775739714.701876,0.000000
36.000000,16829.366008,18832.506994,-12919.755330,-210.016991,-13355.010850,-4509.039761,1388.445662,-82.857917,11632.697181,16010.800423,-937.968604,3010.735275,-17257.044286,16936.810844,2635.225968,1040.183132,0.006000,-0.018000,1.010000,192.000000,0.000000,0.000000,0.000000,0.000000,0.000000,0.000000,0.000000,0.000000,0.000000,1775739714.701888,0.000000
38.000000,16799.414670,18805.796660,-12960.122581,-238.761334,-13388.806687,-4534.476046,1364.216371,-111.736371,11589.290093,16013.303818,-905.603278,3016.546728,-17216.341760,16948.813730,2444.677346,689.551316,0.005000,-0.016000,1.007000,192.000000,0.000000,16.000000,127.500000,72.000000,15.500000,48.000000,0.000000,0.000000,0.000000,1775739714.701900,0.000000
40.000000,16810.590543,18818.358340,-12957.015688,-233.732192,-13386.839734,-4527.211729,1371.391281,-107.869519,11633.568899,15997.277617,-960.610921,2999.648809,-17277.630243,16929.144195,2741.597920,1243.248730,0.005000,-0.016000,1.007000,192.000000,0.000000,0.000000,0.000000,0.000000,0.000000,0.000000,0.000000,0.000000,0.000000,1775739714.701912,0.000000
42.000000,16833.434025,18835.770349,-12917.654266,-210.464026,-13355.502588,-4513.331296,1387.797461,-78.700492,11620.917812,16020.121100,-905.603278,3022.559347,-17215.112414,16951.652402,2459.161277,729.404477,0.005000,-0.016000,1.007000,192.000000,0.000000,0.000000,0.000000,0.000000,0.000000,0.000000,0.000000,0.000000,0.000000,1775739714.701924,0.000000
44.000000,16799.526429,18809.864677,-12979.233322,-255.614550,-13409.839679,-4544.400220,1356.527371,-122.912243,11613.631143,15992.650806,-936.493389,3005.795539,-17252.261013,16927.490166,2628.900424,1040.183132,0.005000,-0.016000,1.007000,192.000000,0.000000,0.000000,0.000000,0.000000,0.000000,0.000000,0.000000,0.000000,0.000000,1775739714.701936,0.000000
46.000000,16837.345581,18832.506994,-12918.257763,-206.463064,-13360.129399,-4510.403217,1393.407749,-75.683007,11647.717553,16013.594391,-932.000689,3015.809121,-17251.813978,16938.196652,2628.743962,1036.696260,0.005000,-0.016000,1.007000,192.000000,0.000000,0.000000,0.000000,0.000000,0.000000,0.000000,0.000000,0.000000,0.000000,1775739714.701948,0.000000
48.000000,16805.874325,18809.507049,-12961.173113,-239.297776,-13393.634664,-4537.918215,1363.657577,-108.361257,11597.269666,16013.348521,-903.703380,3019.944193,-17214.799489,16949.193710,2433.948509,687.249087,0.004500,-0.013000,1.005500,192.000000,0.000000,16.000000,127.500000,88.000000,15.500000,48.000000,0.000000,0.000000,0.000000,1775739714.701960,0.000000
50.000000,16814.926781,18822.940448,-12958.759124,-233.240453,-13391.421842,-4526.518825,1370.608970,-104.404998,11633.233623,15996.003568,-958.867485,3000.229955,-17281.362984,16926.484338,2736.658184,1237.884311,0.004500,-0.013000,1.005500,192.000000,0.000000,0.000000,0.000000,0.000000,0.000000,0.000000,0.000000,0.000000,0.000000,1775739714.701972,0.000000
52.000000,16836.965601,18835.412721,-12917.654266,-204.697276,-13354.921443,-4506.245793,1390.010284,-75.079510,11620.291963,16024.904373,-906.318534,3023.006382,-17217.079367,16953.641707,2457.976634,724.241224,0.004500,-0.013000,1.005500,192.000000,0.000000,0.000000,0.000000,0.000000,0.000000,0.000000,0.000000,0.000000,0.000000,1775739714.701984,0.000000
54.000000,16790.764545,18807.137764,-12985.670624,-249.534875,-13411.203135,-4538.499360,1355.119211,-126.041487,11608.646704,15994.707167,-940.069668,3004.476786,-17257.804246,16930.082968,2625.570014,1047.983891,0.004500,-0.013000,1.005500,192.000000,0.000000,0.000000,0.000000,0.000000,0.000000,0.000000,0.000000,0.000000,0.000000,1775739714.701996,0.000000
56.000000,16823.755720,18833.356361,-12926.729074,-206.306601,-13362.364574,-4502.691865,1387.238668,-85.227202,11625.052884,16009.749891,-946.126991,3011.294068,-17265.403839,16939.873033,2628.408686,1047.715670,0.004500,-0.013000,1.005500,192.000000,0.000000,0.000000,0.000000,0.000000,0.000000,0.000000,0.000000,0.000000,0.000000,1775739714.702008,0.000000
58.000000,16801.538086,18813.887991,-12959.832008,-237.576692,-13388.158487,-4523.769560,1365.021034,-109.612955,11586.831401,16016.276600,-909.425427,3020.458283,-17221.505013,16954.647536,2434.574358,699.184918,0.006250,-0.012500,1.005750,192.000000,0.000000,32.000000,127.500000,80.000000,15.500000,56.000000,0.000000,0.000000,0.000000,1775739714.702021,0.000000
60.000000,16802.901543,18821.576991,-12959.764953,-235.118000,-13388.918446,-4525.557700,1369.223162,-111.803426,11625.656381,15995.377719,-962.197895,3000.565231,-17286.772107,16929.367713,2743.609577,1246.713250,0.006250,-0.012500,1.005750,192.000000,0.000000,0.000000,0.000000,0.000000,0.000000,0.000000,0.000000,0.000000,0.000000,1775739715.182014,0.000000
62.000000,16829.611877,18829.020122,-12919.285943,-205.166662,-13354.407353,-4507.475139,1386.255191,-81.159184,11614.189936,16026.647809,-910.855938,3020.570042,-17220.432129,16957.486207,2456.300253,732.779590,0.006250,-0.012500,1.005750,192.000000,0.000000,0.000000,0.000000,0.000000,0.000000,0.000000,0.000000,0.000000,0.000000,1775739715.182110,0.000000
64.000000,16788.641130,18807.204820,-12980.440316,-250.160724,-13406.196345,-4541.650956,1356.035633,-126.287356,11606.389178,15999.535143,-940.762572,3003.113330,-17255.949051,16937.190823,2629.705087,1041.613643,0.006250,-0.012500,1.005750,192.000000,0.000000,0.000000,0.000000,0.000000,0.000000,0.000000,0.000000,0.000000,0.000000,1775739715.182197,0.000000
66.000000,16827.868441,18835.479776,-12925.611487,-206.507767,-13361.761077,-4512.616040,1387.573944,-85.540126,11635.468797,16017.863574,-941.410773,3009.371818,-17255.725533,16946.958536,2626.665250,1036.182169,0.006250,-0.012500,1.005750,192.000000,0.000000,0.000000,0.000000,0.000000,0.000000,0.000000,0.000000,0.000000,0.000000,1775739715.182287,0.000000
68.000000,16794.631397,18805.640197,-12964.861150,-239.096610,-13391.779469,-4536.353592,1361.064775,-116.810217,11594.296884,16025.239649,-908.419598,3015.831472,-17214.240696,16959.989603,2429.589919,687.025569,0.008125,-0.009250,1.006875,192.000000,0.000000,40.000000,127.500000,104.000000,15.500000,64.000000,0.000000,0.000000,0.000000,1775739715.182371,0.000000
70.000000,16800.867534,18815.810241,-12962.938900,-236.727326,-13391.533600,-4531.816188,1365.669234,-115.379705,11631.847815,16000.473917,-964.589532,2993.502080,-17282.659386,16929.345361,2736.501722,1239.359527,0.008125,-0.009250,1.006875,192.000000,0.000000,0.000000,0.000000,0.000000,0.000000,0.000000,0.000000,0.000000,0.000000,1775739715.182456,0.000000
72.000000,16826.504985,18827.969590,-12921.632877,-205.300773,-13354.362649,-4504.859985,1385.808156,-81.047425,11614.681675,16031.252269,-910.610069,3015.339734,-17222.801414,16957.575614,2454.892094,728.555111,0.008125,-0.009250,1.006875,192.000000,0.000000,0.000000,0.000000,0.000000,0.000000,0.000000,0.000000,0.000000,0.000000,1775739715.182516,0.000000
74.000000,16792.910313,18805.953122,-12984.642444,-249.825448,-13404.296446,-4534.341935,1354.225141,-127.427295,11610.837175,16012.141527,-936.873369,3006.242574,-17255.300850,16945.662134,2624.720648,1042.463010,0.008125,-0.009250,1.006875,192.000000,0.000000,0.000000,0.000000,0.000000,0.000000,0.000000,0.000000,0.000000,0.000000,1775739715.182540,0.000000
76.000000,16831.355313,18833.401064,-12925.030342,-204.943145,-13357.000155,-4505.955220,1387.708055,-87.328266,11639.983850,16021.797481,-943.377726,3008.209528,-17261.045249,16948.411399,2623.133674,1050.420231,0.008125,-0.009250,1.006875,192.000000,0.000000,0.000000,0.000000,0.000000,0.000000,0.000000,0.000000,0.000000,0.000000,1775739715.182563,0.000000
78.000000,16795.860743,18804.723776,-12964.525874,-242.248206,-13394.193458,-4537.247662,1359.477801,-120.587661,11598.096680,16024.211469,-908.598412,3014.736237,-17216.945257,16955.675716,2443.000965,697.262668,0.008063,-0.009625,1.007437,192.000000,0.000000,32.000000,127.500000,88.000000,15.500000,64.000000,0.000000,0.000000,0.000000,1775739715.182587,0.000000
80.000000,16804.041481,18818.000712,-12964.302357,-238.336651,-13390.795993,-4531.659726,1364.350482,-117.480769,11620.873108,15999.624550,-969.439861,2993.435024,-17292.382394,16926.931373,2742.313175,1248.009652,0.008063,-0.009625,1.007437,192.000000,0.000000,0.000000,0.000000,0.000000,0.000000,0.000000,0.000000,0.000000,0.000000,1775739715.182611,0.000000
82.000000,16840.161901,18843.258183,-12917.050769,-206.954802,-13352.663917,-4510.000886,1386.165784,-77.381739,11610.859526,16038.538937,-912.644078,3020.212414,-17225.014237,16959.542568,2464.972730,724.308279,0.008063,-0.009625,1.007437,192.000000,0.000000,0.000000,0.000000,0.000000,0.000000,0.000000,0.000000,0.000000,0.000000,1775739715.182634,0.000000
84.000000,16801.605141,18818.023064,-12982.921360,-252.909989,-13412.365426,-4548.959976,1354.202790,-121.347621,11612.893535,16010.599257,-932.894758,3009.215356,-17255.256147,16940.811806,2631.694392,1039.177303,0.008063,-0.009625,1.007437,192.000000,0.000000,0.000000,0.000000,0.000000,0.000000,0.000000,0.000000,0.000000,0.000000,1775739715.182658,0.000000
86.000000,16836.630325,18841.827672,-12926.147929,-206.105436,-13371.662899,-4519.232156,1388.736235,-75.973579,11638.083951,16023.987952,-932.023040,3018.223109,-17263.570996,16945.885652,2628.274575,1038.283233,0.008063,-0.009625,1.007437,192.000000,0.000000,0.000000,0.000000,0.000000,0.000000,0.000000,0.000000,0.000000,0.000000,1775739715.182681,0.000000
88.000000,16801.068699,18812.904514,-12966.202255,-237.375526,-13410.286714,-4545.808380,1363.210543,-108.025981,11585.177372,16022.155109,-902.563441,3024.056914,-17230.222193,16951.965326,2430.506340,684.812747,0.007031,-0.010813,1.005719,192.000000,0.000000,24.000000,127.500000,80.000000,15.500000,48.000000,0.000000,0.000000,0.000000,1775739715.182704,0.000000
90.000000,16804.332054,18823.119262,-12967.051621,-234.559206,-13406.419862,-4543.081468,1367.300912,-107.646001,11613.161756,16000.585675,-962.555523,3004.789711,-17303.714729,16926.529041,2729.773847,1237.526684,0.007031,-0.010813,1.005719,192.000000,0.000000,0.000000,0.000000,0.000000,0.000000,0.000000,0.000000,0.000000,0.000000,1775739715.182746,0.000000
92.000000,16833.054046,18845.582765,-12924.739769,-201.545680,-13369.807705,-4520.729723,1388.445662,-74.610123,11597.828459,16032.302801,-908.486653,3029.197816,-17242.895632,16956.234509,2447.068983,720.396724,0.007031,-0.010813,1.005719,192.000000,0.000000,0.000000,0.000000,0.000000,0.000000,0.000000,0.000000,0.000000,0.000000,1775739715.182770,0.000000
94.000000,16787.568246,18799.001729,-12993.896066,-247.724384,-13422.647229,-4553.989119,1352.884037,-126.376763,11590.139459,16004.474879,-939.712040,3010.489405,-17278.345499,16938.487224,2621.569052,1043.334728,0.007031,-0.010813,1.005719,192.000000,0.000000,0.000000,0.000000,0.000000,0.000000,0.000000,0.000000,0.000000,0.000000,1775739715.182794,0.000000
96.000000,16816.379644,18821.018198,-12937.860243,-206.530119,-13370.321795,-4518.852177,1381.494270,-88.490556,11608.803166,16011.672141,-947.110468,3010.042371,-17284.805153,16942.801111,2620.406761,1046.463972,0.007031,-0.010813,1.005719,192.000000,0.000000,0.000000,0.000000,0.000000,0.000000,0.000000,0.000000,0.000000,0.000000,1775739715.182818,0.000000
98.000000,16789.311682,18796.051299,-12974.226531,-239.141314,-13394.059347,-4529.648069,1356.169743,-120.073571,11566.468962,16013.482632,-916.287412,3011.942269,-17240.794568,16950.713629,2436.384849,700.123692,0.005516,-0.012406,1.000859,192.000000,0.000000,16.000000,127.500000,72.000000,15.500000,16.000000,0.000000,0.000000,0.000000,1775739715.182842,0.000000
100.000000,16804.510868,18813.709177,-12968.660947,-237.867264,-13391.690062,-4522.361400,1362.204714,-117.458417,11608.937276,15995.668292,-971.004483,2994.977295,-17304.497040,16928.741864,2740.636795,1257.665605,0.005516,-0.012406,1.000859,192.000000,0.000000,0.000000,0.000000,0.000000,0.000000,0.000000,0.000000,0.000000,0.000000,1775739715.182865,0.000000
102.000000,16831.578831,18828.394273,-12922.839871,-214.174415,-13357.402486,-4508.995057,1381.248400,-84.266077,11605.562163,16023.473862,-911.548842,3017.887833,-17226.847080,16956.189806,2458.870704,731.974927,0.005516,-0.012406,1.000859,192.000000,0.000000,0.000000,0.000000,0.000000,0.000000,0.000000,0.000000,0.000000,0.000000,1775739715.182889,0.000000
104.000000,16790.786897,18808.992959,-12983.815430,-255.905122,-13408.208002,-4538.164084,1351.453525,-126.510874,11592.195820,15996.316492,-941.857808,3003.470958,-17266.186150,16935.067407,2629.973308,1040.406649,0.005516,-0.012406,1.000859,192.000000,0.000000,0.000000,0.000000,0.000000,0.000000,0.000000,0.000000,0.000000,0.000000,1775739715.182912,0.000000
106.000000,16837.971430,18840.441864,-12917.184879,-204.585517,-13354.116780,-4505.195261,1390.613781,-75.817117,11631.892518,16025.262001,-930.905453,3019.407751,-17257.424266,16953.529948,2625.838235,1030.303661,0.005516,-0.012406,1.000859,192.000000,0.000000,0.000000,0.000000,0.000000,0.000000,0.000000,0.000000,0.000000,0.000000,1775739715.182936,0.000000
108.000000,16804.443813,18812.725700,-12957.485075,-232.704012,-13394.394624,-4538.298194,1365.423365,-106.640173,11587.859581,16025.396112,-900.127101,3025.979164,-17219.180431,16962.247129,2435.088448,682.465813,0.005516,-0.012406,1.000859,192.000000,0.000000,0.000000,0.000000,0.000000,0.000000,0.000000,0.000000,0.000000,0.000000,1775739715.182959,0.000000
110.000000,16814.658560,18831.054131,-12953.618223,-223.696259,-13392.181801,-4531.592671,1375.056967,-99.375856,11624.382332,16009.816946,-951.469058,3013.462187,-17286.369775,16941.862338,2726.957527,1243.807524,0.002000,-0.008000,1.000000,192.000000,0.000000,8.000000,127.500000,96.000000,15.500000,32.000000,0.000000,0.000000,0.000000,1775739715.182983,0.000000
112.000000,16832.115273,18837.670247,-12918.056597,-202.931488,-13362.766905,-4523.970726,1389.227973,-77.918181,11611.977114,16037.600164,-898.942459,3033.511702,-17221.102681,16965.890463,2449.862951,715.725209,0.002000,-0.008000,1.000000,192.000000,0.000000,0.000000,0.000000,0.000000,0.000000,0.000000,0.000000,0.000000,0.000000,1775739715.183006,0.000000
114.000000,16774.380717,18788.407002,-12995.237171,-257.425041,-13434.963040,-4571.691700,1349.307758,-139.340775,11574.336776,15987.733422,-950.686747,2997.883022,-17283.017013,16927.132538,2635.874168,1033.656422,0.002000,-0.008000,1.000000,192.000000,0.000000,0.000000,0.000000,0.000000,0.000000,0.000000,0.000000,0.000000,0.000000,1775739715.183021,0.000000
116.000000,16808.645941,18821.889916,-12938.530795,-211.782779,-13386.660920,-4532.419685,1382.857726,-94.436120,11593.693387,16000.965655,-957.347567,3002.331019,-17291.018938,16928.540698,2628.967479,1030.169550,0.002000,-0.008000,1.000000,192.000000,0.000000,0.000000,0.000000,0.000000,0.000000,0.000000,0.000000,0.000000,0.000000,1775739715.183033,0.000000
118.000000,16778.851065,18795.224285,-12980.708537,-242.158799,-13409.750272,-4550.926930,1355.789763,-125.929728,11553.683764,16008.587600,-925.295165,3007.583679,-17250.718743,16941.527062,2440.318756,688.478433,0.002000,-0.008000,1.000000,192.000000,0.000000,0.000000,0.000000,0.000000,0.000000,0.000000,0.000000,0.000000,0.000000,1775739715.183046,0.000000
120.000000,16784.953092,18807.853020,-12980.082688,-235.207407,-13406.129289,-4534.923081,1360.885961,-124.365106,11586.943160,15989.096879,-984.214364,2986.908315,-17318.645694,16920.002332,2737.328736,1246.936768,0.002000,-0.008000,1.000000,192.000000,0.000000,0.000000,127.500000,72.000000,15.500000,8.000000,0.000000,0.000000,0.000000,1775739715.183073,0.000000
122.000000,16817.005493,18822.314599,-12937.949650,-203.691447,-13369.181856,-4505.932868,1380.957828,-90.301048,11576.706061,16028.011266,-927.731505,3010.355295,-17248.572975,16955.228681,2452.902788,739.082782,0.002000,-0.008000,1.000000,192.000000,0.000000,0.000000,0.000000,0.000000,0.000000,0.000000,0.000000,0.000000,0.000000,1775739715.183087,0.000000
124.000000,16780.639205,18806.198991,-12998.165250,-245.980948,-13418.243935,-4529.446903,1350.850028,-133.126990,11570.715793,16009.682835,-955.715889,2998.687684,-17281.631205,16939.157777,2621.211424,1062.333710,0.002000,-0.008000,1.000000,192.000000,0.000000,0.000000,0.000000,0.000000,0.000000,0.000000,0.000000,0.000000,0.000000,1775739715.183100,0.000000
126.000000,16825.923839,18835.077445,-12933.300487,-203.490282,-13365.851446,-4500.054359,1385.159956,-87.574135,11608.490242,16034.448568,-947.758668,3011.539937,-17273.875150,16953.127617,2616.830482,1052.320129,0.002000,-0.008000,1.000000,192.000000,0.000000,0.000000,0.000000,0.000000,0.000000,0.000000,0.000000,0.000000,0.000000,1775739715.183112,0.000000
128.000000,16800.509906,18813.664474,-12964.570578,-233.374564,-13395.467507,-4522.294345,1363.456412,-112.138702,11564.367898,16035.119120,-914.096941,3017.127874,-17232.166795,16961.889501,2434.529654,696.770930,0.002000,-0.008000,1.000000,192.000000,0.000000,0.000000,0.000000,0.000000,0.000000,0.000000,0.000000,0.000000,0.000000,1775739715.183124,0.000000
130.000000,16806.231952,18826.650837,-12962.514217,-232.949881,-13399.021435,-4518.673363,1366.853877,-109.590603,11604.981018,16021.305742,-965.349491,3001.749873,-17293.723499,16943.605774,2737.552254,1244.612187,0.002000,-0.010000,0.996000,192.000000,0.000000,8.000000,127.500000,88.000000,15.500000,16.000000,0.000000,0.000000,0.000000,1775739715.183136,0.000000
132.000000,16837.479691,18845.225137,-12921.319952,-205.926622,-13364.733859,-4504.390598,1385.808156,-77.202925,11589.334797,16052.531129,-910.945345,3020.324173,-17232.725588,16968.662079,2457.261378,723.190692,0.002000,-0.010000,0.996000,192.000000,0.000000,0.000000,0.000000,0.000000,0.000000,0.000000,0.000000,0.000000,0.000000,1775739715.183148,0.000000
134.000000,16786.741231,18813.083328,-12989.805697,-251.971215,-13422.513118,-4545.897787,1351.878208,-129.640118,11575.454363,16022.490385,-944.584721,3002.778054,-17275.149199,16945.058637,2631.426171,1039.177303,0.002000,-0.010000,0.996000,192.000000,0.000000,0.000000,0.000000,0.000000,0.000000,0.000000,0.000000,0.000000,0.000000,1775739715.183161,0.000000
136.000000,16824.940363,18837.424378,-12933.635763,-207.200671,-13374.367461,-4516.438188,1385.003493,-88.244687,11601.136518,16035.610859,-946.551674,3009.014190,-17278.054926,16948.679620,2624.988869,1029.320184,0.002000,-0.010000,0.996000,192.000000,0.000000,0.000000,0.000000,0.000000,0.000000,0.000000,0.000000,0.000000,0.000000,1775739715.183178,0.000000
138.000000,16796.620702,18816.659607,-12974.137124,-236.503808,-13403.894115,-4541.092162,1359.857781,-118.754818,11556.857712,16038.695400,-916.466226,3013.931574,-17242.090969,16958.447332,2437.055401,684.499822,0.002000,-0.010000,0.996000,192.000000,0.000000,0.000000,0.000000,0.000000,0.000000,0.000000,0.000000,0.000000,0.000000,1775739715.183190,0.000000
140.000000,16791.122173,18815.676131,-12978.853342,-233.911006,-13410.063196,-4537.627642,1361.422403,-126.265004,11582.986901,16014.868440,-976.681826,2993.122100,-17313.549496,16935.715608,2734.065382,1232.028154,0.004000,-0.012000,0.998000,192.000000,0.000000,16.000000,127.500000,80.000000,15.500000,24.000000,0.000000,0.000000,0.000000,1775739715.183202,0.000000
142.000000,16818.994799,18831.881145,-12939.223699,-202.909136,-13370.612367,-4513.599517,1380.399034,-94.726693,11561.104543,16041.422312,-931.866578,3008.276583,-17256.686658,16960.771914,2452.187532,724.196520,0.004000,-0.012000,0.998000,192.000000,0.000000,0.000000,0.000000,0.000000,0.000000,0.000000,0.000000,0.000000,0.000000,1775739715.183214,0.000000
144.000000,16770.446810,18810.177602,-13004.110814,-248.014956,-13424.882403,-4540.443962,1346.491438,-144.280510,11549.280471,16016.857745,-965.081270,2993.859708,-17293.969368,16945.751541,2627.671078,1051.560170,0.004000,-0.012000,0.998000,192.000000,0.000000,0.000000,0.000000,0.000000,0.000000,0.000000,0.000000,0.000000,0.000000,1775739715.183227,0.000000
146.000000,16822.571078,18837.424378,-12939.961307,-201.903308,-13368.891283,-4499.182641,1380.242572,-93.877327,11580.103526,16038.024847,-961.527343,3004.387379,-17290.415441,16957.463855,2624.877110,1047.626263,0.004000,-0.012000,0.998000,192.000000,0.000000,0.000000,0.000000,0.000000,0.000000,0.000000,0.000000,0.000000,0.000000,1775739715.183239,0.000000
148.000000,16807.438947,18818.358340,-12971.656081,-230.625299,-13393.612313,-4515.030028,1358.471973,-117.883100,11555.181331,16047.457283,-917.829683,3014.624478,-17241.532176,16973.087725,2436.295442,705.801035,0.004000,-0.012000,0.998000,192.000000,0.000000,0.000000,0.000000,0.000000,0.000000,0.000000,0.000000,0.000000,0.000000,1775739715.183251,0.000000
150.000000,16803.817964,18822.180488,-12969.823238,-231.452314,-13396.875667,-4511.543156,1363.679929,-116.452589,11592.732262,16021.372798,-971.876201,2993.993818,-17306.039310,16948.724323,2729.483274,1260.437222,0.008000,-0.014000,1.002000,192.000000,0.000000,32.000000,127.500000,72.000000,15.500000,40.000000,0.000000,0.000000,0.000000,1775739715.183263,0.000000
152.000000,16827.756682,18840.128939,-12926.594964,-210.307564,-13362.252815,-4499.741435,1380.421386,-86.791824,11585.825573,16050.586528,-913.918127,3015.227975,-17238.246469,16972.126600,2450.801724,739.641576,0.008000,-0.014000,1.002000,192.000000,0.000000,0.000000,0.000000,0.000000,0.000000,0.000000,0.000000,0.000000,0.000000,1775739715.183276,0.000000
154.000000,16780.683909,18799.895799,-12991.236209,-258.274407,-13421.820214,-4537.180607,1348.681909,-135.518627,11566.111334,16010.532202,-950.798506,2992.630362,-17282.301758,16938.867204,2637.416439,1046.531027,0.008000,-0.014000,1.002000,192.000000,0.000000,0.000000,0.000000,0.000000,0.000000,0.000000,0.000000,0.000000,0.000000,1775739715.183290,0.000000
156.000000,16827.175537,18839.436035,-12931.579403,-211.358096,-13373.652205,-4512.124301,1383.304761,-85.875402,11595.347416,16036.795501,-947.311634,3004.275620,-17280.111287,16950.490111,2624.854758,1028.716687,0.008000,-0.014000,1.002000,192.000000,0.000000,0.000000,0.000000,0.000000,0.000000,0.000000,0.000000,0.000000,0.000000,1775739715.183301,0.000000
158.000000,16798.408842,18813.016273,-12970.851418,-242.136448,-13408.811499,-4542.142694,1357.823772,-112.451626,11551.806218,16041.779940,-913.471092,3012.366952,-17240.951030,16958.872015,2436.496608,679.582438,0.008000,-0.014000,1.002000,192.000000,0.000000,0.000000,0.000000,0.000000,0.000000,0.000000,0.000000,0.000000,0.000000,1775739715.183314,0.000000
160.000000,16799.146449,18823.678055,-12968.236264,-233.642785,-13411.471356,-4538.365249,1367.815002,-107.914222,11590.094756,16026.759568,-964.611884,2998.039484,-17308.922685,16937.280230,2733.461885,1224.026230,0.002000,-0.012000,1.002000,192.000000,0.000000,8.000000,127.500000,80.000000,15.500000,40.000000,0.000000,0.000000,0.000000,1775739715.183326,0.000000
162.000000,16819.441833,18828.729549,-12933.814577,-207.603003,-13381.452964,-4522.540214,1383.148299,-82.142661,11567.072459,16049.446589,-916.130950,3015.384437,-17254.093856,16961.621280,2449.751192,708.527947,0.002000,-0.012000,1.002000,192.000000,0.000000,0.000000,0.000000,0.000000,0.000000,0.000000,0.000000,0.000000,0.000000,1775739715.183338,0.000000
164.000000,16784.550760,18811.138727,-12998.366415,-251.121849,-13434.359543,-4549.786991,1348.860723,-129.684821,11561.819799,16023.965600,-947.736317,3000.989914,-17293.343519,16941.795283,2624.161854,1034.461085,0.002000,-0.012000,1.002000,192.000000,0.000000,0.000000,0.000000,0.000000,0.000000,0.000000,0.000000,0.000000,0.000000,1775739715.183351,0.000000
166.000000,16824.783900,18835.591535,-12938.240223,-203.870261,-13382.168219,-4509.822072,1381.807194,-86.009513,11593.425166,16043.009286,-947.266930,3008.030714,-17292.740022,16951.250070,2618.037476,1031.980042,0.002000,-0.012000,1.002000,192.000000,0.000000,0.000000,0.000000,0.000000,0.000000,0.000000,0.000000,0.000000,0.000000,1775739715.183363,0.000000
168.000000,16799.079394,18815.452613,-12975.366470,-235.252110,-13405.257571,-4525.825921,1358.315511,-113.010420,11552.566177,16048.150188,-911.839415,3015.652658,-17248.707086,16964.705821,2433.501474,696.860337,0.002000,-0.012000,1.002000,192.000000,0.000000,0.000000,0.000000,0.000000,0.000000,0.000000,0.000000,0.000000,0.000000,1775739715.183375,0.000000
170.000000,16806.991912,18825.868526,-12968.415078,-230.245320,-13391.265379,-4513.063075,1365.780993,-111.803426,11594.453346,16029.978219,-966.265913,2996.385455,-17305.346406,16942.778759,2733.975975,1244.098096,0.002000,-0.012000,1.002000,192.000000,0.000000,8.000000,127.500000,80.000000,15.500000,40.000000,0.000000,0.000000,0.000000,1775739715.183387,0.000000
172.000000,16822.280505,18830.852965,-12932.071141,-206.150139,-13358.587129,-4496.187508,1379.326150,-89.563440,11576.706061,16055.928595,-917.114427,3014.669182,-17238.984077,16967.857417,2457.417841,736.355869,0.002000,-0.012000,1.002000,192.000000,0.000000,0.000000,0.000000,0.000000,0.000000,0.000000,0.000000,0.000000,0.000000,1775739715.183399,0.000000
174.000000,16780.460391,18805.170811,-12997.449994,-253.155858,-13414.690008,-4525.915328,1345.977348,-139.921920,11563.831456,16023.049178,-954.844171,2992.764472,-17281.340633,16945.304506,2631.023840,1060.478516,0.002000,-0.012000,1.002000,192.000000,0.000000,0.000000,0.000000,0.000000,0.000000,0.000000,0.000000,0.000000,0.000000,1775739715.183411,0.000000
176.000000,16832.942287,18848.734361,-12930.461816,-204.786683,-13357.536597,-4487.559734,1385.629342,-84.936629,11595.772099,16045.713847,-949.010366,3004.856766,-17276.557359,16957.597966,2620.317354,1039.534931,0.002000,-0.012000,1.002000,192.000000,0.000000,0.000000,0.000000,0.000000,0.000000,0.000000,0.000000,0.000000,0.000000,1775739715.183423,0.000000
178.000000,16783.790801,18801.281607,-12977.467534,-242.091744,-13413.013627,-4528.664592,1356.281502,-123.582795,11550.107485,16045.736199,-916.354467,3009.930612,-17241.822748,16963.722344,2431.467465,692.747616,0.002000,-0.012000,1.002000,192.000000,0.000000,0.000000,0.000000,0.000000,0.000000,0.000000,0.000000,0.000000,0.000000,1775739715.183435,0.000000
180.000000,16793.133830,18813.485660,-12974.070069,-235.877959,-13418.914487,-4528.351668,1365.780993,-119.291260,11574.470887,16018.064739,-975.810108,2986.796556,-17323.808947,16932.832233,2726.845768,1243.963986,0.002000,-0.008000,1.004000,192.000000,0.000000,8.000000,127.500000,96.000000,15.500000,48.000000,0.000000,0.000000,0.000000,1775739715.662134,0.000000
182.000000,16826.393226,18837.334971,-12928.070179,-200.919831,-13377.072022,-4498.869717,1387.909220,-81.337998,11562.646814,16051.994688,-920.333078,3013.350429,-17254.227967,16963.297661,2446.532541,718.250956,0.002000,-0.008000,1.004000,192.000000,0.000000,0.000000,0.000000,0.000000,0.000000,0.000000,0.000000,0.000000,0.000000,1775739715.662202,0.000000
184.000000,16775.721821,18802.712119,-12998.142898,-250.563055,-13441.042714,-4544.243758,1350.626510,-137.038545,11560.299881,16031.118158,-947.445744,3003.560365,-17286.593293,16950.065428,2616.226985,1040.607815,0.002000,-0.008000,1.004000,192.000000,0.000000,0.000000,0.000000,0.000000,0.000000,0.000000,0.000000,0.000000,0.000000,1775739715.662254,0.000000
186.000000,16815.709092,18834.563355,-12937.033229,-205.233718,-13391.533600,-4509.330333,1384.131775,-90.412806,11577.510724,16038.047199,-954.441840,3001.883984,-17297.031557,16946.936184,2618.462159,1031.130675,0.002000,-0.008000,1.004000,192.000000,0.000000,0.000000,0.000000,0.000000,0.000000,0.000000,0.000000,0.000000,0.000000,1775739715.662315,0.000000
188.000000,16799.615836,18818.783023,-12968.057450,-230.334727,-13405.749310,-4523.389581,1364.082261,-109.814121,11548.162883,16053.089923,-912.822892,3018.200757,-17244.281440,16965.823408,2434.306137,693.909907,0.002000,-0.008000,1.004000,192.000000,0.000000,0.000000,0.000000,0.000000,0.000000,0.000000,0.000000,0.000000,0.000000,1775739715.662367,0.000000
190.000000,16796.799516,18825.667361,-12966.381069,-225.082067,-13399.557877,-4513.487758,1368.709072,-108.405961,11587.792526,16032.749836,-964.477773,3004.230917,-17304.586447,16944.388085,2736.278204,1240.454762,0.004000,-0.009000,1.001000,192.000000,0.000000,24.000000,127.500000,88.000000,15.500000,24.000000,0.000000,0.000000,0.000000,1775739715.662411,0.000000
192.000000,16807.863630,18828.081349,-12931.735865,-200.741017,-13366.119667,-4500.076711,1382.343636,-89.541088,11561.529226,16057.001478,-919.930747,3019.139531,-17246.248394,16966.605719,2463.721033,729.493884,0.004000,-0.009000,1.001000,192.000000,0.000000,0.000000,0.000000,0.000000,0.000000,0.000000,0.000000,0.000000,0.000000,1775739715.662435,0.000000
194.000000,16764.009507,18803.717947,-12997.047662,-244.952767,-13411.404301,-4525.892976,1349.799496,-138.893740,11542.150264,16023.071530,-958.956892,2996.340751,-17288.336729,16943.985754,2640.925663,1055.963463,0.004000,-0.009000,1.001000,192.000000,0.000000,0.000000,0.000000,0.000000,0.000000,0.000000,0.000000,0.000000,0.000000,1775739715.662458,0.000000
196.000000,16809.540011,18829.467157,-12938.061409,-202.775026,-13360.196455,-4493.684112,1381.382511,-94.883155,11574.135610,16041.757589,-958.353395,3002.442777,-17284.603987,16954.312259,2638.802247,1046.352213,0.004000,-0.009000,1.001000,192.000000,0.000000,0.000000,0.000000,0.000000,0.000000,0.000000,0.000000,0.000000,0.000000,1775739715.662481,0.000000
198.000000,16782.673214,18804.232038,-12979.233322,-236.034421,-13394.148754,-4517.622831,1354.761583,-126.510874,11536.808197,16045.445626,-925.786904,3006.846071,-17244.303792,16961.643632,2449.728841,709.645535,0.004000,-0.009000,1.001000,192.000000,0.000000,0.000000,0.000000,0.000000,0.000000,0.000000,0.000000,0.000000,0.000000,1775739715.662504,0.000000
200.000000,16794.407880,18823.208669,-12975.277063,-229.798285,-13393.455850,-4509.464444,1361.578865,-122.979298,11578.203628,16029.262963,-979.118166,2988.763510,-17307.425118,16938.308410,2737.954585,1253.575236,0.008000,-0.010500,1.001500,192.000000,0.000000,48.000000,127.500000,80.000000,15.500000,40.000000,0.000000,0.000000,0.000000,1775739715.662526,0.000000
202.000000,16811.641075,18823.253372,-12934.798054,-203.914965,-13360.419972,-4488.453804,1378.521488,-95.151376,11562.177427,16055.012173,-927.619747,3008.030714,-17245.197862,16964.862283,2451.673442,744.313090,0.008000,-0.010500,1.001500,192.000000,0.000000,0.000000,0.000000,0.000000,0.000000,0.000000,0.000000,0.000000,0.000000,1775739715.662549,0.000000
204.000000,16771.743211,18803.583837,-12994.566619,-251.412422,-13413.326551,-4520.997944,1348.681909,-141.374784,11556.209511,16029.128853,-958.174581,2991.311609,-17278.747830,16944.633954,2626.687601,1063.697167,0.008000,-0.010500,1.001500,192.000000,0.000000,0.000000,0.000000,0.000000,0.000000,0.000000,0.000000,0.000000,0.000000,1775739715.662571,0.000000
206.000000,16815.463223,18832.484643,-12931.601755,-206.284250,-13363.705678,-4491.963028,1384.377645,-92.312705,11584.104488,16046.518510,-954.665357,2998.620629,-17277.183208,16952.211195,2617.791607,1042.127733,0.008000,-0.010500,1.001500,192.000000,0.000000,0.000000,0.000000,0.000000,0.000000,0.000000,0.000000,0.000000,0.000000,1775739715.662594,0.000000
208.000000,16793.133830,18815.072634,-12967.722174,-233.754544,-13392.293560,-4515.991153,1362.025900,-116.966679,11549.705154,16053.916938,-916.108598,3009.662391,-17233.731417,16962.805922,2434.864930,700.078988,0.008000,-0.010500,1.001500,192.000000,0.000000,0.000000,0.000000,0.000000,0.000000,0.000000,0.000000,0.000000,0.000000,1775739715.662617,0.000000
210.000000,16797.514772,18825.309733,-12969.309148,-226.400820,-13397.769737,-4509.844424,1366.071566,-115.960850,11585.669110,16037.577812,-970.982131,2996.966600,-17302.038348,16941.080027,2733.864216,1238.957195,0.010000,-0.014250,1.003750,192.000000,0.000000,48.000000,127.500000,56.000000,15.500000,56.000000,0.000000,0.000000,0.000000,1775739715.662640,0.000000
212.000000,16826.773206,18843.235832,-12928.584269,-195.197784,-13361.291690,-4485.302208,1385.808156,-81.740329,11570.402869,16074.011156,-919.170787,3025.710943,-17244.102626,16971.701917,2453.953320,729.270366,0.010000,-0.014250,1.003750,192.000000,0.000000,0.000000,0.000000,0.000000,0.000000,0.000000,0.000000,0.000000,0.000000,1775739715.662662,0.000000
214.000000,16776.414725,18809.909381,-12997.986436,-242.784648,-13417.305162,-4518.159272,1349.508923,-137.977319,11557.349450,16042.115217,-953.413660,3005.482615,-17285.140429,16950.020725,2636.678831,1051.001376,0.010000,-0.014250,1.003750,192.000000,0.000000,0.000000,0.000000,0.000000,0.000000,0.000000,0.000000,0.000000,0.000000,1775739715.662684,0.000000
216.000000,16819.799461,18842.475872,-12936.340324,-196.561241,-13360.062344,-4485.033987,1383.997665,-93.318533,11581.914017,16056.755609,-958.174581,3008.790673,-17286.660348,16957.285041,2630.666212,1044.295853,0.010000,-0.014250,1.003750,192.000000,0.000000,0.000000,0.000000,0.000000,0.000000,0.000000,0.000000,0.000000,0.000000,1775739715.662707,0.000000
218.000000,16783.835505,18809.663511,-12975.791153,-227.227834,-13383.978711,-4505.664647,1359.053118,-126.644984,11544.564252,16055.526263,-923.104694,3015.876176,-17242.783873,16966.896292,2445.951396,707.745636,0.010000,-0.014250,1.003750,192.000000,0.000000,0.000000,0.000000,0.000000,0.000000,0.000000,0.000000,0.000000,0.000000,1775739715.662742,0.000000
220.000000,16779.856894,18809.641160,-12975.992319,-229.418305,-13386.392699,-4509.486796,1359.589560,-132.925824,11571.118125,16024.792615,-986.315428,2986.863612,-17310.733177,16931.938163,2751.142115,1253.754050,0.009000,-0.014125,1.003875,192.000000,0.000000,32.000000,127.500000,72.000000,15.500000,48.000000,0.000000,0.000000,0.000000,1775739715.662765,0.000000
222.000000,16809.294141,18828.707198,-12939.380162,-201.858604,-13355.748457,-4490.823089,1374.073490,-103.443873,11560.948081,16058.879025,-932.023040,3008.276583,-17246.270746,16959.117885,2467.297312,750.526875,0.009000,-0.014125,1.003875,192.000000,0.000000,0.000000,0.000000,0.000000,0.000000,0.000000,0.000000,0.000000,0.000000,1775739715.662788,0.000000
224.000000,16770.491513,18812.166907,-13004.647255,-246.986776,-13408.386816,-4518.405142,1341.708164,-148.907322,11554.890758,16032.012228,-964.768346,2994.105577,-17285.073374,16941.750579,2635.829465,1074.850687,0.009000,-0.014125,1.003875,192.000000,0.000000,0.000000,0.000000,0.000000,0.000000,0.000000,0.000000,0.000000,0.000000,1775739715.662810,0.000000
226.000000,16815.195002,18838.430207,-12945.482188,-204.540814,-13364.756210,-4490.063130,1375.883982,-99.353504,11581.243465,16052.486426,-962.264951,3000.833452,-17287.397955,16952.390009,2625.301793,1055.359966,0.009000,-0.014125,1.003875,192.000000,0.000000,0.000000,0.000000,0.000000,0.000000,0.000000,0.000000,0.000000,0.000000,1775739715.662833,0.000000
228.000000,16790.585731,18817.374863,-12983.100174,-237.442581,-13402.307141,-4520.349743,1354.023976,-122.554615,11545.324212,16059.013135,-922.031811,3010.668219,-17246.874243,16961.241300,2437.837713,711.880709,0.009000,-0.014125,1.003875,192.000000,0.000000,0.000000,0.000000,0.000000,0.000000,0.000000,0.000000,0.000000,0.000000,1775739715.662855,0.000000
230.000000,16806.187249,18835.971515,-12975.835857,-227.987793,-13404.788185,-4517.466368,1364.663406,-115.402057,11581.556390,16035.812025,-973.776099,2994.776129,-17316.432871,16933.771006,2733.148960,1242.533474,0.010500,-0.018063,1.005937,192.000000,0.000000,48.000000,127.500000,40.000000,15.500000,64.000000,0.000000,0.000000,0.000000,1775739715.662887,0.000000
232.000000,16838.060837,18857.384486,-12929.590098,-195.913040,-13369.248911,-4495.785176,1385.964618,-78.722844,11577.309558,16079.464981,-910.967697,3029.108409,-17246.047228,16971.500751,2448.812419,729.158608,0.010500,-0.018063,1.005937,192.000000,0.000000,0.000000,0.000000,0.000000,0.000000,0.000000,0.000000,0.000000,0.000000,1775739715.662910,0.000000
234.000000,16801.828659,18835.300962,-12989.783345,-238.113134,-13421.574345,-4529.133979,1355.745060,-121.101751,11568.145343,16050.899452,-940.069668,3015.607955,-17281.497095,16951.630050,2629.526273,1047.760373,0.010500,-0.018063,1.005937,192.000000,0.000000,0.000000,0.000000,0.000000,0.000000,0.000000,0.000000,0.000000,0.000000,1775739715.662933,0.000000
236.000000,16842.419427,18862.838312,-12931.110016,-190.190994,-13372.333452,-4494.645237,1389.227973,-71.816155,11600.533021,16071.530112,-936.448686,3028.147284,-17276.535008,16965.085800,2617.791607,1032.181207,0.010500,-0.018063,1.005937,192.000000,0.000000,0.000000,0.000000,0.000000,0.000000,0.000000,0.000000,0.000000,0.000000,1775739715.662954,0.000000
