Sample_index,EXG Channel 0,EXG Channel 1,EXG Channel 2,EXG Channel 3,EXG Channel 4,EXG Channel 5,EXG Channel 6,EXG Channel 7,EXG Channel 8,EXG Channel 9,EXG Channel 10,EXG Channel 11,EXG Channel 12,EXG Channel 13,EXG Channel 14,EXG Channel 15,Accel Channel 0,Accel Channel 1,Accel Channel 2,Not Used,Digital Channel 0 (D11),Digital Channel 1 (D12),Digital Channel 2 (D13),Digital Channel 3 (D17),Not Used,Digital Channel 4 (D18),Analog Channel 0,Analog Channel 1,Analog Channel 2,Timestamp,Marker Channel
88.000000,17058.314926,19319.842079,-10895.223724,543.169742,-10699.020111,-6805.279172,1260.169001,1208.961154,11210.875059,16380.319462,-137.507932,2689.093672,-15015.589001,18634.090559,3422.029724,3355.354471,0.004000,-0.022000,1.004000,192.000000,0.000000,0.000000,0.000000,0.000000,0.000000,0.000000,0.000000,0.000000,0.000000,1775741452.762127,101.000000
90.000000,17094.301235,19346.239489,-10838.785570,592.120062,-10648.594576,-6763.637872,1301.206803,1252.211780,11226.476577,16378.128991,-160.798450,2687.663160,-15039.371257,18629.150823,3681.332312,3682.807527,0.004000,-0.022000,1.004000,192.000000,0.000000,0.000000,0.000000,0.000000,0.000000,0.000000,0.000000,0.000000,0.000000,1775741452.762190,0.000000
92.000000,17042.132263,19309.314407,-10867.060526,565.610893,-10674.768469,-6788.023625,1276.463422,1221.098151,11199.028635,16396.636235,-115.156187,2697.117948,-14985.347090,18656.665821,3042.295938,2873.406157,0.004000,-0.022000,1.004000,192.000000,0.000000,0.000000,0.000000,0.000000,0.000000,0.000000,0.000000,0.000000,0.000000,1775741452.762229,0.000000
94.000000,17037.840729,19307.168640,-10881.566808,555.194981,-10685.564361,-6792.829250,1271.166059,1207.351828,11191.898428,16346.948307,-187.039398,2660.326977,-15064.181693,18607.715500,3824.763456,3855.631215,0.002000,-0.018000,0.998000,192.000000,0.000000,8.000000,127.500000,56.000000,15.500000,24.000000,0.000000,0.000000,0.000000,1775741452.762271,0.000000
96.000000,17064.506360,19307.012177,-10822.737017,597.484481,-10632.255451,-6758.273454,1306.995905,1252.658815,11208.326961,16385.907398,-132.277624,2687.283181,-15001.038015,18646.071094,3241.740554,3125.802055,0.002000,-0.018000,0.998000,192.000000,0.000000,0.000000,0.000000,0.000000,0.000000,0.000000,0.000000,0.000000,0.000000,1775741452.762313,0.000000
98.000000,16995.305359,19261.928709,-10897.548306,535.994832,-10700.987065,-6808.453120,1255.922169,1186.318837,11174.642882,16346.277755,-159.747918,2662.405689,-15028.083626,18617.617323,3400.057960,3326.364258,0.002000,-0.018000,0.998000,192.000000,0.000000,0.000000,0.000000,0.000000,0.000000,0.000000,0.000000,0.000000,0.000000,1775741452.762355,0.000000
100.000000,17039.494758,19303.592360,-10838.293831,588.074397,-10644.504207,-6763.950797,1299.798644,1236.789076,11195.988798,16350.546938,-175.640008,2664.640863,-15046.121484,18614.488079,3654.577274,3654.711384,0.002000,-0.018000,0.998000,192.000000,0.000000,0.000000,0.000000,0.000000,0.000000,0.000000,0.000000,0.000000,0.000000,1775741452.762398,0.000000
102.000000,17017.210068,19272.814008,-10865.652366,563.576885,-10667.928835,-6783.910904,1275.479946,1213.789131,11175.067565,16381.057069,-124.052182,2681.561134,-14983.983634,18648.306268,3006.622554,2841.890197,0.002000,-0.018000,0.998000,192.000000,0.000000,0.000000,0.000000,0.000000,0.000000,0.000000,0.000000,0.000000,0.000000,1775741452.762412,0.000000
104.000000,17011.398615,19275.049183,-10879.935131,557.228989,-10678.724727,-6787.509535,1271.791908,1207.396532,11170.887789,16336.510043,-191.353284,2653.263826,-15062.572367,18599.668872,3791.459357,3825.277546,0.004000,-0.014000,1.002000,192.000000,0.000000,16.000000,127.500000,72.000000,15.500000,40.000000,0.000000,0.000000,0.000000,1775741452.762423,0.000000
106.000000,17056.549139,19306.565142,-10824.145177,602.804196,-10620.721951,-6740.660279,1307.666458,1254.469306,11188.813888,16387.606131,-135.250406,2686.612628,-14997.104108,18646.026390,3223.859158,3104.523194,0.004000,-0.014000,1.002000,192.000000,0.000000,0.000000,0.000000,0.000000,0.000000,0.000000,0.000000,0.000000,0.000000,1775741452.762455,0.000000
108.000000,17000.647426,19261.168749,-10899.805832,543.192094,-10687.307797,-6790.616428,1256.346852,1191.415035,11166.596254,16361.700459,-160.820801,2668.395957,-15018.159451,18626.379207,3385.752843,3303.341961,0.004000,-0.014000,1.002000,192.000000,0.000000,0.000000,0.000000,0.000000,0.000000,0.000000,0.000000,0.000000,0.000000,1775741452.762468,0.000000
110.000000,17030.598763,19309.806145,-10840.596061,591.673027,-10636.055247,-6750.092715,1299.955106,1239.940672,11187.629245,16364.740296,-174.365958,2669.781765,-15032.553975,18620.455995,3658.064146,3647.044736,0.004000,-0.014000,1.002000,192.000000,0.000000,0.000000,0.000000,0.000000,0.000000,0.000000,0.000000,0.000000,0.000000,1775741452.762479,0.000000
112.000000,17000.960350,19268.030735,-10865.428849,565.745004,-10657.736439,-6775.104317,1276.664588,1217.298355,11167.222103,16387.516724,-124.096885,2684.824489,-14971.556064,18647.278088,3017.753722,2829.999069,0.004000,-0.014000,1.002000,192.000000,0.000000,0.000000,0.000000,0.000000,0.000000,0.000000,0.000000,0.000000,0.000000,1775741452.762490,0.000000
114.000000,16996.378243,19264.208587,-10879.845724,556.424326,-10671.147486,-6778.680596,1270.875486,1205.027247,11165.076335,16341.360371,-191.487395,2656.258959,-15067.847379,18600.004148,3799.282467,3813.386418,0.006000,-0.012000,1.000000,192.000000,0.000000,24.000000,127.500000,80.000000,15.500000,32.000000,0.000000,0.000000,0.000000,1775741452.762500,0.000000
116.000000,17035.985534,19289.153134,-10824.234584,602.155996,-10622.174814,-6741.017907,1305.766559,1250.267178,11182.086013,16390.176581,-138.804333,2685.785614,-15003.653169,18642.718332,3231.257585,3104.567898,0.006000,-0.012000,1.000000,192.000000,0.000000,0.000000,0.000000,0.000000,0.000000,0.000000,0.000000,0.000000,0.000000,1775741452.762511,0.000000
118.000000,16972.774800,19246.908337,-10903.382111,539.213483,-10691.375815,-6794.706797,1250.468344,1181.468508,11150.145370,16360.202892,-161.603112,2663.478573,-15029.536489,18622.758224,3385.216401,3296.882307,0.006000,-0.012000,1.000000,192.000000,0.000000,0.000000,0.000000,0.000000,0.000000,0.000000,0.000000,0.000000,0.000000,1775741452.762522,0.000000
120.000000,17031.202260,19298.362052,-10840.551357,593.751740,-10629.819111,-6743.498950,1297.764635,1235.783247,11176.296911,16368.115409,-180.535040,2664.596160,-15049.273080,18621.104195,3673.151573,3655.985434,0.006000,-0.012000,1.000000,192.000000,0.000000,0.000000,0.000000,0.000000,0.000000,0.000000,0.000000,0.000000,0.000000,1775741452.762532,0.000000
122.000000,16992.198466,19254.954965,-10869.161590,567.220219,-10656.104762,-6767.705890,1271.970722,1209.989334,11169.054946,16392.054128,-125.259176,2686.590277,-14981.636701,18652.575451,3032.148246,2844.237130,0.006000,-0.012000,1.000000,192.000000,0.000000,0.000000,0.000000,0.000000,0.000000,0.000000,0.000000,0.000000,0.000000,1775741452.762542,0.000000
124.000000,16983.324824,19253.435046,-10884.964274,558.950074,-10673.226198,-6774.836096,1267.992111,1201.696837,11156.225044,16340.689819,-197.857642,2652.749735,-15067.377993,18600.786460,3819.220223,3830.083171,0.006000,-0.010000,1.004000,192.000000,0.000000,24.000000,127.500000,88.000000,15.500000,48.000000,0.000000,0.000000,0.000000,1775741452.762553,0.000000
126.000000,17028.296534,19287.700270,-10827.855566,600.144339,-10621.168986,-6738.469808,1302.838481,1250.200123,11180.655501,16392.009424,-135.496275,2687.439643,-15000.255704,18646.115797,3262.952359,3130.652384,0.006000,-0.010000,1.004000,192.000000,0.000000,0.000000,0.000000,0.000000,0.000000,0.000000,0.000000,0.000000,0.000000,1775741452.762563,0.000000
128.000000,16978.608606,19248.540014,-10896.296608,540.733402,-10686.681949,-6786.548410,1255.363376,1190.990352,11156.694431,16362.281604,-158.630330,2667.054852,-15023.099187,18623.495832,3417.425265,3314.495482,0.006000,-0.010000,1.004000,192.000000,0.000000,0.000000,0.000000,0.000000,0.000000,0.000000,0.000000,0.000000,0.000000,1775741452.762573,0.000000
130.000000,17022.887411,19282.760535,-10837.936203,588.074397,-10633.395390,-6748.438686,1294.791853,1235.582082,11181.013129,16363.801523,-171.594342,2668.999454,-15038.700704,18614.733948,3708.981420,3680.684111,0.006000,-0.010000,1.004000,192.000000,0.000000,0.000000,0.000000,0.000000,0.000000,0.000000,0.000000,0.000000,0.000000,1775741452.762583,0.000000
132.000000,16994.165420,19255.893738,-10862.925454,567.309626,-10650.762695,-6765.560122,1272.641274,1211.598660,11170.105478,16388.209628,-124.298051,2686.769091,-14978.798029,18644.238251,3062.770136,2869.539305,0.006000,-0.010000,1.004000,192.000000,0.000000,0.000000,0.000000,0.000000,0.000000,0.000000,0.000000,0.000000,0.000000,1775741452.762594,0.000000
134.000000,16979.927359,19255.111427,-10882.706747,553.272731,-10665.984233,-6773.070308,1264.482887,1193.359636,11161.254187,16342.075627,-195.644819,2652.459163,-15055.509216,18596.204352,3846.198779,3853.708965,0.006000,-0.009000,1.004000,192.000000,0.000000,24.000000,127.500000,96.000000,15.500000,48.000000,0.000000,0.000000,0.000000,1775741452.762604,0.000000
136.000000,17014.572563,19277.262005,-10830.448369,592.053007,-10619.291439,-6743.789523,1298.345780,1235.425620,11181.750736,16377.480790,-149.309653,2676.531992,-14997.081756,18631.140129,3295.787072,3162.593026,0.006000,-0.009000,1.004000,192.000000,0.000000,0.000000,0.000000,0.000000,0.000000,0.000000,0.000000,0.000000,0.000000,1775741452.762615,0.000000
138.000000,16959.900196,19236.872403,-10905.840803,533.111457,-10688.492440,-6792.449271,1248.523742,1173.041901,11145.116227,16341.762703,-173.203668,2652.101535,-15027.413073,18604.183925,3433.093838,3338.501255,0.006000,-0.009000,1.004000,192.000000,0.000000,0.000000,0.000000,0.000000,0.000000,0.000000,0.000000,0.000000,0.000000,1775741452.762625,0.000000
140.000000,17009.945751,19265.817912,-10849.045020,582.441757,-10637.552814,-6750.875026,1289.740359,1222.886291,11173.547646,16351.262194,-183.440767,2659.008224,-15042.925184,18603.580428,3715.865757,3711.238946,0.006000,-0.009000,1.004000,192.000000,0.000000,0.000000,0.000000,0.000000,0.000000,0.000000,0.000000,0.000000,0.000000,1775741452.762636,0.000000
142.000000,16968.103286,19240.247517,-10874.526009,557.072527,-10661.446829,-6776.043090,1266.561600,1197.472357,11153.431076,16374.329194,-138.781981,2671.838125,-14992.119669,18627.317980,3080.070386,2892.293381,0.006000,-0.009000,1.004000,192.000000,0.000000,0.000000,0.000000,0.000000,0.000000,0.000000,0.000000,0.000000,0.000000,1775741452.762646,0.000000
144.000000,16958.760257,19242.192118,-10896.028387,546.433097,-10681.809268,-6786.324893,1259.207876,1183.524869,11147.440809,16321.444967,-209.011162,2636.947052,-15074.441144,18576.356003,3863.431974,3876.016006,0.005000,-0.010500,1.001000,192.000000,0.000000,16.000000,127.500000,80.000000,15.500000,24.000000,0.000000,0.000000,0.000000,1775741452.762664,0.000000
146.000000,17003.799022,19268.611880,-10836.595099,592.924725,-10628.790930,-6745.600014,1296.892917,1232.475189,11166.082164,16370.842322,-152.684766,2672.441622,-15013.979675,18623.540535,3312.953211,3189.169251,0.005000,-0.010500,1.001000,192.000000,0.000000,0.000000,0.000000,0.000000,0.000000,0.000000,0.000000,0.000000,0.000000,1775741452.762674,0.000000
148.000000,16951.138312,19239.219336,-10911.518146,531.546835,-10694.750928,-6796.293771,1245.327442,1171.231409,11134.700314,16342.165034,-174.768290,2656.884808,-15025.557879,18601.568771,3445.499056,3353.432221,0.005000,-0.010500,1.001000,192.000000,0.000000,0.000000,0.000000,0.000000,0.000000,0.000000,0.000000,0.000000,0.000000,1775741452.762685,0.000000
150.000000,17007.531763,19262.532206,-10850.564939,582.955847,-10638.268070,-6748.617500,1290.254449,1226.484922,11169.233760,16352.513892,-185.675941,2661.086936,-15061.678298,18599.668872,3744.520693,3731.556682,0.005000,-0.010500,1.001000,192.000000,0.000000,0.000000,0.000000,0.000000,0.000000,0.000000,0.000000,0.000000,0.000000,1775741452.762695,0.000000
152.000000,16990.075051,19252.026886,-10868.915721,564.895638,-10651.634413,-6759.346337,1272.283646,1211.576308,11167.669137,16377.346680,-131.540016,2683.975122,-14994.198381,18634.001152,3096.655380,2919.227233,0.005000,-0.010500,1.001000,192.000000,0.000000,0.000000,0.000000,0.000000,0.000000,0.000000,0.000000,0.000000,0.000000,1775741452.762705,0.000000
154.000000,16977.915702,19238.414674,-10893.033253,549.294120,-10672.287425,-6770.835134,1259.654911,1189.381026,11159.510751,16329.960982,-193.990790,2653.219122,-15068.540283,18587.420116,3873.154983,3898.635971,0.004500,-0.013250,1.000500,192.000000,0.000000,16.000000,127.500000,64.000000,15.500000,32.000000,0.000000,0.000000,0.000000,1775741452.762716,0.000000
156.000000,17009.454013,19264.141531,-10840.841930,592.053007,-10626.667515,-6739.632099,1294.255411,1230.485884,11166.372736,16368.271872,-155.121107,2674.028596,-15016.103091,18622.557059,3333.114485,3221.802798,0.004500,-0.013250,1.000500,192.000000,0.000000,0.000000,0.000000,0.000000,0.000000,0.000000,0.000000,0.000000,0.000000,1775741452.762726,0.000000
158.000000,16932.675771,19211.480822,-10916.480233,528.663460,-10700.383568,-6797.053730,1243.561655,1167.565723,11131.883995,16330.408016,-177.271685,2649.754602,-15044.422751,18592.404555,3461.234684,3373.459384,0.004500,-0.013250,1.000500,192.000000,0.000000,0.000000,0.000000,0.000000,0.000000,0.000000,0.000000,0.000000,0.000000,1775741452.762736,0.000000
160.000000,16988.868056,19259.313555,-10861.897273,577.166745,-10654.942471,-6755.367727,1285.627638,1217.544224,11154.392201,16333.112578,-194.638991,2652.325052,-15070.171961,18583.687375,3769.152316,3762.156220,0.004500,-0.013250,1.000500,192.000000,0.000000,0.000000,0.000000,0.000000,0.000000,0.000000,0.000000,0.000000,0.000000,1775741452.762746,0.000000
162.000000,16969.377335,19225.718883,-10886.327730,554.390318,-10676.198980,-6774.947855,1263.410004,1196.310067,11136.823730,16360.292299,-147.186237,2668.775936,-15017.511251,18612.834050,3118.537738,2937.578015,0.004500,-0.013250,1.000500,192.000000,0.000000,0.000000,0.000000,0.000000,0.000000,0.000000,0.000000,0.000000,0.000000,1775741452.762756,0.000000
164.000000,16956.390972,19232.558517,-10903.248001,540.062850,-10693.745100,-6786.414300,1255.653948,1184.217773,11132.152215,16319.075682,-216.476645,2639.182227,-15091.540228,18567.348250,3885.269628,3891.215192,0.007250,-0.016625,1.002250,192.000000,0.000000,40.000000,127.500000,48.000000,15.500000,48.000000,0.000000,0.000000,0.000000,1775741452.762766,0.000000
166.000000,16998.613417,19254.016191,-10842.093628,589.527260,-10640.994983,-6749.332756,1296.557641,1235.626785,11146.189111,16357.073648,-157.713909,2668.686529,-15032.956306,18603.021634,3347.397250,3206.178928,0.007250,-0.016625,1.002250,192.000000,0.000000,0.000000,0.000000,0.000000,0.000000,0.000000,0.000000,0.000000,0.000000,1775741452.762778,0.000000
168.000000,16956.949765,19224.400130,-10914.692094,537.380640,-10701.523507,-6792.382216,1248.143762,1179.009817,11125.491396,16340.667467,-174.097738,2660.282273,-15049.787170,18591.823410,3455.244417,3344.960909,0.007250,-0.016625,1.002250,192.000000,0.000000,0.000000,0.000000,0.000000,0.000000,0.000000,0.000000,0.000000,0.000000,1775741452.762788,0.000000
170.000000,16998.322844,19256.944270,-10855.907006,583.067606,-10648.527521,-6752.551407,1289.896821,1224.607375,11152.179379,16344.444912,-191.375636,2660.818715,-15068.294414,18586.950730,3760.233970,3739.692717,0.007250,-0.016625,1.002250,192.000000,0.000000,0.000000,0.000000,0.000000,0.000000,0.000000,0.000000,0.000000,0.000000,1775741452.762798,0.000000
172.000000,16980.776725,19235.665409,-10874.950692,565.923818,-10662.698527,-6764.084907,1272.440108,1206.614221,11143.283384,16357.654793,-138.647871,2672.866305,-15003.429652,18615.091576,3104.389084,2913.952221,0.007250,-0.016625,1.002250,192.000000,0.000000,0.000000,0.000000,0.000000,0.000000,0.000000,0.000000,0.000000,0.000000,1775741452.762808,0.000000
174.000000,16966.292795,19237.207679,-10897.727120,552.579826,-10684.491478,-6776.244256,1260.347815,1189.112805,11143.037515,16319.008627,-206.083084,2646.714764,-15079.291472,18573.226759,3874.227866,3882.632122,0.006625,-0.018313,1.000125,192.000000,0.000000,24.000000,127.500000,48.000000,15.500000,24.000000,0.000000,0.000000,0.000000,1775741452.762818,0.000000
176.000000,17013.611438,19263.292165,-10839.187901,597.015094,-10636.144654,-6741.889625,1297.474062,1236.587910,11158.639033,16361.275776,-157.244522,2673.782727,-15025.222603,18611.604704,3345.296186,3219.098236,0.006625,-0.018313,1.000125,192.000000,0.000000,0.000000,0.000000,0.000000,0.000000,0.000000,0.000000,0.000000,0.000000,1775741452.762829,0.000000
178.000000,16951.361829,19211.346711,-10915.943791,528.797570,-10711.939420,-6801.412320,1243.159323,1168.973883,11131.325201,16326.541165,-175.103566,2653.666157,-15044.668620,18584.872017,3451.958710,3349.811238,0.006625,-0.018313,1.000125,192.000000,0.000000,0.000000,0.000000,0.000000,0.000000,0.000000,0.000000,0.000000,0.000000,1775741452.762839,0.000000
180.000000,16995.305359,19250.216395,-10856.219930,574.931571,-10659.837503,-6764.375480,1283.772443,1215.085532,11154.481608,16320.439138,-197.768235,2647.161799,-15067.646213,18567.460009,3768.749984,3749.885112,0.006625,-0.018313,1.000125,192.000000,0.000000,0.000000,0.000000,0.000000,0.000000,0.000000,0.000000,0.000000,0.000000,1775741452.762849,0.000000
182.000000,16976.395783,19236.961810,-10873.654291,559.084184,-10677.338919,-6780.558143,1268.394443,1198.835814,11152.380544,16353.206796,-139.743106,2672.374567,-14999.249875,18604.429794,3111.273421,2916.455617,0.006625,-0.018313,1.000125,192.000000,0.000000,0.000000,0.000000,0.000000,0.000000,0.000000,0.000000,0.000000,0.000000,1775741452.762860,0.000000
184.000000,16966.292795,19233.676104,-10897.749471,546.969539,-10697.902524,-6788.381253,1257.106812,1182.854317,11137.538986,16308.324493,-212.743904,2640.657442,-15084.633539,18557.468779,3878.899381,3878.608808,0.010313,-0.017156,1.002063,192.000000,0.000000,56.000000,127.500000,64.000000,15.500000,48.000000,0.000000,0.000000,0.000000,1775741452.762870,0.000000
186.000000,17016.763033,19260.431142,-10834.806959,596.724522,-10638.156311,-6744.661241,1298.412835,1235.447971,11172.698280,16362.415715,-154.294092,2677.157840,-15016.237201,18608.050776,3355.533285,3216.237213,0.010313,-0.017156,1.002063,192.000000,0.000000,0.000000,0.000000,0.000000,0.000000,0.000000,0.000000,0.000000,0.000000,1775741452.762880,0.000000
188.000000,16970.383164,19217.493441,-10908.970047,536.240701,-10699.936533,-6792.046939,1245.886236,1172.818383,11143.618660,16329.066912,-175.304732,2657.153029,-15035.794978,18583.575616,3460.899408,3339.127104,0.010313,-0.017156,1.002063,192.000000,0.000000,0.000000,0.000000,0.000000,0.000000,0.000000,0.000000,0.000000,0.000000,1775741452.762890,0.000000
190.000000,17005.006016,19252.295107,-10849.089724,586.375664,-10642.336088,-6746.896416,1289.852117,1226.283756,11181.348405,16332.464377,-187.709950,2664.752622,-15051.195330,18581.832180,3784.016226,3752.500266,0.010313,-0.017156,1.002063,192.000000,0.000000,0.000000,0.000000,0.000000,0.000000,0.000000,0.000000,0.000000,0.000000,1775741452.762901,0.000000
192.000000,17003.933132,19252.138645,-10866.434677,571.176478,-10655.344803,-6759.256930,1273.870620,1215.867843,11173.078260,16364.695592,-126.488522,2687.461995,-14987.179933,18618.600800,3121.264651,2922.200015,0.010313,-0.017156,1.002063,192.000000,0.000000,0.000000,0.000000,0.000000,0.000000,0.000000,0.000000,0.000000,0.000000,1775741452.762911,0.000000
194.000000,16989.248036,19243.153243,-10885.791288,556.133754,-10673.919102,-6768.264683,1264.348777,1197.919392,11169.323167,16322.942534,-189.363979,2659.321148,-15062.885292,18578.524122,3881.916867,3887.191878,0.010156,-0.016578,1.003031,192.000000,0.000000,40.000000,127.500000,64.000000,15.500000,48.000000,0.000000,0.000000,0.000000,1775741452.762922,0.000000
196.000000,17029.056493,19269.729468,-10827.833215,594.444644,-10624.834672,-6734.401790,1296.177661,1241.214721,11184.768222,16353.273851,-141.240673,2678.588352,-15003.921390,18609.190715,3355.488581,3227.904824,0.010156,-0.016578,1.003031,192.000000,0.000000,0.000000,0.000000,0.000000,0.000000,0.000000,0.000000,0.000000,0.000000,1775741452.762932,0.000000
198.000000,16971.031364,19221.382644,-10902.555096,531.658594,-10697.544896,-6793.231582,1245.170980,1175.925276,11155.621547,16328.217546,-162.474830,2658.337672,-15020.215812,18585.877846,3442.302757,3333.986203,0.010156,-0.016578,1.003031,192.000000,0.000000,0.000000,0.000000,0.000000,0.000000,0.000000,0.000000,0.000000,0.000000,1775741452.762942,0.000000
200.000000,17021.054568,19264.208587,-10849.603814,575.222144,-10653.266091,-6761.223884,1285.761748,1220.338192,11179.984949,16320.148566,-190.861546,2651.967424,-15043.528681,18570.030459,3760.837467,3742.844313,0.010156,-0.016578,1.003031,192.000000,0.000000,0.000000,0.000000,0.000000,0.000000,0.000000,0.000000,0.000000,0.000000,1775741452.762953,0.000000
202.000000,16980.441449,19227.730540,-10870.167419,554.569132,-10673.963806,-6783.218000,1269.489678,1201.361561,11170.820733,16343.886118,-136.546807,2665.177305,-14998.556971,18598.461878,3091.447424,2899.244773,0.010156,-0.016578,1.003031,192.000000,0.000000,0.000000,0.000000,0.000000,0.000000,0.000000,0.000000,0.000000,0.000000,1775741452.762963,0.000000
204.000000,16966.985699,19218.633380,-10894.799041,537.000661,-10693.186306,-6795.556163,1255.452783,1180.842660,11149.340707,16279.960129,-202.976191,2630.934433,-15074.038812,18539.721494,3851.697308,3858.067555,0.010156,-0.016578,1.003031,192.000000,0.000000,0.000000,0.000000,0.000000,0.000000,0.000000,0.000000,0.000000,0.000000,1775741452.762973,0.000000
206.000000,17021.121624,19257.346601,-10830.783645,588.923763,-10632.300154,-6750.897378,1294.121300,1233.682183,11182.555399,16329.290429,-150.360185,2659.611721,-15010.693969,18582.815657,3332.466284,3204.301382,0.008000,-0.014000,1.004000,192.000000,0.000000,32.000000,127.500000,72.000000,15.500000,48.000000,0.000000,0.000000,0.000000,1775741452.762984,0.000000
208.000000,16960.503693,19211.056138,-10907.673646,529.915158,-10699.847126,-6799.802995,1242.131143,1169.286808,11162.014146,16317.041673,-167.481621,2648.659366,-15028.485957,18572.377392,3422.677925,3313.310839,0.008000,-0.014000,1.004000,192.000000,0.000000,0.000000,0.000000,0.000000,0.000000,0.000000,0.000000,0.000000,0.000000,1775741453.242998,0.000000
210.000000,16993.181943,19245.209604,-10849.112075,578.552553,-10647.298175,-6759.703965,1288.220440,1219.287660,11183.203600,16314.828851,-190.146290,2647.295910,-15053.609318,18564.978965,3756.255359,3739.603310,0.008000,-0.014000,1.004000,192.000000,0.000000,0.000000,0.000000,0.000000,0.000000,0.000000,0.000000,0.000000,0.000000,1775741453.243062,0.000000
212.000000,16978.072164,19217.649903,-10866.993471,558.637149,-10663.056155,-6776.132497,1271.501335,1202.635610,11163.444658,16328.619877,-138.402002,2659.321148,-14993.617236,18592.315148,3092.252087,2897.926020,0.008000,-0.014000,1.004000,192.000000,0.000000,0.000000,0.000000,0.000000,0.000000,0.000000,0.000000,0.000000,0.000000,1775741453.243108,0.000000
214.000000,16981.089649,19230.122176,-10882.147954,547.438925,-10672.265073,-6777.384195,1263.834687,1193.180823,11165.813943,16283.804629,-199.064636,2633.884863,-15063.645251,18545.242375,3858.000500,3862.537904,0.008000,-0.014000,1.004000,192.000000,0.000000,0.000000,0.000000,0.000000,0.000000,0.000000,0.000000,0.000000,0.000000,1775741453.243157,0.000000
216.000000,17026.463691,19265.192063,-10821.619430,595.182251,-10618.732645,-6736.547558,1301.609135,1242.533474,11201.353216,16339.147549,-140.078383,2670.094689,-14995.561838,18590.392898,3343.709212,3213.331486,0.006000,-0.014000,1.002000,192.000000,0.000000,24.000000,127.500000,72.000000,15.500000,40.000000,0.000000,0.000000,0.000000,1775741453.243212,0.000000
218.000000,16963.945861,19215.660598,-10902.577448,529.311660,-10695.712053,-6795.757329,1246.936768,1173.287770,11168.317338,16312.683083,-160.083194,2649.821657,-15019.992294,18568.599948,3414.318373,3316.238918,0.006000,-0.014000,1.002000,192.000000,0.000000,0.000000,0.000000,0.000000,0.000000,0.000000,0.000000,0.000000,0.000000,1775741453.243258,0.000000
220.000000,16999.842763,19242.236822,-10849.939090,563.085146,-10654.048402,-6769.806954,1282.319579,1214.102055,11186.556362,16301.462507,-185.340665,2639.137523,-15052.201158,18548.081046,3753.282577,3747.627586,0.006000,-0.014000,1.002000,192.000000,0.000000,0.000000,0.000000,0.000000,0.000000,0.000000,0.000000,0.000000,0.000000,1775741453.243294,0.000000
222.000000,16983.056603,19217.359330,-10865.115924,544.577902,-10671.281597,-6790.370559,1268.372091,1202.792073,11168.160876,16315.521755,-135.205702,2651.632148,-14997.014701,18568.823465,3081.724415,2886.548982,0.006000,-0.014000,1.002000,192.000000,0.000000,0.000000,0.000000,0.000000,0.000000,0.000000,0.000000,0.000000,0.000000,1775741453.243309,0.000000
224.000000,16968.393858,19217.560496,-10886.953579,530.518655,-10693.298065,-6801.144099,1262.247713,1186.385892,11157.834370,16257.295460,-204.071427,2620.004430,-15077.570388,18512.653531,3843.002479,3842.443686,0.006000,-0.014000,1.002000,192.000000,0.000000,0.000000,0.000000,0.000000,0.000000,0.000000,0.000000,0.000000,0.000000,1775741453.243321,0.000000
226.000000,17007.464708,19236.268906,-10827.207366,573.411652,-10639.229195,-6766.834172,1296.915269,1233.212797,11179.426155,16294.064080,-151.075441,2644.367831,-15017.108919,18548.505729,3328.532377,3196.120643,0.008000,-0.012000,1.000000,192.000000,0.000000,32.000000,127.500000,80.000000,15.500000,32.000000,0.000000,0.000000,0.000000,1775741453.243333,0.000000
228.000000,16960.324879,19197.667443,-10903.717387,512.324335,-10706.686760,-6817.729094,1243.449896,1169.912657,11162.572940,16281.323586,-164.642950,2633.638994,-15029.894117,18532.568935,3403.097797,3284.074758,0.008000,-0.012000,1.000000,192.000000,0.000000,0.000000,0.000000,0.000000,0.000000,0.000000,0.000000,0.000000,0.000000,1775741453.243347,0.000000
230.000000,17001.988530,19237.319438,-10845.535796,560.447640,-10656.842370,-6779.060576,1287.214611,1223.467436,11188.009225,16278.171990,-186.994694,2632.990793,-15054.905719,18523.829403,3753.528446,3725.007620,0.008000,-0.012000,1.000000,192.000000,0.000000,0.000000,0.000000,0.000000,0.000000,0.000000,0.000000,0.000000,0.000000,1775741453.243359,0.000000
232.000000,16994.366586,19223.282543,-10862.254901,546.544855,-10672.622701,-6795.936143,1272.238943,1212.716247,11183.248303,16299.517906,-123.694554,2653.196770,-14988.141058,18555.345363,3079.645703,2874.680206,0.008000,-0.012000,1.000000,192.000000,0.000000,0.000000,0.000000,0.000000,0.000000,0.000000,0.000000,0.000000,0.000000,1775741453.243370,0.000000
234.000000,16996.512353,19238.995819,-10884.360776,539.906387,-10693.432175,-6802.664018,1265.153440,1203.082645,11186.288141,16262.816341,-183.999560,2632.476703,-15057.856149,18514.419319,3846.489352,3841.504913,0.008000,-0.012000,1.000000,192.000000,0.000000,0.000000,0.000000,0.000000,0.000000,0.000000,0.000000,0.000000,0.000000,1775741453.243383,0.000000
236.000000,17043.071037,19273.998651,-10821.574726,595.696341,-10634.960012,-6757.938177,1307.532347,1254.581065,11210.383321,16323.724845,-129.506007,2673.358044,-14998.758137,18564.867206,3339.887063,3205.821300,0.006000,-0.018000,1.006000,192.000000,0.000000,24.000000,127.500000,56.000000,15.500000,56.000000,0.000000,0.000000,0.000000,1775741453.243394,0.000000
238.000000,16981.871960,19225.718883,-10897.995341,530.898634,-10701.411748,-6806.553222,1251.720041,1184.508346,11178.241513,16302.133060,-149.264949,2652.839142,-15020.841661,18544.795340,3416.307678,3290.199136,0.006000,-0.018000,1.006000,192.000000,0.000000,0.000000,0.000000,0.000000,0.000000,0.000000,0.000000,0.000000,0.000000,1775741453.243406,0.000000
240.000000,17024.586144,19254.217357,-10838.606756,574.261019,-10650.494474,-6769.471677,1292.891955,1230.597643,11205.130661,16297.550952,-172.734281,2647.854703,-15043.260460,18535.653476,3777.847144,3744.408935,0.006000,-0.018000,1.006000,192.000000,0.000000,0.000000,0.000000,0.000000,0.000000,0.000000,0.000000,0.000000,0.000000,1775741453.243417,0.000000
242.000000,17001.742661,19231.575040,-10855.974061,554.770297,-10669.404050,-6788.224791,1274.809393,1213.900890,11184.790574,16311.565496,-119.157150,2663.009186,-14979.401526,18563.906081,3099.583459,2887.018369,0.006000,-0.018000,1.006000,192.000000,0.000000,0.000000,0.000000,0.000000,0.000000,0.000000,0.000000,0.000000,0.000000,1775741453.243429,0.000000
244.000000,16993.137240,19237.230031,-10882.773803,537.157123,-10694.773280,-6800.719416,1261.912437,1195.058369,11180.052004,16263.643356,-186.145328,2632.432000,-15070.484885,18514.262857,3861.353262,3851.630253,0.006000,-0.018000,1.006000,192.000000,0.000000,0.000000,0.000000,0.000000,0.000000,0.000000,0.000000,0.000000,0.000000,1775741453.243441,0.000000
246.000000,17030.397598,19263.068648,-10824.614564,583.715806,-10643.923061,-6765.068384,1301.385617,1245.193332,11200.727367,16311.878420,-136.971490,2659.812887,-15013.957323,18551.254994,3353.879256,3213.778521,0.010000,-0.014000,1.004000,192.000000,0.000000,40.000000,127.500000,72.000000,15.500000,48.000000,0.000000,0.000000,0.000000,1775741453.243452,0.000000
248.000000,16967.857417,19216.085281,-10901.213992,517.353477,-10711.626495,-6821.774760,1248.948425,1179.970942,11162.058850,16286.531542,-156.328101,2641.886788,-15034.811501,18529.886726,3409.110416,3282.398377,0.010000,-0.014000,1.004000,192.000000,0.000000,0.000000,0.000000,0.000000,0.000000,0.000000,0.000000,0.000000,0.000000,1775741453.243466,0.000000
250.000000,17008.202315,19252.138645,-10844.127636,562.839277,-10660.038669,-6781.742785,1291.483795,1225.255576,11188.255094,16275.020394,-181.429110,2637.729363,-15056.559748,18517.257991,3768.146487,3736.809342,0.010000,-0.014000,1.004000,192.000000,0.000000,0.000000,0.000000,0.000000,0.000000,0.000000,0.000000,0.000000,0.000000,1775741453.243477,0.000000
252.000000,17010.772766,19233.452586,-10855.392916,552.892751,-10669.225236,-6790.616428,1278.542135,1214.414980,11195.251190,16318.718054,-119.291260,2660.684605,-14981.882570,18558.899290,3085.948895,2874.948427,0.010000,-0.014000,1.004000,192.000000,0.000000,0.000000,0.000000,0.000000,0.000000,0.000000,0.000000,0.000000,0.000000,1775741453.243488,0.000000
254.000000,16980.396745,19226.501194,-10884.785460,537.380640,-10695.756757,-6806.799091,1262.627693,1190.364503,11176.028690,16273.589882,-189.766310,2632.655517,-15065.187522,18515.067520,3850.177389,3839.470904,0.010000,-0.014000,1.004000,192.000000,0.000000,0.000000,0.000000,0.000000,0.000000,0.000000,0.000000,0.000000,0.000000,1775741453.243500,0.000000
0.000000,17026.351932,19267.561348,-10822.066465,591.695379,-10635.339991,-6763.213189,1304.693676,1244.388669,11198.894524,16323.277810,-138.334946,2668.284198,-15003.630817,18561.290927,3344.603282,3210.023428,0.012000,-0.012000,1.002000,192.000000,0.000000,48.000000,127.500000,80.000000,15.500000,40.000000,0.000000,0.000000,0.000000,1775741453.243511,0.000000
2.000000,16976.708707,19220.309761,-10899.112928,532.932643,-10705.166841,-6812.185861,1252.390594,1181.781433,11173.346481,16306.357539,-152.528304,2653.934378,-15017.131271,18548.572784,3394.179451,3278.263304,0.012000,-0.012000,1.002000,192.000000,0.000000,0.000000,0.000000,0.000000,0.000000,0.000000,0.000000,0.000000,0.000000,1775741453.243523,0.000000
4.000000,17013.969065,19250.931651,-10844.999354,574.886867,-10656.529445,-6770.544561,1291.193222,1225.680259,11187.271617,16297.662711,-180.736206,2647.340613,-15051.731771,18531.965438,3758.378775,3751.315624,0.012000,-0.012000,1.002000,192.000000,0.000000,0.000000,0.000000,0.000000,0.000000,0.000000,0.000000,0.000000,0.000000,1775741453.243535,0.000000
6.000000,16999.105155,19244.047313,-10857.739849,562.101670,-10660.686870,-6781.206343,1277.938637,1209.631706,11182.331882,16323.031941,-124.812141,2665.110250,-14979.423878,18569.672831,3071.621427,2890.169965,0.012000,-0.012000,1.002000,192.000000,0.000000,0.000000,0.000000,0.000000,0.000000,0.000000,0.000000,0.000000,0.000000,1775741453.243547,0.000000
8.000000,16968.103286,19220.041540,-10887.422965,539.101725,-10682.792745,-6791.845774,1259.699614,1180.552087,11168.093821,16275.713298,-200.606906,2629.548625,-15057.699687,18523.941162,3839.895587,3858.514590,0.012000,-0.012000,1.002000,192.000000,0.000000,0.000000,0.000000,0.000000,0.000000,0.000000,0.000000,0.000000,0.000000,1775741453.243619,0.000000
10.000000,17010.661007,19246.349543,-10827.788511,581.525335,-10631.249622,-6756.775887,1296.669399,1229.033021,11183.069489,16312.079586,-154.383499,2650.715727,-15004.368425,18554.563052,3345.519703,3231.324641,0.008000,-0.016000,1.002000,192.000000,0.000000,32.000000,127.500000,64.000000,15.500000,40.000000,0.000000,0.000000,0.000000,1775741453.243632,0.000000
12.000000,16954.379315,19201.064909,-10904.186774,516.347649,-10704.004550,-6814.443387,1243.516951,1166.537543,11146.345573,16286.442135,-166.051110,2633.191959,-15023.255649,18534.580592,3390.178489,3280.319665,0.008000,-0.016000,1.002000,192.000000,0.000000,0.000000,0.000000,0.000000,0.000000,0.000000,0.000000,0.000000,0.000000,1775741453.243644,0.000000
14.000000,17002.569676,19250.439912,-10845.938128,567.913123,-10652.573186,-6775.283131,1290.679132,1224.406210,11171.804210,16289.057289,-189.095758,2634.890692,-15054.481036,18524.812880,3767.297121,3751.360327,0.008000,-0.016000,1.002000,192.000000,0.000000,0.000000,0.000000,0.000000,0.000000,0.000000,0.000000,0.000000,0.000000,1775741453.243656,0.000000
16.000000,16985.470591,19233.609049,-10861.629052,552.155143,-10669.873437,-6795.019721,1277.022216,1212.805654,11169.524332,16327.546993,-126.577929,2662.964483,-14986.330567,18564.017840,3076.404700,2875.373110,0.008000,-0.016000,1.002000,192.000000,0.000000,0.000000,0.000000,0.000000,0.000000,0.000000,0.000000,0.000000,0.000000,1775741453.243668,0.000000
18.000000,16964.415248,19220.309761,-10889.188753,535.592501,-10694.549763,-6806.486166,1264.259370,1188.777529,11153.051097,16275.959167,-199.064636,2630.532101,-15073.837647,18513.435842,3835.961680,3833.033601,0.008000,-0.016000,1.002000,192.000000,0.000000,0.000000,0.000000,0.000000,0.000000,0.000000,0.000000,0.000000,0.000000,1775741453.243679,0.000000
20.000000,17011.756243,19253.680915,-10826.916793,585.593353,-10635.541157,-6764.598997,1302.212632,1237.616090,11169.546684,16321.690836,-151.857752,2660.170515,-15018.561783,18554.183072,3340.870540,3212.146844,0.008000,-0.018000,1.010000,192.000000,0.000000,32.000000,127.500000,56.000000,15.500000,72.000000,0.000000,0.000000,0.000000,1775741453.243691,0.000000
22.000000,16957.687373,19222.634342,-10900.968123,525.377753,-10700.852954,-6812.990524,1249.261349,1174.494764,11145.920890,16303.004778,-162.497182,2646.670061,-15028.351847,18543.007200,3382.645951,3257.632644,0.008000,-0.018000,1.010000,192.000000,0.000000,0.000000,0.000000,0.000000,0.000000,0.000000,0.000000,0.000000,0.000000,1775741453.243703,0.000000
24.000000,17006.704748,19244.360238,-10848.374468,570.550629,-10653.333146,-6775.707814,1288.443957,1221.724000,11167.512675,16299.160278,-190.570973,2640.836256,-15040.712361,18529.886726,3765.352519,3748.588711,0.008000,-0.018000,1.010000,192.000000,0.000000,0.000000,0.000000,0.000000,0.000000,0.000000,0.000000,0.000000,0.000000,1775741453.243717,0.000000
26.000000,16989.225684,19230.479804,-10860.533817,560.313530,-10662.229140,-6781.474564,1275.971684,1214.727904,11167.155047,16335.392456,-126.935557,2669.290026,-14990.130364,18570.969232,3077.410528,2877.027139,0.008000,-0.018000,1.010000,192.000000,0.000000,0.000000,0.000000,0.000000,0.000000,0.000000,0.000000,0.000000,0.000000,1775741453.243729,0.000000
28.000000,16966.672774,19225.741235,-10889.881657,542.566245,-10686.816059,-6792.136346,1261.934788,1191.459738,11158.661384,16284.564589,-196.114206,2638.086991,-15065.813370,18522.801223,3836.632232,3844.477695,0.008000,-0.018000,1.010000,192.000000,0.000000,0.000000,0.000000,0.000000,0.000000,0.000000,0.000000,0.000000,0.000000,1775741453.243741,0.000000
30.000000,17004.536629,19249.635249,-10829.621354,589.393150,-10629.796759,-6753.646642,1300.648010,1232.832817,11177.146277,16327.859918,-153.668243,2662.405689,-15010.358692,18558.854587,3356.293244,3232.799856,0.006000,-0.016000,1.007000,192.000000,0.000000,16.000000,127.500000,72.000000,15.500000,48.000000,0.000000,0.000000,0.000000,1775741453.243753,0.000000
32.000000,16938.598983,19199.165010,-10907.114852,520.303907,-10698.595428,-6809.436597,1241.952329,1161.955436,11136.600213,16291.225408,-176.087043,2635.114209,-15026.675466,18536.681656,3394.782948,3272.675368,0.006000,-0.016000,1.007000,192.000000,0.000000,0.000000,0.000000,0.000000,0.000000,0.000000,0.000000,0.000000,0.000000,1775741453.243765,0.000000
34.000000,16993.226647,19242.169767,-10848.016840,567.510792,-10645.040649,-6762.989672,1283.101890,1211.352791,11171.915969,16294.175839,-194.929563,2634.287195,-15045.629745,18528.165642,3775.366101,3763.072641,0.006000,-0.016000,1.007000,192.000000,0.000000,0.000000,0.000000,0.000000,0.000000,0.000000,0.000000,0.000000,0.000000,1775741453.243776,0.000000
36.000000,16976.440486,19223.997798,-10860.109134,551.484591,-10655.993003,-6774.858448,1267.030986,1197.919392,11162.036498,16322.450795,-137.239711,2652.928549,-14977.926311,18563.995488,3084.250162,2893.522727,0.006000,-0.016000,1.007000,192.000000,0.000000,0.000000,0.000000,0.000000,0.000000,0.000000,0.000000,0.000000,0.000000,1775741453.243788,0.000000
38.000000,16967.902120,19221.606162,-10887.624131,532.887940,-10681.384585,-6789.431785,1255.050451,1182.429633,11159.555454,16277.166161,-201.523328,2624.899462,-15052.759952,18517.861488,3842.376631,3849.953872,0.006000,-0.016000,1.007000,192.000000,0.000000,0.000000,0.000000,0.000000,0.000000,0.000000,0.000000,0.000000,0.000000,1775741453.243799,0.000000
40.000000,17008.358778,19252.183348,-10827.274421,581.055949,-10624.812320,-6755.099506,1297.362303,1236.699669,11174.821696,16318.986275,-154.472906,2653.464991,-15003.027320,18553.914851,3361.568256,3242.299347,0.005000,-0.015000,1.000500,192.000000,0.000000,16.000000,127.500000,72.000000,15.500000,8.000000,0.000000,0.000000,0.000000,1775741453.243812,0.000000
42.000000,16951.808864,19222.746101,-10896.542477,526.025954,-10683.038614,-6803.155756,1250.222474,1177.825174,11145.049172,16300.166106,-164.508839,2639.942186,-15016.617181,18540.481453,3391.452538,3265.925141,0.005000,-0.015000,1.000500,192.000000,0.000000,0.000000,0.000000,0.000000,0.000000,0.000000,0.000000,0.000000,0.000000,1775741453.243823,0.000000
44.000000,17001.742661,19251.021057,-10844.798189,573.657521,-10639.519768,-6766.901227,1289.762710,1222.975698,11176.945111,16305.932856,-186.368845,2643.496113,-15039.952402,18535.452310,3788.374816,3758.937569,0.005000,-0.015000,1.000500,192.000000,0.000000,0.000000,0.000000,0.000000,0.000000,0.000000,0.000000,0.000000,0.000000,1775741453.243834,0.000000
46.000000,16992.846667,19240.023999,-10856.890483,561.609931,-10656.440038,-6782.860372,1277.938637,1215.353753,11169.010242,16336.286525,-127.024964,2668.351253,-14978.596864,18572.533855,3090.419244,2881.206916,0.005000,-0.015000,1.000500,192.000000,0.000000,0.000000,0.000000,0.000000,0.000000,0.000000,0.000000,0.000000,0.000000,1775741453.243846,0.000000
48.000000,16973.423001,19237.118272,-10886.640654,539.839332,-10688.179515,-6804.161585,1263.700576,1192.733788,11162.371774,16292.991196,-192.895555,2639.338689,-15059.376068,18524.946991,3844.567102,3829.300860,0.005000,-0.015000,1.000500,192.000000,0.000000,0.000000,0.000000,0.000000,0.000000,0.000000,0.000000,0.000000,0.000000,1775741453.243857,0.000000
50.000000,17020.249906,19265.370877,-10825.910965,590.398978,-10632.054285,-6761.961491,1304.984248,1244.723945,11171.334824,16332.978467,-151.053089,2663.925608,-15013.286771,18560.978003,3363.646968,3225.021449,0.005500,-0.017500,1.001250,192.000000,0.000000,24.000000,127.500000,48.000000,15.500000,40.000000,0.000000,0.000000,0.000000,1775741453.243876,0.000000
52.000000,16948.545509,19199.075603,-10906.399597,527.769390,-10702.127004,-6814.041056,1250.088364,1175.679407,11140.847044,16312.258400,-164.553543,2648.502904,-15022.160414,18546.337610,3379.494355,3248.781353,0.005500,-0.017500,1.001250,192.000000,0.000000,0.000000,0.000000,0.000000,0.000000,0.000000,0.000000,0.000000,0.000000,1775741453.243888,0.000000
54.000000,16976.909873,19240.336924,-10859.103305,570.528277,-10658.652861,-6771.662148,1286.499356,1213.073875,11154.213387,16299.048519,-200.785720,2641.350346,-15058.146722,18530.892555,3775.187287,3759.608121,0.005500,-0.017500,1.001250,192.000000,0.000000,0.000000,0.000000,0.000000,0.000000,0.000000,0.000000,0.000000,0.000000,1775741453.243899,0.000000
56.000000,16958.715553,19212.956037,-10869.899198,556.111402,-10667.459448,-6777.875933,1273.334178,1197.919392,11137.047248,16323.747197,-150.382537,2656.057794,-15010.470451,18563.615509,3079.824517,2889.611171,0.005500,-0.017500,1.001250,192.000000,0.000000,0.000000,0.000000,0.000000,0.000000,0.000000,0.000000,0.000000,0.000000,1775741453.243912,0.000000
58.000000,16955.094571,19213.201906,-10894.441413,533.692602,-10688.268922,-6790.370559,1256.257445,1177.534601,11132.532195,16278.261397,-211.894537,2622.999564,-15079.716155,18517.861488,3837.392192,3841.080229,0.005500,-0.017500,1.001250,192.000000,0.000000,0.000000,0.000000,0.000000,0.000000,0.000000,0.000000,0.000000,0.000000,1775741453.243923,0.000000
60.000000,17014.058472,19251.937479,-10829.487244,582.352350,-10627.673343,-6746.717602,1296.691751,1233.883349,11168.607911,16321.892002,-154.808182,2651.565093,-15012.415053,18555.457122,3370.732471,3253.564626,0.007750,-0.018750,1.003625,192.000000,0.000000,40.000000,127.500000,48.000000,15.500000,56.000000,0.000000,0.000000,0.000000,1775741453.243936,0.000000
62.000000,16943.203442,19201.824868,-10904.097367,518.202843,-10693.499231,-6798.551297,1244.254559,1169.219752,11137.114303,16299.741423,-170.052072,2634.801285,-15023.926201,18538.112168,3382.333026,3264.964016,0.007750,-0.018750,1.003625,192.000000,0.000000,0.000000,0.000000,0.000000,0.000000,0.000000,0.000000,0.000000,0.000000,1775741453.243948,0.000000
64.000000,16985.872923,19246.036618,-10849.737924,564.649768,-10644.437151,-6759.368689,1285.918210,1218.103018,11156.850893,16295.651054,-193.633162,2635.605947,-15052.268213,18525.192860,3792.532240,3777.914200,0.007750,-0.018750,1.003625,192.000000,0.000000,0.000000,0.000000,0.000000,0.000000,0.000000,0.000000,0.000000,0.000000,1775741453.243960,0.000000
66.000000,16983.078955,19237.118272,-10860.645576,555.910236,-10652.260262,-6769.695195,1273.334178,1209.877576,11155.353326,16335.481862,-136.457400,2662.673910,-14983.290730,18564.800151,3097.035360,2898.775387,0.007750,-0.018750,1.003625,192.000000,0.000000,0.000000,0.000000,0.000000,0.000000,0.000000,0.000000,0.000000,0.000000,1775741453.243971,0.000000
68.000000,16977.088687,19241.968601,-10881.097422,542.298024,-10670.298120,-6779.999349,1264.482887,1194.141948,11152.000565,16299.853182,-196.270668,2642.155009,-15055.308051,18525.103453,3848.322195,3846.131724,0.007750,-0.018750,1.003625,192.000000,0.000000,0.000000,0.000000,0.000000,0.000000,0.000000,0.000000,0.000000,0.000000,1775741453.243983,0.000000
70.000000,17027.223650,19269.796523,-10819.607773,590.756606,-10612.988247,-6743.722468,1304.358399,1245.193332,11181.683681,16344.891947,-142.894702,2672.396919,-14995.293617,18564.822503,3384.255276,3258.861990,0.005875,-0.020375,1.003812,192.000000,0.000000,16.000000,127.500000,40.000000,15.500000,48.000000,0.000000,0.000000,0.000000,1775741453.243994,0.000000
72.000000,16961.218949,19223.103729,-10894.374358,530.138675,-10685.184382,-6801.837003,1253.664643,1184.307180,11156.023879,16317.555763,-153.332967,2656.370718,-15004.770756,18547.254032,3385.484622,3252.558798,0.005875,-0.020375,1.003812,192.000000,0.000000,0.000000,0.000000,0.000000,0.000000,0.000000,0.000000,0.000000,0.000000,1775741453.723160,0.000000
74.000000,17002.301455,19259.671183,-10843.725305,575.557420,-10640.682058,-6767.929407,1293.473100,1226.462570,11174.262902,16315.320589,-178.746900,2653.800267,-15039.997106,18532.770101,3795.013284,3768.302949,0.005875,-0.020375,1.003812,192.000000,0.000000,0.000000,0.000000,0.000000,0.000000,0.000000,0.000000,0.000000,0.000000,1775741453.723228,0.000000
76.000000,16982.810734,19240.359275,-10858.656270,565.141507,-10658.406992,-6780.289922,1282.118414,1213.163282,11151.307660,16340.779226,-132.679955,2670.899352,-14983.313082,18565.783628,3097.705912,2885.230230,0.005875,-0.020375,1.003812,192.000000,0.000000,0.000000,0.000000,0.000000,0.000000,0.000000,0.000000,0.000000,0.000000,1775741453.723277,0.000000
78.000000,16960.458989,19228.736368,-10894.039082,541.627472,-10691.733443,-6798.148966,1265.801640,1187.123500,11137.427227,16293.706452,-204.898441,2642.199712,-15067.400344,18518.621447,3842.980128,3827.266851,0.005875,-0.020375,1.003812,192.000000,0.000000,0.000000,0.000000,0.000000,0.000000,0.000000,0.000000,0.000000,0.000000,1775741453.723325,0.000000
80.000000,17008.403481,19262.353392,-10831.789474,591.225993,-10634.803550,-6751.232654,1307.442940,1237.772553,11155.733306,16329.960982,-162.675996,2665.356119,-15019.589963,18550.986773,3383.137689,3249.608368,0.003938,-0.019188,1.001906,192.000000,0.000000,8.000000,127.500000,56.000000,15.500000,32.000000,0.000000,0.000000,0.000000,1775741453.723374,0.000000
82.000000,16941.571765,19214.475955,-10907.807756,526.629451,-10701.747024,-6799.825346,1251.429469,1170.113822,11127.324239,16309.352673,-172.086081,2646.848875,-15029.648248,18541.688447,3381.014273,3246.903807,0.003938,-0.019188,1.001906,192.000000,0.000000,0.000000,0.000000,0.000000,0.000000,0.000000,0.000000,0.000000,0.000000,1775741453.723427,0.000000
84.000000,16994.858324,19242.214470,-10855.571730,567.153164,-10649.667460,-6755.837113,1288.354550,1212.805654,11149.296003,16303.027130,-199.869299,2635.024802,-15062.795885,18527.673903,3800.847089,3782.652769,0.003938,-0.019188,1.001906,192.000000,0.000000,0.000000,0.000000,0.000000,0.000000,0.000000,0.000000,0.000000,0.000000,1775741453.723475,0.000000
86.000000,16969.422039,19224.467185,-10860.869093,557.743079,-10648.125189,-6758.496971,1278.564486,1204.490805,11142.568128,16335.079531,-139.944272,2655.878980,-14992.387890,18567.951747,3102.623296,2905.212689,0.003938,-0.019188,1.001906,192.000000,0.000000,0.000000,0.000000,0.000000,0.000000,0.000000,0.000000,0.000000,0.000000,1775741453.723488,0.000000
88.000000,16947.964364,19219.281580,-10891.982721,536.531274,-10677.473030,-6771.505686,1259.721966,1177.556953,11137.203710,16289.146696,-209.122921,2625.547662,-15065.433391,18522.175374,3852.904302,3847.696346,0.003938,-0.019188,1.001906,192.000000,0.000000,0.000000,0.000000,0.000000,0.000000,0.000000,0.000000,0.000000,0.000000,1775741453.723511,0.000000
90.000000,16997.607588,19247.757703,-10829.397837,586.286257,-10618.218555,-6729.484407,1297.764635,1225.568500,11158.594329,16332.464377,-162.675996,2655.499000,-15008.928181,18560.910947,3399.677980,3281.928990,0.005969,-0.016594,0.999953,192.000000,0.000000,32.000000,127.500000,72.000000,15.500000,24.000000,0.000000,0.000000,0.000000,1775741453.723523,0.000000
92.000000,16944.209271,19203.858877,-10899.403500,525.333050,-10683.865629,-6783.441518,1249.730736,1164.883514,11130.945221,16309.732653,-173.784813,2638.154046,-15018.606486,18546.047037,3390.849041,3260.672481,0.005969,-0.016594,0.999953,192.000000,0.000000,0.000000,0.000000,0.000000,0.000000,0.000000,0.000000,0.000000,0.000000,1775741453.723535,0.000000
94.000000,16986.521123,19246.304839,-10845.334631,564.672120,-10641.710239,-6753.557235,1289.874469,1215.398457,11156.314451,16303.317702,-197.634124,2635.695354,-15049.921280,18527.360979,3820.583680,3791.638171,0.005969,-0.016594,0.999953,192.000000,0.000000,0.000000,0.000000,0.000000,0.000000,0.000000,0.000000,0.000000,0.000000,1775741453.723547,0.000000
96.000000,16979.703841,19234.123139,-10851.391953,556.916065,-10648.281652,-6766.476544,1281.157289,1213.386800,11155.196864,16341.181557,-131.115333,2663.366814,-14963.822360,18565.627166,3118.940070,2901.256430,0.005969,-0.016594,0.999953,192.000000,0.000000,0.000000,0.000000,0.000000,0.000000,0.000000,0.000000,0.000000,0.000000,1775741453.723559,0.000000
98.000000,16962.068315,19226.590601,-10886.573599,534.743134,-10680.691681,-6788.895343,1264.549943,1189.023398,11148.714858,16299.517906,-195.063674,2635.538892,-15060.314841,18522.041264,3858.022852,3834.732334,0.005969,-0.016594,0.999953,192.000000,0.000000,0.000000,0.000000,0.000000,0.000000,0.000000,0.000000,0.000000,0.000000,1775741453.723571,0.000000
100.000000,17008.761109,19261.906357,-10823.966363,584.274600,-10625.147596,-6751.590282,1306.794740,1241.259425,11170.999547,16337.471168,-154.495258,2661.913951,-15010.045768,18555.010087,3404.148329,3264.561685,0.005969,-0.016594,0.999953,192.000000,0.000000,0.000000,0.000000,0.000000,0.000000,0.000000,0.000000,0.000000,0.000000,1775741453.723583,0.000000
102.000000,16946.489149,19210.631455,-10900.498736,522.583785,-10695.510888,-6807.715512,1254.469306,1177.020511,11133.113341,16318.338074,-165.067633,2649.396974,-15019.277038,18543.074255,3381.707177,3227.457789,0.012000,-0.012000,0.998000,192.000000,0.000000,48.000000,127.500000,80.000000,15.500000,24.000000,0.000000,0.000000,0.000000,1775741453.723594,0.000000
104.000000,16995.685338,19256.273717,-10846.742791,565.521486,-10646.538215,-6770.186933,1291.997885,1225.523797,11155.062754,16313.174822,-192.806148,2647.295910,-15053.676373,18527.338627,3813.833453,3772.907409,0.012000,-0.012000,0.998000,192.000000,0.000000,0.000000,0.000000,0.000000,0.000000,0.000000,0.000000,0.000000,0.000000,1775741453.723606,0.000000
106.000000,16995.104193,19247.847110,-10849.872035,558.637149,-10648.236948,-6772.600922,1284.487699,1223.199215,11156.649727,16358.258290,-123.180464,2673.626265,-14978.730974,18570.768067,3112.703933,2883.486793,0.012000,-0.012000,0.998000,192.000000,0.000000,0.000000,0.000000,0.000000,0.000000,0.000000,0.000000,0.000000,0.000000,1775741453.723618,0.000000
108.000000,16972.327766,19236.157147,-10883.690224,535.257224,-10678.344748,-6789.834117,1266.382786,1195.684218,11150.950033,16309.531487,-191.040360,2641.998546,-15053.743428,18523.672941,3859.967453,3819.644906,0.012000,-0.012000,0.998000,192.000000,0.000000,0.000000,0.000000,0.000000,0.000000,0.000000,0.000000,0.000000,0.000000,1775741453.723630,0.000000
110.000000,17014.594914,19270.869407,-10820.166566,587.672065,-10623.739436,-6745.935291,1308.828748,1247.428506,11170.820733,16347.507101,-147.163885,2669.535896,-15005.038977,18557.714648,3414.206614,3266.930970,0.012000,-0.012000,0.998000,192.000000,0.000000,0.000000,0.000000,0.000000,0.000000,0.000000,0.000000,0.000000,0.000000,1775741453.723642,0.000000
112.000000,16953.775818,19222.924915,-10895.402538,528.104666,-10691.398167,-6791.711663,1255.028099,1179.613314,11136.577861,16326.228240,-161.021967,2652.950901,-15017.578306,18546.583479,3381.304846,3229.849426,0.008000,-0.014000,1.000000,192.000000,0.000000,32.000000,127.500000,72.000000,15.500000,32.000000,0.000000,0.000000,0.000000,1775741453.723653,0.000000
114.000000,16993.539571,19251.199871,-10846.116942,569.634207,-10649.153370,-6751.277357,1290.410911,1215.756084,11158.661384,16321.735540,-190.995656,2648.815828,-15050.837702,18537.262802,3813.744046,3791.124081,0.008000,-0.014000,1.000000,192.000000,0.000000,0.000000,0.000000,0.000000,0.000000,0.000000,0.000000,0.000000,0.000000,1775741453.723665,0.000000
116.000000,16978.653309,19236.559479,-10852.286023,558.301873,-10655.970652,-6759.055765,1280.978475,1209.207023,11149.251300,16344.757836,-136.189179,2663.791497,-14986.822306,18568.309375,3106.668962,2898.797738,0.008000,-0.014000,1.000000,192.000000,0.000000,0.000000,0.000000,0.000000,0.000000,0.000000,0.000000,0.000000,0.000000,1775741453.723677,0.000000
118.000000,16957.106228,19222.723749,-10886.461840,531.971518,-10682.949207,-6777.808878,1260.616036,1179.479203,11137.337820,16293.684100,-200.785720,2629.682735,-15063.131161,18519.828441,3842.935424,3831.938366,0.008000,-0.014000,1.000000,192.000000,0.000000,0.000000,0.000000,0.000000,0.000000,0.000000,0.000000,0.000000,0.000000,1775741453.723689,0.000000
120.000000,17008.694054,19262.711020,-10823.474625,587.672065,-10624.722913,-6730.624346,1304.224289,1233.011631,11157.096762,16336.308877,-158.205647,2655.409593,-15014.538469,18559.793360,3402.114320,3282.465432,0.008000,-0.014000,1.000000,192.000000,0.000000,0.000000,0.000000,0.000000,0.000000,0.000000,0.000000,0.000000,0.000000,1775741453.723702,0.000000
122.000000,16942.063504,19218.834545,-10898.777652,525.824788,-10694.058024,-6784.268532,1252.278835,1171.767851,11129.559413,16323.367217,-166.140517,2647.765296,-15020.171108,18553.870148,3361.545904,3231.302289,0.004000,-0.014000,0.998000,192.000000,0.000000,16.000000,127.500000,72.000000,15.500000,24.000000,0.000000,0.000000,0.000000,1775741453.723714,0.000000
124.000000,16978.340385,19249.903470,-10851.391953,563.979216,-10650.852102,-6753.601939,1290.366207,1213.006820,11150.011259,16312.906601,-201.568031,2640.813904,-15057.029135,18533.887688,3808.357276,3788.352464,0.004000,-0.014000,0.998000,192.000000,0.000000,0.000000,0.000000,0.000000,0.000000,0.000000,0.000000,0.000000,0.000000,1775741453.723726,0.000000
126.000000,16971.523103,19242.348581,-10859.729154,554.055042,-10656.082410,-6769.494029,1280.330274,1205.071951,11141.338782,16344.757836,-145.979243,2661.779840,-14991.337358,18569.091686,3098.488223,2883.375035,0.004000,-0.014000,0.998000,192.000000,0.000000,0.000000,0.000000,0.000000,0.000000,0.000000,0.000000,0.000000,0.000000,1775741453.723738,0.000000
128.000000,16949.081951,19221.248534,-10889.009939,531.904463,-10683.977387,-6790.884649,1265.265198,1184.173069,11133.761541,16297.975635,-208.966459,2633.326070,-15066.305109,18521.169546,3828.607956,3806.747950,0.004000,-0.014000,0.998000,192.000000,0.000000,0.000000,0.000000,0.000000,0.000000,0.000000,0.000000,0.000000,0.000000,1775741453.723750,0.000000
130.000000,17008.962275,19265.929671,-10818.601944,583.715806,-10625.460520,-6749.958605,1310.974516,1245.573312,11157.767315,16338.097017,-155.948121,2662.271579,-14998.534620,18554.652459,3396.146404,3258.705528,0.004000,-0.014000,0.998000,192.000000,0.000000,0.000000,0.000000,0.000000,0.000000,0.000000,0.000000,0.000000,0.000000,1775741453.723762,0.000000
132.000000,16956.860358,19230.882136,-10894.061434,522.315564,-10697.544896,-6804.519213,1258.157344,1185.134195,11139.885919,16327.591697,-153.802354,2655.074317,-15022.808614,18546.002334,3347.799581,3201.909745,0.006000,-0.012000,0.994000,192.000000,0.000000,24.000000,127.500000,80.000000,15.500000,8.000000,0.000000,0.000000,0.000000,1775741453.723773,0.000000
134.000000,16990.477382,19265.281470,-10848.463875,567.309626,-10657.267053,-6764.353128,1294.590687,1225.702611,11156.850893,16319.992104,-187.754653,2651.118058,-15060.337193,18530.669037,3793.739235,3781.490479,0.006000,-0.012000,0.994000,192.000000,0.000000,0.000000,0.000000,0.000000,0.000000,0.000000,0.000000,0.000000,0.000000,1775741453.723785,0.000000
136.000000,16986.431716,19255.938441,-10854.297680,561.185248,-10661.983271,-6770.209285,1282.900725,1215.644326,11145.563262,16358.213587,-130.534188,2675.079128,-14994.243085,18572.511503,3083.423148,2887.331294,0.006000,-0.012000,0.994000,192.000000,0.000000,0.000000,0.000000,0.000000,0.000000,0.000000,0.000000,0.000000,0.000000,1775741453.723796,0.000000
138.000000,16956.368620,19237.431197,-10891.379224,531.233910,-10696.315550,-6790.638779,1259.431393,1180.462680,11137.337820,16306.692816,-202.663267,2635.985927,-15070.127257,18521.102491,3819.108465,3813.229956,0.006000,-0.012000,0.994000,192.000000,0.000000,0.000000,0.000000,0.000000,0.000000,0.000000,0.000000,0.000000,0.000000,1775741453.723808,0.000000
140.000000,17016.047778,19279.988918,-10824.480453,581.324170,-10631.450788,-6741.710811,1302.011466,1237.414925,11157.007355,16345.093113,-155.344624,2659.119983,-15021.579268,18556.753523,3395.364093,3280.006740,0.006000,-0.012000,0.994000,192.000000,0.000000,0.000000,0.000000,0.000000,0.000000,0.000000,0.000000,0.000000,0.000000,1775741453.723820,0.000000
142.000000,16954.356963,19234.704284,-10898.442375,520.996812,-10694.728577,-6791.622256,1250.647158,1176.372311,11138.030724,16329.715112,-159.479697,2645.753639,-15020.215812,18548.349267,3346.011441,3209.531690,0.006000,-0.014000,0.994000,192.000000,0.000000,24.000000,127.500000,72.000000,15.500000,8.000000,0.000000,0.000000,0.000000,1775741453.723832,0.000000
144.000000,16992.556094,19265.214415,-10854.454142,565.365024,-10654.473085,-6753.601939,1288.734530,1217.857148,11150.681812,16320.685008,-193.275534,2644.904273,-15062.035926,18532.837156,3807.999648,3795.661485,0.006000,-0.014000,0.994000,192.000000,0.000000,0.000000,0.000000,0.000000,0.000000,0.000000,0.000000,0.000000,0.000000,1775741453.723843,0.000000
146.000000,16984.285949,19255.424351,-10856.734020,559.553571,-10658.518750,-6763.079079,1283.571277,1214.392628,11145.384448,16355.620784,-136.747973,2669.580599,-14994.556009,18571.751543,3091.536831,2893.880355,0.006000,-0.014000,0.994000,192.000000,0.000000,0.000000,0.000000,0.000000,0.000000,0.000000,0.000000,0.000000,0.000000,1775741453.723855,0.000000
148.000000,16963.789399,19244.181424,-10891.468631,534.407858,-10691.062890,-6783.642683,1264.862867,1188.308142,11131.191090,16302.803612,-202.059770,2636.522369,-15071.133086,18519.895496,3820.427218,3808.424331,0.006000,-0.014000,0.994000,192.000000,0.000000,0.000000,0.000000,0.000000,0.000000,0.000000,0.000000,0.000000,0.000000,1775741453.723867,0.000000
150.000000,17013.298513,19283.900474,-10819.831290,587.694417,-10627.226308,-6739.497988,1311.041571,1249.373108,11160.069544,16347.149473,-151.969511,2669.088861,-15016.572477,18558.318145,3399.007428,3278.978560,0.006000,-0.014000,0.994000,192.000000,0.000000,0.000000,0.000000,0.000000,0.000000,0.000000,0.000000,0.000000,0.000000,1775741453.723878,0.000000
152.000000,16957.665021,19234.369008,-10895.134317,525.601271,-10696.293199,-6794.483280,1257.889123,1182.787261,11135.572032,16331.212679,-154.517609,2657.980044,-15016.550126,18548.282212,3338.970642,3199.763977,0.006000,-0.014000,0.994000,192.000000,0.000000,0.000000,127.500000,56.000000,15.500000,32.000000,0.000000,0.000000,0.000000,1775741453.723891,0.000000
154.000000,16993.047833,19266.622575,-10850.587291,567.220219,-10655.970652,-6761.268587,1292.489623,1220.874634,11158.549626,16317.131080,-188.179337,2647.653538,-15053.139931,18527.249220,3800.198889,3789.805328,0.006000,-0.014000,0.994000,192.000000,0.000000,0.000000,0.000000,0.000000,0.000000,0.000000,0.000000,0.000000,0.000000,1775741453.723903,0.000000
156.000000,16982.408402,19252.160996,-10855.504674,563.062795,-10663.123210,-6770.008119,1285.314713,1215.197291,11149.318355,16352.200967,-132.389382,2671.234628,-14990.264474,18563.995488,3082.797299,2888.046549,0.006000,-0.014000,0.994000,192.000000,0.000000,0.000000,0.000000,0.000000,0.000000,0.000000,0.000000,0.000000,0.000000,1775741453.723915,0.000000
158.000000,16951.138312,19234.637229,-10896.095442,531.144503,-10699.556553,-6791.823422,1259.833724,1178.719244,11131.682829,16299.137926,-203.847909,2633.929567,-15070.820161,18513.324083,3809.743084,3806.613839,0.006000,-0.014000,0.994000,192.000000,0.000000,0.000000,0.000000,0.000000,0.000000,0.000000,0.000000,0.000000,0.000000,1775741453.723927,0.000000
160.000000,17001.966179,19269.193026,-10827.296773,579.536030,-10635.742323,-6745.600014,1302.525556,1232.877521,11150.324184,16337.337057,-162.608941,2655.878980,-15024.037960,18546.292907,3399.722683,3288.500403,0.006000,-0.014000,0.994000,192.000000,0.000000,0.000000,0.000000,0.000000,0.000000,0.000000,0.000000,0.000000,0.000000,1775741453.723938,0.000000
162.000000,16945.148044,19222.030845,-10903.426814,516.526463,-10700.137699,-6797.545469,1248.970777,1166.157563,11123.747960,16320.036807,-166.676958,2642.624395,-15025.401416,18538.939183,3341.608148,3199.182832,0.006000,-0.012000,1.000000,192.000000,0.000000,24.000000,127.500000,80.000000,15.500000,32.000000,0.000000,0.000000,0.000000,1775741453.723950,0.000000
164.000000,16982.520161,19256.363124,-10857.739849,558.592446,-10657.401163,-6761.268587,1284.040664,1203.708494,11137.606041,16306.558705,-204.630220,2631.604985,-15050.480074,18518.420281,3815.912165,3797.762549,0.006000,-0.012000,1.000000,192.000000,0.000000,0.000000,0.000000,0.000000,0.000000,0.000000,0.000000,0.000000,0.000000,1775741453.723962,0.000000
166.000000,16974.384126,19244.695514,-10859.818561,555.642015,-10658.809323,-6762.363823,1277.849231,1203.462625,11134.052114,16346.545976,-144.302862,2658.024747,-15002.960265,18562.587328,3100.701046,2894.237983,0.006000,-0.012000,1.000000,192.000000,0.000000,0.000000,0.000000,0.000000,0.000000,0.000000,0.000000,0.000000,0.000000,1775741453.723974,0.000000
168.000000,16951.138312,19234.748988,-10897.145974,530.339841,-10697.008454,-6788.090681,1260.034890,1179.278037,11123.546794,16301.596618,-208.765293,2627.000526,-15076.810429,18516.028645,3823.355296,3806.367970,0.006000,-0.012000,1.000000,192.000000,0.000000,0.000000,0.000000,0.000000,0.000000,0.000000,0.000000,0.000000,0.000000,1775741453.723986,0.000000
170.000000,16999.485135,19265.147360,-10829.554299,583.671103,-10643.923061,-6748.997480,1309.298135,1236.900835,11145.987945,16333.112578,-165.045281,2654.314358,-15030.296449,18544.683581,3411.390294,3290.623819,0.006000,-0.012000,1.000000,192.000000,0.000000,0.000000,0.000000,0.000000,0.000000,0.000000,0.000000,0.000000,0.000000,1775741453.723997,0.000000
172.000000,16943.941050,19224.333075,-10902.510393,522.986117,-10709.681894,-6803.200460,1258.626730,1173.086604,11116.237773,16314.717092,-165.067633,2642.110305,-15037.471358,18534.580592,3335.796694,3189.817451,0.005000,-0.013000,1.001000,192.000000,0.000000,16.000000,127.500000,72.000000,15.500000,40.000000,0.000000,0.000000,0.000000,1775741453.724008,0.000000
174.000000,16988.935112,19263.269813,-10854.945881,564.716824,-10670.096954,-6766.208323,1292.668437,1212.805654,11138.723628,16308.548010,-198.416436,2636.120038,-15076.586911,18519.448461,3808.625496,3793.694531,0.005000,-0.013000,1.001000,192.000000,0.000000,0.000000,0.000000,0.000000,0.000000,0.000000,0.000000,0.000000,0.000000,1775741453.724020,0.000000
176.000000,16992.064356,19258.508892,-10856.219930,561.922856,-10668.778201,-6768.577608,1286.477004,1213.319744,11142.434018,16355.643136,-133.283452,2667.613646,-14998.311102,18566.632994,3087.044130,2890.237020,0.005000,-0.013000,1.001000,192.000000,0.000000,0.000000,0.000000,0.000000,0.000000,0.000000,0.000000,0.000000,0.000000,1775741453.724032,0.000000
178.000000,16958.134408,19241.946249,-10900.118756,527.255300,-10708.899582,-6794.930314,1257.866771,1176.394662,11128.352419,16306.893981,-200.718665,2633.638994,-15073.971757,18519.582572,3808.759607,3798.544860,0.005000,-0.013000,1.001000,192.000000,0.000000,0.000000,0.000000,0.000000,0.000000,0.000000,0.000000,0.000000,0.000000,1775741453.724044,0.000000
180.000000,17013.298513,19270.690593,-10830.448369,583.179365,-10644.928890,-6748.215169,1304.827786,1233.995108,11147.239643,16341.606240,-162.273665,2657.533009,-15026.921335,18551.187939,3405.802358,3294.110691,0.005000,-0.013000,1.001000,192.000000,0.000000,0.000000,0.000000,0.000000,0.000000,0.000000,0.000000,0.000000,0.000000,1775741453.724056,0.000000
182.000000,16943.650477,19224.802461,-10907.941867,517.353477,-10712.699379,-6800.026512,1250.133067,1168.392738,11112.415625,16322.428444,-170.320293,2641.283291,-15034.208004,18540.682619,3323.257366,3194.332504,0.005500,-0.012500,1.001500,192.000000,0.000000,24.000000,127.500000,80.000000,15.500000,40.000000,0.000000,0.000000,0.000000,1775741453.724067,0.000000
184.000000,16991.036176,19261.459322,-10858.611567,557.698376,-10663.905521,-6758.273454,1287.125204,1211.017515,11134.856777,16314.381816,-200.584555,2632.789628,-15070.976623,18527.450386,3806.591488,3808.021999,0.005500,-0.012500,1.001500,192.000000,0.000000,0.000000,0.000000,0.000000,0.000000,0.000000,0.000000,0.000000,0.000000,1775741453.724080,0.000000
186.000000,16990.410327,19253.837377,-10859.326823,552.468068,-10655.836541,-6764.509590,1279.682074,1207.105959,11138.813035,16349.585813,-138.670223,2659.365852,-14994.511306,18568.912872,3094.733130,2902.999866,0.005500,-0.012500,1.001500,192.000000,0.000000,0.000000,0.000000,0.000000,0.000000,0.000000,0.000000,0.000000,0.000000,1775741453.724092,0.000000
188.000000,16965.219911,19241.298049,-10898.196506,529.468123,-10687.196039,-6783.374463,1258.000881,1179.590962,11127.212480,16305.597580,-202.484453,2631.761447,-15068.182655,18521.884802,3818.370857,3808.804310,0.005500,-0.012500,1.001500,192.000000,0.000000,0.000000,0.000000,0.000000,0.000000,0.000000,0.000000,0.000000,0.000000,1775741453.724104,0.000000
190.000000,17024.250868,19290.427183,-10826.827386,588.744949,-10623.962954,-6737.039296,1305.274821,1243.002861,11155.286271,16351.217491,-155.724604,2666.250189,-15018.092396,18562.296756,3422.610870,3310.539223,0.005500,-0.012500,1.001500,192.000000,0.000000,0.000000,0.000000,0.000000,0.000000,0.000000,0.000000,0.000000,0.000000,1775741453.724116,0.000000
192.000000,16970.763143,19249.769360,-10897.324788,530.742172,-10690.280579,-6791.018759,1258.358509,1188.688122,11138.723628,16338.745217,-150.896627,2661.332805,-15014.024379,18558.005221,3330.722848,3189.236306,0.006750,-0.014250,1.004750,192.000000,0.000000,32.000000,127.500000,64.000000,15.500000,64.000000,0.000000,0.000000,0.000000,1775741454.205132,0.000000
194.000000,17001.385033,19275.630328,-10854.096514,568.516620,-10655.076582,-6761.961491,1294.769501,1230.619994,11153.788704,16325.065950,-185.586534,2654.873151,-15056.023306,18538.313334,3816.538014,3803.596354,0.006750,-0.014250,1.004750,192.000000,0.000000,0.000000,0.000000,0.000000,0.000000,0.000000,0.000000,0.000000,0.000000,1775741454.205231,0.000000
196.000000,16991.773783,19259.201796,-10856.219930,559.665329,-10662.989099,-6772.019776,1290.902649,1226.194349,11140.087085,16352.603299,-130.824760,2673.469803,-14991.270303,18570.701012,3091.223906,2890.818166,0.006750,-0.014250,1.004750,192.000000,0.000000,0.000000,0.000000,0.000000,0.000000,0.000000,0.000000,0.000000,0.000000,1775741454.205319,0.000000
198.000000,16960.727210,19247.221261,-10895.156669,529.199902,-10700.092995,-6797.567820,1268.103870,1188.621067,11126.676038,16297.528600,-198.662305,2637.036459,-15066.238054,18519.828441,3805.183328,3787.167822,0.006750,-0.014250,1.004750,192.000000,0.000000,0.000000,0.000000,0.000000,0.000000,0.000000,0.000000,0.000000,0.000000,1775741454.205389,0.000000
200.000000,17004.626036,19266.510816,-10831.923584,577.993760,-10648.348707,-6755.792410,1305.297173,1234.710364,11144.825655,16330.296258,-161.714871,2657.130677,-15036.689047,18548.304564,3413.245489,3298.201060,0.006750,-0.014250,1.004750,192.000000,0.000000,0.000000,0.000000,0.000000,0.000000,0.000000,0.000000,0.000000,0.000000,1775741454.205468,0.000000
202.000000,16954.580480,19229.541031,-10904.097367,517.532291,-10713.884022,-6805.010951,1251.921207,1173.712453,11121.736303,16312.906601,-162.787755,2646.290081,-15034.856204,18542.046075,3314.070799,3175.378224,0.005375,-0.014125,1.003375,192.000000,0.000000,16.000000,127.500000,72.000000,15.500000,40.000000,0.000000,0.000000,0.000000,1775741454.205539,0.000000
204.000000,16997.987568,19267.538997,-10852.956576,563.129850,-10665.045460,-6763.503762,1291.059111,1215.420808,11146.256166,16305.485821,-199.869299,2638.846950,-15069.456705,18525.863412,3810.167767,3805.339790,0.005375,-0.014125,1.003375,192.000000,0.000000,0.000000,0.000000,0.000000,0.000000,0.000000,0.000000,0.000000,0.000000,1775741454.205618,0.000000
206.000000,16979.077992,19255.737276,-10857.024593,552.065736,-10670.588692,-6776.557180,1281.336103,1208.178843,11143.171626,16344.489615,-137.463228,2662.830372,-14997.193515,18567.080029,3087.625276,2894.215631,0.005375,-0.014125,1.003375,192.000000,0.000000,0.000000,0.000000,0.000000,0.000000,0.000000,0.000000,0.000000,0.000000,1775741454.205698,0.000000
208.000000,16953.060562,19232.245592,-10895.447242,520.773294,-10703.691626,-6798.439538,1258.425565,1175.388834,11123.725608,16286.732708,-207.379485,2620.227947,-15073.770591,18511.915924,3805.429197,3789.268886,0.005375,-0.014125,1.003375,192.000000,0.000000,0.000000,0.000000,0.000000,0.000000,0.000000,0.000000,0.000000,0.000000,1775741454.205743,0.000000
210.000000,17006.838859,19270.802351,-10827.766160,575.378606,-10633.954183,-6750.360936,1301.095045,1228.295413,11148.714858,16323.389569,-165.492316,2645.463067,-15023.233297,18546.136444,3425.181320,3311.343886,0.005375,-0.014125,1.003375,192.000000,0.000000,0.000000,0.000000,0.000000,0.000000,0.000000,0.000000,0.000000,0.000000,1775741454.205755,0.000000
212.000000,16953.194672,19228.602258,-10901.526916,516.213538,-10698.349559,-6801.211155,1248.255521,1165.218790,11123.256221,16310.738481,-168.398043,2635.136561,-15020.975771,18541.688447,3325.514892,3177.993378,0.006687,-0.015062,1.001688,192.000000,0.000000,32.000000,127.500000,64.000000,15.500000,32.000000,0.000000,0.000000,0.000000,1775741454.205767,0.000000
214.000000,16995.506525,19265.527340,-10852.643651,561.766393,-10652.796704,-6762.721451,1288.332199,1208.402360,11149.072486,16303.965903,-201.143348,2629.503921,-15060.493655,18527.070406,3826.506892,3815.912165,0.006687,-0.015062,1.001688,192.000000,0.000000,0.000000,0.000000,0.000000,0.000000,0.000000,0.000000,0.000000,0.000000,1775741454.205780,0.000000
216.000000,16999.909818,19268.030735,-10846.742791,565.990873,-10646.471160,-6761.134477,1289.114510,1216.337230,11151.575881,16348.155302,-135.362164,2664.439698,-14983.268378,18572.869131,3105.551375,2905.369151,0.006687,-0.015062,1.001688,192.000000,0.000000,0.000000,0.000000,0.000000,0.000000,0.000000,0.000000,0.000000,0.000000,1775741454.205808,0.000000
218.000000,16967.678603,19249.210566,-10890.686320,534.653727,-10685.452603,-6788.940047,1265.444012,1183.994256,11138.768332,16306.715167,-197.343552,2638.154046,-15056.671507,18531.138424,3813.520528,3796.980238,0.006687,-0.015062,1.001688,192.000000,0.000000,0.000000,0.000000,0.000000,0.000000,0.000000,0.000000,0.000000,0.000000,1775741454.205820,0.000000
220.000000,17017.768862,19283.788715,-10822.401741,588.744949,-10630.735532,-6747.298747,1315.489568,1247.339099,11157.901425,16341.382723,-156.797487,2661.623378,-15015.901925,18561.447389,3429.249338,3315.546014,0.006687,-0.015062,1.001688,192.000000,0.000000,0.000000,0.000000,0.000000,0.000000,0.000000,0.000000,0.000000,0.000000,1775741454.205833,0.000000
222.000000,16960.347230,19238.593488,-10894.217896,527.545873,-10700.472975,-6801.322913,1269.087347,1189.872764,11126.944259,16321.355560,-156.663377,2651.900369,-15018.405320,18548.595136,3312.953211,3166.146954,0.007344,-0.015531,0.998844,192.000000,0.000000,32.000000,127.500000,64.000000,15.500000,16.000000,0.000000,0.000000,0.000000,1775741454.205846,0.000000
224.000000,16995.104193,19266.711982,-10856.108171,559.799440,-10671.169838,-6774.232599,1296.915269,1218.907680,11141.316431,16306.089319,-195.801281,2641.752677,-15063.555844,18523.248258,3817.119159,3805.652714,0.007344,-0.015531,0.998844,192.000000,0.000000,0.000000,0.000000,0.000000,0.000000,0.000000,0.000000,0.000000,0.000000,1775741454.205858,0.000000
226.000000,16998.859286,19264.320345,-10851.548416,554.971463,-10665.961881,-6775.529000,1289.539193,1216.560747,11143.819826,16342.254441,-133.417563,2662.115116,-14995.651245,18563.436695,3089.458119,2889.857041,0.007344,-0.015531,0.998844,192.000000,0.000000,0.000000,0.000000,0.000000,0.000000,0.000000,0.000000,0.000000,0.000000,1775741454.205870,0.000000
228.000000,16974.786457,19248.987049,-10891.490983,524.841312,-10701.523507,-6794.840907,1264.237018,1182.429633,11136.667268,16290.398394,-196.225965,2630.286232,-15067.646213,18516.788604,3801.227069,3782.920990,0.007344,-0.015531,0.998844,192.000000,0.000000,0.000000,0.000000,0.000000,0.000000,0.000000,0.000000,0.000000,0.000000,1775741454.205882,0.000000
230.000000,17030.196432,19293.534075,-10822.960534,582.732330,-10639.519768,-6744.393020,1309.722818,1240.164189,11158.236701,16333.134929,-154.897589,2657.667119,-15016.795995,18554.093665,3430.277518,3322.966793,0.007344,-0.015531,0.998844,192.000000,0.000000,0.000000,0.000000,0.000000,0.000000,0.000000,0.000000,0.000000,0.000000,1775741454.205894,0.000000
232.000000,16970.360812,19245.187252,-10895.648407,524.103704,-10701.568210,-6790.996407,1258.425565,1181.759081,11131.861643,16327.010551,-153.422374,2653.263826,-15013.197364,18554.853625,3316.462435,3175.735852,0.007672,-0.014766,0.998422,192.000000,0.000000,32.000000,127.500000,72.000000,15.500000,24.000000,0.000000,0.000000,0.000000,1775741454.205906,0.000000
234.000000,17009.431661,19279.653642,-10848.843855,563.085146,-10655.993003,-6757.133515,1292.757844,1219.377067,11151.486474,16318.136909,-189.229869,2644.300776,-15068.406173,18536.927526,3833.257119,3826.506892,0.007672,-0.014766,0.998422,192.000000,0.000000,0.000000,0.000000,0.000000,0.000000,0.000000,0.000000,0.000000,0.000000,1775741454.205917,0.000000
236.000000,17002.033234,19262.711020,-10849.022668,558.726556,-10652.036745,-6764.107259,1286.722873,1212.649192,11145.898538,16352.804464,-130.891816,2667.434832,-14993.863105,18575.528988,3107.786549,2908.833672,0.007672,-0.014766,0.998422,192.000000,0.000000,0.000000,0.000000,0.000000,0.000000,0.000000,0.000000,0.000000,0.000000,1775741454.205929,0.000000
238.000000,16977.714536,19253.166825,-10891.401576,528.194073,-10689.297103,-6790.661131,1261.845381,1177.176973,11128.955916,16301.395452,-199.377561,2631.113247,-15067.422696,18524.455252,3814.548709,3792.085206,0.007672,-0.014766,0.998422,192.000000,0.000000,0.000000,0.000000,0.000000,0.000000,0.000000,0.000000,0.000000,0.000000,1775741454.205941,0.000000
240.000000,17034.622077,19291.947102,-10823.206404,581.950019,-10629.729704,-6750.539750,1307.912327,1233.056335,11158.706088,16339.974563,-158.205647,2657.041270,-15017.019512,18554.160721,3446.437829,3330.007592,0.007672,-0.014766,0.998422,192.000000,0.000000,0.000000,0.000000,0.000000,0.000000,0.000000,0.000000,0.000000,0.000000,1775741454.205953,0.000000
242.000000,16974.652347,19245.701342,-10892.295646,522.874358,-10693.879210,-6805.681503,1260.638387,1175.746462,11130.252317,16325.200060,-156.238694,2648.838180,-15015.320780,18548.125750,3320.128121,3160.559018,0.007672,-0.014766,0.998422,192.000000,0.000000,0.000000,0.000000,0.000000,0.000000,0.000000,0.000000,0.000000,0.000000,1775741454.205965,0.000000
244.000000,17009.185792,19277.262005,-10852.844817,557.430155,-10664.173742,-6778.211210,1295.216536,1215.331401,11150.570053,16309.687949,-192.225002,2641.529160,-15060.203083,18526.466909,3833.257119,3809.631325,0.014000,-0.014000,1.002000,192.000000,0.000000,56.000000,127.500000,72.000000,15.500000,40.000000,0.000000,0.000000,0.000000,1775741454.205976,0.000000
246.000000,17002.323807,19262.040468,-10851.101381,554.300911,-10667.079469,-6778.837058,1293.517803,1217.857148,11137.606041,16339.281659,-135.473923,2661.198695,-14998.176992,18562.632032,3097.728264,2888.605343,0.014000,-0.014000,1.002000,192.000000,0.000000,0.000000,0.000000,0.000000,0.000000,0.000000,0.000000,0.000000,0.000000,1775741454.205988,0.000000
248.000000,16972.350117,19245.433121,-10894.329654,523.634317,-10702.663446,-6801.233506,1270.674321,1185.357712,11121.781006,16287.649129,-199.534023,2625.480607,-15073.859998,18515.134575,3798.611915,3771.409842,0.014000,-0.014000,1.002000,192.000000,0.000000,0.000000,0.000000,0.000000,0.000000,0.000000,0.000000,0.000000,0.000000,1775741454.206002,0.000000
250.000000,17025.457862,19286.113296,-10827.386180,581.190059,-10639.966803,-6750.025660,1315.735437,1241.281777,11141.875224,16322.540202,-161.312540,2651.252169,-15030.005876,18549.623316,3433.898501,3324.330249,0.014000,-0.014000,1.002000,192.000000,0.000000,0.000000,0.000000,0.000000,0.000000,0.000000,0.000000,0.000000,0.000000,1775741454.206015,0.000000
252.000000,16972.595986,19247.869462,-10899.783480,521.756771,-10699.757719,-6793.410396,1259.543152,1177.400491,11122.071579,16317.287542,-158.786793,2649.016994,-15022.629800,18551.098532,3303.118444,3158.033271,0.014000,-0.014000,1.002000,192.000000,0.000000,0.000000,0.000000,0.000000,0.000000,0.000000,0.000000,0.000000,0.000000,1775741454.206027,0.000000
254.000000,17021.076920,19280.637119,-10852.375430,563.353367,-10658.541102,-6754.674823,1294.098949,1215.823140,11146.747905,16305.083490,-194.549584,2640.746849,-15064.405211,18532.412473,3831.603090,3828.898529,0.012000,-0.014000,1.004000,192.000000,0.000000,48.000000,127.500000,72.000000,15.500000,48.000000,0.000000,0.000000,0.000000,1775741454.206038,0.000000
0.000000,17002.435565,19265.929671,-10853.314203,559.687681,-10660.798628,-6758.474619,1287.236963,1211.509253,11145.652669,16345.406037,-132.098810,2669.871172,-14983.380137,18577.294776,3105.976058,2912.141730,0.012000,-0.014000,1.004000,192.000000,0.000000,0.000000,0.000000,0.000000,0.000000,0.000000,0.000000,0.000000,0.000000,1775741454.206050,0.000000
2.000000,16973.959443,19254.619688,-10894.955503,526.607099,-10698.438966,-6782.793317,1264.013501,1181.110881,11119.568183,16292.991196,-202.663267,2630.800322,-15076.564560,18524.254087,3805.116273,3789.850031,0.012000,-0.014000,1.004000,192.000000,0.000000,0.000000,0.000000,0.000000,0.000000,0.000000,0.000000,0.000000,0.000000,1775741454.206062,0.000000
4.000000,17031.314019,19301.491296,-10825.508633,582.240591,-10633.194224,-6738.536863,1309.901632,1239.471285,11147.373753,16333.134929,-158.630330,2659.812887,-15036.621992,18558.943994,3450.975233,3342.345755,0.012000,-0.014000,1.004000,192.000000,0.000000,0.000000,0.000000,0.000000,0.000000,0.000000,0.000000,0.000000,0.000000,1775741454.206074,0.000000
6.000000,16976.954577,19241.588621,-10897.324788,522.986117,-10693.923914,-6790.594076,1259.207876,1179.456851,11123.032704,16318.271019,-156.015176,2651.587445,-15029.491786,18552.640802,3312.282659,3166.437527,0.012000,-0.014000,1.004000,192.000000,0.000000,0.000000,0.000000,0.000000,0.000000,0.000000,0.000000,0.000000,0.000000,1775741454.206086,0.000000
8.000000,17013.790251,19277.060840,-10855.817599,557.720728,-10656.216521,-6760.575683,1291.081463,1214.347925,11147.239643,16301.283693,-194.370770,2642.333823,-15069.188484,18531.719569,3842.130761,3832.273642,0.004000,-0.006000,0.998000,192.000000,0.000000,16.000000,127.500000,104.000000,15.500000,24.000000,0.000000,0.000000,0.000000,1775741454.206098,0.000000
10.000000,17018.171193,19274.199816,-10847.279232,560.268827,-10650.628585,-6760.888608,1292.981362,1221.120503,11146.680849,16348.423523,-127.874330,2671.748718,-14992.522000,18576.981852,3109.038247,2904.765654,0.004000,-0.006000,0.998000,192.000000,0.000000,0.000000,0.000000,0.000000,0.000000,0.000000,0.000000,0.000000,0.000000,1775741454.206110,0.000000
12.000000,16986.811696,19254.753799,-10889.926361,526.115361,-10692.202829,-6793.075120,1268.394443,1187.503479,11133.873300,16300.501382,-191.599153,2638.735192,-15063.578196,18526.712778,3799.997723,3771.611008,0.004000,-0.006000,0.998000,192.000000,0.000000,0.000000,0.000000,0.000000,0.000000,0.000000,0.000000,0.000000,0.000000,1775741454.206122,0.000000
14.000000,17037.863080,19294.294035,-10822.133520,580.318341,-10638.022201,-6753.154904,1316.249527,1250.289530,11154.302794,16337.180595,-152.282435,2663.903256,-15024.552050,18553.579575,3448.248321,3325.984278,0.004000,-0.006000,0.998000,192.000000,0.000000,0.000000,0.000000,0.000000,0.000000,0.000000,0.000000,0.000000,0.000000,1775741454.206133,0.000000
16.000000,16989.136277,19259.313555,-10889.836954,523.813131,-10701.121175,-6802.686370,1269.176754,1198.232317,11130.006448,16327.278772,-144.660490,2658.740003,-15021.869841,18549.757427,3299.542165,3139.548378,0.004000,-0.006000,0.998000,192.000000,0.000000,0.000000,0.000000,0.000000,0.000000,0.000000,0.000000,0.000000,0.000000,1775741454.206147,0.000000
18.000000,17023.982647,19286.113296,-10847.770971,556.960768,-10663.190265,-6773.450288,1299.955106,1231.178788,11154.772181,16310.090281,-179.685674,2649.061698,-15063.913472,18527.897421,3834.307651,3816.895642,0.004000,-0.012000,1.006000,192.000000,0.000000,16.000000,127.500000,80.000000,15.500000,56.000000,0.000000,0.000000,0.000000,1775741454.206165,0.000000
20.000000,17029.816452,19283.364032,-10840.774875,559.285350,-10655.389506,-6769.628140,1298.703408,1232.855169,11155.420381,16343.237918,-118.598356,2672.665140,-14992.320835,18568.175264,3109.172357,2897.881317,0.004000,-0.012000,1.006000,192.000000,0.000000,0.000000,0.000000,0.000000,0.000000,0.000000,0.000000,0.000000,0.000000,1775741454.206177,0.000000
22.000000,17003.039062,19266.108485,-10887.937056,524.707201,-10697.813117,-6793.231582,1268.707367,1190.588020,11142.277556,16298.556781,-185.050092,2639.606910,-15061.678298,18523.091796,3800.623572,3773.510906,0.004000,-0.012000,1.006000,192.000000,0.000000,0.000000,0.000000,0.000000,0.000000,0.000000,0.000000,0.000000,0.000000,1775741454.206189,0.000000
24.000000,17047.541386,19304.240561,-10820.144215,579.960713,-10636.211710,-6744.862407,1312.673248,1244.411021,11166.596254,16337.225299,-151.030737,2665.870209,-15018.695893,18556.127674,3457.367832,3345.452648,0.004000,-0.012000,1.006000,192.000000,0.000000,0.000000,0.000000,0.000000,0.000000,0.000000,0.000000,0.000000,0.000000,1775741454.206203,0.000000
26.000000,16985.291777,19256.765456,-10894.821393,520.572128,-10702.082300,-6794.013893,1261.107774,1181.803785,11131.973402,16323.747197,-152.908284,2655.521352,-15019.746425,18549.265689,3303.900755,3155.015785,0.004000,-0.012000,1.006000,192.000000,0.000000,0.000000,0.000000,0.000000,0.000000,0.000000,0.000000,0.000000,0.000000,1775741454.206215,0.000000
28.000000,17017.724158,19281.866465,-10857.806904,551.529294,-10667.034765,-6765.493067,1290.388559,1215.756084,11148.938376,16303.921199,-193.879031,2640.903311,-15068.942615,18524.209383,3843.650680,3840.141456,0.004000,-0.010000,1.008000,192.000000,0.000000,16.000000,127.500000,88.000000,15.500000,64.000000,0.000000,0.000000,0.000000,1775741454.206227,0.000000
30.000000,17012.113871,19268.053087,-10851.615471,551.886922,-10655.568320,-6763.526113,1289.360379,1216.985430,11141.629355,16336.465339,-133.797542,2660.483439,-15000.389814,18561.715610,3109.038247,2916.120340,0.004000,-0.010000,1.008000,192.000000,0.000000,0.000000,0.000000,0.000000,0.000000,0.000000,0.000000,0.000000,0.000000,1775741454.206239,0.000000
32.000000,16987.973987,19259.246499,-10894.620227,517.979326,-10690.146469,-6790.839945,1263.342948,1178.696892,11126.318410,16288.230275,-198.125863,2626.352325,-15070.864865,18514.039339,3801.003552,3779.478822,0.004000,-0.010000,1.008000,192.000000,0.000000,0.000000,0.000000,0.000000,0.000000,0.000000,0.000000,0.000000,0.000000,1775741454.206251,0.000000
34.000000,17045.976763,19300.463116,-10822.245279,575.423309,-10622.264221,-6746.047049,1311.578013,1238.420753,11158.907254,16331.167976,-156.596322,2653.330881,-15021.981600,18547.254032,3464.430984,3351.621729,0.004000,-0.010000,1.008000,192.000000,0.000000,0.000000,0.000000,0.000000,0.000000,0.000000,0.000000,0.000000,0.000000,1775741454.206263,0.000000
36.000000,16988.331615,19252.250403,-10894.083785,515.833559,-10685.966693,-6797.456062,1259.364338,1179.523907,11135.192053,16324.596563,-149.913150,2651.609796,-15012.370349,18550.137407,3304.280735,3146.388012,0.004000,-0.010000,1.008000,192.000000,0.000000,0.000000,0.000000,0.000000,0.000000,0.000000,0.000000,0.000000,0.000000,1775741454.206275,0.000000
38.000000,17039.852386,19302.385366,-10847.860378,556.066699,-10647.722858,-6762.989672,1297.272896,1222.819236,11158.348460,16315.186479,-185.430072,2647.117096,-15054.034001,18532.211308,3849.417430,3834.061782,0.012000,-0.010000,1.004000,192.000000,0.000000,48.000000,127.500000,88.000000,15.500000,48.000000,0.000000,0.000000,0.000000,1775741454.206287,0.000000
40.000000,17038.466577,19292.640006,-10843.792360,558.279521,-10648.125189,-6764.643701,1297.675228,1230.441181,11164.361079,16360.873444,-121.839359,2677.604875,-14978.730974,18577.562997,3116.168453,2907.246698,0.012000,-0.010000,1.004000,192.000000,0.000000,0.000000,0.000000,0.000000,0.000000,0.000000,0.000000,0.000000,0.000000,1775741454.206299,0.000000
42.000000,17012.695016,19276.367936,-10884.360776,527.523521,-10693.432175,-6793.231582,1274.965855,1202.233279,11145.406800,16313.867726,-179.328046,2649.866360,-15050.748295,18532.814805,3798.209584,3763.542028,0.012000,-0.010000,1.004000,192.000000,0.000000,0.000000,0.000000,0.000000,0.000000,0.000000,0.000000,0.000000,0.000000,1775741454.206311,0.000000
44.000000,17066.339203,19323.038378,-10812.455215,585.079263,-10632.434265,-6745.421200,1323.312679,1261.018367,11175.224027,16354.905528,-137.642042,2677.113137,-15005.776585,18564.464875,3460.608835,3343.351584,0.012000,-0.010000,1.004000,192.000000,0.000000,0.000000,0.000000,0.000000,0.000000,0.000000,0.000000,0.000000,0.000000,1775741454.206323,0.000000
46.000000,16996.646463,19271.986994,-10890.172230,523.120227,-10705.569173,-6803.379274,1267.209800,1189.828061,11143.350439,16342.120331,-139.854865,2665.110250,-15023.635629,18557.781703,3294.825947,3132.976965,0.012000,-0.010000,1.004000,192.000000,0.000000,0.000000,0.000000,0.000000,0.000000,0.000000,0.000000,0.000000,0.000000,1775741454.206335,0.000000
48.000000,17027.424816,19300.105488,-10850.117904,562.526353,-10669.582864,-6769.292864,1299.016333,1223.243919,11151.777047,16318.829813,-182.837270,2652.503866,-15071.110734,18534.759406,3841.683727,3834.441761,0.012000,-0.014000,1.004000,192.000000,0.000000,48.000000,127.500000,72.000000,15.500000,48.000000,0.000000,0.000000,0.000000,1775741454.206347,0.000000
50.000000,17032.163385,19296.082174,-10847.614509,567.287274,-10663.927873,-6761.581512,1296.624696,1224.160340,11152.604062,16361.320479,-119.782999,2682.388149,-14994.556009,18582.167456,3109.820558,2917.148521,0.012000,-0.014000,1.004000,192.000000,0.000000,0.000000,0.000000,0.000000,0.000000,0.000000,0.000000,0.000000,0.000000,1775741454.206358,0.000000
52.000000,16998.255789,19273.506912,-10898.442375,531.278614,-10707.625533,-6786.637817,1266.382786,1183.301351,11132.800416,16309.665598,-192.023837,2646.692413,-15072.541246,18535.161738,3788.531278,3778.115365,0.012000,-0.014000,1.004000,192.000000,0.000000,0.000000,0.000000,0.000000,0.000000,0.000000,0.000000,0.000000,0.000000,1775741454.206371,0.000000
54.000000,17045.730894,19308.800317,-10829.800168,581.055949,-10642.872529,-6740.839093,1310.192205,1240.566521,11156.046230,16341.963868,-160.776098,2665.333768,-15031.592850,18564.040192,3460.385318,3367.580875,0.012000,-0.014000,1.004000,192.000000,0.000000,0.000000,0.000000,0.000000,0.000000,0.000000,0.000000,0.000000,0.000000,1775741454.206383,0.000000
56.000000,16996.445298,19265.460284,-10895.447242,520.326259,-10696.829640,-6786.324893,1260.683091,1183.301351,11128.128901,16331.637362,-150.337833,2656.080145,-15020.282867,18562.050886,3293.641304,3146.991509,0.012000,-0.014000,1.004000,192.000000,0.000000,0.000000,0.000000,0.000000,0.000000,0.000000,0.000000,0.000000,0.000000,1775741454.206396,0.000000
58.000000,17044.792121,19306.609846,-10850.162607,560.246475,-10648.795742,-6748.304575,1294.993019,1221.992221,11156.627376,16325.580040,-183.910153,2649.061698,-15056.582100,18544.527119,3850.132686,3848.880988,0.006000,-0.014000,1.002000,192.000000,0.000000,24.000000,127.500000,72.000000,15.500000,40.000000,0.000000,0.000000,0.000000,1775741454.685891,0.000000
60.000000,17046.334391,19303.011215,-10842.048924,563.822754,-10641.553776,-6750.159770,1294.054245,1226.350811,11160.963614,16372.630462,-119.268908,2679.571829,-14980.362651,18593.008052,3119.118884,2925.351611,0.006000,-0.014000,1.002000,192.000000,0.000000,0.000000,0.000000,0.000000,0.000000,0.000000,0.000000,0.000000,0.000000,1775741454.685959,0.000000
62.000000,17020.562830,19289.466058,-10883.042024,530.675117,-10682.077489,-6780.938122,1270.003768,1193.851375,11151.397067,16326.228240,-177.942238,2649.218160,-15047.417885,18548.908061,3797.784900,3771.454545,0.006000,-0.014000,1.002000,192.000000,0.000000,0.000000,0.000000,0.000000,0.000000,0.000000,0.000000,0.000000,0.000000,1775741454.686018,0.000000
64.000000,17072.463581,19326.637009,-10812.186994,586.040388,-10622.688904,-6739.296822,1317.970612,1251.004785,11183.337710,16363.309784,-136.613862,2675.526163,-15002.781451,18577.965328,3474.623379,3359.824820,0.006000,-0.014000,1.002000,192.000000,0.000000,0.000000,0.000000,0.000000,0.000000,0.000000,0.000000,0.000000,0.000000,1775741454.686086,0.000000
66.000000,17015.936019,19284.727488,-10883.198486,528.462294,-10689.252399,-6792.449271,1269.042643,1191.459738,11156.739134,16352.670354,-132.277624,2668.328901,-14995.159506,18575.931320,3296.904659,3127.120808,0.006000,-0.014000,1.002000,192.000000,0.000000,0.000000,0.000000,0.000000,0.000000,0.000000,0.000000,0.000000,0.000000,1775741454.686145,0.000000
68.000000,17043.808644,19306.587494,-10848.016840,556.692547,-10664.106687,-6773.942026,1297.474062,1224.272099,11170.105478,16330.028037,-178.456328,2654.493172,-15051.999992,18546.784645,3853.753669,3832.407753,0.005000,-0.014000,1.004000,192.000000,0.000000,16.000000,127.500000,72.000000,15.500000,56.000000,0.000000,0.000000,0.000000,1775741454.686202,0.000000
70.000000,17039.807682,19296.149230,-10842.831235,558.413632,-10658.854027,-6771.885666,1298.546946,1229.323593,11158.527274,16366.371973,-117.614879,2678.476593,-14984.028337,18584.737907,3114.134444,2903.558660,0.005000,-0.014000,1.004000,192.000000,0.000000,0.000000,0.000000,0.000000,0.000000,0.000000,0.000000,0.000000,0.000000,1775741454.686235,0.000000
72.000000,17001.742661,19269.595357,-10893.815564,521.242681,-10706.843222,-6801.009989,1268.394443,1183.971904,11136.779027,16306.692816,-188.738130,2640.053945,-15063.265272,18532.233659,3783.412729,3750.846237,0.005000,-0.014000,1.004000,192.000000,0.000000,0.000000,0.000000,0.000000,0.000000,0.000000,0.000000,0.000000,0.000000,1775741454.686259,0.000000
74.000000,17049.821264,19307.034529,-10825.910965,577.792594,-10643.096047,-6748.818666,1312.717952,1236.140875,11153.967518,16338.901679,-158.406813,2657.577712,-15026.630762,18561.559148,3467.806097,3357.634349,0.005000,-0.014000,1.004000,192.000000,0.000000,0.000000,0.000000,0.000000,0.000000,0.000000,0.000000,0.000000,0.000000,1775741454.686282,0.000000
76.000000,16994.500696,19263.247462,-10899.448204,520.750942,-10705.256248,-6792.538678,1260.973663,1175.746462,11127.994791,16330.676237,-156.305749,2649.978119,-15017.891230,18562.877901,3282.353673,3130.361811,0.005000,-0.014000,1.004000,192.000000,0.000000,0.000000,0.000000,0.000000,0.000000,0.000000,0.000000,0.000000,0.000000,1775741454.686306,0.000000
78.000000,17032.096330,19292.908227,-10858.410401,556.826658,-10667.124172,-6756.909997,1292.847251,1211.263384,11146.591442,16314.627685,-196.605944,2642.534988,-15059.152551,18543.945973,3843.941253,3850.356203,0.006500,-0.014000,1.006000,192.000000,0.000000,32.000000,127.500000,72.000000,15.500000,64.000000,0.000000,0.000000,0.000000,1775741454.686330,0.000000
80.000000,17037.438397,19292.349433,-10849.268538,558.078356,-10656.015355,-6755.993576,1292.824899,1219.935861,11147.194940,16354.994935,-132.389382,2669.133564,-14980.608521,18585.631977,3111.653401,2925.217500,0.006500,-0.014000,1.006000,192.000000,0.000000,0.000000,0.000000,0.000000,0.000000,0.000000,0.000000,0.000000,0.000000,1775741454.686353,0.000000
82.000000,17003.262580,19270.578834,-10893.614399,521.197977,-10689.833544,-6785.631989,1265.823992,1184.485994,11131.973402,16304.479993,-195.533060,2632.677869,-15067.802676,18533.842985,3783.993874,3773.019168,0.006500,-0.014000,1.006000,192.000000,0.000000,0.000000,0.000000,0.000000,0.000000,0.000000,0.000000,0.000000,0.000000,1775741454.686377,0.000000
84.000000,17065.467485,19319.037416,-10819.987752,579.133699,-10617.860927,-6730.959622,1313.947298,1247.003823,11164.092858,16347.350639,-150.807220,2663.299759,-15017.868879,18570.365735,3479.920743,3381.282494,0.006500,-0.014000,1.006000,192.000000,0.000000,0.000000,0.000000,0.000000,0.000000,0.000000,0.000000,0.000000,0.000000,1775741454.686400,0.000000
86.000000,17015.377225,19280.994747,-10888.786422,521.667364,-10682.502172,-6781.407509,1263.119431,1188.598715,11147.194940,16346.322459,-138.916092,2663.657387,-15004.614294,18574.411401,3290.936743,3133.803980,0.006500,-0.014000,1.006000,192.000000,0.000000,0.000000,0.000000,0.000000,0.000000,0.000000,0.000000,0.000000,0.000000,1775741454.686423,0.000000
88.000000,17048.256641,19309.627331,-10850.788456,556.983120,-10651.835579,-6758.072288,1294.769501,1219.757047,11162.952919,16329.156319,-182.949028,2654.381413,-15051.687068,18548.304564,3862.761422,3847.651642,0.005250,-0.014000,1.004000,192.000000,0.000000,16.000000,127.500000,72.000000,15.500000,40.000000,0.000000,0.000000,0.000000,1775741454.686456,0.000000
90.000000,17046.133226,19303.793526,-10843.121808,560.671158,-10649.689811,-6762.319119,1297.004676,1225.680259,11159.600158,16369.277700,-120.855882,2682.589314,-14982.173143,18589.744698,3125.243261,2913.281669,0.005250,-0.014000,1.004000,192.000000,0.000000,0.000000,0.000000,0.000000,0.000000,0.000000,0.000000,0.000000,0.000000,1775741454.686480,0.000000
92.000000,17009.476365,19278.044317,-10895.179021,522.203806,-10700.405920,-6796.539640,1267.679187,1185.223601,11137.315468,16315.745272,-187.575839,2646.178323,-15055.911548,18538.335686,3785.156165,3746.174722,0.005250,-0.014000,1.004000,192.000000,0.000000,0.000000,0.000000,0.000000,0.000000,0.000000,0.000000,0.000000,0.000000,1775741454.686503,0.000000
94.000000,17064.618118,19316.869297,-10824.391046,578.284333,-10638.737457,-6752.126724,1316.987135,1249.887198,11159.823675,16347.529453,-153.601188,2666.361948,-15026.250783,18562.967308,3471.717652,3361.657663,0.005250,-0.014000,1.004000,192.000000,0.000000,0.000000,0.000000,0.000000,0.000000,0.000000,0.000000,0.000000,0.000000,1775741454.686526,0.000000
96.000000,17005.006016,19268.745991,-10895.246076,517.889919,-10705.077434,-6804.787434,1266.427489,1190.900945,11131.861643,16337.873499,-144.101697,2660.662253,-15017.310085,18559.703953,3274.865839,3108.613564,0.005250,-0.014000,1.004000,192.000000,0.000000,0.000000,0.000000,0.000000,0.000000,0.000000,0.000000,0.000000,0.000000,1775741454.686550,0.000000
98.000000,17036.186699,19301.915980,-10859.639747,553.719765,-10673.360309,-6771.885666,1295.305943,1220.829930,11146.546739,16318.963923,-189.565145,2648.301738,-15069.233187,18537.039284,3846.556407,3840.610843,0.004625,-0.011000,1.002000,192.000000,0.000000,16.000000,127.500000,96.000000,15.500000,32.000000,0.000000,0.000000,0.000000,1775741454.686574,0.000000
100.000000,17037.371342,19295.724546,-10854.118866,557.988949,-10666.431268,-6765.761288,1293.830728,1221.098151,11142.255204,16360.471113,-130.623595,2673.581561,-14999.875724,18582.994471,3108.278287,2913.304021,0.004625,-0.011000,1.002000,192.000000,0.000000,0.000000,0.000000,0.000000,0.000000,0.000000,0.000000,0.000000,0.000000,1775741454.686597,0.000000
102.000000,17003.083766,19277.977261,-10901.616323,523.053172,-10711.693551,-6797.567820,1265.600475,1183.077834,11122.540965,16307.050444,-199.265802,2637.528197,-15076.005766,18533.440653,3768.817040,3751.673252,0.004625,-0.011000,1.002000,192.000000,0.000000,0.000000,0.000000,0.000000,0.000000,0.000000,0.000000,0.000000,0.000000,1775741454.686629,0.000000
104.000000,17064.260490,19324.781814,-10829.531947,581.771205,-10646.024125,-6747.477561,1314.260222,1248.635501,11153.788704,16347.015363,-158.920903,2666.294893,-15033.090417,18565.001317,3468.119021,3380.120204,0.004625,-0.011000,1.002000,192.000000,0.000000,0.000000,0.000000,0.000000,0.000000,0.000000,0.000000,0.000000,0.000000,1775741454.686652,0.000000
106.000000,17016.494813,19285.263930,-10892.854439,524.215463,-10703.244591,-6794.371521,1264.460536,1193.963134,11135.773198,16342.924993,-142.134743,2665.199657,-15017.623009,18568.152913,3264.181705,3122.426942,0.004625,-0.011000,1.002000,192.000000,0.000000,0.000000,0.000000,0.000000,0.000000,0.000000,0.000000,0.000000,0.000000,1775741454.686676,0.000000
108.000000,17050.447112,19314.343550,-10852.531892,557.385451,-10667.057117,-6760.978015,1295.060074,1224.786189,11152.693469,16326.295296,-183.574877,2652.615625,-15062.281795,18545.644706,3851.384384,3855.877084,0.003313,-0.009500,1.001000,192.000000,0.000000,8.000000,127.500000,96.000000,15.500000,32.000000,0.000000,0.000000,0.000000,1775741454.686699,0.000000
110.000000,17054.023391,19310.655512,-10842.495959,560.626454,-10653.623718,-6760.173352,1295.127129,1226.462570,11154.950995,16365.097924,-122.487560,2676.286122,-14980.407355,18589.811753,3119.632974,2927.653841,0.003313,-0.009500,1.001000,192.000000,0.000000,0.000000,0.000000,0.000000,0.000000,0.000000,0.000000,0.000000,0.000000,1775741454.686723,0.000000
112.000000,17014.751376,19284.168695,-10893.659102,521.421495,-10697.321379,-6789.901172,1264.527591,1181.244991,11136.935489,16311.632551,-188.268744,2640.791552,-15066.998013,18541.487281,3782.988046,3750.354499,0.003313,-0.009500,1.001000,192.000000,0.000000,0.000000,0.000000,0.000000,0.000000,0.000000,0.000000,0.000000,0.000000,1775741454.686746,0.000000
114.000000,17067.903825,19327.553431,-10822.379389,577.770242,-10633.864776,-6740.906148,1314.036705,1239.493637,11161.365946,16345.160168,-157.915075,2659.119983,-15024.686161,18567.795285,3490.962504,3379.472003,0.003313,-0.009500,1.001000,192.000000,0.000000,0.000000,0.000000,0.000000,0.000000,0.000000,0.000000,0.000000,0.000000,1775741454.686770,0.000000
116.000000,17011.309208,19278.759572,-10892.005073,518.538120,-10698.774242,-6794.773852,1265.935751,1183.279000,11133.739189,16340.890985,-150.360185,2656.951863,-15013.107957,18567.728229,3279.067967,3105.059636,0.003313,-0.009500,1.001000,192.000000,0.000000,0.000000,0.000000,0.000000,0.000000,0.000000,0.000000,0.000000,0.000000,1775741454.686793,0.000000
118.000000,17046.423798,19314.209439,-10856.264634,549.629396,-10670.119306,-6771.170410,1296.401178,1224.719134,11153.676945,16317.958095,-192.783796,2645.418363,-15064.762838,18538.670962,3859.587474,3839.135628,0.004656,-0.013750,1.003500,192.000000,0.000000,24.000000,127.500000,56.000000,15.500000,56.000000,0.000000,0.000000,0.000000,1775741454.686828,0.000000
120.000000,17055.453903,19312.421300,-10846.251052,555.552608,-10662.854989,-6768.242332,1301.296210,1239.895968,11157.208521,16358.504159,-123.024001,2676.867268,-14992.276131,18580.379317,3117.330744,2909.571279,0.004656,-0.013750,1.003500,192.000000,0.000000,0.000000,0.000000,0.000000,0.000000,0.000000,0.000000,0.000000,0.000000,1775741454.686864,0.000000
122.000000,17016.315999,19286.448572,-10897.995341,520.773294,-10706.686760,-6793.589210,1272.305998,1196.578288,11135.482625,16306.312836,-186.167680,2642.378526,-15066.707440,18532.747749,3769.174667,3732.718972,0.004656,-0.013750,1.003500,192.000000,0.000000,0.000000,0.000000,0.000000,0.000000,0.000000,0.000000,0.000000,0.000000,1775741454.686888,0.000000
124.000000,17068.082639,19323.306599,-10828.101436,574.797460,-10643.386619,-6745.532959,1316.517748,1247.406155,11160.628338,16345.920127,-155.612845,2663.433869,-15027.681294,18566.722401,3481.038330,3380.813108,0.004656,-0.013750,1.003500,192.000000,0.000000,0.000000,0.000000,0.000000,0.000000,0.000000,0.000000,0.000000,0.000000,1775741454.686911,0.000000
126.000000,17008.537592,19276.099715,-10896.453070,519.633355,-10701.210582,-6786.101375,1265.622826,1185.514174,11134.052114,16335.705380,-149.399060,2654.940206,-15016.795995,18567.884692,3269.635531,3107.719494,0.004656,-0.013750,1.003500,192.000000,0.000000,0.000000,0.000000,0.000000,0.000000,0.000000,0.000000,0.000000,0.000000,1775741454.686930,0.000000
128.000000,17043.249851,19311.437823,-10860.220892,554.613835,-10672.823867,-6758.564026,1295.060074,1221.612241,11146.502035,16319.746234,-194.706046,2644.926625,-15074.418792,18547.052866,3862.984939,3862.403794,0.005328,-0.016875,1.006750,192.000000,0.000000,24.000000,127.500000,48.000000,15.500000,72.000000,0.000000,0.000000,0.000000,1775741454.686942,0.000000
130.000000,17055.945642,19312.376596,-10848.150950,558.972425,-10663.771410,-6758.675785,1297.339952,1235.515027,11156.917948,16369.367107,-121.794656,2681.315265,-14995.070099,18595.220875,3122.963384,2936.549835,0.005328,-0.016875,1.006750,192.000000,0.000000,0.000000,0.000000,0.000000,0.000000,0.000000,0.000000,0.000000,0.000000,1775741454.686957,0.000000
132.000000,17020.965161,19288.236712,-10891.982721,523.366096,-10705.882097,-6792.985713,1272.887143,1199.528718,11135.214404,16313.755967,-183.038435,2645.932453,-15068.406173,18538.782720,3775.097880,3749.348670,0.005328,-0.016875,1.006750,192.000000,0.000000,0.000000,0.000000,0.000000,0.000000,0.000000,0.000000,0.000000,0.000000,1775741454.686969,0.000000
134.000000,17076.285729,19330.682675,-10820.255973,580.832431,-10642.358439,-6743.945985,1321.703353,1258.894951,11164.428134,16352.223319,-146.135705,2671.569904,-15027.725998,18570.812770,3493.085920,3392.033683,0.005328,-0.016875,1.006750,192.000000,0.000000,0.000000,0.000000,0.000000,0.000000,0.000000,0.000000,0.000000,0.000000,1775741454.686980,0.000000
136.000000,17022.529784,19289.734279,-10890.641617,522.360268,-10703.959847,-6796.271419,1271.523687,1198.612296,11136.711971,16344.869595,-137.574987,2666.741927,-15015.454890,18570.633956,3268.964978,3102.712703,0.005328,-0.016875,1.006750,192.000000,0.000000,0.000000,0.000000,0.000000,0.000000,0.000000,0.000000,0.000000,0.000000,1775741454.686992,0.000000
138.000000,17061.287708,19326.480547,-10850.654346,559.575922,-10667.817076,-6762.028547,1305.878318,1233.771590,11156.828541,16332.665543,-177.875182,2660.058756,-15064.427562,18549.332744,3862.359090,3851.429087,0.005328,-0.016875,1.006750,192.000000,0.000000,0.000000,0.000000,0.000000,0.000000,0.000000,0.000000,0.000000,0.000000,1775741454.687004,0.000000
140.000000,17064.439304,19328.492204,-10843.144160,562.124021,-10661.223312,-6763.079079,1306.057132,1241.259425,11155.330974,16375.491485,-116.094961,2687.283181,-14992.276131,18591.756355,3123.298660,2919.987192,0.006000,-0.016000,1.008000,192.000000,0.000000,24.000000,127.500000,64.000000,15.500000,64.000000,0.000000,0.000000,0.000000,1775741454.687016,0.000000
142.000000,17029.570583,19302.698291,-10890.328692,524.863663,-10705.189193,-6792.069291,1277.290437,1203.216756,11135.549681,16328.105787,-178.366921,2656.303663,-15050.033039,18544.862395,3770.471069,3731.422571,0.006000,-0.016000,1.008000,192.000000,0.000000,0.000000,0.000000,0.000000,0.000000,0.000000,0.000000,0.000000,0.000000,1775741454.687028,0.000000
144.000000,17082.298348,19336.650590,-10819.697180,578.709016,-10637.843387,-6743.297785,1322.776237,1257.196219,11162.662347,16360.582872,-147.253292,2676.509640,-15031.414036,18573.427924,3500.037313,3389.038550,0.006000,-0.016000,1.008000,192.000000,0.000000,0.000000,0.000000,0.000000,0.000000,0.000000,0.000000,0.000000,0.000000,1775741454.687039,0.000000
146.000000,17021.948638,19287.700270,-10886.059509,521.376791,-10690.526449,-6785.721396,1273.758861,1193.538450,11132.666306,16348.200005,-141.486542,2664.573808,-15014.359655,18575.506637,3270.149621,3096.789491,0.006000,-0.016000,1.008000,192.000000,0.000000,0.000000,0.000000,0.000000,0.000000,0.000000,0.000000,0.000000,0.000000,1775741454.687051,0.000000
148.000000,17051.050609,19316.154041,-10854.945881,547.416573,-10661.983271,-6762.229712,1297.004676,1216.985430,11149.474817,16327.099958,-189.207517,2646.334785,-15064.360507,18546.091741,3873.579666,3858.514590,0.006000,-0.016000,1.008000,192.000000,0.000000,0.000000,0.000000,0.000000,0.000000,0.000000,0.000000,0.000000,0.000000,1775741454.687063,0.000000
150.000000,17051.654107,19310.431994,-10843.278270,553.943283,-10648.013431,-6754.563064,1300.268030,1221.098151,11150.637108,16366.506084,-129.684821,2671.949884,-14989.325701,18585.833142,3138.408439,2929.889015,0.006000,-0.016000,1.008000,192.000000,0.000000,24.000000,127.500000,64.000000,15.500000,64.000000,0.000000,0.000000,0.000000,1775741454.687074,0.000000
152.000000,17013.924362,19286.359165,-10893.256771,516.794684,-10691.487574,-6784.447346,1270.115527,1180.216811,11130.945221,16315.231182,-194.482529,2639.606910,-15054.346926,18543.118959,3779.635284,3738.418667,0.006000,-0.016000,1.008000,192.000000,0.000000,0.000000,0.000000,0.000000,0.000000,0.000000,0.000000,0.000000,0.000000,1775741454.687086,0.000000
154.000000,17065.467485,19322.390178,-10825.486282,572.405824,-10632.568375,-6733.686535,1317.545929,1241.862922,11154.191036,16346.881252,-163.503011,2662.271579,-15025.379065,18570.142218,3511.034371,3405.757654,0.006000,-0.016000,1.008000,192.000000,0.000000,0.000000,0.000000,0.000000,0.000000,0.000000,0.000000,0.000000,0.000000,1775741454.687098,0.000000
156.000000,17010.973932,19276.189122,-10893.368529,515.900614,-10692.180478,-6785.810803,1269.869658,1185.335360,11127.547756,16340.823929,-151.634234,2656.080145,-15012.862088,18572.533855,3272.384795,3104.813767,0.006000,-0.016000,1.008000,192.000000,0.000000,0.000000,0.000000,0.000000,0.000000,0.000000,0.000000,0.000000,0.000000,1775741454.687109,0.000000
158.000000,17040.634697,19308.867372,-10858.231587,549.450582,-10663.726707,-6759.368689,1299.262202,1212.917413,11142.478721,16317.354598,-199.936354,2637.662308,-15068.897911,18541.844909,3872.506782,3863.811954,0.006000,-0.016000,1.008000,192.000000,0.000000,0.000000,0.000000,0.000000,0.000000,0.000000,0.000000,0.000000,0.000000,1775741454.687121,0.000000
160.000000,17053.978688,19311.370768,-10840.752523,561.118193,-10648.393410,-6748.483389,1305.632449,1226.708439,11147.686678,16363.220377,-130.869464,2670.541724,-14991.180896,18594.013881,3130.786494,2934.851102,0.010000,-0.018000,1.006000,192.000000,0.000000,40.000000,127.500000,56.000000,15.500000,56.000000,0.000000,0.000000,0.000000,1775741454.687132,0.000000
162.000000,17021.322789,19292.640006,-10892.250942,521.130922,-10695.399129,-6782.703910,1272.998902,1185.737692,11135.013239,16320.573249,-187.352322,2645.775991,-15057.185597,18551.478511,3769.442888,3736.697583,0.010000,-0.018000,1.006000,192.000000,0.000000,0.000000,0.000000,0.000000,0.000000,0.000000,0.000000,0.000000,0.000000,1775741454.687144,0.000000
164.000000,17075.883398,19334.080140,-10824.256936,577.166745,-10637.530462,-6739.475636,1320.071676,1247.741431,11159.376640,16353.564424,-157.848019,2667.837163,-15025.177899,18574.277291,3505.692304,3402.762521,0.010000,-0.018000,1.006000,192.000000,0.000000,0.000000,0.000000,0.000000,0.000000,0.000000,0.000000,0.000000,0.000000,1775741454.687155,0.000000
166.000000,17032.431606,19301.111317,-10883.377300,528.261128,-10692.895733,-6782.435689,1278.855059,1201.652134,11136.555509,16347.820025,-142.022984,2667.591294,-15012.347998,18579.060564,3264.606388,3091.782700,0.010000,-0.018000,1.006000,192.000000,0.000000,0.000000,0.000000,0.000000,0.000000,0.000000,0.000000,0.000000,0.000000,1775741454.687167,0.000000
168.000000,17050.201243,19316.176393,-10854.722363,553.965635,-10667.012413,-6761.492105,1301.095045,1227.535454,11155.979175,16329.648057,-183.463118,2653.800267,-15062.482961,18553.624279,3873.870239,3860.906227,0.010000,-0.018000,1.006000,192.000000,0.000000,0.000000,0.000000,0.000000,0.000000,0.000000,0.000000,0.000000,0.000000,1775741454.687179,0.000000
170.000000,17057.733781,19317.584552,-10835.902194,563.062795,-10647.432285,-6753.825456,1307.107664,1236.744372,11150.212425,16363.823874,-123.269871,2678.454242,-14976.451096,18592.717480,3135.435657,2929.844311,0.010000,-0.016000,1.004000,192.000000,0.000000,40.000000,127.500000,64.000000,15.500000,48.000000,0.000000,0.000000,0.000000,1775741454.687191,0.000000
172.000000,17018.707635,19290.091907,-10889.188753,515.431227,-10694.795632,-6792.963361,1270.361396,1187.123500,11133.828596,16314.672388,-187.508784,2645.373660,-15065.299280,18546.315258,3774.606141,3724.873510,0.010000,-0.016000,1.004000,192.000000,0.000000,0.000000,0.000000,0.000000,0.000000,0.000000,0.000000,0.000000,0.000000,1775741454.687202,0.000000
174.000000,17073.357650,19328.760425,-10815.137424,571.601161,-10628.746227,-6742.359011,1319.959917,1245.752125,11159.846027,16341.941517,-154.115278,2663.567980,-15027.346018,18567.772933,3520.243289,3401.913154,0.010000,-0.016000,1.004000,192.000000,0.000000,0.000000,0.000000,0.000000,0.000000,0.000000,0.000000,0.000000,0.000000,1775741454.687214,0.000000
176.000000,17012.963237,19274.065706,-10883.444355,512.525500,-10690.101765,-6787.889515,1270.003768,1183.793090,11135.124998,16332.531432,-143.989938,2653.956730,-15011.632742,18568.912872,3272.205981,3087.960552,0.010000,-0.016000,1.004000,192.000000,0.000000,0.000000,0.000000,0.000000,0.000000,0.000000,0.000000,0.000000,0.000000,1775741454.687226,0.000000
178.000000,17045.887357,19304.128802,-10850.252014,543.952053,-10659.725745,-6757.826419,1298.278725,1217.410114,11149.161893,16304.323531,-192.336761,2635.829465,-15065.053411,18537.799244,3885.917829,3866.874143,0.010000,-0.016000,1.004000,192.000000,0.000000,0.000000,0.000000,0.000000,0.000000,0.000000,0.000000,0.000000,0.000000,1775741455.166812,0.000000
180.000000,17054.291612,19309.940256,-10834.449331,556.916065,-10642.224329,-6744.057744,1305.923022,1232.318727,11149.720687,16348.088246,-126.197949,2666.473707,-14990.040957,18586.347233,3143.817561,2945.401126,0.006000,-0.018000,1.002000,192.000000,0.000000,24.000000,127.500000,56.000000,15.500000,40.000000,0.000000,0.000000,0.000000,1775741455.166874,0.000000
182.000000,17017.880621,19282.425258,-10891.714500,515.744152,-10690.593504,-6775.461945,1269.892009,1184.910677,11135.616736,16300.233161,-186.949991,2638.601081,-15059.286661,18544.437712,3771.007511,3738.418667,0.006000,-0.018000,1.002000,192.000000,0.000000,0.000000,0.000000,0.000000,0.000000,0.000000,0.000000,0.000000,0.000000,1775741455.166958,0.000000
184.000000,17078.811476,19332.962553,-10822.334686,574.261019,-10628.455654,-6727.718619,1318.127074,1245.170980,11162.572940,16336.219470,-159.300883,2659.276445,-15026.384893,18571.706840,3514.968278,3426.097742,0.006000,-0.018000,1.002000,192.000000,0.000000,0.000000,0.000000,0.000000,0.000000,0.000000,0.000000,0.000000,0.000000,1775741455.167055,0.000000
186.000000,17030.710522,19292.505895,-10883.824335,520.147445,-10682.837448,-6774.947855,1272.171887,1191.549145,11145.876187,16340.578060,-141.307728,2663.277407,-15003.429652,18583.195637,3256.380946,3099.181127,0.006000,-0.018000,1.002000,192.000000,0.000000,0.000000,0.000000,0.000000,0.000000,0.000000,0.000000,0.000000,0.000000,1775741455.167131,0.000000
188.000000,17055.655069,19320.132651,-10846.452218,550.434059,-10651.746172,-6748.483389,1302.100873,1221.209910,11161.768277,16322.026112,-186.190031,2648.167628,-15053.229338,18557.133503,3882.676826,3872.730300,0.006000,-0.018000,1.002000,192.000000,0.000000,0.000000,0.000000,0.000000,0.000000,0.000000,0.000000,0.000000,0.000000,1775741455.167208,0.000000
190.000000,17057.800836,19311.303712,-10834.695200,557.094879,-10642.447846,-6749.422163,1308.828748,1235.000936,11165.523370,16359.264119,-120.989993,2674.542686,-14980.273244,18595.802021,3144.398706,2938.628547,0.004000,-0.016000,1.000000,192.000000,0.000000,16.000000,127.500000,64.000000,15.500000,32.000000,0.000000,0.000000,0.000000,1775741455.167259,0.000000
192.000000,17019.847574,19288.907264,-10888.205277,516.951146,-10693.610989,-6788.180088,1276.083443,1194.298410,11137.918966,16304.010606,-183.820746,2641.350346,-15056.850321,18546.158796,3769.085261,3716.893937,0.004000,-0.016000,1.000000,192.000000,0.000000,0.000000,0.000000,0.000000,0.000000,0.000000,0.000000,0.000000,0.000000,1775741455.167271,0.000000
194.000000,17077.895055,19327.955762,-10816.858508,574.439833,-10632.143692,-6740.481465,1323.692658,1250.624806,11166.037460,16343.193214,-150.986034,2667.367776,-15021.489861,18576.601872,3523.685458,3409.177471,0.004000,-0.016000,1.000000,192.000000,0.000000,0.000000,0.000000,0.000000,0.000000,0.000000,0.000000,0.000000,0.000000,1775741455.167284,0.000000
196.000000,17019.557002,19279.497180,-10886.148916,516.660573,-10692.962789,-6793.142175,1273.043605,1189.582192,11138.522463,16333.246688,-141.777115,2659.343500,-15009.934009,18576.154837,3259.934874,3074.527153,0.004000,-0.016000,1.000000,192.000000,0.000000,0.000000,0.000000,0.000000,0.000000,0.000000,0.000000,0.000000,0.000000,1775741455.167296,0.000000
198.000000,17047.429627,19309.537924,-10852.487189,546.902483,-10664.263149,-6768.778773,1300.580955,1215.823140,11157.521445,16309.732653,-189.900421,2643.853741,-15065.187522,18544.683581,3883.302675,3858.380480,0.004000,-0.016000,1.000000,192.000000,0.000000,0.000000,0.000000,0.000000,0.000000,0.000000,0.000000,0.000000,0.000000,1775741455.167309,0.000000
200.000000,17045.239156,19300.083137,-10838.025610,555.485553,-10652.237910,-6761.357994,1305.610097,1219.846454,11149.698335,16346.344810,-132.523493,2669.871172,-14997.729957,18585.073183,3144.421058,2938.762657,0.004000,-0.022000,1.000000,192.000000,0.000000,16.000000,127.500000,40.000000,15.500000,32.000000,0.000000,0.000000,0.000000,1775741455.167322,0.000000
202.000000,17004.067243,19271.875235,-10894.039082,509.865643,-10696.516716,-6792.672788,1270.428451,1173.935971,11125.446692,16296.947455,-198.304677,2631.403819,-15068.763801,18539.341514,3765.106650,3717.564490,0.004000,-0.022000,1.000000,192.000000,0.000000,0.000000,0.000000,0.000000,0.000000,0.000000,0.000000,0.000000,0.000000,1775741455.167334,0.000000
204.000000,17068.552025,19320.490279,-10821.820595,568.494268,-10626.958087,-6734.491197,1320.004621,1241.192370,11158.236701,16327.926973,-168.085118,2652.012128,-15029.111806,18566.208311,3528.602842,3425.203672,0.004000,-0.022000,1.000000,192.000000,0.000000,0.000000,0.000000,0.000000,0.000000,0.000000,0.000000,0.000000,0.000000,1775741455.167346,0.000000
206.000000,17014.885487,19276.077363,-10888.071166,515.878262,-10685.005568,-6776.870105,1274.809393,1190.230392,11139.014201,16331.458548,-148.080307,2656.683642,-15008.324684,18578.837046,3260.627778,3087.960552,0.004000,-0.022000,1.000000,192.000000,0.000000,0.000000,0.000000,0.000000,0.000000,0.000000,0.000000,0.000000,0.000000,1775741455.167358,0.000000
208.000000,17045.574432,19309.180297,-10858.119828,545.002585,-10656.395335,-6748.461038,1299.888051,1217.365410,11148.893672,16309.911467,-196.404779,2646.290081,-15050.860053,18552.596098,3886.431919,3883.347378,0.004000,-0.022000,1.000000,192.000000,0.000000,0.000000,0.000000,0.000000,0.000000,0.000000,0.000000,0.000000,0.000000,1775741455.167371,0.000000
210.000000,17061.019488,19318.791547,-10836.773913,558.413632,-10642.179625,-6740.146189,1308.962859,1230.776457,11155.889768,16360.359354,-130.265967,2677.023730,-14996.835887,18600.093555,3143.974023,2954.632396,0.004000,-0.019000,1.000000,192.000000,0.000000,16.000000,127.500000,64.000000,15.500000,32.000000,0.000000,0.000000,0.000000,1775741455.167383,0.000000
212.000000,17021.345141,19291.991805,-10887.042986,514.425399,-10689.900600,-6778.904114,1274.071786,1180.417976,11144.713896,16312.504269,-186.391197,2643.294948,-15055.844492,18553.758389,3755.093068,3723.957088,0.004000,-0.019000,1.000000,192.000000,0.000000,0.000000,0.000000,0.000000,0.000000,0.000000,0.000000,0.000000,0.000000,1775741455.167396,0.000000
214.000000,17071.882435,19322.077253,-10814.645686,570.997664,-10630.936698,-6735.027639,1322.552719,1240.141838,11167.713841,16343.394380,-158.831496,2662.092765,-15022.942725,18579.753468,3522.746685,3428.154102,0.004000,-0.019000,1.000000,192.000000,0.000000,0.000000,0.000000,0.000000,0.000000,0.000000,0.000000,0.000000,0.000000,1775741455.167409,0.000000
216.000000,17022.149804,19290.002500,-10878.526971,518.001678,-10688.000701,-6782.636855,1277.759824,1194.521927,11140.467064,16337.314706,-141.687708,2661.601026,-15006.760062,18582.323919,3249.496609,3072.604903,0.004000,-0.019000,1.000000,192.000000,0.000000,0.000000,0.000000,0.000000,0.000000,0.000000,0.000000,0.000000,0.000000,1775741455.167421,0.000000
218.000000,17050.380057,19315.148212,-10849.872035,548.869437,-10660.709221,-6756.753535,1305.274821,1225.121465,11154.235739,16319.410958,-187.419377,2650.447506,-15063.846417,18554.563052,3882.274494,3866.740032,0.004000,-0.019000,1.000000,192.000000,0.000000,0.000000,0.000000,0.000000,0.000000,0.000000,0.000000,0.000000,0.000000,1775741455.167433,0.000000
220.000000,17056.236214,19310.029663,-10838.919680,556.267864,-10650.025088,-6757.535846,1308.448769,1230.597643,11154.839236,16361.007555,-126.354411,2677.403710,-14992.298483,18601.099384,3142.543512,2936.549835,0.005000,-0.018500,0.999000,192.000000,0.000000,24.000000,127.500000,56.000000,15.500000,24.000000,0.000000,0.000000,0.000000,1775741455.167445,0.000000
222.000000,17013.700844,19283.609901,-10892.161535,517.129960,-10696.069681,-6791.510498,1275.882277,1183.167241,11129.693524,16301.216638,-189.788662,2640.500979,-15062.818237,18550.293869,3751.382679,3702.633524,0.005000,-0.018500,0.999000,192.000000,0.000000,0.000000,0.000000,0.000000,0.000000,0.000000,0.000000,0.000000,0.000000,1775741455.167457,0.000000
224.000000,17074.765810,19332.895497,-10818.780758,573.791632,-10628.522709,-6738.112180,1322.977403,1242.935806,11158.169646,16335.012476,-160.329063,2663.188000,-15026.742521,18574.031421,3531.732086,3423.571995,0.005000,-0.018500,0.999000,192.000000,0.000000,0.000000,0.000000,0.000000,0.000000,0.000000,0.000000,0.000000,0.000000,1775741455.167470,0.000000
226.000000,17021.903935,19285.979186,-10880.829201,517.040553,-10683.776222,-6783.039186,1273.602399,1186.162375,11139.125960,16337.873499,-141.352432,2662.182172,-15003.697873,18585.497866,3250.144810,3066.480525,0.005000,-0.018500,0.999000,192.000000,0.000000,0.000000,0.000000,0.000000,0.000000,0.000000,0.000000,0.000000,0.000000,1775741455.167482,0.000000
228.000000,17048.882490,19310.230829,-10849.782628,542.253320,-10655.881245,-6757.535846,1296.758806,1212.962116,11157.677908,16313.107766,-192.225002,2643.004375,-15061.097152,18553.780741,3891.639875,3876.932428,0.005000,-0.018500,0.999000,192.000000,0.000000,0.000000,0.000000,0.000000,0.000000,0.000000,0.000000,0.000000,0.000000,1775741455.167494,0.000000
230.000000,17058.583147,19315.215268,-10833.130578,558.793611,-10639.229195,-6744.594186,1306.995905,1231.514064,11154.302794,16356.514854,-126.756743,2672.486326,-14988.431631,18600.093555,3154.077012,2951.212579,0.007500,-0.017250,0.999500,192.000000,0.000000,40.000000,127.500000,64.000000,15.500000,32.000000,0.000000,0.000000,0.000000,1775741455.167507,0.000000
232.000000,17015.488984,19284.571026,-10893.793213,516.526463,-10693.499231,-6777.786526,1271.501335,1183.457814,11128.844157,16300.546086,-191.085063,2640.858607,-15060.828931,18553.624279,3757.909388,3716.558661,0.007500,-0.017250,0.999500,192.000000,0.000000,0.000000,0.000000,0.000000,0.000000,0.000000,0.000000,0.000000,0.000000,1775741455.167519,0.000000
234.000000,17077.827999,19331.755558,-10822.535851,576.809117,-10627.069846,-6723.874119,1321.658650,1244.925111,11158.884902,16335.079531,-162.184258,2664.126773,-15028.910640,18582.212160,3536.627118,3445.297890,0.007500,-0.017250,0.999500,192.000000,0.000000,0.000000,0.000000,0.000000,0.000000,0.000000,0.000000,0.000000,0.000000,1775741455.167531,0.000000
