Sample_index,EXG Channel 0,EXG Channel 1,EXG Channel 2,EXG Channel 3,EXG Channel 4,EXG Channel 5,EXG Channel 6,EXG Channel 7,EXG Channel 8,EXG Channel 9,EXG Channel 10,EXG Channel 11,EXG Channel 12,EXG Channel 13,EXG Channel 14,EXG Channel 15,Accel Channel 0,Accel Channel 1,Accel Channel 2,Not Used,Digital Channel 0 (D11),Digital Channel 1 (D12),Digital Channel 2 (D13),Digital Channel 3 (D17),Not Used,Digital Channel 4 (D18),Analog Channel 0,Analog Channel 1,Analog Channel 2,Timestamp,Marker Channel
210.000000,17395.423936,19635.560469,-17527.343932,2085.507165,-14414.550592,2759.099336,913.426389,-13895.252513,8471.333500,17533.468310,-4822.254756,2313.472606,-17880.881474,18944.399827,684.186898,555.060870,0.008000,-0.014000,1.010000,192.000000,0.000000,0.000000,0.000000,0.000000,0.000000,0.000000,0.000000,0.000000,0.000000,1775737361.447616,101.000000
212.000000,17392.361747,19637.683885,-17528.997961,2095.163118,-14418.037464,2770.185801,918.611994,-13890.290426,8495.853364,17546.432322,-4829.317907,2322.972098,-17898.114669,18960.783656,719.100323,604.167653,0.008000,-0.014000,1.010000,192.000000,0.000000,0.000000,0.000000,0.000000,0.000000,0.000000,0.000000,0.000000,0.000000,1775737361.447711,0.000000
214.000000,17393.345224,19636.298077,-17521.331313,2097.688865,-14413.164784,2770.431670,916.935613,-13886.512981,8466.103192,17547.147578,-4824.936965,2325.117865,-17884.055422,18960.090752,678.710720,560.358233,0.008000,-0.014000,1.010000,192.000000,0.000000,0.000000,0.000000,0.000000,0.000000,0.000000,0.000000,0.000000,0.000000,1775737361.447794,0.000000
216.000000,17378.905997,19630.196050,-17536.821072,2091.944467,-14425.972334,2768.732937,914.812197,-13905.377854,8477.413175,17544.063037,-4832.693020,2324.961403,-17905.848373,18966.371592,707.388009,594.198775,0.008000,-0.012000,1.006000,192.000000,0.000000,32.000000,127.500000,80.000000,15.500000,56.000000,0.000000,0.000000,0.000000,1775737361.447870,0.000000
218.000000,17386.527942,19630.240754,-17520.750167,2095.029008,-14419.311514,2761.468620,915.974488,-13897.420633,8474.753317,17537.916307,-4838.035087,2316.199519,-17916.644265,18953.765208,710.830177,596.188080,0.008000,-0.012000,1.006000,192.000000,0.000000,0.000000,0.000000,0.000000,0.000000,0.000000,0.000000,0.000000,0.000000,1775737361.447948,0.000000
220.000000,17386.416183,19633.146481,-17529.512051,2089.642237,-14428.006342,2760.775716,916.734447,-13899.991083,8457.050736,17535.770540,-4825.696924,2315.640726,-17901.445079,18953.698153,674.195668,565.901466,0.008000,-0.012000,1.006000,192.000000,0.000000,0.000000,0.000000,0.000000,0.000000,0.000000,0.000000,0.000000,0.000000,1775737361.448032,0.000000
222.000000,17386.147962,19636.767463,-17529.087368,2083.115528,-14428.542784,2750.829190,915.370991,-13903.343845,8483.470498,17537.826900,-4836.224596,2309.538699,-17918.253591,18951.775903,719.972041,615.231766,0.008000,-0.012000,1.006000,192.000000,0.000000,0.000000,0.000000,0.000000,0.000000,0.000000,0.000000,0.000000,0.000000,1775737361.448089,0.000000
224.000000,17387.064384,19632.855908,-17522.806528,2082.422624,-14424.251249,2745.844751,911.861767,-13896.884191,8463.935073,17536.463444,-4829.004983,2308.108188,-17903.277922,18943.841033,687.092625,557.832486,0.008000,-0.012000,1.006000,192.000000,0.000000,0.000000,0.000000,0.000000,0.000000,0.000000,0.000000,0.000000,0.000000,1775737361.448114,0.000000
226.000000,17381.856427,19640.969591,-17537.737493,2080.187449,-14431.560270,2752.214998,914.052238,-13905.601371,8471.713480,17535.055284,-4837.029259,2308.152891,-17912.129213,18948.445493,712.618317,589.281391,0.008000,-0.016000,1.006000,192.000000,0.000000,32.000000,127.500000,64.000000,15.500000,56.000000,0.000000,0.000000,0.000000,1775737361.448136,0.000000
228.000000,17392.652320,19647.384542,-17522.538307,2085.484813,-14419.087996,2755.366594,913.381685,-13893.620836,8480.363605,17540.889089,-4836.381058,2311.371542,-17906.451870,18954.525167,706.091607,588.968466,0.008000,-0.016000,1.006000,192.000000,0.000000,0.000000,0.000000,0.000000,0.000000,0.000000,0.000000,0.000000,0.000000,1775737361.448159,0.000000
230.000000,17399.871933,19655.900557,-17527.120415,2081.863830,-14418.730368,2759.188743,913.873424,-13897.286522,8471.288797,17546.275860,-4822.254756,2316.467740,-17889.039861,18962.080057,680.476508,559.888847,0.008000,-0.016000,1.006000,192.000000,0.000000,0.000000,0.000000,0.000000,0.000000,0.000000,0.000000,0.000000,0.000000,1775737361.448182,0.000000
232.000000,17403.179992,19657.107551,-17523.812356,2086.423586,-14417.456319,2762.295635,916.957965,-13894.760775,8506.112815,17549.963897,-4829.362611,2316.668906,-17899.187553,18965.701040,727.906910,605.419350,0.008000,-0.016000,1.006000,192.000000,0.000000,0.000000,0.000000,0.000000,0.000000,0.000000,0.000000,0.000000,0.000000,1775737361.448205,0.000000
234.000000,17409.483184,19660.303850,-17513.977589,2091.922115,-14413.075377,2759.635777,916.376819,-13886.647092,8489.684283,17548.667496,-4815.638639,2319.105246,-17880.881474,18968.427952,685.550354,553.585655,0.008000,-0.016000,1.006000,192.000000,0.000000,0.000000,0.000000,0.000000,0.000000,0.000000,0.000000,0.000000,0.000000,1775737361.448228,0.000000
236.000000,17404.990483,19663.500150,-17528.953258,2089.642237,-14424.027732,2769.694062,919.014325,-13897.688853,8504.078806,17551.237947,-4820.980706,2318.881729,-17893.286692,18970.774886,707.924450,589.080225,0.008000,-0.014000,1.004000,192.000000,0.000000,32.000000,127.500000,72.000000,15.500000,48.000000,0.000000,0.000000,0.000000,1775737361.448251,0.000000
238.000000,17410.041977,19661.846121,-17515.877487,2092.793833,-14420.630267,2760.194571,919.528415,-13888.546990,8509.912611,17558.256395,-4822.142997,2320.535758,-17889.710413,18975.736973,702.962363,583.000551,0.008000,-0.014000,1.004000,192.000000,0.000000,0.000000,0.000000,0.000000,0.000000,0.000000,0.000000,0.000000,0.000000,1775737361.448300,0.000000
240.000000,17395.043957,19653.061885,-17530.607287,2084.836612,-14430.397979,2757.042975,916.645040,-13899.700510,8484.275160,17547.080522,-4820.936003,2314.009048,-17868.275090,18966.908034,679.940066,560.738213,0.008000,-0.014000,1.004000,192.000000,0.000000,0.000000,0.000000,0.000000,0.000000,0.000000,0.000000,0.000000,0.000000,1775737361.448323,0.000000
242.000000,17393.255817,19652.436036,-17533.580069,2086.445938,-14432.208470,2762.899132,916.153302,-13905.623723,8502.581239,17545.337086,-4838.370364,2307.415284,-17911.793937,18970.283147,722.676602,619.657412,0.008000,-0.014000,1.004000,192.000000,0.000000,0.000000,0.000000,0.000000,0.000000,0.000000,0.000000,0.000000,0.000000,1775737361.448346,0.000000
244.000000,17388.584302,19643.048303,-17529.467348,2087.876450,-14426.039389,2753.109068,911.817063,-13909.691740,8472.406384,17543.437188,-4835.218768,2305.493034,-17903.523791,18968.740877,679.694197,569.298931,0.008000,-0.014000,1.004000,192.000000,0.000000,0.000000,0.000000,0.000000,0.000000,0.000000,0.000000,0.000000,0.000000,1775737361.448370,0.000000
246.000000,17389.411317,19653.575975,-17542.230194,2088.971685,-14429.638020,2763.010891,916.890909,-13918.051293,8478.039024,17544.040685,-4844.941776,2299.614525,-17912.598600,18975.446400,704.549337,597.819757,0.006000,-0.012000,1.010000,192.000000,0.000000,24.000000,127.500000,80.000000,15.500000,72.000000,0.000000,0.000000,0.000000,1775737361.448393,0.000000
248.000000,17389.098393,19649.127978,-17528.662685,2090.469252,-14425.614706,2757.869990,913.515796,-13909.132947,8492.299437,17553.204900,-4842.684250,2305.604792,-17911.995102,18979.894397,698.961401,595.875155,0.006000,-0.012000,1.010000,192.000000,0.000000,0.000000,0.000000,0.000000,0.000000,0.000000,0.000000,0.000000,0.000000,1775737361.448416,0.000000
250.000000,17386.997329,19653.486568,-17533.982400,2079.963932,-14430.912069,2753.734917,913.247575,-13910.585810,8463.689204,17546.342915,-4837.029259,2303.637839,-17907.256533,18974.664089,680.722377,563.353367,0.006000,-0.012000,1.010000,192.000000,0.000000,0.000000,0.000000,0.000000,0.000000,0.000000,0.000000,0.000000,0.000000,1775737361.448441,0.000000
252.000000,17398.016739,19666.361173,-17524.751130,2082.780252,-14423.871270,2756.506533,920.735409,-13895.766603,8499.072015,17551.819092,-4838.638584,2308.085836,-17917.046597,18976.943967,732.958404,604.793501,0.006000,-0.012000,1.010000,192.000000,0.000000,0.000000,0.000000,0.000000,0.000000,0.000000,0.000000,0.000000,0.000000,1775737361.448467,0.000000
254.000000,17395.379233,19657.152254,-17516.101005,2086.043607,-14417.948057,2751.142115,919.014325,-13889.172839,8484.364567,17556.714124,-4820.019581,2318.389990,-17894.314873,18981.481371,689.640723,545.606082,0.006000,-0.012000,1.010000,192.000000,0.000000,0.000000,0.000000,0.000000,0.000000,0.000000,0.000000,0.000000,0.000000,1775737361.448492,0.000000
0.000000,17383.063422,19654.090065,-17535.390560,2081.707368,-14432.566098,2757.557065,918.433180,-13909.579982,8482.129393,17544.219499,-4835.598747,2305.448330,-17908.441175,18980.833171,711.545433,586.420368,0.004000,-0.014000,1.006000,192.000000,0.000000,16.000000,127.500000,72.000000,15.500000,56.000000,0.000000,0.000000,0.000000,1775737361.448519,0.000000
2.000000,17386.460887,19650.156158,-17522.828880,2086.021255,-14430.599145,2750.516266,916.019191,-13903.634417,8489.147841,17550.902671,-4836.962204,2306.208289,-17907.189477,18984.610615,703.767026,579.558382,0.004000,-0.014000,1.006000,192.000000,0.000000,0.000000,0.000000,0.000000,0.000000,0.000000,0.000000,0.000000,0.000000,1775737361.448545,0.000000
4.000000,17387.667881,19653.374809,-17532.417778,2081.372092,-14436.500005,2753.980786,914.253403,-13908.238877,8467.064317,17543.571299,-4832.089523,2303.794301,-17900.193381,18981.168447,678.777776,550.679928,0.004000,-0.014000,1.006000,192.000000,0.000000,0.000000,0.000000,0.000000,0.000000,0.000000,0.000000,0.000000,0.000000,1775737361.448588,0.000000
6.000000,17396.519172,19659.610946,-17531.009618,2085.641275,-14436.298840,2755.456001,915.929784,-13903.723824,8503.520012,17551.126188,-4839.644413,2306.051827,-17915.638437,18991.517304,719.435599,603.318286,0.004000,-0.014000,1.006000,192.000000,0.000000,0.000000,0.000000,0.000000,0.000000,0.000000,0.000000,0.000000,0.000000,1775737361.448614,0.000000
8.000000,17387.109087,19649.351495,-17527.075711,2086.714159,-14432.856671,2753.779620,911.302973,-13900.795746,8478.016672,17551.573223,-4831.597785,2308.756388,-17903.724957,18989.617406,680.700026,563.800402,0.004000,-0.014000,1.006000,192.000000,0.000000,0.000000,0.000000,0.000000,0.000000,0.000000,0.000000,0.000000,0.000000,1775737361.448640,0.000000
10.000000,17381.364689,19649.463254,-17542.051380,2081.439147,-14431.515566,2761.267455,912.979354,-13914.676179,8479.044852,17543.616002,-4847.780448,2297.513461,-17910.698701,18987.941025,710.092570,600.166690,0.003000,-0.016000,1.005000,192.000000,0.000000,8.000000,127.500000,56.000000,15.500000,48.000000,0.000000,0.000000,0.000000,1775737361.448666,0.000000
12.000000,17387.556122,19648.591536,-17529.512051,2084.568391,-14424.295953,2757.691176,912.577023,-13906.294275,8494.780480,17545.560604,-4846.349936,2297.804033,-17905.714262,18992.120801,704.795206,594.042312,0.003000,-0.016000,1.005000,192.000000,0.000000,0.000000,0.000000,0.000000,0.000000,0.000000,0.000000,0.000000,0.000000,1775737361.448691,0.000000
14.000000,17385.522114,19649.530309,-17534.988229,2078.220496,-14425.122967,2757.422955,911.280621,-13911.524583,8467.310186,17540.889089,-4842.371326,2296.641743,-17906.094242,18992.120801,678.576610,557.541914,0.003000,-0.016000,1.005000,192.000000,0.000000,0.000000,0.000000,0.000000,0.000000,0.000000,0.000000,0.000000,0.000000,1775737361.448717,0.000000
16.000000,17404.834021,19670.228025,-17526.896897,2084.233115,-14418.886831,2764.307292,917.896738,-13900.192249,8509.175004,17560.849197,-4840.829055,2304.531909,-17910.206963,19006.537677,725.291756,604.212356,0.003000,-0.016000,1.005000,192.000000,0.000000,0.000000,0.000000,0.000000,0.000000,0.000000,0.000000,0.000000,0.000000,1775737361.448743,0.000000
18.000000,17414.355864,19679.794571,-17513.955237,2088.412891,-14412.605990,2758.652301,917.337944,-13887.898789,8498.177945,17571.555683,-4820.958355,2317.607679,-17887.028204,19011.253895,682.778738,556.670196,0.003000,-0.016000,1.005000,192.000000,0.000000,0.000000,0.000000,0.000000,0.000000,0.000000,0.000000,0.000000,0.000000,1775737361.448769,0.000000
20.000000,17404.118765,19676.531217,-17528.260354,2080.053339,-14421.054950,2758.540542,918.232014,-13901.801574,8507.878602,17564.537235,-4827.060381,2314.321973,-17897.913503,19010.471584,712.104227,582.106481,0.004500,-0.015000,1.005500,192.000000,0.000000,24.000000,127.500000,72.000000,15.500000,56.000000,0.000000,0.000000,0.000000,1775737361.448795,0.000000
22.000000,17408.343245,19672.798475,-17519.274952,2087.071787,-14419.020941,2753.533751,917.404999,-13892.950284,8508.437396,17567.241796,-4830.346087,2311.304487,-17902.361501,19012.192668,709.690238,574.484536,0.004500,-0.015000,1.005500,192.000000,0.000000,0.000000,0.000000,0.000000,0.000000,0.000000,0.000000,0.000000,0.000000,1775737361.448821,0.000000
24.000000,17402.330625,19672.485551,-17532.708351,2085.909496,-14429.928592,2754.807801,916.443874,-13900.818098,8480.542419,17555.752999,-4829.854349,2307.750560,-17898.025262,19004.458964,679.247162,548.556512,0.004500,-0.015000,1.005500,192.000000,0.000000,0.000000,0.000000,0.000000,0.000000,0.000000,0.000000,0.000000,0.000000,1775737361.448846,0.000000
26.000000,17405.884553,19678.319356,-17534.027104,2092.279743,-14432.655505,2761.423917,919.148435,-13903.343845,8507.588030,17565.744229,-4842.103105,2311.259784,-17917.180707,19016.975941,715.054657,609.844996,0.004500,-0.015000,1.005500,192.000000,0.000000,0.000000,0.000000,0.000000,0.000000,0.000000,0.000000,0.000000,0.000000,1775737361.448872,0.000000
28.000000,17408.611466,19671.010336,-17526.338104,2090.133976,-14429.213337,2751.700908,912.398209,-13902.539182,8488.454937,17562.570281,-4834.995250,2311.505653,-17903.322626,19012.662055,675.536773,566.929646,0.004500,-0.015000,1.005500,192.000000,0.000000,0.000000,0.000000,0.000000,0.000000,0.000000,0.000000,0.000000,0.000000,1775737361.448896,0.000000
30.000000,17411.964227,19681.381545,-17535.055284,2087.898801,-14435.605936,2763.033243,916.198005,-13909.848202,8503.564716,17557.608194,-4836.738686,2309.426941,-17907.882381,19013.444366,703.543508,600.211394,0.005250,-0.017500,1.001750,192.000000,0.000000,24.000000,127.500000,48.000000,15.500000,24.000000,0.000000,0.000000,0.000000,1775737361.448921,0.000000
32.000000,17408.387948,19671.569129,-17523.790005,2080.545077,-14423.535994,2744.593053,909.447778,-13911.748101,8507.699789,17559.306927,-4839.778523,2303.503728,-17909.961094,19013.310255,711.120750,597.506833,0.005250,-0.017500,1.001750,192.000000,0.000000,0.000000,0.000000,0.000000,0.000000,0.000000,0.000000,0.000000,0.000000,1775737361.448946,0.000000
34.000000,17412.232448,19675.860664,-17527.165118,2073.169002,-14418.506851,2750.896245,910.855938,-13913.089205,8486.465631,17550.656802,-4835.419933,2293.624257,-17898.561704,19005.375386,692.524098,565.454431,0.005250,-0.017500,1.001750,192.000000,0.000000,0.000000,0.000000,0.000000,0.000000,0.000000,0.000000,0.000000,0.000000,1775737361.448970,0.000000
36.000000,17415.115823,19678.989909,-17527.858022,2073.906609,-14421.144357,2754.628987,915.460398,-13909.445871,8522.653106,17552.109665,-4840.851407,2292.126690,-17907.614160,19015.187802,735.662965,613.935365,0.005250,-0.017500,1.001750,192.000000,0.000000,0.000000,0.000000,0.000000,0.000000,0.000000,0.000000,0.000000,0.000000,1775737361.448995,0.000000
38.000000,17420.390835,19685.784839,-17520.347836,2079.874525,-14415.824642,2749.979824,914.566328,-13897.398281,8494.109928,17557.697601,-4832.983593,2299.234545,-17898.114669,19015.344264,689.797186,563.353367,0.005250,-0.017500,1.001750,192.000000,0.000000,0.000000,0.000000,0.000000,0.000000,0.000000,0.000000,0.000000,0.000000,1775737361.449020,0.000000
40.000000,17432.997219,19704.202676,-17529.444996,2079.762766,-14422.150185,2758.629949,919.662526,-13899.879324,8511.790158,17566.101857,-4833.497683,2306.945897,-17892.839657,19025.514308,714.473512,587.269734,0.003625,-0.017750,1.002875,192.000000,0.000000,8.000000,127.500000,56.000000,15.500000,48.000000,0.000000,0.000000,0.000000,1775737361.449044,0.000000
42.000000,17446.654135,19711.846973,-17515.072824,2085.753034,-14415.735235,2751.924426,919.215491,-13889.955150,8533.717219,17578.663537,-4823.327639,2315.864243,-17894.113707,19032.443348,712.104227,581.502984,0.003625,-0.017750,1.002875,192.000000,0.000000,0.000000,0.000000,0.000000,0.000000,0.000000,0.000000,0.000000,0.000000,1775737361.449068,0.000000
44.000000,17441.736751,19707.890714,-17526.852194,2081.439147,-14427.447549,2750.315100,916.957965,-13900.795746,8506.962181,17573.723802,-4820.712485,2311.840929,-17891.856181,19030.185822,680.700026,548.422402,0.003625,-0.017750,1.002875,192.000000,0.000000,0.000000,0.000000,0.000000,0.000000,0.000000,0.000000,0.000000,0.000000,1775737361.449093,0.000000
46.000000,17443.815463,19710.975255,-17528.327409,2084.657798,-14433.773092,2748.370498,917.896738,-13903.008569,8532.420818,17574.617872,-4834.034125,2308.421112,-17910.743405,19035.393779,719.212081,597.998571,0.003625,-0.017750,1.002875,192.000000,0.000000,0.000000,0.000000,0.000000,0.000000,0.000000,0.000000,0.000000,0.000000,1775737361.449118,0.000000
48.000000,17446.430617,19709.075357,-17522.940638,2086.222420,-14431.202642,2741.821437,914.208700,-13896.392452,8511.879565,17579.401145,-4826.501587,2309.873976,-17898.226428,19035.617296,676.050863,550.523466,0.003625,-0.017750,1.002875,192.000000,0.000000,0.000000,0.000000,0.000000,0.000000,0.000000,0.000000,0.000000,0.000000,1775737361.449142,0.000000
50.000000,17439.434521,19712.629284,-17540.442054,2081.863830,-14438.913994,2751.812667,916.242709,-13907.054234,8506.693960,17572.025069,-4840.717297,2304.777778,-17917.203059,19030.364636,706.203366,584.319304,0.004812,-0.014875,1.005437,192.000000,0.000000,24.000000,127.500000,80.000000,15.500000,64.000000,0.000000,0.000000,0.000000,1775737361.449167,0.000000
52.000000,17445.693010,19715.266790,-17529.869679,2086.155365,-14430.621497,2748.661071,913.404037,-13901.533354,8516.461672,17579.915235,-4839.800875,2310.544528,-17917.158355,19034.231488,707.767988,588.566135,0.004812,-0.014875,1.005437,192.000000,0.000000,0.000000,0.000000,0.000000,0.000000,0.000000,0.000000,0.000000,0.000000,1775737361.449192,0.000000
54.000000,17446.832949,19722.776976,-17536.754016,2081.416795,-14426.687589,2753.623158,910.788883,-13908.127118,8491.383015,17574.349651,-4837.141018,2307.169414,-17901.310969,19031.906907,677.481374,567.041405,0.004812,-0.014875,1.005437,192.000000,0.000000,0.000000,0.000000,0.000000,0.000000,0.000000,0.000000,0.000000,0.000000,1775737361.449216,0.000000
56.000000,17457.070048,19722.195831,-17533.490662,2087.071787,-14427.983991,2763.994368,915.370991,-13902.740348,8527.928117,17584.363232,-4841.790180,2310.432769,-17924.422672,19041.942840,720.821407,620.864406,0.004812,-0.014875,1.005437,192.000000,0.000000,0.000000,0.000000,0.000000,0.000000,0.000000,0.000000,0.000000,0.000000,1775737361.449241,0.000000
58.000000,17457.114751,19719.692435,-17524.035874,2083.584915,-14422.708979,2753.690213,910.118331,-13898.784089,8511.633696,17585.927854,-4830.189625,2314.411380,-17909.067024,19043.686276,680.789433,571.109423,0.004812,-0.014875,1.005437,192.000000,0.000000,0.000000,0.000000,0.000000,0.000000,0.000000,0.000000,0.000000,0.000000,1775737361.449265,0.000000
60.000000,17459.573443,19734.019903,-17534.831766,2082.847307,-14428.967467,2763.435574,915.594508,-13904.215563,8520.730856,17582.575093,-4835.084657,2310.119845,-17916.979541,19047.530776,719.659116,600.993705,0.006406,-0.012438,1.004719,192.000000,0.000000,32.000000,127.500000,88.000000,15.500000,48.000000,0.000000,0.000000,0.000000,1775737361.449289,0.000000
62.000000,17471.643385,19740.613668,-17518.582048,2090.357493,-14420.920839,2763.301464,918.455531,-13885.350691,8544.289594,17597.103727,-4824.735799,2318.054714,-17904.194344,19060.114808,709.846700,602.871251,0.006406,-0.012438,1.004719,192.000000,0.000000,0.000000,0.000000,0.000000,0.000000,0.000000,0.000000,0.000000,0.000000,1775737361.449313,0.000000
64.000000,17467.485960,19737.685590,-17529.176775,2084.523688,-14427.022866,2759.524019,916.019191,-13894.827830,8524.620059,17595.047366,-4818.611421,2319.596984,-17885.038899,19062.104113,677.816651,567.779013,0.006406,-0.012438,1.004719,192.000000,0.000000,0.000000,0.000000,0.000000,0.000000,0.000000,0.000000,0.000000,0.000000,1775737361.449337,0.000000
66.000000,17475.845513,19743.206470,-17530.607287,2085.238944,-14434.778921,2755.701870,917.784979,-13897.174763,8557.544179,17597.506058,-4830.793122,2312.846758,-17909.514059,19064.026363,723.101285,612.728371,0.006406,-0.012438,1.004719,192.000000,0.000000,0.000000,0.000000,0.000000,0.000000,0.000000,0.000000,0.000000,0.000000,1775737361.449362,0.000000
68.000000,17484.026251,19746.469825,-17520.683112,2087.340008,-14430.688552,2749.041051,915.728619,-13889.955150,8541.450923,17601.618779,-4818.410256,2317.540624,-17901.467431,19063.355811,668.786546,556.334919,0.006406,-0.012438,1.004719,192.000000,0.000000,0.000000,0.000000,0.000000,0.000000,0.000000,0.000000,0.000000,0.000000,1775737361.449387,0.000000
70.000000,17479.555902,19749.800235,-17533.021275,2079.852173,-14441.193872,2745.665937,917.896738,-13902.293313,8546.256548,17594.689738,-4825.585166,2312.310316,-17910.341073,19056.650288,702.023590,578.776071,0.006203,-0.011219,1.000359,192.000000,0.000000,24.000000,127.500000,88.000000,15.500000,16.000000,0.000000,0.000000,0.000000,1775737361.449412,0.000000
72.000000,17487.200199,19753.376514,-17521.755996,2082.690845,-14433.817796,2739.608614,915.102770,-13894.716071,8559.891112,17602.401090,-4822.902956,2316.043057,-17907.502402,19062.528796,705.242241,577.412615,0.006203,-0.011219,1.000359,192.000000,0.000000,0.000000,0.000000,0.000000,0.000000,0.000000,0.000000,0.000000,0.000000,1775737361.449436,0.000000
74.000000,17484.540341,19751.096636,-17528.483871,2076.789984,-14429.012171,2741.620271,914.208700,-13899.476993,8531.526748,17592.611026,-4820.913651,2310.030438,-17899.276960,19054.638631,683.471642,550.948149,0.006203,-0.011219,1.000359,192.000000,0.000000,0.000000,0.000000,0.000000,0.000000,0.000000,0.000000,0.000000,0.000000,1775737361.927653,0.000000
76.000000,17497.146725,19761.646660,-17526.360455,2081.752072,-14426.374665,2754.338414,917.650869,-13896.548914,8565.188475,17600.255322,-4828.222672,2311.393894,-17912.151565,19063.579328,731.103209,604.592336,0.006203,-0.011219,1.000359,192.000000,0.000000,0.000000,0.000000,0.000000,0.000000,0.000000,0.000000,0.000000,0.000000,1775737361.927736,0.000000
78.000000,17510.244848,19772.084924,-17514.089348,2091.765653,-14410.951961,2761.870952,917.650869,-13883.920179,8556.136019,17613.085224,-4812.934078,2321.608641,-17887.743460,19075.850436,687.003218,567.041405,0.006203,-0.011219,1.000359,192.000000,0.000000,0.000000,0.000000,0.000000,0.000000,0.000000,0.000000,0.000000,0.000000,1775737361.927804,0.000000
80.000000,17511.585952,19777.806971,-17523.499432,2088.547002,-14416.159918,2765.536638,921.830645,-13890.826868,8564.920254,17615.499212,-4814.342238,2323.352077,-17893.063175,19082.287739,717.468645,601.083112,0.006203,-0.011219,1.000359,192.000000,0.000000,0.000000,0.000000,0.000000,0.000000,0.000000,0.000000,0.000000,0.000000,1775737361.927875,0.000000
82.000000,17517.151537,19779.438648,-17511.608304,2095.498394,-14412.315418,2763.256760,921.785941,-13880.030975,8581.751118,17625.356332,-4810.833014,2326.324859,-17891.856181,19089.619111,717.692163,600.300801,0.004000,-0.012000,1.008000,192.000000,0.000000,16.000000,127.500000,80.000000,15.500000,64.000000,0.000000,0.000000,0.000000,1775737361.927953,0.000000
84.000000,17518.760862,19784.959529,-17515.966894,2089.597534,-14416.003456,2760.105164,922.411790,-13881.573246,8551.710373,17618.226125,-4806.675590,2325.631955,-17885.351823,19084.522913,691.630029,571.131774,0.004000,-0.012000,1.008000,192.000000,0.000000,0.000000,0.000000,0.000000,0.000000,0.000000,0.000000,0.000000,0.000000,1775737361.928016,0.000000
86.000000,17525.041702,19790.279244,-17513.485851,2094.850194,-14419.959714,2761.826248,929.877273,-13873.034879,8588.076662,17626.764491,-4809.760131,2327.978889,-17893.666672,19096.481096,733.874826,619.188025,0.004000,-0.012000,1.008000,192.000000,0.000000,0.000000,0.000000,0.000000,0.000000,0.000000,0.000000,0.000000,0.000000,1775737361.928080,0.000000
88.000000,17517.531516,19780.265663,-17509.574295,2091.832708,-14422.574869,2745.777696,927.530340,-13866.709336,8559.086449,17624.015227,-4802.406407,2332.829217,-17886.871742,19087.026308,688.523136,566.281446,0.004000,-0.012000,1.008000,192.000000,0.000000,0.000000,0.000000,0.000000,0.000000,0.000000,0.000000,0.000000,0.000000,1775737361.928129,0.000000
90.000000,17515.385749,19786.121820,-17523.454729,2086.691807,-14432.789616,2749.599844,930.033735,-13879.561589,8563.333280,17614.135756,-4811.414160,2327.308336,-17899.478126,19083.986471,710.494901,588.700245,0.004000,-0.012000,1.008000,192.000000,0.000000,0.000000,0.000000,0.000000,0.000000,0.000000,0.000000,0.000000,0.000000,1775737361.928141,0.000000
92.000000,17518.224420,19786.725317,-17509.484888,2087.384711,-14423.848918,2740.905016,925.831607,-13877.013490,8575.783202,17618.471994,-4812.107064,2325.520197,-17895.812439,19086.243997,716.820445,587.761472,0.002000,-0.014000,1.004000,192.000000,0.000000,8.000000,127.500000,72.000000,15.500000,48.000000,0.000000,0.000000,0.000000,1775737361.928152,0.000000
94.000000,17517.285647,19789.251064,-17515.631618,2082.579086,-14424.653581,2744.257777,923.305860,-13883.897827,8552.202112,17611.989988,-4808.396674,2322.390952,-17878.132210,19082.444201,688.701950,555.194981,0.002000,-0.014000,1.004000,192.000000,0.000000,0.000000,0.000000,0.000000,0.000000,0.000000,0.000000,0.000000,0.000000,1775737361.928164,0.000000
96.000000,17526.069883,19800.426936,-17513.016464,2088.032912,-14420.786729,2750.091583,929.541997,-13879.650996,8590.088319,17623.657599,-4812.799968,2328.358868,-17907.636512,19096.704614,728.532759,607.967449,0.002000,-0.014000,1.004000,192.000000,0.000000,0.000000,0.000000,0.000000,0.000000,0.000000,0.000000,0.000000,0.000000,1775737361.928175,0.000000
98.000000,17536.217575,19801.030433,-17500.968874,2091.430377,-14420.496156,2746.135324,928.916148,-13866.418763,8574.285635,17624.417558,-4798.651314,2335.556130,-17884.971843,19098.313939,694.178128,561.565228,0.002000,-0.014000,1.004000,192.000000,0.000000,0.000000,0.000000,0.000000,0.000000,0.000000,0.000000,0.000000,0.000000,1775737361.928197,0.000000
100.000000,17535.368208,19808.562971,-17516.905667,2089.888107,-14426.732293,2755.232484,930.033735,-13874.800667,8588.143717,17630.698398,-4799.232459,2337.970118,-17885.083602,19105.041814,712.640668,587.828527,0.002000,-0.014000,1.004000,192.000000,0.000000,0.000000,0.000000,0.000000,0.000000,0.000000,0.000000,0.000000,0.000000,1775737361.928209,0.000000
102.000000,17536.955182,19809.010006,-17511.273028,2094.134938,-14423.290124,2750.650376,925.094000,-13874.308929,8592.099976,17637.672143,-4807.480253,2333.253900,-17893.577265,19110.897971,708.907927,598.512661,-0.002000,-0.018000,1.004000,192.000000,127.500000,120.000000,127.500000,56.000000,15.500000,48.000000,0.000000,0.000000,0.000000,1775737361.928221,0.000000
104.000000,17542.900746,19820.610561,-17518.090310,2093.084406,-14424.720636,2757.110030,924.624613,-13876.678214,8564.517923,17634.744064,-4805.669761,2333.365659,-17887.184666,19110.540344,682.354055,568.315455,-0.002000,-0.018000,1.004000,192.000000,0.000000,0.000000,0.000000,0.000000,0.000000,0.000000,0.000000,0.000000,0.000000,1775737361.928232,0.000000
106.000000,17547.147578,19827.696064,-17515.721025,2094.827842,-14426.866403,2757.378251,927.910319,-13874.823019,8599.341941,17647.350448,-4812.084712,2340.808790,-17899.232256,19123.638466,724.576500,614.762379,-0.002000,-0.018000,1.004000,192.000000,0.000000,0.000000,0.000000,0.000000,0.000000,0.000000,0.000000,0.000000,0.000000,1775737361.928244,0.000000
108.000000,17547.996944,19822.286942,-17507.763804,2097.666514,-14423.491290,2746.336489,924.334040,-13869.235083,8576.945493,17647.596317,-4802.629924,2343.558054,-17891.431498,19118.855193,689.707779,557.720728,-0.002000,-0.018000,1.004000,192.000000,0.000000,0.000000,0.000000,0.000000,0.000000,0.000000,0.000000,0.000000,0.000000,1775737361.928255,0.000000
110.000000,17540.933793,19818.040111,-17523.544136,2089.508127,-14439.651601,2743.631928,924.714020,-13882.780240,8582.578132,17639.594393,-4810.318924,2336.383144,-17903.434384,19117.044701,703.521157,596.523356,-0.002000,-0.018000,1.004000,192.000000,0.000000,0.000000,0.000000,0.000000,0.000000,0.000000,0.000000,0.000000,0.000000,1775737361.928266,0.000000
112.000000,17544.912403,19815.044977,-17511.429490,2091.564487,-14430.710903,2740.346222,924.289337,-13873.414859,8591.585885,17638.275640,-4813.045837,2332.985679,-17909.290541,19111.635579,714.182939,590.488385,0.004000,-0.012000,1.002000,192.000000,0.000000,16.000000,127.500000,80.000000,15.500000,40.000000,0.000000,0.000000,0.000000,1775737361.928278,0.000000
114.000000,17539.682095,19816.699006,-17523.320618,2085.998903,-14437.014095,2741.664975,922.344735,-13879.963920,8565.613158,17631.838337,-4811.637677,2330.214063,-17898.137021,19108.618094,682.264648,556.513733,0.004000,-0.012000,1.002000,192.000000,0.000000,0.000000,0.000000,0.000000,0.000000,0.000000,0.000000,0.000000,0.000000,1775737361.928291,0.000000
116.000000,17542.654877,19823.873916,-17519.453766,2090.022217,-14432.633154,2742.961376,925.898662,-13880.433307,8602.001798,17638.432102,-4820.936003,2330.526987,-17910.966922,19120.464518,731.706706,607.900394,0.004000,-0.012000,1.002000,192.000000,0.000000,0.000000,0.000000,0.000000,0.000000,0.000000,0.000000,0.000000,0.000000,1775737361.928303,0.000000
118.000000,17547.348743,19825.170317,-17508.948446,2094.961953,-14423.379531,2743.430763,922.724715,-13873.884246,8583.360444,17643.081265,-4810.944773,2333.835046,-17895.767736,19120.866850,699.833119,559.754736,0.004000,-0.012000,1.002000,192.000000,0.000000,0.000000,0.000000,0.000000,0.000000,0.000000,0.000000,0.000000,0.000000,1775737361.928314,0.000000
120.000000,17545.314735,19829.864184,-17523.410025,2092.570316,-14432.968430,2749.622196,924.892834,-13882.064984,8591.563534,17640.577869,-4814.342238,2332.695107,-17901.020396,19124.040797,718.183901,591.091882,0.004000,-0.012000,1.002000,192.000000,0.000000,0.000000,0.000000,0.000000,0.000000,0.000000,0.000000,0.000000,0.000000,1775737361.928326,0.000000
122.000000,17555.618889,19834.625105,-17508.680225,2095.945429,-14425.055912,2749.510437,925.317517,-13867.089315,8603.633476,17646.434027,-4811.637677,2332.851569,-17900.059271,19128.712312,715.211119,593.461167,0.002000,-0.016000,1.000000,192.000000,0.000000,8.000000,127.500000,64.000000,15.500000,32.000000,0.000000,0.000000,0.000000,1775737361.928337,0.000000
124.000000,17553.070790,19831.987599,-17515.877487,2089.910458,-14426.352313,2752.416164,923.417619,-13870.687946,8583.248685,17641.606050,-4800.931192,2329.811732,-17876.724050,19126.924172,682.823441,559.821792,0.002000,-0.016000,1.000000,192.000000,0.000000,0.000000,0.000000,0.000000,0.000000,0.000000,0.000000,0.000000,0.000000,1775737361.928349,0.000000
126.000000,17558.748133,19839.095454,-17514.022292,2096.303057,-14422.664275,2759.144039,929.944328,-13867.961033,8617.290392,17645.651715,-4808.597840,2332.784514,-17892.325567,19136.446015,727.079895,614.829435,0.002000,-0.016000,1.000000,192.000000,0.000000,0.000000,0.000000,0.000000,0.000000,0.000000,0.000000,0.000000,0.000000,1775737361.928360,0.000000
128.000000,17556.959993,19834.602753,-17507.696749,2096.772444,-14417.948057,2751.387984,925.250462,-13868.296310,8601.152432,17649.876195,-4800.886488,2338.171284,-17882.513151,19137.183623,688.500784,568.471917,0.002000,-0.016000,1.000000,192.000000,0.000000,0.000000,0.000000,0.000000,0.000000,0.000000,0.000000,0.000000,0.000000,1775737361.928371,0.000000
130.000000,17556.624717,19839.028399,-17520.549002,2092.749130,-14428.140453,2758.965225,929.005555,-13877.639339,8602.873516,17646.165806,-4809.089578,2332.404534,-17888.548122,19135.619001,713.624145,595.986914,0.002000,-0.016000,1.000000,192.000000,0.000000,0.000000,0.000000,0.000000,0.000000,0.000000,0.000000,0.000000,0.000000,1775737361.928384,0.000000
132.000000,17567.264148,19844.214004,-17507.093252,2095.923078,-14416.629304,2757.713527,927.955023,-13865.167065,8619.324400,17655.553538,-4804.954506,2335.667889,-17891.409146,19141.408103,710.807825,594.735216,0.004000,-0.016000,1.002000,192.000000,0.000000,16.000000,127.500000,64.000000,15.500000,40.000000,0.000000,0.000000,0.000000,1775737361.928396,0.000000
134.000000,17561.072714,19840.190690,-17513.754071,2090.491604,-14421.457281,2748.146981,927.485636,-13868.519827,8592.390548,17648.356277,-4797.332561,2332.225720,-17885.709451,19133.786158,685.796223,554.613835,0.004000,-0.016000,1.002000,192.000000,0.000000,0.000000,0.000000,0.000000,0.000000,0.000000,0.000000,0.000000,0.000000,1775737361.928409,0.000000
136.000000,17561.229177,19843.297582,-17515.408101,2095.073711,-14425.994685,2751.276225,931.397191,-13869.927987,8618.318572,17654.614765,-4806.094445,2332.695107,-17902.562666,19140.826957,729.091552,612.996592,0.004000,-0.016000,1.002000,192.000000,0.000000,0.000000,0.000000,0.000000,0.000000,0.000000,0.000000,0.000000,0.000000,1775737361.928420,0.000000
138.000000,17553.160197,19831.272344,-17511.541249,2093.643200,-14420.764377,2743.408411,924.937537,-13874.755964,8591.451775,17654.368896,-4803.859270,2329.185883,-17895.387756,19139.128225,686.734997,561.408765,0.004000,-0.016000,1.002000,192.000000,0.000000,0.000000,0.000000,0.000000,0.000000,0.000000,0.000000,0.000000,0.000000,1775737361.928432,0.000000
140.000000,17543.638354,19830.512384,-17528.841499,2084.903668,-14436.701171,2746.783524,924.691668,-13889.575170,8587.473164,17642.321306,-4818.074980,2319.149949,-17911.481012,19137.205975,715.680506,583.402882,0.004000,-0.016000,1.002000,192.000000,0.000000,0.000000,0.000000,0.000000,0.000000,0.000000,0.000000,0.000000,0.000000,1775737361.928443,0.000000
142.000000,17553.003735,19831.965248,-17516.682150,2089.016389,-14431.560270,2742.514341,922.948232,-13880.433307,8600.101900,17647.752779,-4820.801892,2319.999316,-17914.677312,19136.468367,717.826273,586.777995,0.002000,-0.012000,1.000000,192.000000,0.000000,8.000000,127.500000,80.000000,15.500000,32.000000,0.000000,0.000000,0.000000,1775737361.928454,0.000000
144.000000,17558.077581,19836.815576,-17520.616057,2086.892973,-14432.722560,2745.263606,923.685840,-13879.941568,8580.879400,17646.456378,-4813.269354,2318.948784,-17900.774527,19134.836690,688.031398,553.540951,0.002000,-0.012000,1.000000,192.000000,0.000000,0.000000,0.000000,0.000000,0.000000,0.000000,0.000000,0.000000,0.000000,1775737361.928466,0.000000
146.000000,17564.246662,19843.789320,-17516.235115,2089.731644,-14429.861537,2750.248045,928.312651,-13877.371118,8622.096017,17656.760532,-4813.694038,2324.000278,-17907.010663,19143.531518,732.578425,608.839167,0.002000,-0.012000,1.000000,192.000000,0.000000,0.000000,0.000000,0.000000,0.000000,0.000000,0.000000,0.000000,0.000000,1775737361.928479,0.000000
148.000000,17560.782142,19838.246088,-17511.898877,2093.330275,-14422.530165,2746.001213,923.372915,-13878.220484,8602.560592,17657.565195,-4807.882584,2325.475493,-17896.281826,19141.206937,690.847718,561.006434,0.002000,-0.012000,1.000000,192.000000,0.000000,0.000000,0.000000,0.000000,0.000000,0.000000,0.000000,0.000000,0.000000,1775737361.928491,0.000000
150.000000,17560.580976,19847.142082,-17525.175813,2094.090235,-14427.849880,2762.049766,927.597395,-13886.088298,8606.807423,17657.118160,-4814.655163,2321.474531,-17900.729823,19146.996039,708.013857,592.209469,0.002000,-0.012000,1.000000,192.000000,0.000000,0.000000,0.000000,0.000000,0.000000,0.000000,0.000000,0.000000,0.000000,1775737361.928502,0.000000
152.000000,17559.575148,19843.476396,-17514.335217,2095.632505,-14424.050084,2754.271359,925.451627,-13879.628644,8623.325363,17668.830474,-4815.459825,2327.218929,-17903.389681,19152.606327,706.493939,597.149205,0.004000,-0.013000,1.004000,192.000000,0.000000,24.000000,127.500000,72.000000,15.500000,64.000000,0.000000,0.000000,0.000000,1775737361.928514,0.000000
154.000000,17556.423552,19842.962306,-17522.538307,2088.614057,-14428.118101,2750.516266,922.501197,-13886.490629,8592.055272,17662.549634,-4814.856328,2325.207272,-17896.728861,19148.583013,690.735959,557.877190,0.004000,-0.013000,1.004000,192.000000,0.000000,0.000000,0.000000,0.000000,0.000000,0.000000,0.000000,0.000000,0.000000,1775737361.928525,0.000000
156.000000,17555.283613,19846.516233,-17523.231211,2086.133014,-14423.468938,2753.891379,924.579909,-13888.167010,8623.794749,17663.466056,-4826.322773,2320.491054,-17897.622931,19153.343934,735.774724,611.208452,0.004000,-0.013000,1.004000,192.000000,0.000000,0.000000,0.000000,0.000000,0.000000,0.000000,0.000000,0.000000,0.000000,1775737361.928537,0.000000
158.000000,17558.256395,19844.191652,-17514.156403,2085.417758,-14417.501023,2749.175161,921.383610,-13881.528542,8606.919182,17662.169655,-4816.599764,2318.389990,-17899.701643,19147.733646,696.010971,563.599236,0.004000,-0.013000,1.004000,192.000000,0.000000,0.000000,0.000000,0.000000,0.000000,0.000000,0.000000,0.000000,0.000000,1775737361.928548,0.000000
160.000000,17555.730648,19849.489015,-17530.204955,2083.920191,-14427.805177,2755.299539,925.831607,-13889.306949,8615.815176,17663.063724,-4819.170215,2316.870072,-17901.288617,19150.661725,711.165453,589.840184,0.004000,-0.013000,1.004000,192.000000,0.000000,0.000000,0.000000,0.000000,0.000000,0.000000,0.000000,0.000000,0.000000,1775737361.928560,0.000000
162.000000,17563.799627,19853.154701,-17519.073787,2092.167985,-14420.943191,2753.600806,926.211587,-13876.857028,8621.358409,17670.149227,-4823.774674,2322.167435,-17908.687044,19158.194263,712.528910,592.187118,0.004000,-0.012500,1.004000,192.000000,0.000000,16.000000,127.500000,80.000000,15.500000,48.000000,0.000000,0.000000,0.000000,1775737361.928572,0.000000
164.000000,17560.223348,19852.953536,-17529.199127,2087.407063,-14429.772130,2752.796144,924.602261,-13880.321548,8601.800633,17671.825608,-4815.906860,2327.174226,-17897.354710,19157.903690,674.977979,554.993815,0.004000,-0.012500,1.004000,192.000000,0.000000,0.000000,0.000000,0.000000,0.000000,0.000000,0.000000,0.000000,0.000000,1775737361.928583,0.000000
166.000000,17557.429380,19850.338382,-17527.545098,2087.719987,-14437.863462,2749.510437,929.586700,-13879.919217,8620.687857,17666.014155,-4827.552119,2323.888519,-17922.187498,19156.026144,726.275233,605.620516,0.004000,-0.012500,1.004000,192.000000,0.000000,0.000000,0.000000,0.000000,0.000000,0.000000,0.000000,0.000000,0.000000,1775737361.928594,0.000000
168.000000,17557.451732,19849.690181,-17517.285647,2087.809394,-14436.634116,2739.653318,926.613918,-13873.414859,8594.290447,17662.951966,-4819.125512,2325.095513,-17914.856126,19151.935774,691.562973,553.183324,0.004000,-0.012500,1.004000,192.000000,0.000000,0.000000,0.000000,0.000000,0.000000,0.000000,0.000000,0.000000,0.000000,1775737361.928606,0.000000
170.000000,17557.272918,19856.328649,-17529.087368,2089.865755,-14438.243441,2750.315100,930.033735,-13882.087336,8603.007627,17667.019983,-4818.879642,2324.693182,-17916.420748,19158.954222,710.517253,584.207545,0.004000,-0.012500,1.004000,192.000000,0.000000,0.000000,0.000000,0.000000,0.000000,0.000000,0.000000,0.000000,0.000000,1775737361.928617,0.000000
172.000000,17557.205863,19849.801940,-17519.900801,2092.100929,-14430.174462,2743.944853,925.518683,-13883.741365,8614.496424,17675.290129,-4821.897128,2325.184920,-17916.756024,19166.978498,713.937070,591.427158,0.005000,-0.014250,1.002000,192.000000,0.000000,24.000000,127.500000,64.000000,15.500000,32.000000,0.000000,0.000000,0.000000,1775737361.928628,0.000000
174.000000,17547.169929,19844.795149,-17527.679208,2081.506202,-14432.856671,2747.319966,920.847168,-13891.922103,8581.706414,17665.634175,-4823.126474,2318.658211,-17908.105899,19162.485798,685.215078,560.984082,0.005000,-0.014250,1.002000,192.000000,0.000000,0.000000,0.000000,0.000000,0.000000,0.000000,0.000000,0.000000,0.000000,1775737361.928640,0.000000
176.000000,17549.293345,19849.220794,-17525.756958,2081.148574,-14429.369799,2750.650376,923.730543,-13891.810345,8618.072703,17669.992765,-4830.860177,2318.121769,-17917.337169,19171.404144,730.097381,608.347429,0.005000,-0.014250,1.002000,192.000000,0.000000,0.000000,0.000000,0.000000,0.000000,0.000000,0.000000,0.000000,0.000000,1775737361.928651,0.000000
178.000000,17552.199072,19844.996315,-17513.530554,2080.455670,-14418.216278,2748.146981,919.908395,-13885.440098,8597.017359,17668.271681,-4821.226576,2316.691258,-17901.310969,19164.139827,693.999314,564.403899,0.005000,-0.014250,1.002000,192.000000,0.000000,0.000000,0.000000,0.000000,0.000000,0.000000,0.000000,0.000000,0.000000,1775737361.928663,0.000000
180.000000,17553.853101,19852.148873,-17525.153461,2079.561601,-14417.411616,2756.685347,922.858825,-13893.397319,8604.438139,17664.941271,-4823.662916,2314.456083,-17901.422727,19167.984327,715.278174,592.254173,0.005000,-0.014250,1.002000,192.000000,0.000000,0.000000,0.000000,0.000000,0.000000,0.000000,0.000000,0.000000,0.000000,1775737361.928675,0.000000
182.000000,17565.006621,19859.212024,-17511.943580,2088.301133,-14403.017092,2757.802934,924.870482,-13881.752060,8629.203871,17678.240559,-4818.969049,2319.596984,-17889.956282,19177.349708,727.214006,594.981086,0.005500,-0.015125,1.002000,192.000000,0.000000,24.000000,127.500000,64.000000,15.500000,40.000000,0.000000,0.000000,0.000000,1775737361.928687,0.000000
184.000000,17563.486703,19858.563824,-17523.655894,2086.535345,-14405.341674,2758.004100,921.696534,-13888.546990,8607.925011,17677.368841,-4814.699866,2318.255880,-17884.636567,19179.249606,692.837023,557.340748,0.005500,-0.015125,1.002000,192.000000,0.000000,0.000000,0.000000,0.000000,0.000000,0.000000,0.000000,0.000000,0.000000,1775737361.928698,0.000000
186.000000,17570.482799,19867.102190,-17525.600496,2092.391502,-14415.109386,2767.995330,926.099828,-13886.133002,8641.363220,17685.527228,-4824.556985,2318.747618,-17898.338187,19189.732574,730.477361,612.683667,0.005500,-0.015125,1.002000,192.000000,0.000000,0.000000,0.000000,0.000000,0.000000,0.000000,0.000000,0.000000,0.000000,1775737361.928709,0.000000
188.000000,17576.070735,19871.326670,-17517.956199,2094.559621,-14417.366912,2763.659091,924.557558,-13876.365289,8623.347714,17695.853734,-4815.549232,2327.800075,-17884.703622,19194.962882,685.326837,565.923818,0.005500,-0.015125,1.002000,192.000000,0.000000,0.000000,0.000000,0.000000,0.000000,0.000000,0.000000,0.000000,0.000000,1775737361.928721,0.000000
190.000000,17577.322433,19879.552112,-17528.841499,2091.095101,-14426.866403,2766.453059,928.938500,-13882.780240,8624.353543,17697.105431,-4821.763017,2329.588214,-17890.023338,19200.573170,703.364695,587.672065,0.005500,-0.015125,1.002000,192.000000,0.000000,0.000000,0.000000,0.000000,0.000000,0.000000,0.000000,0.000000,0.000000,1775737361.928732,0.000000
192.000000,17583.267997,19879.797981,-17515.162231,2089.955162,-14427.402845,2755.634815,925.943366,-13873.951301,8643.061953,17706.873144,-4817.046799,2335.824351,-17905.937780,19206.429327,707.075084,590.220164,0.005500,-0.015125,1.002000,192.000000,0.000000,0.000000,127.500000,48.000000,15.500000,48.000000,0.000000,0.000000,0.000000,1775737361.928744,0.000000
194.000000,17575.713107,19873.517141,-17521.666589,2085.283647,-14429.503909,2754.293711,922.702363,-13882.735536,8615.256383,17694.400870,-4811.548270,2328.068295,-17897.354710,19196.035766,679.850659,550.858742,0.005500,-0.015125,1.002000,192.000000,0.000000,0.000000,0.000000,0.000000,0.000000,0.000000,0.000000,0.000000,0.000000,1775737362.408576,0.000000
196.000000,17561.944432,19861.693068,-17527.455691,2082.109700,-14432.208470,2752.282054,923.596433,-13895.297217,8638.815122,17690.332853,-4826.099256,2320.245185,-17911.816288,19197.086298,719.323840,609.710885,0.005500,-0.015125,1.002000,192.000000,0.000000,0.000000,0.000000,0.000000,0.000000,0.000000,0.000000,0.000000,0.000000,1775737362.408655,0.000000
198.000000,17560.938604,19855.456931,-17520.191374,2081.528554,-14424.251249,2746.470600,919.908395,-13889.239894,8610.450758,17678.642890,-4826.322773,2313.651420,-17907.144774,19187.877379,691.339456,562.727518,0.005500,-0.015125,1.002000,192.000000,0.000000,0.000000,0.000000,0.000000,0.000000,0.000000,0.000000,0.000000,0.000000,1775737362.408711,0.000000
200.000000,17561.609156,19862.341268,-17532.618944,2076.834688,-14434.197776,2750.113934,921.137741,-13897.264170,8617.268040,17673.792562,-4832.089523,2313.606717,-17915.258457,19182.959996,715.546395,584.364007,0.005500,-0.015125,1.002000,192.000000,0.000000,0.000000,0.000000,0.000000,0.000000,0.000000,0.000000,0.000000,0.000000,1775737362.408770,0.000000
202.000000,17566.705354,19863.302393,-17518.067958,2082.556734,-14426.687589,2746.761173,922.277680,-13886.848257,8632.467226,17685.594283,-4829.764942,2319.932261,-17914.789070,19191.185438,720.284965,585.056911,0.003750,-0.015562,1.002000,192.000000,0.000000,8.000000,127.500000,64.000000,15.500000,40.000000,0.000000,0.000000,0.000000,1775737362.408826,0.000000
204.000000,17564.380773,19865.045829,-17523.544136,2079.785118,-14428.006342,2748.169333,922.992936,-13888.010548,8610.406054,17688.790582,-4820.310154,2319.485226,-17903.792012,19191.319548,683.896325,549.472934,0.003750,-0.015562,1.002000,192.000000,0.000000,0.000000,0.000000,0.000000,0.000000,0.000000,0.000000,0.000000,0.000000,1775737362.408874,0.000000
206.000000,17566.995927,19869.829103,-17527.612153,2081.841479,-14429.459206,2749.465734,924.579909,-13889.977502,8640.022116,17692.053937,-4827.820340,2318.546452,-17916.666617,19199.187362,735.998241,603.184176,0.003750,-0.015562,1.002000,192.000000,0.000000,0.000000,0.000000,0.000000,0.000000,0.000000,0.000000,0.000000,0.000000,1775737362.408897,0.000000
208.000000,17568.314680,19862.989469,-17521.398368,2091.139804,-14412.941267,2754.360766,923.350563,-13883.651958,8619.592621,17698.111260,-4822.254756,2321.295717,-17901.378024,19205.132926,692.926430,564.023920,0.003750,-0.015562,1.002000,192.000000,0.000000,0.000000,0.000000,0.000000,0.000000,0.000000,0.000000,0.000000,0.000000,1775737362.408921,0.000000
210.000000,17565.587767,19868.197425,-17536.441092,2088.256429,-14421.122005,2767.905923,926.770380,-13893.240856,8623.101845,17697.820687,-4828.468541,2317.294755,-17908.575286,19210.922028,710.204328,590.264868,0.003750,-0.015562,1.002000,192.000000,0.000000,0.000000,0.000000,0.000000,0.000000,0.000000,0.000000,0.000000,0.000000,1775737362.408954,0.000000
212.000000,17568.940529,19870.611414,-17531.166080,2093.218516,-14426.486424,2763.390870,924.937537,-13881.126211,8633.987145,17705.040300,-4832.871834,2321.161606,-17910.363425,19217.761662,711.456026,596.143376,0.002875,-0.014781,1.004000,192.000000,0.000000,8.000000,127.500000,72.000000,15.500000,56.000000,0.000000,0.000000,0.000000,1775737362.408977,0.000000
214.000000,17581.882189,19883.508370,-17533.513014,2091.072749,-14423.670104,2770.364615,924.132875,-13876.521751,8618.050351,17715.746786,-4818.812587,2332.672755,-17896.438288,19222.299066,671.356996,558.681853,0.002875,-0.014781,1.004000,192.000000,0.000000,0.000000,0.000000,0.000000,0.000000,0.000000,0.000000,0.000000,0.000000,1775737362.409000,0.000000
216.000000,17582.128058,19884.178923,-17529.623810,2089.642237,-14423.848918,2770.006987,929.005555,-13875.359461,8657.970567,17722.541716,-4820.176044,2334.572653,-17903.903771,19231.060950,721.313145,609.844996,0.002875,-0.014781,1.004000,192.000000,0.000000,0.000000,0.000000,0.000000,0.000000,0.000000,0.000000,0.000000,0.000000,1775737362.409023,0.000000
218.000000,17579.870532,19874.970004,-17519.789042,2088.524650,-14419.490328,2765.894266,925.831607,-13870.129153,8635.909395,17718.361940,-4811.727084,2333.455066,-17878.534541,19227.238801,683.069311,569.008359,0.002875,-0.014781,1.004000,192.000000,0.000000,0.000000,0.000000,0.000000,0.000000,0.000000,0.000000,0.000000,0.000000,1775737362.409047,0.000000
220.000000,17569.298156,19870.142027,-17534.384732,2081.685016,-14431.314401,2768.420013,925.339869,-13890.536295,8634.836511,17710.516478,-4819.036105,2323.173263,-17908.061195,19225.316551,701.956535,588.856708,0.002875,-0.014781,1.004000,192.000000,0.000000,0.000000,0.000000,0.000000,0.000000,0.000000,0.000000,0.000000,0.000000,1775737362.409070,0.000000
222.000000,17571.265110,19865.068181,-17524.482909,2088.882278,-14424.742988,2763.502629,923.372915,-13887.764679,8646.414715,17712.483431,-4825.763980,2316.668906,-17913.291504,19223.349598,714.451160,595.361065,0.002875,-0.014781,1.004000,192.000000,0.000000,0.000000,0.000000,0.000000,0.000000,0.000000,0.000000,0.000000,0.000000,1775737362.409094,0.000000
224.000000,17565.118380,19862.028344,-17528.662685,2085.238944,-14427.156976,2762.742670,922.814122,-13891.296255,8618.027999,17708.661283,-4821.561852,2315.819540,-17904.753137,19223.818984,676.833174,561.989911,0.008000,-0.016000,1.004000,192.000000,0.000000,32.000000,127.500000,64.000000,15.500000,48.000000,0.000000,0.000000,0.000000,1775737362.409117,0.000000
226.000000,17563.687869,19863.816483,-17528.327409,2081.327388,-14431.269697,2757.579417,923.797598,-13893.307912,8641.787904,17712.639894,-4831.553081,2314.880766,-17919.482937,19226.255325,734.880654,602.088940,0.008000,-0.016000,1.004000,192.000000,0.000000,0.000000,0.000000,0.000000,0.000000,0.000000,0.000000,0.000000,0.000000,1775737362.409140,0.000000
228.000000,17558.703430,19852.081818,-17518.380883,2082.109700,-14426.262906,2751.522094,921.607127,-13890.245723,8618.899717,17706.873144,-4826.233366,2311.595060,-17910.631646,19218.432214,696.122729,564.448603,0.008000,-0.016000,1.004000,192.000000,0.000000,0.000000,0.000000,0.000000,0.000000,0.000000,0.000000,0.000000,0.000000,1775737362.409164,0.000000
230.000000,17553.629584,19852.372390,-17530.875508,2075.895915,-14427.000514,2757.154734,923.931709,-13902.650941,8619.525566,17695.250236,-4834.190587,2304.107225,-17915.057291,19220.063891,715.009953,585.638056,0.008000,-0.016000,1.004000,192.000000,0.000000,0.000000,0.000000,0.000000,0.000000,0.000000,0.000000,0.000000,0.000000,1775737362.409187,0.000000
232.000000,17560.379810,19852.506501,-17518.067958,2081.908534,-14411.734272,2758.160562,923.484674,-13894.760775,8637.742238,17701.687539,-4831.575433,2305.448330,-17909.961094,19227.059987,721.111980,589.236687,0.008000,-0.016000,1.004000,192.000000,0.000000,0.000000,0.000000,0.000000,0.000000,0.000000,0.000000,0.000000,0.000000,1775737362.409211,0.000000
234.000000,17561.810322,19857.848568,-17524.348798,2083.987246,-14414.639999,2766.095432,923.283508,-13897.264170,8616.575136,17698.133611,-4824.847558,2305.068350,-17894.158410,19228.423444,688.947819,551.194018,0.006000,-0.018000,0.996000,192.000000,0.000000,24.000000,127.500000,56.000000,15.500000,16.000000,0.000000,0.000000,0.000000,1775737362.409234,0.000000
236.000000,17566.504188,19869.359716,-17527.410987,2090.983342,-14421.434930,2771.281036,927.999726,-13896.794784,8651.756782,17711.745824,-4832.313041,2308.465816,-17903.300274,19241.432159,727.616337,605.799330,0.006000,-0.018000,0.996000,192.000000,0.000000,0.000000,0.000000,0.000000,0.000000,0.000000,0.000000,0.000000,0.000000,1775737362.409258,0.000000
238.000000,17566.973575,19868.845626,-17523.208859,2089.306961,-14418.663313,2761.669786,922.322383,-13891.430365,8626.119331,17716.149117,-4830.703715,2310.566880,-17895.432460,19239.062874,685.595058,567.577847,0.006000,-0.018000,0.996000,192.000000,0.000000,0.000000,0.000000,0.000000,0.000000,0.000000,0.000000,0.000000,0.000000,1775737362.409281,0.000000
240.000000,17579.043517,19888.112830,-17528.617982,2087.474118,-14412.985970,2776.399586,928.782037,-13889.731632,8637.809293,17720.083025,-4831.642488,2314.500787,-17893.979596,19245.969563,706.337477,586.196850,0.006000,-0.018000,0.996000,192.000000,0.000000,0.000000,0.000000,0.000000,0.000000,0.000000,0.000000,0.000000,0.000000,1775737362.409305,0.000000
242.000000,17579.423497,19879.082725,-17521.174851,2083.093176,-14417.903354,2758.697004,923.507026,-13888.524638,8660.764535,17728.017894,-4831.575433,2318.837025,-17889.308082,19249.724656,718.049791,595.003437,0.006000,-0.018000,0.996000,192.000000,0.000000,0.000000,0.000000,0.000000,0.000000,0.000000,0.000000,0.000000,0.000000,1775737362.409336,0.000000
244.000000,17572.047421,19873.517141,-17527.433339,2079.449842,-14424.117139,2757.422955,922.344735,-13894.850182,8628.868595,17710.695292,-4827.060381,2309.493996,-17890.157448,19236.537127,681.996427,563.263960,0.010000,-0.014000,0.992000,192.000000,0.000000,40.000000,127.500000,72.000000,15.500000,0.000000,0.000000,0.000000,0.000000,1775737362.409363,0.000000
246.000000,17570.773372,19877.115771,-17529.400293,2082.690845,-14425.905278,2758.898170,925.272813,-13896.235990,8653.969604,17715.478565,-4836.179893,2307.571746,-17906.787146,19244.963735,733.673660,609.800292,0.010000,-0.014000,0.992000,192.000000,0.000000,0.000000,0.000000,0.000000,0.000000,0.000000,0.000000,0.000000,0.000000,1775737362.409390,0.000000
248.000000,17575.556645,19877.652213,-17518.492641,2091.139804,-14419.646790,2758.674652,924.132875,-13883.719013,8638.368087,17720.239487,-4826.926270,2315.484263,-17894.180762,19248.160034,695.563936,566.951998,0.010000,-0.014000,0.992000,192.000000,0.000000,0.000000,0.000000,0.000000,0.000000,0.000000,0.000000,0.000000,0.000000,1775737362.409416,0.000000
250.000000,17572.807380,19879.306242,-17531.210784,2089.530479,-14419.646790,2769.917580,926.502159,-13896.303045,8640.983241,17722.161737,-4833.900015,2316.557147,-17893.018471,19254.731447,715.792264,591.091882,0.010000,-0.014000,0.992000,192.000000,0.000000,0.000000,0.000000,0.000000,0.000000,0.000000,0.000000,0.000000,0.000000,1775737362.409444,0.000000
252.000000,17583.625625,19882.189617,-17516.279819,2093.822014,-14411.667217,2768.107089,926.748029,-13887.228237,8666.084250,17731.124786,-4834.369401,2315.707781,-17894.493686,19260.542901,726.096419,599.898469,0.010000,-0.014000,0.992000,192.000000,0.000000,0.000000,0.000000,0.000000,0.000000,0.000000,0.000000,0.000000,0.000000,1775737362.409470,0.000000
254.000000,17586.866628,19884.894178,-17519.811394,2087.250601,-14410.862554,2766.050728,926.010421,-13886.445926,8637.943403,17725.402740,-4822.187701,2312.846758,-17887.028204,19257.659526,693.373465,564.001568,0.008000,-0.012000,0.998000,192.000000,0.000000,32.000000,127.500000,80.000000,15.500000,24.000000,0.000000,0.000000,0.000000,1775737362.409497,0.000000
0.000000,17591.180514,19891.823219,-17520.660760,2089.530479,-14412.874211,2769.224676,930.547825,-13884.300159,8677.528343,17732.689408,-4822.902956,2315.104284,-17899.433422,19264.476808,739.373355,611.499025,0.008000,-0.012000,0.998000,192.000000,0.000000,0.000000,0.000000,0.000000,0.000000,0.000000,0.000000,0.000000,0.000000,1775737362.409524,0.000000
2.000000,17595.248532,19890.705632,-17513.038816,2092.637371,-14409.342636,2765.335472,927.753857,-13876.901731,8656.741221,17735.282211,-4818.365552,2316.691258,-17888.749288,19266.734334,698.939049,567.957827,0.008000,-0.012000,0.998000,192.000000,0.000000,0.000000,0.000000,0.000000,0.000000,0.000000,0.000000,0.000000,0.000000,1775737362.409550,0.000000
4.000000,17592.588674,19895.377147,-17526.561621,2090.737473,-14413.701226,2770.766946,931.777171,-13886.736499,8662.597378,17738.724379,-4824.087599,2314.925470,-17890.313910,19273.775133,717.468645,592.053007,0.008000,-0.012000,0.998000,192.000000,0.000000,0.000000,0.000000,0.000000,0.000000,0.000000,0.000000,0.000000,0.000000,1775737362.409577,0.000000
6.000000,17601.507020,19897.813487,-17515.273990,2097.353589,-14403.061796,2772.532734,932.358316,-13876.924083,8679.808221,17748.067409,-4825.473407,2303.123749,-17894.516038,19278.089020,723.302451,600.144339,0.008000,-0.012000,0.998000,192.000000,0.000000,0.000000,0.000000,0.000000,0.000000,0.000000,0.000000,0.000000,0.000000,1775737362.409603,0.000000
8.000000,17599.651825,19896.584141,-17520.794871,2091.184508,-14407.420386,2769.582304,927.239767,-13883.987234,8657.858808,17739.104359,-4816.867985,2289.243315,-17880.210922,19273.886892,682.868145,564.269789,0.006000,-0.012000,1.000000,192.000000,0.000000,24.000000,127.500000,80.000000,15.500000,32.000000,0.000000,0.000000,0.000000,1775737362.409630,0.000000
10.000000,17604.077471,19901.300359,-17517.620923,2089.329313,-14405.721653,2770.856353,929.407886,-13887.183534,8689.374767,17742.233603,-4825.026372,2275.809917,-17894.516038,19275.920901,733.293680,616.595223,0.006000,-0.012000,1.000000,192.000000,0.000000,0.000000,0.000000,0.000000,0.000000,0.000000,0.000000,0.000000,0.000000,1775737362.409676,0.000000
12.000000,17613.889887,19906.217743,-17504.031063,2093.665551,-14403.531182,2767.123612,928.379706,-13875.046536,8679.785869,17748.089760,-4810.810663,2274.558219,-17873.527750,19276.390287,697.150910,570.394167,0.006000,-0.012000,1.000000,192.000000,0.000000,0.000000,0.000000,0.000000,0.000000,0.000000,0.000000,0.000000,0.000000,1775737362.409703,0.000000
14.000000,17609.263076,19909.458746,-17521.040740,2087.831746,-14417.992761,2765.044900,928.916148,-13885.685967,8685.194991,17746.949821,-4813.023485,2273.015949,-17878.199265,19277.016136,708.930279,594.489347,0.006000,-0.012000,1.000000,192.000000,0.000000,0.000000,0.000000,0.000000,0.000000,0.000000,0.000000,0.000000,0.000000,1775737362.409729,0.000000
16.000000,17612.213506,19907.022406,-17510.133089,2095.453691,-14404.402900,2767.838868,931.263081,-13876.767621,8698.606038,17750.414342,-4817.940869,2273.597094,-17884.547160,19277.865503,725.448218,599.384379,0.006000,-0.012000,1.000000,192.000000,0.000000,0.000000,0.000000,0.000000,0.000000,0.000000,0.000000,0.000000,0.000000,1775737362.409756,0.000000
18.000000,17606.916142,19903.915513,-17516.570391,2087.541173,-14405.900467,2765.491934,927.485636,-13882.891999,8672.990939,17745.049923,-4811.615325,2270.847830,-17869.795009,19271.875235,688.523136,563.509829,0.002000,-0.018000,0.996000,192.000000,0.000000,8.000000,127.500000,56.000000,15.500000,16.000000,0.000000,0.000000,0.000000,1775737362.409786,0.000000
20.000000,17609.799517,19907.357682,-17516.391577,2085.395406,-14406.302799,2772.242161,930.480770,-13886.222409,8704.618657,17748.201519,-4820.779541,2266.600998,-17882.714317,19275.004479,742.971986,608.570946,0.002000,-0.018000,0.996000,192.000000,0.000000,0.000000,0.000000,0.000000,0.000000,0.000000,0.000000,0.000000,0.000000,1775737362.409813,0.000000
22.000000,17614.783956,19904.831935,-17506.400348,2088.323484,-14396.065700,2767.414185,928.558520,-13879.226313,8690.157079,17745.854586,-4810.497738,2264.231713,-17873.147771,19271.875235,702.940011,573.411652,0.002000,-0.018000,0.996000,192.000000,0.000000,0.000000,0.000000,0.000000,0.000000,0.000000,0.000000,0.000000,0.000000,1775737362.409839,0.000000
24.000000,17608.167840,19903.468478,-17521.376016,2078.958104,-14417.076339,2757.244141,928.245595,-13892.100917,8686.111413,17739.663153,-4816.666820,2261.996539,-17885.374175,19268.790694,717.759218,588.297914,0.002000,-0.018000,0.996000,192.000000,0.000000,0.000000,0.000000,0.000000,0.000000,0.000000,0.000000,0.000000,0.000000,1775737362.409866,0.000000
26.000000,17615.901544,19908.855249,-17512.256505,2088.010560,-14414.058854,2751.790315,928.536168,-13883.271978,8696.750843,17746.592193,-4821.293631,2267.830344,-17892.169105,19271.875235,731.214968,593.595277,0.002000,-0.018000,0.996000,192.000000,0.000000,0.000000,0.000000,0.000000,0.000000,0.000000,0.000000,0.000000,0.000000,1775737362.409892,0.000000
28.000000,17606.759680,19901.702690,-17520.839574,2086.356531,-14423.357180,2753.354937,927.642098,-13889.865743,8666.419526,17744.267612,-4817.851462,2267.964455,-17890.716242,19265.303822,690.803014,557.564265,0.004000,-0.016000,0.998000,192.000000,0.000000,16.000000,127.500000,64.000000,15.500000,24.000000,0.000000,0.000000,0.000000,1775737362.409918,0.000000
30.000000,17610.224201,19907.178868,-17524.505261,2087.362359,-14423.737159,2755.567760,933.185331,-13886.915313,8692.414605,17741.987734,-4827.999154,2264.835210,-17914.945533,19267.315479,733.763067,612.706019,0.004000,-0.016000,0.998000,192.000000,0.000000,0.000000,0.000000,0.000000,0.000000,0.000000,0.000000,0.000000,0.000000,1775737362.409945,0.000000
32.000000,17615.856840,19908.944656,-17513.597609,2089.642237,-14419.602086,2751.075059,931.240729,-13875.068888,8676.656625,17744.826406,-4816.465654,2270.736071,-17886.223541,19267.673107,698.424959,568.091937,0.004000,-0.016000,0.998000,192.000000,0.000000,0.000000,0.000000,0.000000,0.000000,0.000000,0.000000,0.000000,0.000000,1775737362.409972,0.000000
34.000000,17622.048273,19920.276990,-17524.594668,2086.043607,-14427.156976,2760.663958,933.788828,-13878.734574,8676.254293,17745.966345,-4817.829110,2274.915847,-17903.121460,19272.232863,710.383142,585.615705,0.004000,-0.016000,0.998000,192.000000,0.000000,0.000000,0.000000,0.000000,0.000000,0.000000,0.000000,0.000000,0.000000,1775737362.409998,0.000000
36.000000,17633.470015,19927.004865,-17509.551943,2089.597534,-14423.938325,2752.572626,931.844226,-13867.737516,8704.439843,17757.388086,-4811.168291,2287.991618,-17904.440213,19280.503008,717.513349,596.344542,0.004000,-0.016000,0.998000,192.000000,0.000000,0.000000,0.000000,0.000000,0.000000,0.000000,0.000000,0.000000,0.000000,1775737362.410029,0.000000
38.000000,17633.425311,19929.642371,-17511.585952,2089.552830,-14423.290124,2755.299539,931.128971,-13870.307967,8680.903456,17757.119865,-4802.451110,2291.009103,-17890.246855,19274.199816,686.220907,555.843181,0.005000,-0.017000,0.999000,192.000000,0.000000,24.000000,127.500000,56.000000,15.500000,32.000000,0.000000,0.000000,0.000000,1775737362.410056,0.000000
40.000000,17630.139605,19930.044702,-17516.123356,2093.687903,-14427.402845,2757.937045,937.566273,-13873.213693,8711.458291,17765.390011,-4810.833014,2290.025626,-17903.099108,19286.940311,729.583291,607.676877,0.005000,-0.017000,0.999000,192.000000,0.000000,0.000000,0.000000,0.000000,0.000000,0.000000,0.000000,0.000000,0.000000,1775737362.410082,0.000000
42.000000,17626.719788,19920.254638,-17506.132127,2093.754958,-14419.780900,2746.783524,935.398154,-13867.446943,8688.793622,17760.696144,-4805.669761,2286.091719,-17896.393585,19283.520494,695.183956,560.246475,0.005000,-0.017000,0.999000,192.000000,0.000000,0.000000,0.000000,0.000000,0.000000,0.000000,0.000000,0.000000,0.000000,1775737362.410109,0.000000
44.000000,17624.104634,19923.696807,-17520.861926,2088.189374,-14422.284296,2753.511399,933.922939,-13880.500362,8689.665340,17753.789455,-4812.487043,2281.151984,-17898.584056,19281.508837,717.625107,576.116213,0.005000,-0.017000,0.999000,192.000000,0.000000,0.000000,0.000000,0.000000,0.000000,0.000000,0.000000,0.000000,0.000000,1775737362.410135,0.000000
46.000000,17637.448625,19931.139938,-17506.713272,2093.777310,-14410.750796,2755.746574,932.023040,-13871.582016,8713.291134,17766.842874,-4814.342238,2289.377426,-17898.181724,19292.014157,727.258709,593.863498,0.005000,-0.017000,0.999000,192.000000,0.000000,0.000000,0.000000,0.000000,0.000000,0.000000,0.000000,0.000000,0.000000,1775737362.410161,0.000000
48.000000,17638.208585,19934.716217,-17509.842516,2092.145633,-14414.550592,2751.857370,930.369011,-13872.677251,8694.761538,17772.274348,-4804.529822,2294.540679,-17879.383907,19296.260988,700.928354,550.545818,0.005500,-0.015500,0.999500,192.000000,0.000000,24.000000,127.500000,72.000000,15.500000,32.000000,0.000000,0.000000,0.000000,1775737362.410187,0.000000
50.000000,17636.107521,19935.498528,-17516.302170,2093.553793,-14417.903354,2750.292748,932.783000,-13876.991138,8726.143387,17775.716516,-4812.688209,2296.887612,-17893.420803,19298.294997,738.792209,607.743932,0.005500,-0.015500,0.999500,192.000000,0.000000,0.000000,0.000000,0.000000,0.000000,0.000000,0.000000,0.000000,0.000000,1775737362.410217,0.000000
52.000000,17634.207622,19928.480080,-17508.367301,2095.632505,-14415.779938,2743.251949,930.190197,-13873.146638,8703.657532,17772.028479,-4808.307267,2295.591211,-17884.569512,19290.874218,697.307372,570.036539,0.005500,-0.015500,0.999500,192.000000,0.000000,0.000000,0.000000,0.000000,0.000000,0.000000,0.000000,0.000000,0.000000,1775737362.410244,0.000000
54.000000,17625.333980,19929.329446,-17525.801662,2092.123281,-14427.089921,2751.879722,933.408848,-13884.814249,8703.903401,17765.680583,-4816.488006,2289.779757,-17895.141887,19290.404831,707.298602,590.980123,0.005500,-0.015500,0.999500,192.000000,0.000000,0.000000,0.000000,0.000000,0.000000,0.000000,0.000000,0.000000,0.000000,1775737362.410270,0.000000
56.000000,17632.486538,19932.749263,-17512.994112,2097.465348,-14417.366912,2756.618292,934.414677,-13871.045574,8714.051093,17768.943938,-4820.667782,2293.087815,-17901.176858,19299.926674,718.988564,605.575813,0.005500,-0.015500,0.999500,192.000000,0.000000,0.000000,0.000000,0.000000,0.000000,0.000000,0.000000,0.000000,0.000000,1775737362.410310,0.000000
58.000000,17629.983143,19931.072883,-17515.788080,2088.837575,-14415.511717,2753.556103,930.011383,-13875.851199,8689.441823,17770.910891,-4810.028352,2297.312295,-17890.783297,19298.563218,689.506613,559.620626,0.007750,-0.015750,1.001750,192.000000,0.000000,40.000000,127.500000,64.000000,15.500000,48.000000,0.000000,0.000000,0.000000,1775737362.889441,0.000000
60.000000,17633.849994,19938.381903,-17514.670493,2089.306961,-14421.434930,2750.851542,933.855883,-13877.192304,8721.784797,17772.274348,-4817.516186,2295.077121,-17900.595713,19301.468945,745.162457,606.715751,0.007750,-0.015750,1.001750,192.000000,0.000000,0.000000,0.000000,0.000000,0.000000,0.000000,0.000000,0.000000,0.000000,1775737362.889509,0.000000
62.000000,17632.173614,19935.073845,-17504.254580,2091.944467,-14418.931534,2739.496856,932.358316,-13870.509132,8699.880087,17776.051793,-4810.698904,2299.592173,-17892.996120,19295.366918,711.031343,560.067661,0.007750,-0.015750,1.001750,192.000000,0.000000,0.000000,0.000000,0.000000,0.000000,0.000000,0.000000,0.000000,0.000000,1775737362.889556,0.000000
64.000000,17634.967582,19941.801720,-17516.503336,2088.502298,-14427.134624,2747.856408,934.057049,-13880.008624,8702.450538,17777.147028,-4811.704732,2298.943972,-17894.650149,19299.122012,720.508483,573.836335,0.007750,-0.015750,1.001750,192.000000,0.000000,0.000000,0.000000,0.000000,0.000000,0.000000,0.000000,0.000000,0.000000,1775737362.889602,0.000000
66.000000,17636.241631,19937.487833,-17509.082557,2091.765653,-14424.407712,2740.100353,932.313613,-13877.102897,8718.856718,17779.695127,-4816.532709,2296.485281,-17896.930027,19302.877105,732.332555,585.392187,0.007750,-0.015750,1.001750,192.000000,0.000000,0.000000,0.000000,0.000000,0.000000,0.000000,0.000000,0.000000,0.000000,1775737362.889648,0.000000
68.000000,17624.328151,19928.725949,-17518.045606,2087.183545,-14430.912069,2739.765077,929.765514,-13878.823981,8689.106547,17767.580481,-4813.336410,2291.567897,-17897.019434,19294.718718,689.506613,549.517637,0.007875,-0.016875,1.004875,192.000000,0.000000,32.000000,127.500000,56.000000,15.500000,64.000000,0.000000,0.000000,0.000000,1775737362.889695,0.000000
70.000000,17634.744064,19942.114644,-17518.716159,2089.396368,-14428.721598,2749.197513,933.989994,-13877.058193,8715.146329,17772.699031,-4821.763017,2294.138347,-17897.086489,19304.732299,734.344212,606.201661,0.007875,-0.016875,1.004875,192.000000,0.000000,0.000000,0.000000,0.000000,0.000000,0.000000,0.000000,0.000000,0.000000,1775737362.889748,0.000000
72.000000,17635.571079,19937.376074,-17508.121432,2088.837575,-14416.338732,2748.281091,928.491465,-13872.833714,8705.535079,17780.566845,-4812.308229,2298.340475,-17899.545181,19306.811012,702.403570,565.633245,0.007875,-0.016875,1.004875,192.000000,0.000000,0.000000,0.000000,0.000000,0.000000,0.000000,0.000000,0.000000,0.000000,1775737362.889761,0.000000
74.000000,17636.800425,19943.813377,-17522.337141,2086.177717,-14422.865441,2757.154734,930.905453,-13882.199095,8708.686675,17772.587272,-4814.364590,2294.786548,-17899.299312,19305.581666,718.049791,579.513678,0.007875,-0.016875,1.004875,192.000000,0.000000,0.000000,0.000000,0.000000,0.000000,0.000000,0.000000,0.000000,0.000000,1775737362.889773,0.000000
76.000000,17642.969506,19947.993153,-17514.938714,2092.480909,-14425.368837,2751.969129,929.743162,-13874.197170,8725.137559,17781.259749,-4817.449131,2298.608696,-17905.490745,19309.582628,725.559977,599.451435,0.007875,-0.016875,1.004875,192.000000,0.000000,0.000000,0.000000,0.000000,0.000000,0.000000,0.000000,0.000000,0.000000,1775737362.889792,0.000000
78.000000,17645.629364,19949.446016,-17516.704502,2094.246697,-14427.983991,2755.388946,930.860750,-13872.833714,8699.142480,17783.360813,-4806.630886,2303.257859,-17893.264341,19311.594285,682.443462,558.078356,0.007875,-0.016875,1.004875,192.000000,0.000000,0.000000,127.500000,72.000000,15.500000,48.000000,0.000000,0.000000,0.000000,1775737362.889804,0.000000
80.000000,17640.488463,19946.897918,-17518.582048,2092.391502,-14426.642886,2750.583321,935.979299,-13877.393469,8731.977192,17787.026499,-4814.051666,2305.425978,-17903.702605,19318.188050,733.338384,603.742969,0.007875,-0.016875,1.004875,192.000000,0.000000,0.000000,0.000000,0.000000,0.000000,0.000000,0.000000,0.000000,0.000000,1775737362.889815,0.000000
82.000000,17640.175538,19941.757016,-17508.344949,2093.486737,-14422.887793,2744.414239,935.062878,-13865.435286,8704.573954,17779.113982,-4813.179948,2301.045036,-17898.740518,19311.191954,700.056636,557.899542,0.007875,-0.016875,1.004875,192.000000,0.000000,0.000000,0.000000,0.000000,0.000000,0.000000,0.000000,0.000000,0.000000,1775737362.889836,0.000000
84.000000,17631.704227,19938.560717,-17523.432377,2085.305999,-14430.420331,2747.789353,934.817008,-13876.834676,8704.573954,17779.248092,-4814.543404,2301.067388,-17906.027187,19308.666206,712.126578,577.300856,0.007875,-0.016875,1.004875,192.000000,0.000000,0.000000,0.000000,0.000000,0.000000,0.000000,0.000000,0.000000,0.000000,1775737362.889848,0.000000
86.000000,17639.527337,19941.511147,-17511.675359,2088.926982,-14426.285258,2747.811705,932.313613,-13871.850237,8721.673038,17781.460915,-4816.867985,2300.508595,-17909.089376,19313.717701,723.436561,583.961676,0.007875,-0.016875,1.004875,192.000000,0.000000,0.000000,0.000000,0.000000,0.000000,0.000000,0.000000,0.000000,0.000000,1775737362.889860,0.000000
88.000000,17629.692570,19937.286668,-17520.258429,2082.981418,-14431.001476,2746.180027,927.530340,-13883.316682,8695.566201,17781.505618,-4814.945735,2299.346304,-17900.841582,19311.750747,685.148023,543.437963,0.004938,-0.015437,1.002438,192.000000,0.000000,8.000000,127.500000,72.000000,15.500000,32.000000,0.000000,0.000000,0.000000,1775737362.889872,0.000000
90.000000,17628.843204,19938.337199,-17527.343932,2080.567429,-14437.952869,2744.950681,928.156189,-13893.218505,8726.210442,17782.310281,-4827.395657,2293.624257,-17917.672445,19315.639951,733.986584,594.981086,0.004938,-0.015437,1.002438,192.000000,0.000000,0.000000,0.000000,0.000000,0.000000,0.000000,0.000000,0.000000,0.000000,1775737362.889884,0.000000
92.000000,17615.588619,19919.606438,-17523.208859,2080.723891,-14436.432950,2734.490065,922.411790,-13896.325397,8699.835384,17774.040136,-4832.089523,2286.449347,-17917.493632,19305.693424,697.866165,558.368928,0.004938,-0.015437,1.002438,192.000000,0.000000,0.000000,0.000000,0.000000,0.000000,0.000000,0.000000,0.000000,0.000000,1775737362.889895,0.000000
94.000000,17613.733424,19926.468423,-17537.804548,2080.276856,-14442.289107,2747.878760,924.781075,-13902.047444,8693.152212,17771.536740,-4840.091448,2282.671902,-17924.869707,19307.302750,711.567785,579.468975,0.004938,-0.015437,1.002438,192.000000,0.000000,0.000000,0.000000,0.000000,0.000000,0.000000,0.000000,0.000000,0.000000,1775737362.889907,0.000000
96.000000,17620.662465,19930.223516,-17524.952295,2086.915325,-14431.381456,2752.259702,925.809255,-13890.044557,8711.368884,17783.226703,-4838.638584,2290.495013,-17926.680199,19318.009236,721.223738,599.227917,0.004938,-0.015437,1.002438,192.000000,0.000000,0.000000,0.000000,0.000000,0.000000,0.000000,0.000000,0.000000,0.000000,1775737362.889918,0.000000
98.000000,17620.751872,19930.603496,-17527.656856,2083.428452,-14426.598183,2754.293711,922.814122,-13894.537257,8683.295093,17781.572674,-4831.351916,2288.662170,-17911.548068,19315.975227,687.897287,555.373794,0.003469,-0.012719,1.001219,192.000000,0.000000,8.000000,127.500000,88.000000,15.500000,32.000000,0.000000,0.000000,0.000000,1775737362.889930,0.000000
100.000000,17627.345637,19938.851290,-17527.008656,2084.590743,-14423.088959,2760.686309,927.329174,-13894.760775,8723.818806,17791.809772,-4835.330526,2291.433786,-17917.292466,19324.960628,735.215930,607.654525,0.003469,-0.012719,1.001219,192.000000,0.000000,0.000000,0.000000,0.000000,0.000000,0.000000,0.000000,0.000000,0.000000,1775737362.889942,0.000000
102.000000,17633.268849,19939.477138,-17511.898877,2086.222420,-14416.674008,2755.768926,926.546863,-13884.076641,8715.392198,17798.090613,-4821.494796,2296.015894,-17896.952378,19327.553431,702.403570,563.219257,0.003469,-0.012719,1.001219,192.000000,0.000000,0.000000,0.000000,0.000000,0.000000,0.000000,0.000000,0.000000,0.000000,1775737362.889953,0.000000
104.000000,17632.508890,19944.059246,-17524.639371,2084.814261,-14424.564174,2763.860257,930.905453,-13891.050385,8717.493262,17798.381185,-4820.667782,2294.428920,-17897.958207,19328.805128,714.339401,577.233801,0.003469,-0.012719,1.001219,192.000000,0.000000,0.000000,0.000000,0.000000,0.000000,0.000000,0.000000,0.000000,0.000000,1775737362.889965,0.000000
106.000000,17639.370875,19945.981496,-17514.335217,2091.251563,-14423.737159,2761.356862,931.531302,-13882.020281,8743.376582,17810.249962,-4819.997230,2300.173318,-17900.573361,19340.629201,720.262613,590.577792,0.003469,-0.012719,1.001219,192.000000,0.000000,0.000000,0.000000,0.000000,0.000000,0.000000,0.000000,0.000000,0.000000,1775737362.889977,0.000000
108.000000,17631.570116,19940.728836,-17520.146670,2085.216592,-14434.823624,2755.746574,928.782037,-13884.478972,8714.252259,17808.327712,-4814.766921,2299.033379,-17894.918370,19334.191899,680.208287,547.438925,0.003469,-0.012719,1.001219,192.000000,0.000000,0.000000,0.000000,0.000000,0.000000,0.000000,0.000000,0.000000,0.000000,1775737362.889988,0.000000
110.000000,17636.353390,19952.239985,-17523.365322,2088.770519,-14425.368837,2756.931216,932.961814,-13881.103859,8738.034515,17810.764052,-4824.400523,2300.463891,-17912.062158,19335.242431,726.163474,596.523356,0.002000,-0.016000,0.996000,192.000000,0.000000,8.000000,127.500000,64.000000,15.500000,16.000000,0.000000,0.000000,0.000000,1775737362.890000,0.000000
112.000000,17636.398093,19947.590822,-17516.436281,2091.072749,-14424.899450,2748.839885,925.473979,-13878.958092,8718.163814,17812.798061,-4820.846596,2304.263688,-17907.390643,19332.426111,698.022628,560.961731,0.002000,-0.016000,0.996000,192.000000,0.000000,0.000000,0.000000,0.000000,0.000000,0.000000,0.000000,0.000000,0.000000,1775737362.890011,0.000000
114.000000,17631.972448,19950.474197,-17530.406121,2085.551868,-14430.755607,2754.763097,927.060953,-13891.273903,8708.753730,17809.221781,-4826.635698,2301.402664,-17914.230277,19333.364884,708.773817,577.502021,0.002000,-0.016000,0.996000,192.000000,0.000000,0.000000,0.000000,0.000000,0.000000,0.000000,0.000000,0.000000,0.000000,1775737362.890024,0.000000
116.000000,17628.552631,19943.522804,-17524.147633,2084.590743,-14431.604973,2741.374402,925.786904,-13890.648054,8718.096759,17803.365624,-4834.212939,2294.093644,-17929.183594,19329.274515,727.996317,590.331923,0.002000,-0.016000,0.996000,192.000000,0.000000,0.000000,0.000000,0.000000,0.000000,0.000000,0.000000,0.000000,0.000000,1775737362.890036,0.000000
118.000000,17629.692570,19946.339124,-17529.288534,2081.394444,-14432.856671,2747.431725,923.864654,-13893.419670,8684.345625,17798.492944,-4829.876701,2291.746711,-17921.181669,19325.139442,693.954610,551.015204,0.002000,-0.016000,0.996000,192.000000,0.000000,0.000000,0.000000,0.000000,0.000000,0.000000,0.000000,0.000000,0.000000,1775737362.890048,0.000000
120.000000,17631.234840,19952.374095,-17534.854118,2083.428452,-14436.254136,2753.086716,927.686802,-13889.977502,8713.693465,17804.192639,-4835.084657,2293.646609,-17935.352675,19333.096663,738.881616,606.380475,0.004000,-0.016000,0.998000,192.000000,0.000000,16.000000,127.500000,64.000000,15.500000,24.000000,0.000000,0.000000,0.000000,1775737362.890059,0.000000
122.000000,17644.645887,19961.538310,-17516.279819,2093.665551,-14417.478671,2761.334510,931.218377,-13868.072792,8703.746939,17814.183869,-4821.986535,2303.906060,-17920.153489,19337.835233,699.341381,570.215353,0.004000,-0.016000,0.998000,192.000000,0.000000,0.000000,0.000000,0.000000,0.000000,0.000000,0.000000,0.000000,0.000000,1775737362.890071,0.000000
124.000000,17636.956887,19961.538310,-17527.321580,2090.759825,-14424.921802,2766.989501,934.861712,-13878.153429,8709.916021,17819.347122,-4818.857291,2308.488167,-17915.705492,19344.786625,711.679543,584.073434,0.004000,-0.016000,0.998000,192.000000,0.000000,0.000000,0.000000,0.000000,0.000000,0.000000,0.000000,0.000000,0.000000,1775737362.890083,0.000000
126.000000,17648.289221,19967.617985,-17512.860002,2097.554755,-14415.064682,2767.034205,935.822837,-13869.659766,8727.618602,17828.667799,-4822.455921,2313.785531,-17917.001893,19352.833253,732.399611,597.037446,0.004000,-0.016000,0.998000,192.000000,0.000000,0.000000,0.000000,0.000000,0.000000,0.000000,0.000000,0.000000,0.000000,1775737362.890095,0.000000
128.000000,17643.818872,19964.824017,-17519.386711,2093.151461,-14420.496156,2765.000196,931.955985,-13876.812324,8711.033608,17834.300439,-4813.045837,2315.908947,-17897.466469,19355.403704,697.106206,550.523466,0.004000,-0.016000,0.998000,192.000000,0.000000,0.000000,0.000000,0.000000,0.000000,0.000000,0.000000,0.000000,0.000000,1775737362.890106,0.000000
130.000000,17636.532204,19960.688944,-17525.801662,2092.816185,-14428.766302,2764.799030,933.788828,-13886.647092,8732.915966,17830.299476,-4829.943756,2308.331705,-17911.190440,19355.426056,737.495808,603.564156,0.004000,-0.014000,1.002000,192.000000,0.000000,16.000000,127.500000,72.000000,15.500000,40.000000,0.000000,0.000000,0.000000,1775737362.890118,0.000000
132.000000,17633.358256,19952.552909,-17517.039778,2090.893935,-14423.580697,2751.231522,928.446761,-13884.255455,8715.436902,17828.332523,-4826.143959,2306.431807,-17898.293483,19353.034419,699.877822,555.597312,0.004000,-0.014000,1.002000,192.000000,0.000000,0.000000,0.000000,0.000000,0.000000,0.000000,0.000000,0.000000,0.000000,1775737362.890130,0.000000
134.000000,17622.540012,19948.641354,-17537.133996,2081.327388,-14440.053933,2744.548350,927.955023,-13900.058138,8705.289210,17814.742662,-4836.068134,2295.367693,-17919.706454,19342.976134,708.818520,570.215353,0.004000,-0.014000,1.002000,192.000000,0.000000,0.000000,0.000000,0.000000,0.000000,0.000000,0.000000,0.000000,0.000000,1775737362.890141,0.000000
136.000000,17624.104634,19947.680229,-17526.539269,2086.714159,-14433.370761,2747.074097,928.446761,-13894.045519,8720.287230,17816.150822,-4843.801837,2292.551374,-17935.129158,19341.120939,721.000221,588.074397,0.004000,-0.014000,1.002000,192.000000,0.000000,0.000000,0.000000,0.000000,0.000000,0.000000,0.000000,0.000000,0.000000,1775737362.890153,0.000000
138.000000,17623.277619,19946.115607,-17529.780272,2086.177717,-14432.029656,2757.288844,927.083305,-13896.414804,8692.213439,17818.497755,-4837.923329,2294.719493,-17917.381873,19345.591288,682.778738,551.976329,0.004000,-0.014000,1.002000,192.000000,0.000000,0.000000,0.000000,0.000000,0.000000,0.000000,0.000000,0.000000,0.000000,1775737362.890165,0.000000
140.000000,17632.128910,19957.246775,-17532.574240,2084.881316,-14431.895546,2767.056557,928.402058,-13900.438118,8727.797416,17826.186755,-4847.713393,2294.361865,-17926.121405,19356.163663,739.932148,607.185138,0.006000,-0.018000,1.000000,192.000000,0.000000,24.000000,127.500000,56.000000,15.500000,32.000000,0.000000,0.000000,0.000000,1775737362.890176,0.000000
142.000000,17632.374779,19948.395484,-17521.376016,2088.390540,-14420.116177,2760.641606,925.205758,-13896.437156,8721.293059,17831.014732,-4838.571529,2296.485281,-17908.888210,19355.604870,708.684410,569.701263,0.006000,-0.018000,1.000000,192.000000,0.000000,0.000000,0.000000,0.000000,0.000000,0.000000,0.000000,0.000000,0.000000,1775737362.890188,0.000000
144.000000,17638.163881,19959.146674,-17530.070845,2085.864793,-14419.020941,2774.812612,928.558520,-13900.304008,8721.114245,17825.046816,-4839.331489,2293.579554,-17905.244876,19355.850739,715.769913,581.659446,0.006000,-0.018000,1.000000,192.000000,0.000000,0.000000,0.000000,0.000000,0.000000,0.000000,0.000000,0.000000,0.000000,1775737362.890199,0.000000
146.000000,17645.405846,19962.342973,-17516.659798,2089.597534,-14412.337770,2771.012815,929.296127,-13887.675272,8749.500960,17841.698866,-4835.375230,2300.016856,-17903.076756,19366.467818,729.091552,598.982048,0.006000,-0.018000,1.000000,192.000000,0.000000,0.000000,0.000000,0.000000,0.000000,0.000000,0.000000,0.000000,0.000000,1775737362.890212,0.000000
148.000000,17647.596317,19967.014488,-17516.592743,2088.725816,-14410.259057,2773.069176,929.497293,-13882.824943,8725.808111,17848.694962,-4821.964183,2306.744731,-17885.485933,19368.591233,698.492014,551.305777,0.006000,-0.018000,1.000000,192.000000,0.000000,0.000000,0.000000,0.000000,0.000000,0.000000,0.000000,0.000000,0.000000,1775737362.890224,0.000000
150.000000,17654.435951,19977.609214,-17519.319656,2089.150499,-14410.884906,2778.523001,932.537130,-13884.076641,8759.089858,17856.003983,-4829.764942,2308.376409,-17897.533524,19375.967309,740.155666,606.671048,0.006000,-0.014000,1.000000,192.000000,0.000000,24.000000,127.500000,72.000000,15.500000,32.000000,0.000000,0.000000,0.000000,1775737362.890235,0.000000
152.000000,17654.346544,19974.301156,-17512.703539,2092.190336,-14415.556421,2767.324778,928.714982,-13876.857028,8746.125847,17857.121570,-4820.444264,2313.696124,-17890.045689,19375.430867,704.526985,564.515658,0.006000,-0.014000,1.000000,192.000000,0.000000,0.000000,0.000000,0.000000,0.000000,0.000000,0.000000,0.000000,0.000000,1775737362.890247,0.000000
154.000000,17647.775131,19977.139828,-17532.887165,2087.429415,-14427.402845,2770.431670,929.430238,-13890.424537,8735.285251,17849.767846,-4826.881567,2308.085836,-17905.311931,19373.285100,709.779645,580.273638,0.006000,-0.014000,1.000000,192.000000,0.000000,0.000000,0.000000,0.000000,0.000000,0.000000,0.000000,0.000000,0.000000,1775737362.890263,0.000000
156.000000,17660.582681,19985.097049,-17521.867755,2093.151461,-14418.082168,2771.526905,930.883101,-13878.086374,8760.006280,17864.251776,-4826.434532,2313.696124,-17909.424652,19378.783629,724.598852,592.701208,0.006000,-0.014000,1.000000,192.000000,0.000000,0.000000,0.000000,0.000000,0.000000,0.000000,0.000000,0.000000,0.000000,1775737362.890279,0.000000
158.000000,17647.305745,19971.641299,-17527.522746,2086.110662,-14428.363970,2761.803897,927.530340,-13882.802592,8726.456312,17853.522939,-4821.405389,2309.181071,-17904.462565,19370.357021,686.734997,549.539989,0.006000,-0.014000,1.000000,192.000000,0.000000,0.000000,0.000000,0.000000,0.000000,0.000000,0.000000,0.000000,0.000000,1775737362.890299,0.000000
160.000000,17655.106503,19979.106781,-17527.925077,2087.518822,-14431.180290,2765.514286,934.615843,-13877.549932,8753.725440,17852.964145,-4828.669706,2307.392932,-17919.885268,19373.978004,736.110000,602.960658,0.004000,-0.012000,1.008000,192.000000,0.000000,16.000000,127.500000,80.000000,15.500000,64.000000,0.000000,0.000000,0.000000,1775737362.890318,0.000000
162.000000,17663.063724,19979.442058,-17511.407138,2089.508127,-14414.304723,2764.709623,934.727601,-13863.200112,8749.523312,17854.104084,-4814.766921,2312.734999,-17904.149640,19372.592196,703.543508,567.130812,0.004000,-0.012000,1.008000,192.000000,0.000000,0.000000,0.000000,0.000000,0.000000,0.000000,0.000000,0.000000,0.000000,1775737362.890337,0.000000
164.000000,17659.018059,19981.967805,-17525.689903,2085.529516,-14422.440758,2778.411243,934.794657,-13875.627682,8749.411553,17853.902919,-4813.381113,2312.131502,-17902.450908,19374.447390,716.239299,571.042367,0.004000,-0.012000,1.008000,192.000000,0.000000,0.000000,0.000000,0.000000,0.000000,0.000000,0.000000,0.000000,0.000000,1775737362.890354,0.000000
166.000000,17674.574873,19988.852142,-17514.357569,2091.363322,-14411.644865,2778.768871,934.727601,-13868.609234,8773.171457,17863.536520,-4815.459825,2313.293792,-17901.758003,19378.627167,727.370468,608.950926,0.004000,-0.012000,1.008000,192.000000,0.000000,0.000000,0.000000,0.000000,0.000000,0.000000,0.000000,0.000000,0.000000,1775737362.890371,0.000000
168.000000,17671.088001,19986.438154,-17514.536383,2085.328351,-14409.364988,2771.146926,931.710116,-13871.939644,8756.407649,17861.323698,-4804.127491,2313.182034,-17884.614215,19372.771010,700.347209,563.979216,0.004000,-0.012000,1.008000,192.000000,0.000000,0.000000,0.000000,0.000000,0.000000,0.000000,0.000000,0.000000,0.000000,1775737362.890385,0.000000
170.000000,17673.479637,19992.674290,-17519.342008,2086.758862,-14411.644865,2783.038054,934.168808,-13875.292406,8777.932379,17862.821265,-4816.599764,2312.422074,-17900.036919,19381.421135,756.405384,611.901356,0.006000,-0.014000,1.004000,192.000000,0.000000,24.000000,127.500000,72.000000,15.500000,48.000000,0.000000,0.000000,0.000000,1775737362.890402,0.000000
172.000000,17680.632196,19997.412860,-17507.048548,2092.190336,-14400.200772,2781.696949,934.437029,-13861.389620,8765.862437,17873.728916,-4810.006000,2319.261708,-17887.721108,19385.444449,717.200424,575.915048,0.006000,-0.014000,1.004000,192.000000,0.000000,0.000000,0.000000,0.000000,0.000000,0.000000,0.000000,0.000000,0.000000,1775737362.890419,0.000000
174.000000,17673.211416,19994.484782,-17522.113624,2085.909496,-14413.477709,2783.708606,936.158113,-13872.252568,8760.520370,17868.610366,-4812.442340,2319.082894,-17891.207980,19381.555245,726.521102,585.347484,0.006000,-0.014000,1.004000,192.000000,0.000000,0.000000,0.000000,0.000000,0.000000,0.000000,0.000000,0.000000,0.000000,1775737362.890435,0.000000
176.000000,17669.411620,19986.326395,-17515.944542,2088.681112,-14410.996665,2776.421938,935.062878,-13871.380850,8779.452298,17871.091410,-4817.963221,2315.730133,-17901.087451,19381.354079,739.775686,601.261926,0.006000,-0.014000,1.004000,192.000000,0.000000,0.000000,0.000000,0.000000,0.000000,0.000000,0.000000,0.000000,0.000000,1775737362.890450,0.000000
178.000000,17663.778980,19982.750116,-17520.303133,2087.652932,-14414.461185,2776.936028,933.162979,-13876.231179,8742.169588,17862.754209,-4817.113855,2309.449292,-17898.248780,19375.341460,697.821462,556.223161,0.006000,-0.014000,1.004000,192.000000,0.000000,0.000000,0.000000,0.000000,0.000000,0.000000,0.000000,0.000000,0.000000,1775737363.369944,0.000000
180.000000,17665.790637,19987.533389,-17525.198165,2088.032912,-14418.283334,2779.506478,935.487561,-13882.579074,8774.378452,17871.761962,-4825.339297,2311.595060,-17912.129213,19384.684489,742.346137,608.258022,0.007000,-0.015000,1.006000,192.000000,0.000000,32.000000,127.500000,64.000000,15.500000,64.000000,0.000000,0.000000,0.000000,1775737363.370015,0.000000
182.000000,17666.170617,19982.236026,-17514.782252,2093.218516,-14411.846031,2777.204249,932.939462,-13877.393469,8758.687527,17877.126381,-4823.126474,2314.254917,-17888.682233,19387.634920,707.186843,571.511754,0.007000,-0.015000,1.006000,192.000000,0.000000,0.000000,0.000000,0.000000,0.000000,0.000000,0.000000,0.000000,0.000000,1775737363.370064,0.000000
184.000000,17661.029716,19986.527561,-17528.573278,2091.653894,-14418.417444,2795.420920,934.057049,-13883.316682,8755.670042,17877.640471,-4828.401485,2315.260746,-17907.010663,19390.361832,714.205291,585.660408,0.007000,-0.015000,1.006000,192.000000,0.000000,0.000000,0.000000,0.000000,0.000000,0.000000,0.000000,0.000000,0.000000,1775737363.370118,0.000000
186.000000,17663.175483,19982.928930,-17519.923153,2094.805490,-14416.741063,2786.368464,931.687764,-13877.840504,8777.395937,17885.217713,-4829.273204,2319.373467,-17917.538335,19396.709728,728.868035,603.541804,0.007000,-0.015000,1.006000,192.000000,0.000000,0.000000,0.000000,0.000000,0.000000,0.000000,0.000000,0.000000,0.000000,1775737363.370219,0.000000
188.000000,17659.599204,19977.944491,-17522.381845,2092.123281,-14415.914049,2785.899077,930.078439,-13883.115516,8751.065582,17880.568550,-4822.187701,2316.512444,-17898.517000,19391.278254,693.798148,563.398071,0.007000,-0.015000,1.006000,192.000000,0.000000,0.000000,0.000000,0.000000,0.000000,0.000000,0.000000,0.000000,0.000000,1775737363.370270,0.000000
190.000000,17655.821759,19975.910482,-17526.896897,2090.133976,-14418.328037,2791.487013,930.838398,-13891.229199,8777.194771,17880.054460,-4831.888358,2311.192728,-17912.442137,19394.295739,737.071125,623.144284,0.004500,-0.018500,1.006000,192.000000,0.000000,8.000000,127.500000,40.000000,15.500000,56.000000,0.000000,0.000000,0.000000,1775737363.370300,0.000000
192.000000,17657.855768,19973.362383,-17512.167098,2090.491604,-14407.576848,2791.866993,927.686802,-13885.574208,8760.766239,17877.059326,-4827.954451,2308.868147,-17902.964998,19389.646577,719.726171,583.849917,0.004500,-0.018500,1.006000,192.000000,0.000000,0.000000,0.000000,0.000000,0.000000,0.000000,0.000000,0.000000,0.000000,1775737363.370317,0.000000
194.000000,17653.631288,19970.613118,-17527.343932,2084.389577,-14417.344560,2795.443272,928.804389,-13897.800612,8759.492190,17873.974785,-4831.821302,2307.527042,-17904.551972,19391.367661,728.532759,592.790615,0.004500,-0.018500,1.006000,192.000000,0.000000,0.000000,0.000000,0.000000,0.000000,0.000000,0.000000,0.000000,0.000000,1775737363.370345,0.000000
196.000000,17665.410658,19974.614081,-17515.765728,2087.004732,-14406.593371,2790.637647,930.547825,-13884.255455,8778.737042,17878.176913,-4838.370364,2305.805958,-17912.777413,19392.485248,742.681413,610.873176,0.004500,-0.018500,1.006000,192.000000,0.000000,0.000000,0.000000,0.000000,0.000000,0.000000,0.000000,0.000000,0.000000,1775737363.370362,0.000000
198.000000,17669.545730,19975.843427,-17516.615095,2088.792871,-14407.800365,2790.659999,933.364145,-13873.683080,8765.325995,17877.931044,-4818.566718,2312.153853,-17892.437326,19387.970196,700.660133,557.564265,0.004500,-0.018500,1.006000,192.000000,0.000000,0.000000,0.000000,0.000000,0.000000,0.000000,0.000000,0.000000,0.000000,1775737363.370378,0.000000
200.000000,17667.310556,19978.972671,-17522.828880,2091.162156,-14419.467976,2788.693045,936.359279,-13876.521751,8786.850725,17875.271186,-4825.227538,2313.740827,-17911.324550,19389.311300,735.573558,618.271603,0.005250,-0.016250,1.006000,192.000000,0.000000,24.000000,127.500000,72.000000,15.500000,56.000000,0.000000,0.000000,0.000000,1775737363.370395,0.000000
202.000000,17676.765344,19982.168970,-17511.720063,2093.576144,-14417.210450,2777.181897,931.665412,-13867.938682,8775.004300,17881.864951,-4813.694038,2318.010010,-17900.640416,19387.813734,711.925413,569.880077,0.005250,-0.016250,1.006000,192.000000,0.000000,0.000000,0.000000,0.000000,0.000000,0.000000,0.000000,0.000000,0.000000,1775737363.370412,0.000000
204.000000,17671.624443,19986.616968,-17524.996999,2092.056226,-14430.353276,2780.825231,937.230997,-13875.627682,8771.785649,17880.948529,-4813.336410,2320.111074,-17906.764794,19389.445411,712.841834,576.295027,0.005250,-0.016250,1.006000,192.000000,0.000000,0.000000,0.000000,0.000000,0.000000,0.000000,0.000000,0.000000,0.000000,1775737363.370428,0.000000
206.000000,17677.346489,19985.879360,-17516.704502,2093.442034,-14420.250287,2780.333493,936.985128,-13872.230217,8792.706882,17888.816343,-4817.650296,2322.502711,-17915.683140,19397.648501,727.012840,593.416464,0.005250,-0.016250,1.006000,192.000000,0.000000,0.000000,0.000000,0.000000,0.000000,0.000000,0.000000,0.000000,0.000000,1775737363.370445,0.000000
208.000000,17667.355259,19980.202017,-17524.304095,2089.262258,-14425.994685,2779.327664,930.972508,-13878.444001,8762.554379,17882.826076,-4816.644468,2316.467740,-17901.109803,19392.373489,686.064444,551.730460,0.005250,-0.016250,1.006000,192.000000,0.000000,0.000000,0.000000,0.000000,0.000000,0.000000,0.000000,0.000000,0.000000,1775737363.370462,0.000000
210.000000,17665.164788,19982.928930,-17530.987266,2089.686941,-14427.447549,2786.837850,932.425372,-13881.506190,8780.413423,17880.345032,-4833.073000,2310.566880,-17920.712283,19393.714594,731.997279,612.281336,0.007625,-0.016125,1.006000,192.000000,0.000000,40.000000,127.500000,64.000000,15.500000,56.000000,0.000000,0.000000,0.000000,1775737363.370498,0.000000
212.000000,17669.724544,19981.096087,-17518.894973,2094.358455,-14414.349427,2789.520060,927.753857,-13873.571321,8771.070393,17886.044727,-4825.004020,2314.456083,-17910.028149,19394.161629,701.397741,582.844088,0.007625,-0.016125,1.006000,192.000000,0.000000,0.000000,0.000000,0.000000,0.000000,0.000000,0.000000,0.000000,0.000000,1775737363.370515,0.000000
214.000000,17661.096771,19977.430401,-17530.249659,2089.888107,-14418.730368,2795.465624,929.810218,-13887.228237,8766.331824,17877.439305,-4825.696924,2310.477473,-17910.788108,19395.279216,712.886538,600.636077,0.007625,-0.016125,1.006000,192.000000,0.000000,0.000000,0.000000,0.000000,0.000000,0.000000,0.000000,0.000000,0.000000,1775737363.370532,0.000000
216.000000,17662.750800,19973.094162,-17520.392540,2092.615019,-14412.315418,2791.889345,929.162017,-13883.093164,8787.878905,17878.668651,-4828.826169,2307.415284,-17917.650094,19398.095536,742.860227,621.087923,0.007625,-0.016125,1.006000,192.000000,0.000000,0.000000,0.000000,0.000000,0.000000,0.000000,0.000000,0.000000,0.000000,1775737363.370548,0.000000
218.000000,17663.331945,19973.138866,-17517.665627,2087.094139,-14408.694435,2790.682350,927.664450,-13884.255455,8757.771106,17874.131247,-4822.210052,2307.661153,-17904.261399,19390.451239,707.365657,571.489402,0.007625,-0.016125,1.006000,192.000000,0.000000,0.000000,0.000000,0.000000,0.000000,0.000000,0.000000,0.000000,0.000000,1775737363.370565,0.000000
220.000000,17670.998594,19982.325433,-17515.385749,2087.541173,-14409.409691,2794.839775,933.453552,-13884.613083,8797.177231,17881.753192,-4824.154654,2307.772912,-17908.999969,19397.380280,754.326672,612.862481,0.008813,-0.018063,1.006000,192.000000,0.000000,40.000000,127.500000,48.000000,15.500000,56.000000,0.000000,0.000000,0.000000,1775737363.370582,0.000000
222.000000,17682.152114,19983.800648,-17501.952350,2089.239906,-14405.498136,2788.246010,931.821875,-13871.112629,8790.739929,17890.224503,-4814.163424,2311.170377,-17890.023338,19401.135373,718.407419,577.233801,0.008813,-0.018063,1.006000,192.000000,0.000000,0.000000,0.000000,0.000000,0.000000,0.000000,0.000000,0.000000,0.000000,1775737363.370606,0.000000
224.000000,17667.511722,19976.737496,-17522.270086,2082.914362,-14417.746892,2792.291676,932.335965,-13883.875475,8784.816716,17884.636567,-4816.197433,2309.583403,-17898.405242,19401.001263,718.452122,581.346522,0.008813,-0.018063,1.006000,192.000000,0.000000,0.000000,0.000000,0.000000,0.000000,0.000000,0.000000,0.000000,0.000000,1775737363.370621,0.000000
226.000000,17677.324137,19985.275863,-17513.910534,2092.100929,-14412.941267,2788.022493,934.794657,-13876.253531,8800.239420,17893.711375,-4821.517148,2313.696124,-17907.323588,19406.097461,731.170265,599.742007,0.008813,-0.018063,1.006000,192.000000,0.000000,0.000000,0.000000,0.000000,0.000000,0.000000,0.000000,0.000000,0.000000,1775737363.370637,0.000000
228.000000,17679.805181,19986.192284,-17516.816260,2092.436205,-14412.807156,2784.200345,932.201854,-13878.846333,8776.703033,17901.825059,-4815.415122,2316.959478,-17894.270169,19406.656254,690.825366,552.021033,0.008813,-0.018063,1.006000,192.000000,0.000000,0.000000,0.000000,0.000000,0.000000,0.000000,0.000000,0.000000,0.000000,1775737363.370654,0.000000
230.000000,17677.145323,19987.958072,-17521.510127,2098.270011,-14421.949020,2788.424824,937.432162,-13879.405127,8805.760301,17900.238085,-4821.159520,2318.255880,-17903.993178,19412.780632,734.858302,604.838205,0.009406,-0.016031,1.005000,192.000000,0.000000,40.000000,127.500000,72.000000,15.500000,48.000000,0.000000,0.000000,0.000000,1775737363.370672,0.000000
232.000000,17681.503914,19988.293348,-17509.820164,2101.131034,-14414.394130,2782.300446,934.995822,-13869.100972,8786.917780,17901.087451,-4814.409293,2322.547415,-17898.315835,19409.606684,700.458968,571.087071,0.009406,-0.016031,1.005000,192.000000,0.000000,0.000000,0.000000,0.000000,0.000000,0.000000,0.000000,0.000000,0.000000,1775737363.370688,0.000000
234.000000,17677.190027,19993.546008,-17519.632580,2098.001790,-14416.830470,2794.459795,940.226131,-13875.739440,8788.750623,17904.775489,-4813.425817,2327.755371,-17898.695814,19408.489097,710.852529,585.235725,0.009406,-0.016031,1.005000,192.000000,0.000000,0.000000,0.000000,0.000000,0.000000,0.000000,0.000000,0.000000,0.000000,1775737363.370705,0.000000
236.000000,17673.122009,19981.587825,-17516.033949,2095.811319,-14417.702188,2788.625990,936.068706,-13876.521751,8802.675760,17904.306102,-4820.466616,2323.396781,-17907.725919,19410.009016,731.393782,609.867347,0.009406,-0.016031,1.005000,192.000000,0.000000,0.000000,0.000000,0.000000,0.000000,0.000000,0.000000,0.000000,0.000000,1775737363.370724,0.000000
238.000000,17665.969451,19972.624775,-17523.722949,2085.596572,-14418.663313,2783.261571,929.340831,-13884.858952,8766.577693,17888.682233,-4822.835901,2313.204385,-17896.192419,19391.635882,703.699971,570.841202,0.009406,-0.016031,1.005000,192.000000,0.000000,0.000000,0.000000,0.000000,0.000000,0.000000,0.000000,0.000000,0.000000,1775737363.370741,0.000000
240.000000,17670.328041,19978.860912,-17528.126243,2085.216592,-14418.685665,2790.347074,932.246558,-13889.061080,8798.406577,17890.492724,-4834.279994,2305.962420,-17907.927085,19394.899237,749.588102,623.837188,0.008703,-0.016016,1.005500,192.000000,0.000000,32.000000,127.500000,64.000000,15.500000,56.000000,0.000000,0.000000,0.000000,1775737363.370758,0.000000
242.000000,17672.831437,19975.374040,-17515.944542,2086.870621,-14412.427177,2782.143984,927.418581,-13881.930874,8790.114080,17892.526733,-4824.713448,2307.996429,-17907.860030,19393.111097,723.861244,579.938362,0.008703,-0.016016,1.005500,192.000000,0.000000,0.000000,0.000000,0.000000,0.000000,0.000000,0.000000,0.000000,0.000000,1775737363.370776,0.000000
244.000000,17671.535036,19981.878398,-17526.360455,2088.278781,-14414.483537,2792.068159,932.470075,-13888.457583,8786.649559,17888.346957,-4826.568642,2308.935202,-17904.082585,19395.502734,727.482227,584.006379,0.008703,-0.016016,1.005500,192.000000,0.000000,0.000000,0.000000,0.000000,0.000000,0.000000,0.000000,0.000000,0.000000,1775737363.370792,0.000000
246.000000,17680.721603,19990.305005,-17509.686054,2094.716083,-14411.644865,2794.370388,935.666375,-13875.113592,8812.421121,17903.523791,-4825.652221,2319.664040,-17904.149640,19404.063452,740.267425,600.166690,0.008703,-0.016016,1.005500,192.000000,0.000000,0.000000,0.000000,0.000000,0.000000,0.000000,0.000000,0.000000,0.000000,1775737363.370809,0.000000
248.000000,17684.566103,19995.445907,-17506.757975,2094.649028,-14406.928647,2799.578345,936.918072,-13867.938682,8788.638865,17909.826983,-4810.900070,2328.805903,-17888.659881,19405.471612,704.012895,553.608007,0.008703,-0.016016,1.005500,192.000000,0.000000,0.000000,0.000000,0.000000,0.000000,0.000000,0.000000,0.000000,0.000000,1775737363.370826,0.000000
250.000000,17688.522361,20001.525581,-17511.161269,2095.744264,-14410.773147,2803.176976,940.628462,-13868.385716,8822.434702,17910.810460,-4812.777616,2329.722325,-17896.058309,19415.105214,745.162457,618.450417,0.008352,-0.018008,1.004750,192.000000,0.000000,32.000000,127.500000,48.000000,15.500000,48.000000,0.000000,0.000000,0.000000,1775737363.370844,0.000000
252.000000,17687.605940,19991.422593,-17504.232228,2097.465348,-14404.805232,2794.728016,936.605148,-13866.575225,8811.907031,17911.816288,-4806.608535,2327.665964,-17887.788163,19412.981798,711.232509,578.776071,0.008352,-0.018008,1.004750,192.000000,0.000000,0.000000,0.000000,0.000000,0.000000,0.000000,0.000000,0.000000,0.000000,1775737363.370860,0.000000
254.000000,17677.257082,19986.751078,-17523.722949,2091.072749,-14420.473805,2792.515194,935.599319,-13883.920179,8800.485289,17899.053442,-4816.577413,2316.221871,-17895.432460,19409.472574,713.870014,581.637094,0.008352,-0.018008,1.004750,192.000000,0.000000,0.000000,0.000000,0.000000,0.000000,0.000000,0.000000,0.000000,0.000000,1775737363.370875,0.000000
0.000000,17681.325100,19988.874494,-17517.017426,2097.085368,-14422.038427,2787.441348,937.119238,-13878.108725,8820.691266,17900.930989,-4823.349991,2315.953650,-17907.614160,19407.818545,733.494846,602.446568,0.008352,-0.018008,1.004750,192.000000,0.000000,0.000000,0.000000,0.000000,0.000000,0.000000,0.000000,0.000000,0.000000,1775737363.370892,0.000000
2.000000,17679.939291,19989.321529,-17518.693807,2093.039703,-14423.983028,2787.061368,933.855883,-13878.131077,8790.449356,17902.763832,-4816.063323,2319.395819,-17898.248780,19406.768013,689.461909,557.407803,0.008352,-0.018008,1.004750,192.000000,0.000000,0.000000,0.000000,0.000000,0.000000,0.000000,0.000000,0.000000,0.000000,1775737363.370909,0.000000
4.000000,17678.128800,19991.936683,-17524.169984,2094.514918,-14420.876136,2790.570592,936.873369,-13881.774411,8813.963391,17902.920294,-4827.552119,2317.384162,-17913.649131,19407.527972,736.288814,612.035467,0.008352,-0.018008,1.004750,192.000000,0.000000,0.000000,0.000000,0.000000,0.000000,0.000000,0.000000,0.000000,0.000000,1775737363.370925,0.000000
6.000000,17677.212379,19985.968767,-17512.591781,2094.581973,-14409.052063,2787.731920,931.643061,-13875.538275,8803.480423,17906.608332,-4822.366514,2321.675697,-17905.446041,19408.869077,710.137273,580.877135,0.008000,-0.020000,1.000000,192.000000,0.000000,32.000000,127.500000,48.000000,15.500000,32.000000,0.000000,0.000000,0.000000,1775737363.370942,0.000000
8.000000,17672.473809,19988.494514,-17524.438205,2087.608229,-14415.422310,2792.425787,932.023040,-13888.502286,8797.825432,17901.132155,-4827.641526,2317.920604,-17902.674425,19402.699995,724.531797,590.801309,0.008000,-0.020000,1.000000,192.000000,0.000000,0.000000,0.000000,0.000000,0.000000,0.000000,0.000000,0.000000,0.000000,1775737363.370959,0.000000
10.000000,17677.949986,19992.696642,-17515.318694,2093.754958,-14410.571982,2792.872821,933.788828,-13879.919217,8822.904089,17907.994140,-4827.976802,2320.647516,-17907.547105,19410.523106,746.704727,609.889699,0.008000,-0.020000,1.000000,192.000000,0.000000,0.000000,0.000000,0.000000,0.000000,0.000000,0.000000,0.000000,0.000000,1775737363.370975,0.000000
12.000000,17678.106448,19995.468258,-17519.923153,2094.000828,-14414.751758,2794.571554,931.620709,-13877.885208,8789.555286,17906.429518,-4819.013753,2323.642650,-17900.081623,19409.561981,698.894346,563.912161,0.008000,-0.020000,1.000000,192.000000,0.000000,0.000000,0.000000,0.000000,0.000000,0.000000,0.000000,0.000000,0.000000,1775737363.370992,0.000000
14.000000,17684.186123,20004.431308,-17525.689903,2095.833671,-14420.272639,2805.546261,936.046354,-13878.689871,8823.440531,17912.755062,-4825.294593,2323.352077,-17914.364387,19415.842821,738.322823,616.774036,0.008000,-0.020000,1.000000,192.000000,0.000000,0.000000,0.000000,0.000000,0.000000,0.000000,0.000000,0.000000,0.000000,1775737363.371009,0.000000
16.000000,17690.332853,20004.118383,-17512.636484,2096.392464,-14411.510755,2796.449101,933.386497,-13870.822057,8815.885641,17920.421710,-4818.142035,2328.112999,-17904.037881,19419.441452,706.091607,577.479670,0.004000,-0.014000,1.000000,192.000000,0.000000,16.000000,127.500000,72.000000,15.500000,32.000000,0.000000,0.000000,0.000000,1775737363.371027,0.000000
18.000000,17691.003405,20008.655788,-17526.136938,2091.922115,-14420.965543,2806.619144,934.749953,-13879.338071,8811.683513,17915.683140,-4817.985573,2325.162569,-17903.412033,19419.106176,715.188767,577.457318,0.004000,-0.014000,1.000000,192.000000,0.000000,0.000000,0.000000,0.000000,0.000000,0.000000,0.000000,0.000000,0.000000,1775737363.371045,0.000000
20.000000,17699.854696,20009.929837,-17517.665627,2096.258354,-14418.149223,2804.294563,935.107581,-13873.280749,8839.019697,17930.725864,-4817.896166,2331.152836,-17908.195306,19429.477385,722.788360,596.590411,0.004000,-0.014000,1.000000,192.000000,0.000000,0.000000,0.000000,0.000000,0.000000,0.000000,0.000000,0.000000,0.000000,1775737363.371062,0.000000
22.000000,17686.153076,19994.641244,-17526.271048,2088.591705,-14429.928592,2787.955438,927.530340,-13886.334167,8799.926496,17915.973713,-4820.600727,2320.871034,-17904.171992,19414.702882,684.902154,555.642015,0.004000,-0.014000,1.000000,192.000000,0.000000,0.000000,0.000000,0.000000,0.000000,0.000000,0.000000,0.000000,0.000000,1775737363.371078,0.000000
24.000000,17682.800315,19994.909465,-17529.467348,2091.564487,-14426.665238,2798.125481,932.291261,-13893.129098,8826.614478,17912.464489,-4832.335393,2313.137330,-17916.621914,19419.530859,732.824294,610.962583,0.004000,-0.014000,1.000000,192.000000,0.000000,0.000000,0.000000,0.000000,0.000000,0.000000,0.000000,0.000000,0.000000,1775737363.371118,0.000000
26.000000,17678.665242,19983.197151,-17518.559697,2093.576144,-14408.761490,2793.386912,927.217415,-13892.346787,8811.594106,17911.525716,-4829.764942,2312.042095,-17904.775489,19414.680530,705.756331,575.356254,0.004000,-0.012000,0.996000,192.000000,0.000000,16.000000,127.500000,80.000000,15.500000,16.000000,0.000000,0.000000,0.000000,1775737363.371135,0.000000
28.000000,17673.904320,19983.554779,-17533.244793,2090.312790,-14413.701226,2799.734807,926.680973,-13903.477955,8806.386150,17905.781317,-4835.621099,2306.118882,-17905.423690,19413.138260,711.165453,586.912106,0.004000,-0.012000,0.996000,192.000000,0.000000,0.000000,0.000000,0.000000,0.000000,0.000000,0.000000,0.000000,0.000000,1775737363.371153,0.000000
30.000000,17677.592358,19985.409973,-17522.225383,2091.430377,-14402.123022,2804.585136,926.233938,-13895.073699,8827.866176,17914.520850,-4838.459770,2307.951725,-17910.475184,19417.876830,733.651308,620.551481,0.004000,-0.012000,0.996000,192.000000,0.000000,0.000000,0.000000,0.000000,0.000000,0.000000,0.000000,0.000000,0.000000,1775737363.371169,0.000000
32.000000,17672.585568,19979.911444,-17523.410025,2082.355569,-14402.905333,2795.107996,922.143569,-13895.990121,8799.099481,17907.591809,-4832.268337,2304.822481,-17896.728861,19409.204353,705.778683,569.544800,0.004000,-0.012000,0.996000,192.000000,0.000000,0.000000,0.000000,0.000000,0.000000,0.000000,0.000000,0.000000,0.000000,1775737363.371186,0.000000
34.000000,17683.269701,19994.015395,-17527.008656,2083.003769,-14407.710958,2801.947630,928.603223,-13891.318606,8830.861310,17911.078681,-4837.968032,2305.224813,-17909.178783,19410.411347,753.901989,620.417371,0.004000,-0.012000,0.996000,192.000000,0.000000,0.000000,0.000000,0.000000,0.000000,0.000000,0.000000,0.000000,0.000000,1775737363.371202,0.000000
36.000000,17678.195855,19984.873531,-17519.029083,2087.474118,-14407.219220,2792.694007,926.323345,-13886.401223,8825.496891,17919.549992,-4828.848520,2312.936164,-17896.058309,19410.657216,713.847663,581.950019,0.006000,-0.016000,1.000000,192.000000,0.000000,24.000000,127.500000,64.000000,15.500000,32.000000,0.000000,0.000000,0.000000,1775737363.371219,0.000000
38.000000,17673.569044,19986.751078,-17532.797758,2084.031950,-14419.333866,2797.164356,928.469113,-13895.878362,8809.090711,17908.999969,-4834.615270,2307.951725,-17910.162259,19405.717481,719.793227,583.380530,0.006000,-0.016000,1.000000,192.000000,0.000000,0.000000,0.000000,0.000000,0.000000,0.000000,0.000000,0.000000,0.000000,1775737363.371240,0.000000
40.000000,17683.359108,19989.947377,-17519.721987,2089.530479,-14415.064682,2801.545298,930.503122,-13886.445926,8836.449246,17925.942591,-4833.385925,2315.171339,-17914.766719,19416.826298,735.841779,604.212356,0.006000,-0.016000,1.000000,192.000000,0.000000,0.000000,0.000000,0.000000,0.000000,0.000000,0.000000,0.000000,0.000000,1775737363.371278,0.000000
42.000000,17681.861541,19989.880322,-17519.118490,2086.602400,-14416.159918,2800.673580,928.223244,-13885.529504,8817.092635,17923.394492,-4821.695962,2317.227699,-17897.645282,19414.188792,693.798148,553.742117,0.006000,-0.016000,1.000000,192.000000,0.000000,0.000000,0.000000,0.000000,0.000000,0.000000,0.000000,0.000000,0.000000,1775737363.371294,0.000000
44.000000,17679.849884,19994.350671,-17524.840537,2087.161194,-14419.065645,2805.389798,931.844226,-13887.295292,8839.176159,17924.981466,-4831.731895,2313.763179,-17915.213754,19420.134356,734.590082,614.583566,0.006000,-0.016000,1.000000,192.000000,0.000000,0.000000,0.000000,0.000000,0.000000,0.000000,0.000000,0.000000,0.000000,1775737363.850838,0.000000
46.000000,17692.545675,19999.804497,-17514.156403,2087.049435,-14415.332903,2794.213926,926.278642,-13875.426516,8830.950717,17934.458606,-4822.187701,2320.759275,-17904.641378,19423.218897,710.338439,575.445661,0.002000,-0.014000,1.002000,192.000000,0.000000,8.000000,127.500000,72.000000,15.500000,40.000000,0.000000,0.000000,0.000000,1775737363.850896,0.000000
48.000000,17687.091850,20000.743270,-17529.266182,2085.261295,-14426.352313,2798.013723,928.983203,-13886.714147,8825.005153,17929.205946,-4820.868948,2320.893386,-17907.234181,19418.346216,709.287907,575.535068,0.002000,-0.014000,1.002000,192.000000,0.000000,0.000000,0.000000,0.000000,0.000000,0.000000,0.000000,0.000000,0.000000,1775737363.850968,0.000000
50.000000,17686.242483,19998.351633,-17523.164156,2087.652932,-14422.954848,2794.079816,927.150360,-13887.608217,8840.830188,17931.262306,-4832.491855,2317.071237,-17916.376044,19422.324827,728.532759,601.753664,0.002000,-0.014000,1.002000,192.000000,0.000000,0.000000,0.000000,0.000000,0.000000,0.000000,0.000000,0.000000,0.000000,1775737363.851016,0.000000
52.000000,17680.967472,19990.684985,-17525.600496,2086.267124,-14419.155052,2794.862127,924.177578,-13890.268074,8818.590202,17930.189422,-4824.646392,2317.831197,-17900.908637,19420.223763,693.038189,555.574960,0.002000,-0.014000,1.002000,192.000000,0.000000,0.000000,0.000000,0.000000,0.000000,0.000000,0.000000,0.000000,0.000000,1775737363.851058,0.000000
54.000000,17682.956777,19995.736479,-17531.300191,2087.563525,-14418.551555,2803.914583,927.530340,-13893.330263,8836.359839,17923.863879,-4839.756172,2311.483301,-17920.846393,19423.442414,737.406401,613.845958,0.002000,-0.014000,1.002000,192.000000,0.000000,0.000000,0.000000,0.000000,0.000000,0.000000,0.000000,0.000000,0.000000,1775737363.851101,0.000000
56.000000,17682.308576,19992.048441,-17521.174851,2086.691807,-14406.861592,2798.572516,923.149398,-13886.177705,8831.509510,17933.743350,-4830.457846,2317.652383,-17905.647207,19426.191679,708.438541,579.580734,0.002000,-0.020000,1.002000,192.000000,0.000000,8.000000,127.500000,48.000000,15.500000,40.000000,0.000000,0.000000,0.000000,1775737363.851114,0.000000
58.000000,17674.574873,19991.176723,-17536.262278,2075.515935,-14414.639999,2796.538508,920.400133,-13900.885153,8814.857461,17921.226373,-4837.118666,2303.570784,-17913.403262,19413.652350,720.687296,593.863498,0.002000,-0.020000,1.002000,192.000000,0.000000,0.000000,0.000000,0.000000,0.000000,0.000000,0.000000,0.000000,0.000000,1775737363.851126,0.000000
60.000000,17683.135591,19996.116459,-17526.248697,2080.478022,-14408.225049,2793.699836,922.210624,-13893.844353,8840.181987,17929.787091,-4841.209035,2302.252031,-17918.879440,19418.815603,746.883541,616.774036,0.002000,-0.020000,1.002000,192.000000,0.000000,0.000000,0.000000,0.000000,0.000000,0.000000,0.000000,0.000000,0.000000,1775737363.851138,0.000000
62.000000,17685.057841,19998.284578,-17525.824013,2082.154403,-14401.586580,2800.852394,921.942404,-13893.017339,8819.841900,17932.581059,-4830.748419,2307.527042,-17900.953341,19418.502679,701.040113,565.700300,0.002000,-0.020000,1.002000,192.000000,0.000000,0.000000,0.000000,0.000000,0.000000,0.000000,0.000000,0.000000,0.000000,1775737363.851151,0.000000
64.000000,17685.191951,20002.017319,-17532.775406,2088.412891,-14416.785767,2803.758121,927.575043,-13896.258342,8845.479351,17935.732655,-4842.438381,2308.801092,-17912.822117,19423.107138,739.149837,613.354220,0.002000,-0.020000,1.002000,192.000000,0.000000,0.000000,0.000000,0.000000,0.000000,0.000000,0.000000,0.000000,0.000000,1775737363.851162,0.000000
66.000000,17681.749783,19993.702471,-17521.800699,2091.676246,-14419.937363,2788.625990,924.959889,-13889.619874,8836.449246,17940.068893,-4835.911672,2317.071237,-17906.138945,19421.117833,706.628049,582.799385,0.004000,-0.020000,1.004000,192.000000,0.000000,16.000000,127.500000,48.000000,15.500000,48.000000,0.000000,0.000000,0.000000,1775737363.851174,0.000000
68.000000,17680.319271,19998.575151,-17534.340028,2084.724854,-14431.336752,2785.832022,926.658622,-13894.179630,8824.424007,17932.379893,-4838.638584,2312.980868,-17912.039806,19411.908914,713.422980,575.020978,0.004000,-0.020000,1.004000,192.000000,0.000000,0.000000,0.000000,0.000000,0.000000,0.000000,0.000000,0.000000,0.000000,1775737363.851187,0.000000
70.000000,17693.998539,20009.192229,-17519.789042,2091.922115,-14424.161842,2786.077891,930.458418,-13880.925045,8853.280110,17945.835644,-4834.391753,2316.043057,-17916.376044,19418.949714,734.903006,593.058836,0.004000,-0.020000,1.004000,192.000000,0.000000,0.000000,0.000000,0.000000,0.000000,0.000000,0.000000,0.000000,0.000000,1775737363.851199,0.000000
72.000000,17692.791545,20007.381738,-17521.197202,2087.787043,-14419.378569,2786.882554,926.524511,-13884.791897,8826.256851,17952.004725,-4823.193529,2318.233528,-17900.796878,19420.000246,689.797186,546.947187,0.004000,-0.020000,1.004000,192.000000,0.000000,0.000000,0.000000,0.000000,0.000000,0.000000,0.000000,0.000000,0.000000,1775737363.851211,0.000000
74.000000,17691.182219,20007.202924,-17527.053359,2084.009598,-14427.760473,2788.290714,928.491465,-13890.044557,8852.318985,17948.897833,-4834.414105,2313.830234,-17906.988312,19419.352045,738.725154,601.127815,0.004000,-0.020000,1.004000,192.000000,0.000000,0.000000,0.000000,0.000000,0.000000,0.000000,0.000000,0.000000,0.000000,1775737363.851223,0.000000
76.000000,17697.083079,20012.679102,-17513.910534,2089.597534,-14413.142432,2788.983618,927.686802,-13879.315720,8843.378287,17954.686934,-4827.708581,2322.681525,-17903.613198,19420.491984,713.132407,572.249362,0.004000,-0.016000,1.004000,192.000000,0.000000,16.000000,127.500000,80.000000,15.500000,48.000000,0.000000,0.000000,0.000000,1775737363.851236,0.000000
78.000000,17687.181257,20009.907485,-17529.713217,2084.478984,-14418.037464,2796.493804,926.837436,-13894.291388,8837.253909,17953.926975,-4827.887395,2323.106208,-17910.743405,19422.749510,718.720343,577.747891,0.004000,-0.016000,1.004000,192.000000,0.000000,0.000000,0.000000,0.000000,0.000000,0.000000,0.000000,0.000000,0.000000,1775737363.851248,0.000000
80.000000,17688.321196,20006.286503,-17520.414891,2091.206859,-14410.728444,2804.160452,927.932671,-13888.949321,8856.945796,17953.837568,-4836.001079,2315.439560,-17918.924143,19427.532783,747.330576,616.885795,0.004000,-0.016000,1.004000,192.000000,0.000000,0.000000,0.000000,0.000000,0.000000,0.000000,0.000000,0.000000,0.000000,1775737363.851260,0.000000
82.000000,17687.985919,20005.817116,-17520.414891,2093.956124,-14403.508830,2806.932069,926.010421,-13888.636397,8831.285993,17953.591699,-4827.172140,2315.707781,-17900.796878,19429.142109,710.025514,569.678911,0.004000,-0.016000,1.004000,192.000000,0.000000,0.000000,0.000000,0.000000,0.000000,0.000000,0.000000,0.000000,0.000000,1775737363.851272,0.000000
84.000000,17693.059765,20012.209715,-17526.159290,2096.168947,-14404.313493,2812.475301,930.480770,-13889.530467,8858.845694,17955.670411,-4837.319832,2317.786493,-17910.117556,19433.746568,754.036099,627.279356,0.004000,-0.016000,1.004000,192.000000,0.000000,0.000000,0.000000,0.000000,0.000000,0.000000,0.000000,0.000000,0.000000,1775737363.851284,0.000000
86.000000,17697.552466,20009.661616,-17511.898877,2096.392464,-14399.329054,2798.550165,927.955023,-13878.958092,8852.743668,17959.313745,-4826.367477,2323.329726,-17897.779393,19429.790310,720.486131,600.881946,0.003000,-0.018000,1.004000,192.000000,0.000000,8.000000,127.500000,48.000000,15.500000,48.000000,0.000000,0.000000,0.000000,1775737363.851296,0.000000
88.000000,17692.791545,20012.902619,-17523.790005,2088.502298,-14407.688607,2806.485034,928.200892,-13888.882266,8842.573624,17953.345830,-4827.574471,2318.769970,-17900.685120,19421.743682,738.568692,589.571963,0.003000,-0.018000,1.004000,192.000000,0.000000,0.000000,0.000000,0.000000,0.000000,0.000000,0.000000,0.000000,0.000000,1775737363.851308,0.000000
90.000000,17694.155001,20008.521677,-17516.637446,2091.072749,-14407.800365,2802.461720,928.536168,-13886.356519,8871.742650,17956.497426,-4831.575433,2318.814673,-17906.094242,19424.649408,754.438431,615.164711,0.003000,-0.018000,1.004000,192.000000,0.000000,0.000000,0.000000,0.000000,0.000000,0.000000,0.000000,0.000000,0.000000,1775737363.851320,0.000000
92.000000,17689.595245,20002.889037,-17518.671455,2090.379845,-14408.828546,2797.499633,928.335002,-13887.004720,8841.143112,17952.496463,-4824.646392,2315.886595,-17894.426631,19419.307341,705.845738,565.700300,0.003000,-0.018000,1.004000,192.000000,0.000000,0.000000,0.000000,0.000000,0.000000,0.000000,0.000000,0.000000,0.000000,1775737363.851332,0.000000
94.000000,17689.259969,20005.727709,-17527.790967,2089.776348,-14414.036502,2799.108958,931.196026,-13892.838525,8865.819438,17953.681106,-4836.023430,2312.019743,-17911.905695,19422.615400,747.107058,611.476673,0.003000,-0.018000,1.004000,192.000000,0.000000,0.000000,0.000000,0.000000,0.000000,0.000000,0.000000,0.000000,0.000000,1775737363.851344,0.000000
96.000000,17698.379481,20008.164049,-17514.938714,2099.409950,-14414.260020,2792.716359,932.134799,-13877.818153,8859.426839,17955.111617,-4829.854349,2317.093589,-17901.601541,19423.397711,713.780607,583.067606,0.003500,-0.019000,1.003000,192.000000,0.000000,16.000000,127.500000,48.000000,15.500000,40.000000,0.000000,0.000000,0.000000,1775737363.851356,0.000000
98.000000,17699.251199,20015.540125,-17528.886202,2096.236002,-14428.676895,2788.625990,933.632366,-13882.512019,8851.268453,17957.950289,-4826.389828,2322.413304,-17903.724957,19425.677589,713.020648,581.145356,0.003500,-0.019000,1.003000,192.000000,0.000000,0.000000,0.000000,0.000000,0.000000,0.000000,0.000000,0.000000,0.000000,1775737363.851368,0.000000
100.000000,17704.034472,20016.188325,-17521.800699,2101.019275,-14423.670104,2794.817423,933.252386,-13876.767621,8880.191610,17964.052315,-4827.909747,2328.202406,-17913.626780,19428.359798,732.623128,602.021885,0.003500,-0.019000,1.003000,192.000000,0.000000,0.000000,0.000000,0.000000,0.000000,0.000000,0.000000,0.000000,0.000000,1775737363.851380,0.000000
102.000000,17700.391138,20012.992026,-17520.794871,2094.872546,-14418.328037,2790.771757,929.005555,-13878.287539,8842.126589,17961.101885,-4826.188663,2326.973060,-17906.250704,19422.414234,694.245183,561.185248,0.003500,-0.019000,1.003000,192.000000,0.000000,0.000000,0.000000,0.000000,0.000000,0.000000,0.000000,0.000000,0.000000,1775737363.851391,0.000000
