Sample_index,EXG Channel 0,EXG Channel 1,EXG Channel 2,EXG Channel 3,EXG Channel 4,EXG Channel 5,EXG Channel 6,EXG Channel 7,EXG Channel 8,EXG Channel 9,EXG Channel 10,EXG Channel 11,EXG Channel 12,EXG Channel 13,EXG Channel 14,EXG Channel 15,Accel Channel 0,Accel Channel 1,Accel Channel 2,Not Used,Digital Channel 0 (D11),Digital Channel 1 (D12),Digital Channel 2 (D13),Digital Channel 3 (D17),Not Used,Digital Channel 4 (D18),Analog Channel 0,Analog Channel 1,Analog Channel 2,Timestamp,Marker Channel
90.000000,16614.833965,19039.618258,-14167.608520,441.491656,-14553.019649,-2305.515385,1263.253541,-2082.355569,11736.990420,16544.627135,-2587.102662,2665.020843,-18329.704503,17877.729878,1890.532898,-518.225195,0.002000,-0.014000,0.998000,192.000000,0.000000,0.000000,0.000000,0.000000,0.000000,0.000000,0.000000,0.000000,0.000000,1775738777.026688,101.000000
92.000000,16600.372386,19031.057540,-14201.761985,417.977621,-14567.436524,-2302.564955,1253.061146,-2103.813243,11752.971918,16527.326885,-2614.125921,2654.761392,-18350.491625,17867.224558,2027.079705,-264.085861,0.002000,-0.014000,0.998000,192.000000,0.000000,0.000000,0.000000,0.000000,0.000000,0.000000,0.000000,0.000000,0.000000,1775738777.026750,0.000000
94.000000,16630.904869,19053.118712,-14159.204264,451.706404,-14549.018687,-2290.316199,1271.903666,-2071.202048,11782.699738,16557.434685,-2594.009351,2670.228800,-18355.923099,17886.067079,1965.545352,-369.139060,0.002000,-0.014000,1.002000,192.000000,0.000000,8.000000,127.500000,72.000000,15.500000,40.000000,0.000000,0.000000,0.000000,1775738777.026794,0.000000
96.000000,16600.506496,19027.771834,-14193.849467,423.230281,-14561.222739,-2300.486243,1254.491658,-2099.477005,11747.138112,16547.912842,-2581.984112,2669.155916,-18335.337142,17885.910617,1907.252003,-470.951256,0.002000,-0.014000,1.002000,192.000000,0.000000,0.000000,0.000000,0.000000,0.000000,0.000000,0.000000,0.000000,0.000000,1775738777.026853,0.000000
98.000000,16596.013796,19029.559973,-14184.126459,433.400325,-14564.754315,-2303.771949,1261.465402,-2095.677208,11780.397508,16532.154862,-2621.725514,2651.810962,-18374.452695,17866.889282,2045.989280,-217.191901,0.002000,-0.014000,1.002000,192.000000,0.000000,0.000000,0.000000,0.000000,0.000000,0.000000,0.000000,0.000000,0.000000,1775738777.026901,0.000000
100.000000,16621.226564,19036.153738,-14165.283938,437.557749,-14546.738809,-2301.849699,1262.985320,-2081.014464,11754.111857,16553.545481,-2584.599267,2666.607817,-18324.474195,17879.696832,1882.799194,-516.034724,0.002000,-0.014000,1.002000,192.000000,0.000000,0.000000,0.000000,0.000000,0.000000,0.000000,0.000000,0.000000,0.000000,1775738777.026935,0.000000
102.000000,16593.912732,19023.860279,-14204.935933,419.832816,-14583.865056,-2306.945897,1252.681166,-2106.674267,11765.600653,16538.569813,-2605.386389,2655.074317,-18362.002774,17869.660898,2016.730847,-272.221896,0.002000,-0.014000,1.002000,192.000000,0.000000,0.000000,0.000000,0.000000,0.000000,0.000000,0.000000,0.000000,0.000000,1775738777.026952,0.000000
104.000000,16605.334473,19027.458909,-14169.597825,444.486790,-14555.634803,-2298.049903,1265.846344,-2084.657798,11763.209017,16546.974069,-2606.325162,2658.740003,-18363.522692,17874.533579,1959.197457,-362.724109,0.006000,-0.010000,1.000000,192.000000,0.000000,24.000000,127.500000,88.000000,15.500000,32.000000,0.000000,0.000000,0.000000,1775738777.026967,0.000000
106.000000,16581.507514,19010.181011,-14203.594828,415.563633,-14575.192580,-2320.982792,1247.294396,-2110.116435,11715.935077,16533.473615,-2601.050151,2652.459163,-18350.871605,17863.245948,1914.046933,-472.068843,0.006000,-0.010000,1.000000,192.000000,0.000000,0.000000,0.000000,0.000000,0.000000,0.000000,0.000000,0.000000,0.000000,1775738777.026982,0.000000
108.000000,16603.501630,19033.627991,-14186.316930,431.053392,-14567.369469,-2301.760292,1260.236056,-2092.950296,11770.808610,16535.507624,-2623.267785,2650.335747,-18381.515846,17864.542349,2043.664699,-226.244357,0.006000,-0.010000,1.000000,192.000000,0.000000,0.000000,0.000000,0.000000,0.000000,0.000000,0.000000,0.000000,0.000000,1775738777.026998,0.000000
110.000000,16596.930217,19024.396720,-14175.386927,437.960081,-14547.722286,-2308.376409,1261.912437,-2087.898801,11738.264470,16551.019734,-2589.315485,2663.523276,-18327.223459,17873.438343,1886.822508,-519.208672,0.006000,-0.010000,1.000000,192.000000,0.000000,0.000000,0.000000,0.000000,0.000000,0.000000,0.000000,0.000000,0.000000,1775738777.027009,0.000000
112.000000,16581.552217,19021.356883,-14207.416976,417.709400,-14582.859228,-2306.409455,1252.412945,-2109.065903,11741.527825,16530.679647,-2621.278479,2649.866360,-18375.659689,17865.347012,2016.619088,-271.528992,0.006000,-0.010000,1.000000,192.000000,0.000000,0.000000,0.000000,0.000000,0.000000,0.000000,0.000000,0.000000,0.000000,1775738777.027021,0.000000
114.000000,16615.772738,19044.155663,-14162.691136,445.336157,-14550.270385,-2298.608696,1269.444975,-2077.818165,11766.919406,16557.255871,-2604.782892,2661.645730,-18354.067904,17880.210922,1960.873838,-369.586095,0.008000,-0.012000,1.002000,192.000000,0.000000,32.000000,127.500000,80.000000,15.500000,40.000000,0.000000,0.000000,0.000000,1775738777.027032,0.000000
116.000000,16580.859313,19018.808784,-14201.024377,420.212796,-14571.728059,-2301.939106,1249.931902,-2109.043552,11730.798987,16549.097484,-2591.304790,2658.807058,-18336.231212,17878.646300,1904.860366,-474.482831,0.008000,-0.012000,1.002000,192.000000,0.000000,0.000000,0.000000,0.000000,0.000000,0.000000,0.000000,0.000000,0.000000,1775738777.027047,0.000000
118.000000,16589.285921,19024.016741,-14185.981653,431.768648,-14557.266481,-2300.620353,1257.866771,-2103.165043,11771.456810,16550.997383,-2626.933471,2648.435849,-18363.477989,17878.579244,2046.503371,-225.216177,0.008000,-0.012000,1.002000,192.000000,0.000000,0.000000,0.000000,0.000000,0.000000,0.000000,0.000000,0.000000,0.000000,1775738777.027064,0.000000
120.000000,16599.545371,19026.162508,-14170.581302,439.524703,-14545.531815,-2296.217060,1259.610207,-2089.664589,11741.416066,16555.914766,-2594.881069,2656.907160,-18319.802680,17879.585073,1893.326866,-524.126056,0.008000,-0.012000,1.002000,192.000000,0.000000,0.000000,0.000000,0.000000,0.000000,0.000000,0.000000,0.000000,0.000000,1775738777.027077,0.000000
122.000000,16577.081868,19020.261648,-14206.791128,423.543206,-14573.002109,-2295.837080,1249.507219,-2111.345781,11758.984537,16544.895356,-2623.334840,2650.022823,-18368.462428,17877.148733,2016.730847,-267.751547,0.008000,-0.012000,1.002000,192.000000,0.000000,0.000000,0.000000,0.000000,0.000000,0.000000,0.000000,0.000000,0.000000,1775738777.027093,0.000000
124.000000,16587.788354,19020.954552,-14171.028336,443.503313,-14548.929280,-2292.461967,1260.057242,-2092.704426,11763.365479,16559.602804,-2608.493281,2658.516486,-18355.341954,17886.938797,1965.701814,-357.046766,0.008000,-0.012000,0.999000,192.000000,0.000000,32.000000,127.500000,80.000000,15.500000,16.000000,0.000000,0.000000,0.000000,1775738777.027105,0.000000
126.000000,16563.134380,19007.699967,-14207.729901,419.117560,-14567.436524,-2296.261763,1244.768649,-2116.956069,11717.946734,16537.586336,-2605.185223,2647.005337,-18336.924116,17876.969919,1913.689305,-466.771479,0.008000,-0.012000,0.999000,192.000000,0.000000,0.000000,0.000000,0.000000,0.000000,0.000000,0.000000,0.000000,0.000000,1775738777.027116,0.000000
128.000000,16574.176142,19016.193630,-14193.961226,432.260386,-14560.149856,-2287.589286,1255.273969,-2107.523633,11759.029240,16540.246193,-2636.500017,2643.049078,-18388.713108,17885.217713,2041.585987,-208.519424,0.008000,-0.012000,0.999000,192.000000,0.000000,0.000000,0.000000,0.000000,0.000000,0.000000,0.000000,0.000000,0.000000,1775738777.027126,0.000000
130.000000,16577.774772,19014.874877,-14178.091488,438.384764,-14547.610527,-2288.215135,1257.442088,-2095.498394,11730.955449,16546.750551,-2600.133729,2651.542741,-18334.890107,17886.670576,1886.420177,-505.216480,0.008000,-0.012000,0.999000,192.000000,0.000000,0.000000,0.000000,0.000000,0.000000,0.000000,0.000000,0.000000,0.000000,1775738777.027138,0.000000
132.000000,16556.361801,19007.543505,-14213.831927,420.346906,-14571.862170,-2294.071292,1248.523742,-2114.922060,11744.366496,16540.559118,-2627.604023,2649.620491,-18362.539215,17884.904788,2007.119597,-263.325901,0.008000,-0.012000,0.999000,192.000000,0.000000,0.000000,0.000000,0.000000,0.000000,0.000000,0.000000,0.000000,0.000000,1775738777.027149,0.000000
134.000000,16581.663976,19018.495860,-14169.195493,443.391555,-14543.162530,-2289.667999,1263.745280,-2087.854098,11758.157522,16552.763170,-2616.271688,2657.510657,-18359.409971,17890.649186,1959.935064,-360.421879,0.008000,-0.014000,1.000500,192.000000,0.000000,32.000000,127.500000,64.000000,15.500000,40.000000,0.000000,0.000000,0.000000,1775738777.027160,0.000000
136.000000,16552.897281,18998.669863,-14205.628837,416.949441,-14577.897141,-2307.459987,1247.562617,-2112.888052,11714.191641,16538.636868,-2602.257145,2650.425154,-18344.456654,17882.937835,1916.416218,-470.817145,0.008000,-0.014000,1.000500,192.000000,0.000000,0.000000,0.000000,0.000000,0.000000,0.000000,0.000000,0.000000,0.000000,1775738777.027171,0.000000
138.000000,16560.586281,19005.643607,-14188.954435,426.694802,-14563.793190,-2304.911888,1257.643254,-2104.953182,11758.783371,16538.949792,-2631.381468,2644.300776,-18387.193190,17878.534541,2046.637481,-228.703049,0.008000,-0.014000,1.000500,192.000000,0.000000,0.000000,0.000000,0.000000,0.000000,0.000000,0.000000,0.000000,0.000000,1775738777.027183,0.000000
140.000000,16562.530883,18997.395813,-14179.611406,430.226377,-14554.092533,-2306.565917,1257.419736,-2099.141729,11721.187737,16538.458054,-2604.648781,2647.765296,-18337.348799,17878.467486,1888.007151,-517.353477,0.008000,-0.014000,1.000500,192.000000,0.000000,0.000000,0.000000,0.000000,0.000000,0.000000,0.000000,0.000000,0.000000,1775738777.027195,0.000000
142.000000,16539.553289,18985.459982,-14214.658942,410.400380,-14583.753298,-2313.718476,1247.808486,-2121.627584,11726.596859,16513.289990,-2630.330936,2635.896520,-18393.049347,17864.430590,2012.148739,-276.535782,0.008000,-0.014000,1.000500,192.000000,0.000000,0.000000,0.000000,0.000000,0.000000,0.000000,0.000000,0.000000,0.000000,1775738777.027206,0.000000
144.000000,16556.853540,18994.423031,-14176.236293,433.601491,-14551.387972,-2301.514423,1261.308940,-2097.241830,11734.911708,16524.041179,-2623.625412,2643.674927,-18382.879303,17871.717259,1962.192590,-368.222638,0.008000,-0.015000,0.998250,192.000000,0.000000,32.000000,127.500000,64.000000,15.500000,16.000000,0.000000,0.000000,0.000000,1775738777.027218,0.000000
146.000000,16537.720446,18983.671842,-14205.315912,412.792017,-14571.638652,-2312.690295,1248.255521,-2117.917194,11702.389920,16519.816699,-2611.309601,2645.753639,-18361.466332,17873.281881,1909.889508,-478.796718,0.008000,-0.015000,0.998250,192.000000,0.000000,0.000000,0.000000,0.000000,0.000000,0.000000,0.000000,0.000000,0.000000,1775738777.027229,0.000000
148.000000,16549.499816,18993.216037,-14193.156563,424.839607,-14564.553149,-2308.041132,1256.525666,-2110.943450,11746.154636,16522.096577,-2637.774067,2639.293985,-18401.788879,17872.432515,2040.043716,-225.305584,0.008000,-0.015000,0.998250,192.000000,0.000000,0.000000,0.000000,0.000000,0.000000,0.000000,0.000000,0.000000,0.000000,1775738777.027254,0.000000
150.000000,16550.684458,18988.902150,-14178.270302,431.656889,-14552.863187,-2308.264650,1258.872599,-2100.616944,11718.192603,16526.902202,-2602.972401,2649.531084,-18346.222442,17878.422782,1885.257886,-515.744152,0.008000,-0.015000,0.998250,192.000000,0.000000,0.000000,0.000000,0.000000,0.000000,0.000000,0.000000,0.000000,0.000000,1775738777.027267,0.000000
152.000000,16526.857499,18973.680612,-14215.284790,408.858110,-14587.262522,-2318.166473,1245.103925,-2129.808322,11727.133301,16509.624304,-2635.047154,2636.745886,-18387.997852,17863.313003,2016.373219,-274.837050,0.008000,-0.015000,0.998250,192.000000,0.000000,0.000000,0.000000,0.000000,0.000000,0.000000,0.000000,0.000000,0.000000,1775738777.027277,0.000000
154.000000,16548.002249,18983.515380,-14172.391793,434.897892,-14550.628012,-2305.336571,1260.996015,-2102.986229,11737.750380,16521.828356,-2626.821712,2640.210407,-18377.313718,17871.761962,1966.797050,-364.534600,0.007000,-0.015500,0.998125,192.000000,0.000000,24.000000,127.500000,64.000000,15.500000,24.000000,0.000000,0.000000,0.000000,1775738777.027287,0.000000
156.000000,16532.400731,18972.138342,-14205.226505,413.887252,-14575.103173,-2314.009048,1246.199160,-2124.622717,11703.239286,16519.727292,-2613.522424,2640.053945,-18355.766637,17871.426686,1910.716523,-469.721910,0.007000,-0.015500,0.998125,192.000000,0.000000,0.000000,0.000000,0.000000,0.000000,0.000000,0.000000,0.000000,0.000000,1775738777.027299,0.000000
158.000000,16539.061551,18978.687403,-14193.491840,425.465456,-14563.033231,-2305.448330,1255.966873,-2117.134883,11755.609424,16519.190850,-2638.802247,2635.807113,-18385.449753,17870.532616,2043.642347,-221.528139,0.007000,-0.015500,0.998125,192.000000,0.000000,0.000000,0.000000,0.000000,0.000000,0.000000,0.000000,0.000000,0.000000,1775738777.027310,0.000000
160.000000,16536.200528,18970.752534,-14180.885456,430.874578,-14553.779608,-2303.995467,1256.480963,-2111.882223,11710.235382,16520.129623,-2613.433017,2638.869302,-18352.637393,17877.819285,1890.152918,-509.999753,0.007000,-0.015500,0.998125,192.000000,0.000000,0.000000,0.000000,0.000000,0.000000,0.000000,0.000000,0.000000,0.000000,1775738777.027322,0.000000
162.000000,16523.974123,18965.857502,-14214.100148,409.439255,-14577.852437,-2309.292830,1245.640367,-2132.289366,11723.646429,16507.210315,-2640.903311,2626.553491,-18387.372003,17868.945643,2018.630745,-268.220933,0.007000,-0.015500,0.998125,192.000000,0.000000,0.000000,0.000000,0.000000,0.000000,0.000000,0.000000,0.000000,0.000000,1775738777.027334,0.000000
164.000000,16542.660182,18973.971185,-14177.487991,428.885273,-14551.522082,-2302.274382,1258.179695,-2109.468235,11737.482159,16520.196679,-2632.074372,2632.364945,-18364.841445,17875.606462,1971.602675,-361.695929,0.005500,-0.015750,0.998062,192.000000,0.000000,16.000000,127.500000,64.000000,15.500000,24.000000,0.000000,0.000000,0.000000,1775738777.027345,0.000000
166.000000,16526.365760,18964.158769,-14210.680331,407.449950,-14575.773725,-2313.651420,1243.963986,-2130.255357,11708.491946,16504.393995,-2620.295002,2627.022878,-18367.858931,17867.738648,1909.196604,-470.012482,0.005500,-0.015750,0.998062,192.000000,0.000000,0.000000,0.000000,0.000000,0.000000,0.000000,0.000000,0.000000,0.000000,1775738777.027355,0.000000
168.000000,16533.227746,18973.233577,-14197.090470,423.632613,-14570.856341,-2302.028513,1257.822067,-2115.994944,11747.093409,16508.886696,-2647.810000,2626.598194,-18404.471088,17871.493741,2038.054411,-225.082067,0.005500,-0.015750,0.998062,192.000000,0.000000,0.000000,0.000000,0.000000,0.000000,0.000000,0.000000,0.000000,0.000000,1775738777.027366,0.000000
170.000000,16541.363781,18976.027545,-14183.768831,429.153494,-14559.501655,-2305.671848,1259.207876,-2105.959011,11711.800004,16522.901240,-2610.460235,2641.305642,-18355.967803,17881.909654,1878.507659,-515.051247,0.005500,-0.015750,0.998062,192.000000,0.000000,0.000000,0.000000,0.000000,0.000000,0.000000,0.000000,0.000000,0.000000,1775738777.027377,0.000000
172.000000,16525.337580,18967.802103,-14218.592849,409.685124,-14592.649292,-2313.941993,1246.914416,-2129.026011,11723.914650,16506.159783,-2640.389221,2628.095761,-18399.263132,17867.403372,2019.502463,-276.893410,0.005500,-0.015750,0.998062,192.000000,0.000000,0.000000,0.000000,0.000000,0.000000,0.000000,0.000000,0.000000,0.000000,1775738777.027388,0.000000
174.000000,16549.768037,18982.286034,-14178.225598,436.708383,-14560.529835,-2298.027551,1262.851210,-2101.801586,11743.226557,16521.180155,-2626.709953,2635.471837,-18385.047422,17876.500532,1963.287826,-361.315949,0.005750,-0.017875,1.002031,192.000000,0.000000,24.000000,127.500000,48.000000,15.500000,56.000000,0.000000,0.000000,0.000000,1775738777.027398,0.000000
176.000000,16515.703978,18953.675801,-14213.451947,408.589889,-14581.920455,-2315.730133,1246.042698,-2131.015316,11699.059510,16506.182135,-2617.478683,2631.895558,-18370.943471,17873.080715,1898.624229,-466.100927,0.005750,-0.017875,1.002031,192.000000,0.000000,0.000000,0.000000,0.000000,0.000000,0.000000,0.000000,0.000000,0.000000,1775738777.027409,0.000000
178.000000,16525.136414,18962.258871,-14199.236238,416.144778,-14570.297548,-2306.968249,1254.558713,-2126.053229,11737.213938,16500.191867,-2651.252169,2621.993735,-18409.902562,17864.989384,2044.223493,-222.533968,0.005750,-0.017875,1.002031,192.000000,0.000000,0.000000,0.000000,0.000000,0.000000,0.000000,0.000000,0.000000,0.000000,1775738777.027419,0.000000
180.000000,16531.529013,18964.158769,-14183.969996,425.465456,-14555.925376,-2311.103321,1256.413908,-2114.206805,11705.429757,16510.093690,-2621.233776,2632.320241,-18360.438151,17870.040878,1887.180136,-510.267974,0.005750,-0.017875,1.002031,192.000000,0.000000,0.000000,0.000000,0.000000,0.000000,0.000000,0.000000,0.000000,0.000000,1775738777.027430,0.000000
182.000000,16514.720501,18957.408542,-14216.849413,405.393589,-14581.920455,-2320.938089,1246.936768,-2134.815113,11718.773749,16499.186039,-2640.568035,2626.665250,-18389.920102,17861.301346,2010.651172,-270.769032,0.005750,-0.017875,1.002031,192.000000,0.000000,0.000000,0.000000,0.000000,0.000000,0.000000,0.000000,0.000000,0.000000,1775738777.027440,0.000000
184.000000,16533.093635,18965.835150,-14177.733860,429.175845,-14549.018687,-2312.355019,1261.063070,-2110.116435,11733.905880,16512.150051,-2629.772142,2633.549587,-18383.728669,17867.872759,1972.943780,-364.869876,0.005875,-0.017938,1.000016,192.000000,0.000000,24.000000,127.500000,56.000000,15.500000,24.000000,0.000000,0.000000,0.000000,1775738777.027451,0.000000
186.000000,16521.716597,18961.588319,-14206.835831,410.892118,-14571.392783,-2316.713609,1250.133067,-2125.650898,11700.154746,16504.371644,-2617.277517,2630.666212,-18366.406067,17861.658974,1914.315154,-476.472137,0.005875,-0.017938,1.000016,192.000000,0.000000,0.000000,0.000000,0.000000,0.000000,0.000000,0.000000,0.000000,0.000000,1775738777.027461,0.000000
188.000000,16538.882737,18978.709755,-14193.357729,427.611223,-14559.412248,-2298.876917,1261.934788,-2112.396313,11756.525845,16519.861402,-2638.422267,2635.695354,-18383.527503,17870.309099,2041.630690,-231.698183,0.005875,-0.017938,1.000016,192.000000,0.000000,0.000000,0.000000,0.000000,0.000000,0.000000,0.000000,0.000000,0.000000,1775738777.027472,0.000000
190.000000,16539.709752,18973.412391,-14178.359709,432.528607,-14548.459893,-2299.122786,1259.520800,-2106.696618,11717.946734,16531.774882,-2604.559374,2647.944110,-18361.131055,17882.446096,1890.778767,-512.458445,0.005875,-0.017938,1.000016,192.000000,0.000000,0.000000,0.000000,0.000000,0.000000,0.000000,0.000000,0.000000,0.000000,1775738777.027483,0.000000
192.000000,16525.806967,18972.160694,-14210.009779,415.250708,-14575.751373,-2300.910926,1251.049489,-2127.036706,11732.095388,16513.446452,-2634.153084,2633.169607,-18394.904541,17868.006869,2028.085533,-271.037253,0.005875,-0.017938,1.000016,192.000000,0.000000,0.000000,0.000000,0.000000,0.000000,0.000000,0.000000,0.000000,0.000000,1775738777.027494,0.000000
194.000000,16542.235499,18979.134438,-14172.078868,441.268139,-14545.084780,-2288.013969,1266.718062,-2101.689828,11749.619156,16532.378379,-2620.004430,2647.497075,-18372.664556,17880.702660,1980.006931,-353.381080,0.005875,-0.017938,1.000016,192.000000,0.000000,0.000000,0.000000,0.000000,0.000000,0.000000,0.000000,0.000000,0.000000,1775738777.027504,0.000000
196.000000,16518.073263,18962.638851,-14207.171107,418.849339,-14573.270330,-2301.648534,1251.943559,-2124.578014,11707.933153,16517.603876,-2612.024857,2644.792514,-18363.835617,17876.299367,1913.309325,-460.691805,0.006000,-0.016000,1.012000,192.000000,0.000000,24.000000,127.500000,64.000000,15.500000,80.000000,0.000000,0.000000,0.000000,1775738777.027514,0.000000
198.000000,16525.896373,18968.964394,-14197.671616,425.733677,-14571.862170,-2294.808900,1258.000881,-2120.979383,11751.921386,16514.586391,-2644.189017,2634.868340,-18407.421518,17871.739611,2046.972757,-212.609793,0.006000,-0.016000,1.012000,192.000000,0.000000,0.000000,0.000000,0.000000,0.000000,0.000000,0.000000,0.000000,0.000000,1775738777.027525,0.000000
200.000000,16520.353141,18959.710772,-14183.165334,432.506255,-14563.077934,-2300.754464,1259.274931,-2115.458502,11715.041007,16525.024655,-2614.103569,2638.645785,-18368.663593,17877.774582,1892.946886,-499.159157,0.006000,-0.016000,1.012000,192.000000,0.000000,0.000000,0.000000,0.000000,0.000000,0.000000,0.000000,0.000000,0.000000,1775738777.027536,0.000000
202.000000,16503.991664,18956.469769,-14218.682256,412.635554,-14591.174077,-2304.978943,1247.920245,-2139.911311,11721.478310,16504.975141,-2644.926625,2626.441732,-18408.025015,17866.151675,2019.211891,-262.476535,0.006000,-0.016000,1.012000,192.000000,0.000000,0.000000,0.000000,0.000000,0.000000,0.000000,0.000000,0.000000,0.000000,1775738777.027546,0.000000
204.000000,16525.695208,18970.417258,-14177.845618,439.435296,-14558.629937,-2289.980923,1265.511068,-2110.854043,11737.482159,16532.803063,-2633.214311,2640.322166,-18393.250512,17880.702660,1966.238256,-348.150772,0.006000,-0.016000,1.012000,192.000000,0.000000,0.000000,0.000000,0.000000,0.000000,0.000000,0.000000,0.000000,0.000000,1775738777.027557,0.000000
206.000000,16507.679702,18957.050914,-14211.909677,414.244880,-14582.166324,-2304.911888,1248.993128,-2132.334069,11701.294685,16514.966370,-2623.379543,2635.896520,-18377.425477,17874.131247,1905.352104,-459.507163,0.006000,-0.014000,1.008000,192.000000,0.000000,24.000000,127.500000,72.000000,15.500000,64.000000,0.000000,0.000000,0.000000,1775738777.027567,0.000000
208.000000,16517.134490,18966.975089,-14200.711453,425.577214,-14571.571597,-2299.860394,1256.592722,-2123.482778,11749.909729,16519.257905,-2650.201637,2633.549587,-18396.223294,17874.354765,2043.061202,-215.403761,0.006000,-0.014000,1.008000,192.000000,0.000000,0.000000,0.000000,0.000000,0.000000,0.000000,0.000000,0.000000,0.000000,1775738777.027577,0.000000
210.000000,16531.976048,18977.145133,-14179.164371,437.468342,-14557.758219,-2291.970228,1261.778326,-2107.210709,11715.823318,16533.831243,-2612.896575,2648.145276,-18369.736477,17892.347919,1888.275372,-504.009486,0.006000,-0.014000,1.008000,192.000000,0.000000,0.000000,0.000000,0.000000,0.000000,0.000000,0.000000,0.000000,0.000000,1775738777.506832,0.000000
212.000000,16518.475594,18974.731144,-14212.468471,418.536415,-14578.925321,-2291.500842,1253.217608,-2127.059058,11737.504511,16522.163632,-2635.248320,2640.076296,-18402.057100,17888.771640,2015.747370,-263.728233,0.006000,-0.014000,1.008000,192.000000,0.000000,0.000000,0.000000,0.000000,0.000000,0.000000,0.000000,0.000000,0.000000,1775738777.506890,0.000000
214.000000,16540.603821,18986.868142,-14171.855351,442.832761,-14553.042001,-2285.398815,1268.170925,-2101.086331,11760.146828,16542.481368,-2621.412590,2651.095706,-18371.345803,17903.501440,1966.998216,-349.625987,0.006000,-0.014000,1.008000,192.000000,0.000000,0.000000,0.000000,0.000000,0.000000,0.000000,0.000000,0.000000,0.000000,1775738777.506937,0.000000
216.000000,16511.188926,18966.326888,-14208.758081,417.977621,-14573.896178,-2301.290906,1251.071841,-2125.986174,11709.989513,16526.678685,-2613.589479,2642.333823,-18373.513922,17894.001948,1920.841863,-468.179639,0.006000,-0.016000,1.006000,192.000000,0.000000,24.000000,127.500000,64.000000,15.500000,56.000000,0.000000,0.000000,0.000000,1775738777.506984,0.000000
218.000000,16516.642751,18971.870121,-14203.617180,429.421714,-14572.532722,-2292.037283,1256.346852,-2124.779180,11751.943738,16520.800176,-2647.899407,2636.388259,-18410.103728,17890.671538,2048.045641,-212.878014,0.006000,-0.016000,1.006000,192.000000,0.000000,0.000000,0.000000,0.000000,0.000000,0.000000,0.000000,0.000000,0.000000,1775738777.507034,0.000000
220.000000,16516.039254,18965.589281,-14189.468526,434.629671,-14564.709612,-2295.278286,1256.257445,-2117.939546,11712.224688,16527.036312,-2620.339706,2639.361041,-18373.223349,17894.985425,1891.404616,-492.386579,0.006000,-0.016000,1.006000,192.000000,0.000000,0.000000,0.000000,0.000000,0.000000,0.000000,0.000000,0.000000,0.000000,1775738777.507082,0.000000
222.000000,16504.550458,18969.031449,-14222.951439,415.831854,-14588.581275,-2295.814728,1247.674375,-2135.195093,11726.462749,16514.005245,-2645.083087,2632.454351,-18404.716957,17885.888265,2014.808597,-253.133506,0.006000,-0.016000,1.006000,192.000000,0.000000,0.000000,0.000000,0.000000,0.000000,0.000000,0.000000,0.000000,0.000000,1775738777.507107,0.000000
224.000000,16524.599972,18978.419182,-14183.433555,440.597587,-14561.021574,-2290.495013,1262.784155,-2110.272898,11741.594880,16531.797234,-2632.767276,2643.160837,-18391.820001,17896.840620,1966.618236,-341.266434,0.006000,-0.016000,1.006000,192.000000,0.000000,0.000000,0.000000,0.000000,0.000000,0.000000,0.000000,0.000000,0.000000,1775738777.507120,0.000000
226.000000,16500.281274,18960.448380,-14216.894116,413.999011,-14586.904894,-2306.007124,1246.266216,-2134.412782,11699.506545,16519.034388,-2622.999564,2636.120038,-18382.633434,17892.236160,1907.028485,-459.037776,0.006000,-0.016000,1.006000,192.000000,0.000000,0.000000,127.500000,72.000000,15.500000,64.000000,0.000000,0.000000,0.000000,1775738777.507132,0.000000
228.000000,16516.218068,18973.501798,-14203.594828,422.917357,-14573.471495,-2299.726284,1255.273969,-2124.376848,11746.199339,16518.877926,-2648.614663,2632.052020,-18415.445795,17890.783297,2039.082591,-214.219119,0.006000,-0.016000,1.006000,192.000000,0.000000,0.000000,0.000000,0.000000,0.000000,0.000000,0.000000,0.000000,0.000000,1775738777.507144,0.000000
230.000000,16517.514469,18971.020755,-14188.015662,427.521816,-14567.414173,-2294.987714,1256.212742,-2118.051305,11715.599801,16528.153900,-2616.629316,2638.265805,-18370.474085,17897.220599,1884.721444,-502.802492,0.006000,-0.016000,1.006000,192.000000,0.000000,0.000000,0.000000,0.000000,0.000000,0.000000,0.000000,0.000000,0.000000,1775738777.507156,0.000000
232.000000,16499.163687,18964.941080,-14218.324628,406.913508,-14591.285836,-2307.303525,1246.690899,-2137.609081,11721.143034,16511.233629,-2642.065602,2624.295965,-18403.398204,17883.921311,2012.886347,-266.835125,0.006000,-0.016000,1.006000,192.000000,0.000000,0.000000,0.000000,0.000000,0.000000,0.000000,0.000000,0.000000,0.000000,1775738777.507168,0.000000
234.000000,16529.405597,18984.498857,-14173.509380,433.288566,-14549.242204,-2294.384217,1262.672396,-2104.953182,11741.952508,16530.165557,-2625.704125,2636.298852,-18395.530390,17897.354710,1977.592942,-359.058423,0.006000,-0.016000,1.006000,192.000000,0.000000,0.000000,0.000000,0.000000,0.000000,0.000000,0.000000,0.000000,0.000000,1775738777.507180,0.000000
236.000000,16506.003321,18971.043106,-14206.947590,412.367333,-14576.936016,-2306.185938,1249.820143,-2123.572185,11710.280086,16521.850708,-2608.806206,2640.076296,-18365.534349,17893.219637,1914.717485,-464.133974,0.008000,-0.012000,1.004000,192.000000,0.000000,32.000000,127.500000,80.000000,15.500000,48.000000,0.000000,0.000000,0.000000,1775738777.507192,0.000000
238.000000,16514.407577,18980.073211,-14196.509325,425.197235,-14572.197446,-2299.949801,1258.403213,-2117.380752,11751.809627,16524.108234,-2639.048116,2638.668136,-18417.748024,17891.677367,2045.341080,-221.885767,0.008000,-0.012000,1.004000,192.000000,0.000000,0.000000,0.000000,0.000000,0.000000,0.000000,0.000000,0.000000,0.000000,1775738777.507204,0.000000
240.000000,16515.055777,18977.368650,-14184.461735,433.959119,-14556.372411,-2291.791414,1260.794849,-2107.769502,11719.757225,16528.802100,-2609.879090,2646.223026,-18369.110628,17900.998044,1891.225802,-504.344762,0.008000,-0.012000,1.004000,192.000000,0.000000,0.000000,0.000000,0.000000,0.000000,0.000000,0.000000,0.000000,0.000000,1775738777.507216,0.000000
242.000000,16496.481478,18967.779752,-14222.191479,412.859072,-14585.362623,-2297.267592,1248.411983,-2132.378773,11729.569641,16513.021769,-2642.870264,2633.057849,-18403.018225,17890.313910,2015.792074,-263.012977,0.008000,-0.012000,1.004000,192.000000,0.000000,0.000000,0.000000,0.000000,0.000000,0.000000,0.000000,0.000000,0.000000,1775738777.507228,0.000000
244.000000,16519.704940,18979.961452,-14183.411203,436.618976,-14558.875806,-2283.610676,1261.308940,-2109.758807,11746.534615,16531.283144,-2632.186131,2638.891654,-18387.528466,17899.209905,1968.026396,-348.262530,0.008000,-0.012000,1.004000,192.000000,0.000000,0.000000,0.000000,0.000000,0.000000,0.000000,0.000000,0.000000,0.000000,1775738777.507240,0.000000
246.000000,16490.357100,18958.012039,-14218.704607,411.003877,-14586.144934,-2299.502766,1243.941634,-2137.720840,11705.362702,16512.686493,-2626.218215,2631.448523,-18369.714125,17888.369309,1906.223822,-458.099003,0.004000,-0.014000,1.002000,192.000000,0.000000,16.000000,127.500000,72.000000,15.500000,40.000000,0.000000,0.000000,0.000000,1775738777.507253,0.000000
248.000000,16499.253094,18966.930385,-14204.757119,418.961098,-14572.957405,-2292.394911,1253.374070,-2128.355459,11749.373287,16506.964446,-2656.147201,2626.262918,-18416.563382,17879.473314,2040.781324,-214.085008,0.004000,-0.014000,1.002000,192.000000,0.000000,0.000000,0.000000,0.000000,0.000000,0.000000,0.000000,0.000000,0.000000,1775738777.507265,0.000000
250.000000,16509.691359,18971.356031,-14186.652206,427.387706,-14559.524007,-2292.506670,1256.525666,-2112.016334,11713.454034,16520.621362,-2620.496168,2635.941224,-18373.066887,17889.464544,1884.341465,-503.517747,0.004000,-0.014000,1.002000,192.000000,0.000000,0.000000,0.000000,0.000000,0.000000,0.000000,0.000000,0.000000,0.000000,1775738777.507278,0.000000
252.000000,16496.101498,18966.818627,-14221.185651,403.203118,-14584.669719,-2306.565917,1245.372146,-2131.440000,11734.263508,16502.382338,-2642.803209,2631.806151,-18398.458469,17879.272149,2013.221623,-264.957579,0.004000,-0.014000,1.002000,192.000000,0.000000,0.000000,0.000000,0.000000,0.000000,0.000000,0.000000,0.000000,0.000000,1775738777.507290,0.000000
254.000000,16510.272504,18972.607729,-14181.041918,428.102962,-14553.801960,-2298.385179,1262.873562,-2105.981363,11742.488950,16515.994551,-2634.667174,2638.712840,-18391.507076,17884.480105,1968.942817,-353.179914,0.004000,-0.014000,1.002000,192.000000,0.000000,0.000000,0.000000,0.000000,0.000000,0.000000,0.000000,0.000000,0.000000,1775738777.507302,0.000000
0.000000,16495.274484,18963.711734,-14209.562744,407.896985,-14571.951577,-2304.241336,1247.786134,-2128.713087,11701.942885,16508.551420,-2623.915985,2634.913043,-18375.458524,17885.865913,1914.695134,-464.983340,0.004000,-0.014000,1.002000,192.000000,0.000000,0.000000,127.500000,88.000000,15.500000,48.000000,0.000000,0.000000,0.000000,1775738777.507331,0.000000
2.000000,16511.412443,18978.910920,-14195.145869,420.592775,-14563.413210,-2291.746711,1255.832762,-2117.023124,11761.040897,16521.806004,-2643.741982,2636.187093,-18391.596483,17892.392623,2048.157400,-210.441674,0.004000,-0.014000,1.002000,192.000000,0.000000,0.000000,0.000000,0.000000,0.000000,0.000000,0.000000,0.000000,0.000000,1775738777.507343,0.000000
4.000000,16515.815737,18975.178179,-14183.791182,424.750200,-14562.586196,-2291.813766,1254.022271,-2108.060075,11721.768882,16528.176251,-2611.913098,2645.306605,-18364.975556,17900.394547,1898.333657,-505.887032,0.004000,-0.014000,1.002000,192.000000,0.000000,0.000000,0.000000,0.000000,0.000000,0.000000,0.000000,0.000000,0.000000,1775738777.507355,0.000000
6.000000,16506.182135,18976.362822,-14217.005875,411.272098,-14578.634748,-2299.636877,1250.423640,-2122.119322,11737.303345,16509.847821,-2636.500017,2636.857645,-18407.332111,17889.598654,2021.111789,-272.758338,0.004000,-0.014000,1.002000,192.000000,0.000000,0.000000,0.000000,0.000000,0.000000,0.000000,0.000000,0.000000,0.000000,1775738777.507366,0.000000
8.000000,16519.056740,18980.296729,-14181.824229,438.563578,-14561.513312,-2288.662170,1265.444012,-2098.247659,11749.596804,16532.758359,-2622.977212,2653.576750,-18397.877323,17904.261399,1963.980730,-350.453001,0.004000,-0.014000,1.002000,192.000000,0.000000,0.000000,0.000000,0.000000,0.000000,0.000000,0.000000,0.000000,0.000000,1775738777.507378,0.000000
10.000000,16490.625321,18960.738952,-14219.799843,412.792017,-14589.698862,-2304.822481,1244.947463,-2131.216482,11702.702844,16514.072301,-2619.780912,2642.937320,-18386.612044,17895.812439,1910.202433,-464.536305,0.001000,-0.011000,1.001000,192.000000,127.500000,120.000000,127.500000,96.000000,15.500000,32.000000,0.000000,0.000000,0.000000,1775738777.507390,0.000000
12.000000,16501.868248,18968.942042,-14206.142927,426.046601,-14577.628920,-2288.215135,1255.117506,-2121.180549,11743.695944,16514.318170,-2651.967424,2635.427133,-18422.576001,17896.550047,2039.730792,-212.609793,0.001000,-0.011000,1.001000,192.000000,0.000000,0.000000,0.000000,0.000000,0.000000,0.000000,0.000000,0.000000,0.000000,1775738777.507402,0.000000
14.000000,16511.568905,18973.211226,-14187.635683,433.087401,-14565.760143,-2287.097548,1257.687957,-2107.031895,11715.823318,16518.453243,-2614.215328,2644.211369,-18371.211692,17903.434384,1886.867212,-497.348666,0.001000,-0.011000,1.001000,192.000000,0.000000,0.000000,0.000000,0.000000,0.000000,0.000000,0.000000,0.000000,0.000000,1775738777.507413,0.000000
16.000000,16493.642806,18964.248176,-14223.309067,413.216700,-14594.012748,-2299.167490,1248.210817,-2125.405029,11732.296554,16508.327902,-2638.019936,2637.081163,-18404.605198,17893.756079,2010.762931,-258.609683,0.001000,-0.011000,1.001000,192.000000,0.000000,0.000000,0.000000,0.000000,0.000000,0.000000,0.000000,0.000000,0.000000,1775738777.507425,0.000000
18.000000,16517.737987,18977.435705,-14177.979729,434.830837,-14556.953556,-2292.327856,1264.840515,-2096.079540,11742.086618,16521.940115,-2625.525311,2645.038384,-18393.831658,17900.126326,1965.388890,-349.268359,0.001000,-0.011000,1.001000,192.000000,0.000000,0.000000,0.000000,0.000000,0.000000,0.000000,0.000000,0.000000,0.000000,1775738777.507436,0.000000
20.000000,16494.581580,18959.442551,-14211.172069,407.427598,-14580.802868,-2307.370580,1249.328405,-2121.806398,11702.434624,16509.736062,-2615.645840,2640.724497,-18379.168913,17893.085527,1909.867157,-463.619883,0.002500,-0.011500,1.001500,192.000000,0.000000,16.000000,127.500000,80.000000,15.500000,40.000000,0.000000,0.000000,0.000000,1775738777.507448,0.000000
22.000000,16498.314321,18962.102409,-14200.063252,412.859072,-14569.738754,-2302.252031,1255.653948,-2120.353534,11745.327621,16503.075242,-2650.022823,2631.873206,-18409.857858,17884.010718,2045.609301,-218.175378,0.002500,-0.011500,1.001500,192.000000,0.000000,0.000000,0.000000,0.000000,0.000000,0.000000,0.000000,0.000000,0.000000,1775738777.507460,0.000000
24.000000,16503.656388,18963.331755,-14183.388851,420.033982,-14554.763085,-2300.754464,1255.139858,-2111.949278,11709.900106,16508.439661,-2618.193939,2638.846950,-18381.113515,17888.034032,1896.456110,-506.289364,0.002500,-0.011500,1.001500,192.000000,0.000000,0.000000,0.000000,0.000000,0.000000,0.000000,0.000000,0.000000,0.000000,1775738777.507471,0.000000
26.000000,16489.753603,18957.676763,-14217.855241,402.666676,-14579.350004,-2308.041132,1244.656890,-2134.144561,11720.807757,16495.006263,-2643.965500,2627.492264,-18412.718882,17881.216750,2025.895062,-266.544553,0.002500,-0.011500,1.001500,192.000000,0.000000,0.000000,0.000000,0.000000,0.000000,0.000000,0.000000,0.000000,0.000000,1775738777.507485,0.000000
28.000000,16512.664141,18968.673822,-14180.170200,428.840569,-14549.599832,-2293.199574,1258.649082,-2107.210709,11738.577394,16516.843917,-2631.627337,2637.461142,-18396.826791,17893.107878,1981.124518,-351.235312,0.002500,-0.011500,1.001500,192.000000,0.000000,0.000000,0.000000,0.000000,0.000000,0.000000,0.000000,0.000000,0.000000,1775738777.507497,0.000000
30.000000,16483.383356,18950.188929,-14217.698779,407.718171,-14581.763993,-2302.922583,1242.958157,-2130.858854,11694.522106,16507.791460,-2623.357191,2634.533064,-18376.062021,17890.291559,1917.422046,-462.681110,0.004250,-0.010750,1.002750,192.000000,0.000000,24.000000,127.500000,88.000000,15.500000,48.000000,0.000000,0.000000,0.000000,1775738777.507509,0.000000
32.000000,16487.227856,18952.491159,-14209.227468,418.134084,-14577.181885,-2297.356999,1250.580102,-2127.886072,11740.164368,16508.886696,-2656.460125,2630.152122,-18419.558515,17893.823134,2043.128257,-214.532043,0.004250,-0.010750,1.002750,192.000000,0.000000,0.000000,0.000000,0.000000,0.000000,0.000000,0.000000,0.000000,0.000000,1775738777.507522,0.000000
34.000000,16492.368757,18954.279298,-14195.727014,426.739505,-14564.687260,-2293.646609,1251.362413,-2118.498339,11705.250943,16512.485327,-2627.827540,2633.773104,-18385.427402,17899.969864,1878.261790,-499.002695,0.004250,-0.010750,1.002750,192.000000,0.000000,0.000000,0.000000,0.000000,0.000000,0.000000,0.000000,0.000000,0.000000,1775738777.507533,0.000000
36.000000,16481.550512,18953.742856,-14228.025285,409.238089,-14594.571542,-2297.334647,1243.315785,-2136.402087,11719.310191,16505.466879,-2650.961596,2630.800322,-18415.982236,17896.281826,1997.374236,-265.069337,0.004250,-0.010750,1.002750,192.000000,0.000000,0.000000,0.000000,0.000000,0.000000,0.000000,0.000000,0.000000,0.000000,1775738777.507546,0.000000
38.000000,16508.305551,18969.500836,-14186.026357,433.467380,-14564.575501,-2291.187917,1259.543152,-2107.344819,11741.281955,16527.371589,-2634.689526,2643.853741,-18397.832620,17910.698701,1948.669785,-353.962225,0.004250,-0.010750,1.002750,192.000000,0.000000,0.000000,0.000000,0.000000,0.000000,0.000000,0.000000,0.000000,0.000000,1775738777.507558,0.000000
40.000000,16490.759431,18953.899318,-14216.692950,409.618069,-14590.302359,-2305.358923,1245.953291,-2127.103761,11704.714501,16508.037330,-2620.742037,2635.941224,-18383.371041,17896.795916,1894.019770,-465.743299,0.004125,-0.009375,1.002375,192.000000,0.000000,16.000000,127.500000,96.000000,15.500000,40.000000,0.000000,0.000000,0.000000,1775738777.507570,0.000000
42.000000,16494.358062,18954.882795,-14200.778508,415.004839,-14574.030289,-2301.313257,1254.536361,-2121.225252,11752.033144,16505.913914,-2647.072392,2629.794494,-18417.099824,17890.805649,2034.075801,-212.989773,0.004125,-0.009375,1.002375,192.000000,0.000000,0.000000,0.000000,0.000000,0.000000,0.000000,0.000000,0.000000,0.000000,1775738777.507582,0.000000
44.000000,16495.319187,18950.770074,-14187.389813,417.485883,-14558.272309,-2305.493034,1253.418774,-2117.157235,11707.575525,16510.004283,-2620.987907,2633.214311,-18373.536274,17892.638492,1896.724331,-501.953125,0.004125,-0.009375,1.002375,192.000000,0.000000,0.000000,0.000000,0.000000,0.000000,0.000000,0.000000,0.000000,0.000000,1775738777.507594,0.000000
46.000000,16476.387260,18945.048028,-14221.610334,395.312952,-14588.871847,-2310.768045,1242.958157,-2140.470104,11718.080845,16487.764297,-2651.676852,2620.384409,-18418.083300,17876.589939,2026.431504,-268.444451,0.004125,-0.009375,1.002375,192.000000,0.000000,0.000000,0.000000,0.000000,0.000000,0.000000,0.000000,0.000000,0.000000,1775738777.507605,0.000000
48.000000,16501.644731,18959.487255,-14180.192552,424.839607,-14554.830140,-2297.356999,1258.157344,-2109.557642,11735.738723,16506.830335,-2637.975232,2633.281366,-18403.688777,17891.789125,1984.142004,-350.631815,0.004125,-0.009375,1.002375,192.000000,0.000000,0.000000,0.000000,0.000000,0.000000,0.000000,0.000000,0.000000,0.000000,1775738777.507617,0.000000
50.000000,16480.611739,18944.913917,-14214.211907,403.672505,-14576.041946,-2306.856490,1241.259425,-2131.484703,11693.650388,16499.566019,-2626.486436,2631.984965,-18390.948283,17891.453849,1919.612517,-461.049433,0.003063,-0.010687,1.004188,192.000000,0.000000,8.000000,127.500000,80.000000,15.500000,56.000000,0.000000,0.000000,0.000000,1775738777.507628,0.000000
52.000000,16493.843972,18958.570833,-14202.141965,417.910566,-14575.572559,-2301.179147,1250.960082,-2118.386581,11746.825188,16506.763280,-2648.681718,2632.588462,-18424.006513,17897.153544,2050.325519,-211.961593,0.003063,-0.010687,1.004188,192.000000,0.000000,0.000000,0.000000,0.000000,0.000000,0.000000,0.000000,0.000000,0.000000,1775738777.507640,0.000000
54.000000,16495.654463,18957.609708,-14189.513229,423.677316,-14567.727097,-2304.710723,1251.116544,-2110.563470,11703.798080,16513.602914,-2619.780912,2638.399916,-18384.175704,17902.450908,1898.646581,-500.723779,0.003063,-0.010687,1.004188,192.000000,0.000000,0.000000,0.000000,0.000000,0.000000,0.000000,0.000000,0.000000,0.000000,1775738777.507652,0.000000
56.000000,16481.863437,18956.156845,-14227.041808,405.348886,-14598.550153,-2314.098455,1241.795867,-2133.205787,11721.321848,16501.309455,-2648.659366,2630.733267,-18418.306818,17889.442192,2017.177882,-268.690320,0.003063,-0.010687,1.004188,192.000000,0.000000,0.000000,0.000000,0.000000,0.000000,0.000000,0.000000,0.000000,0.000000,1775738777.507664,0.000000
58.000000,16507.366777,18969.299670,-14189.624988,430.919281,-14569.135257,-2308.130539,1257.151515,-2106.271935,11737.660973,16513.826431,-2637.707011,2640.724497,-18388.936626,17894.069003,1961.052652,-357.493801,0.003063,-0.010687,1.004188,192.000000,0.000000,0.000000,0.000000,0.000000,0.000000,0.000000,0.000000,0.000000,0.000000,1775738777.507678,0.000000
60.000000,16490.804135,18958.302612,-14220.448043,412.099113,-14600.561810,-2318.457045,1246.467381,-2122.208729,11698.634827,16506.405652,-2623.021915,2641.819732,-18408.539105,17890.492724,1887.873040,-474.885163,0.005531,-0.013344,1.007094,192.000000,0.000000,32.000000,127.500000,64.000000,15.500000,72.000000,0.000000,0.000000,0.000000,1775738777.507690,0.000000
62.000000,16502.203524,18969.478484,-14205.159450,422.157398,-14592.202257,-2312.176205,1255.475134,-2113.268031,11748.233348,16509.624304,-2645.798343,2642.400878,-18435.696475,17891.275035,2021.357658,-225.774971,0.005531,-0.013344,1.007094,192.000000,0.000000,0.000000,0.000000,0.000000,0.000000,0.000000,0.000000,0.000000,0.000000,1775738777.507702,0.000000
64.000000,16497.889638,18961.387153,-14191.189610,424.750200,-14574.790248,-2310.924507,1253.776402,-2108.328296,11709.609534,16515.659275,-2615.064694,2647.608834,-18393.474030,17896.885323,1879.066453,-508.971573,0.005531,-0.013344,1.007094,192.000000,0.000000,0.000000,0.000000,0.000000,0.000000,0.000000,0.000000,0.000000,0.000000,1775738777.507715,0.000000
66.000000,16482.377527,18958.369667,-14223.398474,409.014572,-14593.431603,-2316.624202,1246.914416,-2127.260223,11717.902031,16495.274484,-2646.267730,2631.627337,-18427.783957,17882.021413,2013.467492,-273.138317,0.005531,-0.013344,1.007094,192.000000,0.000000,0.000000,0.000000,0.000000,0.000000,0.000000,0.000000,0.000000,0.000000,1775738777.507727,0.000000
68.000000,16496.772050,18962.504740,-14187.300406,431.276909,-14566.050716,-2303.950763,1259.341986,-2108.931793,11731.044856,16512.954713,-2636.343555,2639.830427,-18415.289332,17896.572399,1970.038053,-351.034147,0.005531,-0.013344,1.007094,192.000000,0.000000,0.000000,0.000000,0.000000,0.000000,0.000000,0.000000,0.000000,0.000000,1775738777.507744,0.000000
70.000000,16481.103478,18950.814778,-14218.034055,407.181729,-14583.909760,-2311.148025,1241.527646,-2132.445828,11689.917647,16500.527144,-2630.733267,2630.420343,-18401.095975,17887.698756,1916.192700,-462.077613,0.006766,-0.014672,1.006547,192.000000,0.000000,32.000000,127.500000,64.000000,15.500000,56.000000,0.000000,0.000000,0.000000,1775738777.507757,0.000000
72.000000,16496.526181,18964.494045,-14198.297465,414.915432,-14560.105152,-2293.892478,1248.590797,-2123.102799,11750.200301,16509.780766,-2649.799305,2631.381468,-18422.888925,17890.760945,2056.941635,-204.473758,0.006766,-0.014672,1.006547,192.000000,0.000000,0.000000,0.000000,0.000000,0.000000,0.000000,0.000000,0.000000,0.000000,1775738777.507769,0.000000
74.000000,16506.383301,18964.628156,-14179.276130,422.000935,-14541.799073,-2287.633990,1249.753088,-2111.658706,11726.261583,16515.323998,-2613.544776,2637.304680,-18371.032878,17898.561704,1909.844805,-488.989113,0.006766,-0.014672,1.006547,192.000000,0.000000,0.000000,0.000000,0.000000,0.000000,0.000000,0.000000,0.000000,0.000000,1775738777.987743,0.000000
76.000000,16480.343518,18948.423141,-14216.804709,400.096226,-14572.756240,-2299.122786,1237.638442,-2139.129000,11736.655144,16498.806059,-2640.143352,2626.128808,-18397.139716,17891.811477,2034.142856,-252.306491,0.006766,-0.014672,1.006547,192.000000,0.000000,0.000000,0.000000,0.000000,0.000000,0.000000,0.000000,0.000000,0.000000,1775738777.987807,0.000000
78.000000,16496.615588,18955.441589,-14182.695947,423.476150,-14549.309260,-2292.640781,1251.764745,-2117.045476,11745.238214,16513.826431,-2637.952881,2629.235700,-18399.441945,17897.622931,1987.025379,-337.913673,0.006766,-0.014672,1.006547,192.000000,0.000000,0.000000,0.000000,0.000000,0.000000,0.000000,0.000000,0.000000,0.000000,1775738777.987871,0.000000
80.000000,16468.854722,18933.939211,-14218.101110,398.956287,-14583.060394,-2313.159682,1237.616090,-2141.185360,11697.964275,16499.677777,-2632.767276,2625.681773,-18387.506114,17889.017509,1919.120779,-462.837572,0.007383,-0.014336,1.006273,192.000000,0.000000,32.000000,127.500000,72.000000,15.500000,56.000000,0.000000,0.000000,0.000000,1775738777.987937,0.000000
82.000000,16477.169571,18941.382342,-14208.847488,407.829929,-14579.953501,-2313.226737,1245.260387,-2135.306851,11744.210034,16500.035405,-2660.103459,2621.189072,-18423.984161,17886.938797,2041.183655,-219.963517,0.007383,-0.014336,1.006273,192.000000,0.000000,0.000000,0.000000,0.000000,0.000000,0.000000,0.000000,0.000000,0.000000,1775738777.987988,0.000000
84.000000,16478.443620,18938.051932,-14194.207095,414.893081,-14570.699879,-2319.574633,1246.869713,-2126.164988,11703.283990,16500.773013,-2629.928604,2626.240567,-18389.249550,17889.486896,1884.564982,-511.206747,0.007383,-0.014336,1.006273,192.000000,0.000000,0.000000,0.000000,0.000000,0.000000,0.000000,0.000000,0.000000,0.000000,1775738777.988011,0.000000
86.000000,16474.710879,18946.411484,-14222.459700,402.778435,-14594.772708,-2319.775798,1241.617053,-2138.301985,11724.875775,16494.738042,-2649.754602,2621.010258,-18409.723748,17885.888265,2006.650210,-280.022655,0.007383,-0.014336,1.006273,192.000000,0.000000,0.000000,0.000000,0.000000,0.000000,0.000000,0.000000,0.000000,0.000000,1775738777.988034,0.000000
88.000000,16493.665158,18961.364801,-14184.394680,429.242901,-14569.425830,-2306.454159,1255.609245,-2112.150444,11739.806740,16517.000379,-2637.125866,2634.644822,-18409.097899,17900.573361,1962.997253,-359.974844,0.007383,-0.014336,1.006273,192.000000,0.000000,0.000000,0.000000,0.000000,0.000000,0.000000,0.000000,0.000000,0.000000,1775738777.988056,0.000000
90.000000,16478.868303,18957.877929,-14215.553011,411.897947,-14592.425775,-2310.119845,1245.349794,-2124.354497,11703.663969,16512.775900,-2623.848930,2636.857645,-18398.346710,17901.020396,1902.915764,-475.488660,0.007383,-0.014336,1.006273,192.000000,0.000000,0.000000,0.000000,0.000000,0.000000,0.000000,0.000000,0.000000,0.000000,1775738777.988087,0.000000
92.000000,16480.634091,18959.397848,-14206.522907,419.832816,-14584.490905,-2306.163586,1252.569408,-2121.024087,11748.792142,16518.229725,-2649.151105,2639.539854,-18435.115330,17903.389681,2038.814370,-219.002392,0.006000,-0.016000,1.002000,192.000000,0.000000,24.000000,127.500000,64.000000,15.500000,40.000000,0.000000,0.000000,0.000000,1775738777.988110,0.000000
94.000000,16485.573827,18954.972202,-14191.882514,428.281776,-14564.061411,-2302.207327,1251.921207,-2114.005639,11701.831126,16518.743815,-2625.435904,2637.639956,-18396.983254,17904.999006,1901.775825,-501.461387,0.006000,-0.016000,1.002000,192.000000,0.000000,0.000000,0.000000,0.000000,0.000000,0.000000,0.000000,0.000000,0.000000,1775738777.988132,0.000000
96.000000,16477.147219,18951.910013,-14225.656000,405.147720,-14588.916551,-2306.364752,1240.052431,-2135.128037,11721.724179,16507.366777,-2646.915930,2630.152122,-18423.939457,17896.013605,2023.324612,-262.789460,0.006000,-0.016000,1.002000,192.000000,0.000000,0.000000,0.000000,0.000000,0.000000,0.000000,0.000000,0.000000,0.000000,1775738777.988153,0.000000
98.000000,16487.987815,18954.011077,-14191.279017,424.370220,-14560.082800,-2294.004237,1250.244826,-2115.659668,11734.732894,16518.095615,-2640.232759,2635.449485,-18417.904486,17897.846448,1984.387873,-339.411240,0.006000,-0.016000,1.002000,192.000000,0.000000,0.000000,0.000000,0.000000,0.000000,0.000000,0.000000,0.000000,0.000000,1775738777.988175,0.000000
100.000000,16479.650614,18951.127702,-14223.554936,405.058313,-14579.059431,-2298.407531,1235.135047,-2131.663517,11695.818507,16509.892524,-2629.794494,2634.868340,-18395.642149,17896.728861,1916.863253,-450.633520,0.006000,-0.016000,1.002000,192.000000,0.000000,0.000000,0.000000,0.000000,0.000000,0.000000,0.000000,0.000000,0.000000,1775738777.988197,0.000000
102.000000,16488.971292,18958.079095,-14211.328532,411.383857,-14574.410269,-2296.574688,1244.455724,-2123.125151,11749.641508,16514.586391,-2655.051965,2632.208482,-18430.242649,17895.320701,2047.956234,-200.495148,0.006000,-0.010000,1.006000,192.000000,0.000000,24.000000,127.500000,88.000000,15.500000,56.000000,0.000000,0.000000,0.000000,1775738777.988219,0.000000
104.000000,16497.911989,18956.469769,-14194.140040,416.971793,-14557.668812,-2294.339513,1246.690899,-2112.619831,11714.906897,16515.681626,-2622.105494,2637.863474,-18390.411841,17897.622931,1895.562040,-491.783082,0.006000,-0.010000,1.006000,192.000000,0.000000,0.000000,0.000000,0.000000,0.000000,0.000000,0.000000,0.000000,0.000000,1775738777.988241,0.000000
106.000000,16477.504847,18949.183100,-14225.231317,395.871746,-14586.815487,-2307.012952,1238.465457,-2135.373907,11728.966144,16499.320149,-2647.474724,2626.777008,-18420.698454,17886.357652,2016.529681,-262.208314,0.006000,-0.010000,1.006000,192.000000,0.000000,0.000000,0.000000,0.000000,0.000000,0.000000,0.000000,0.000000,0.000000,1775738777.988252,0.000000
108.000000,16506.137431,18964.471694,-14181.824229,421.240976,-14561.423905,-2299.011028,1254.379899,-2106.070770,11742.265432,16515.033426,-2636.164741,2632.879035,-18409.544934,17895.745384,1976.140079,-348.597807,0.006000,-0.010000,1.006000,192.000000,0.000000,0.000000,0.000000,0.000000,0.000000,0.000000,0.000000,0.000000,0.000000,1775738777.988265,0.000000
110.000000,16490.647672,18956.201548,-14211.708511,405.326534,-14589.073013,-2309.270478,1243.293434,-2124.287441,11708.581353,16511.211277,-2617.791607,2637.327032,-18386.790858,17898.762870,1910.738875,-468.537267,0.006000,-0.010000,1.006000,192.000000,0.000000,0.000000,0.000000,0.000000,0.000000,0.000000,0.000000,0.000000,0.000000,1775738777.988278,0.000000
112.000000,16510.250152,18976.474580,-14195.302331,423.520854,-14573.762068,-2292.797243,1255.966873,-2110.116435,11761.823209,16520.487251,-2640.433924,2641.551511,-18421.637228,17908.195306,2042.010670,-216.610756,0.012000,-0.014000,1.000000,192.000000,0.000000,48.000000,127.500000,72.000000,15.500000,32.000000,0.000000,0.000000,0.000000,1775738777.988289,0.000000
114.000000,16507.523240,18968.539711,-14176.996252,429.756991,-14556.774742,-2300.508595,1257.822067,-2102.718008,11729.837862,16534.188871,-2606.593383,2650.291044,-18372.910425,17920.108786,1903.407503,-504.568279,0.012000,-0.014000,1.000000,192.000000,0.000000,0.000000,0.000000,0.000000,0.000000,0.000000,0.000000,0.000000,0.000000,1775738777.988300,0.000000
116.000000,16491.787611,18963.644679,-14212.848450,411.070932,-14581.875751,-2302.363789,1249.238998,-2122.432246,11733.570604,16515.882792,-2635.628299,2640.456276,-18398.212600,17906.496573,2034.299318,-273.250076,0.012000,-0.014000,1.000000,192.000000,0.000000,0.000000,0.000000,0.000000,0.000000,0.000000,0.000000,0.000000,0.000000,1775738777.988312,0.000000
118.000000,16518.632057,18979.000327,-14172.011813,439.144723,-14539.228623,-2282.940123,1264.549943,-2094.760787,11753.575415,16534.948830,-2626.642898,2650.648671,-18407.935608,17919.102957,1991.652190,-347.703737,0.012000,-0.014000,1.000000,192.000000,0.000000,0.000000,0.000000,0.000000,0.000000,0.000000,0.000000,0.000000,0.000000,1775738777.988323,0.000000
120.000000,16502.047062,18967.265662,-14203.326607,415.876557,-14560.038097,-2291.120862,1247.808486,-2115.458502,11717.879679,16525.941077,-2609.655572,2649.084049,-18380.577073,17915.973713,1932.062439,-456.176753,0.012000,-0.014000,1.000000,192.000000,0.000000,0.000000,0.000000,0.000000,0.000000,0.000000,0.000000,0.000000,0.000000,1775738777.988334,0.000000
122.000000,16506.830335,18969.791409,-14194.162392,422.827950,-14555.254824,-2284.996484,1252.211780,-2115.637316,11766.405316,16527.460996,-2638.399916,2640.858607,-18412.897696,17909.715224,2070.375034,-200.450444,0.004000,-0.012000,1.006000,192.000000,0.000000,16.000000,127.500000,80.000000,15.500000,56.000000,0.000000,0.000000,0.000000,1775738777.988346,0.000000
124.000000,16511.434795,18964.695211,-14180.192552,428.125313,-14544.682448,-2287.790452,1250.110716,-2110.786988,11726.306287,16530.232612,-2609.677924,2644.904273,-18373.133942,17916.778376,1917.042067,-485.926924,0.004000,-0.012000,1.006000,192.000000,0.000000,0.000000,0.000000,0.000000,0.000000,0.000000,0.000000,0.000000,0.000000,1775738777.988358,0.000000
126.000000,16506.673873,18971.758362,-14214.256610,411.115636,-14569.515237,-2290.405606,1242.667585,-2126.813188,11741.013734,16517.581525,-2637.081163,2635.158913,-18403.442908,17907.412995,2033.025269,-249.825448,0.004000,-0.012000,1.006000,192.000000,0.000000,0.000000,0.000000,0.000000,0.000000,0.000000,0.000000,0.000000,0.000000,1775738777.988369,0.000000
128.000000,16524.197641,18979.961452,-14174.895188,433.445028,-14545.330649,-2283.364807,1258.805544,-2099.722874,11757.241101,16538.368647,-2624.340668,2650.827485,-18391.842352,17919.594696,1985.348998,-330.470542,0.004000,-0.012000,1.006000,192.000000,0.000000,0.000000,0.000000,0.000000,0.000000,0.000000,0.000000,0.000000,0.000000,1775738777.988380,0.000000
130.000000,16507.970274,18969.858464,-14206.232334,412.143816,-14572.756240,-2296.373522,1244.209855,-2116.956069,11712.761129,16526.276353,-2614.438845,2648.614663,-18380.465314,17915.996065,1925.826302,-451.527590,0.004000,-0.012000,1.006000,192.000000,0.000000,0.000000,0.000000,0.000000,0.000000,0.000000,0.000000,0.000000,0.000000,1775738777.988392,0.000000
132.000000,16517.492118,18976.742801,-14192.307197,421.553900,-14571.683356,-2299.256897,1254.983396,-2105.467272,11766.047688,16531.707827,-2634.242491,2648.681718,-18402.258265,17917.761852,2055.265254,-204.362000,0.004000,-0.016000,1.004000,192.000000,0.000000,16.000000,127.500000,64.000000,15.500000,48.000000,0.000000,0.000000,0.000000,1775738777.988403,0.000000
134.000000,16516.598048,18968.115028,-14176.571569,426.672450,-14565.022536,-2309.426941,1257.620902,-2100.639296,11724.987534,16529.830281,-2603.710008,2650.626320,-18379.012451,17917.471280,1900.524128,-495.828747,0.004000,-0.016000,1.004000,192.000000,0.000000,0.000000,0.000000,0.000000,0.000000,0.000000,0.000000,0.000000,0.000000,1775738777.988414,0.000000
136.000000,16508.327902,18972.943005,-14207.260514,411.361505,-14585.429679,-2308.488167,1250.378937,-2117.336049,11742.131322,16513.558211,-2628.855721,2638.310509,-18414.462318,17904.484916,2021.268251,-271.864268,0.004000,-0.016000,1.004000,192.000000,0.000000,0.000000,0.000000,0.000000,0.000000,0.000000,0.000000,0.000000,0.000000,1775738777.988425,0.000000
138.000000,16523.728254,18981.660185,-14168.614348,434.473209,-14560.999222,-2302.453196,1264.035852,-2091.855060,11759.163351,16533.384208,-2616.785779,2652.146238,-18399.173725,17914.945533,1983.091472,-355.102164,0.004000,-0.016000,1.004000,192.000000,0.000000,0.000000,0.000000,0.000000,0.000000,0.000000,0.000000,0.000000,0.000000,1775738777.988437,0.000000
140.000000,16506.807984,18971.646604,-14201.471412,414.893081,-14583.909760,-2309.426941,1249.261349,-2110.719932,11714.504566,16526.812795,-2605.878127,2652.593273,-18385.203884,17911.324550,1922.473541,-471.845325,0.004000,-0.016000,1.004000,192.000000,0.000000,0.000000,0.000000,0.000000,0.000000,0.000000,0.000000,0.000000,0.000000,1775738777.988449,0.000000
142.000000,16516.821565,18983.738897,-14194.810593,426.605395,-14574.410269,-2298.631048,1257.017405,-2103.567374,11761.107953,16530.366722,-2637.215273,2649.531084,-18421.190193,17913.827945,2060.383804,-216.119017,0.002000,-0.014000,1.006000,192.000000,0.000000,8.000000,127.500000,72.000000,15.500000,56.000000,0.000000,0.000000,0.000000,1775738777.988460,0.000000
144.000000,16516.285123,18975.826380,-14181.019566,431.656889,-14561.826236,-2295.054769,1258.336158,-2097.063017,11721.791234,16538.279240,-2608.336819,2655.320186,-18375.994966,17924.802652,1901.820529,-497.683942,0.002000,-0.014000,1.006000,192.000000,0.000000,0.000000,0.000000,0.000000,0.000000,0.000000,0.000000,0.000000,0.000000,1775738777.988471,0.000000
146.000000,16501.555324,18973.166522,-14214.524831,412.009706,-14579.238245,-2293.624257,1245.841532,-2122.432246,11735.738723,16519.593182,-2635.516540,2639.137523,-18410.908390,17914.431443,2033.584062,-261.694224,0.002000,-0.014000,1.006000,192.000000,0.000000,0.000000,0.000000,0.000000,0.000000,0.000000,0.000000,0.000000,0.000000,1775738777.988482,0.000000
148.000000,16525.069359,18982.911883,-14172.347089,437.490694,-14543.520158,-2275.429937,1259.856076,-2099.879336,11761.644395,16539.910917,-2622.396066,2646.424192,-18395.552742,17931.195251,1992.635666,-333.264510,0.002000,-0.014000,1.006000,192.000000,0.000000,0.000000,0.000000,0.000000,0.000000,0.000000,0.000000,0.000000,0.000000,1775738777.988493,0.000000
150.000000,16507.120908,18973.904130,-14204.600657,414.937784,-14558.138199,-2284.124766,1243.338137,-2121.046438,11722.662952,16528.913859,-2611.309601,2643.697279,-18378.163085,17927.395454,1927.435628,-445.872598,0.002000,-0.014000,1.006000,192.000000,0.000000,0.000000,0.000000,0.000000,0.000000,0.000000,0.000000,0.000000,0.000000,1775738777.988504,0.000000
152.000000,16514.944019,18981.146095,-14195.682311,422.716191,-14551.969117,-2282.157812,1251.273006,-2111.166967,11772.864970,16533.004228,-2636.812942,2643.116134,-18409.299065,17927.373103,2059.176810,-193.610810,0.010000,-0.016000,1.006000,192.000000,0.000000,40.000000,127.500000,64.000000,15.500000,56.000000,0.000000,0.000000,0.000000,1775738777.988515,0.000000
154.000000,16520.554307,18978.352127,-14181.444249,428.862921,-14550.113922,-2281.397853,1252.927035,-2100.415778,11732.989458,16536.267583,-2607.666267,2649.821657,-18373.424515,17928.870669,1896.925497,-485.658704,0.010000,-0.016000,1.006000,192.000000,0.000000,0.000000,0.000000,0.000000,0.000000,0.000000,0.000000,0.000000,0.000000,1775738777.988528,0.000000
156.000000,16504.081071,18970.350202,-14214.055444,409.796883,-14581.048737,-2290.249144,1244.120448,-2121.582880,11752.591938,16525.181118,-2628.498093,2639.808075,-18399.173725,17922.612181,2016.216757,-259.056718,0.010000,-0.016000,1.006000,192.000000,0.000000,0.000000,0.000000,0.000000,0.000000,0.000000,0.000000,0.000000,0.000000,1775738777.988539,0.000000
158.000000,16527.729217,18983.068345,-14169.217845,436.462514,-14550.113922,-2285.555278,1263.097079,-2093.442034,11766.852351,16538.793330,-2617.076351,2645.373660,-18397.229123,17930.278829,1975.111899,-343.479257,0.010000,-0.016000,1.006000,192.000000,0.000000,0.000000,0.000000,0.000000,0.000000,0.000000,0.000000,0.000000,0.000000,1775738777.988550,0.000000
160.000000,16517.760339,18975.893435,-14195.481145,418.357601,-14572.018632,-2298.966324,1251.854152,-2107.724799,11730.977801,16530.791406,-2600.290191,2646.245378,-18373.133942,17927.529565,1916.036238,-467.151459,0.010000,-0.016000,1.006000,192.000000,0.000000,0.000000,0.000000,0.000000,0.000000,0.000000,0.000000,0.000000,0.000000,1775738777.988562,0.000000
162.000000,16527.662161,18988.790392,-14184.171162,426.828912,-14571.526894,-2297.736978,1260.414870,-2099.968743,11783.794973,16540.357952,-2621.613755,2652.079183,-18403.711129,17932.804576,2048.291510,-216.297831,0.008000,-0.019000,1.010000,192.000000,0.000000,24.000000,127.500000,40.000000,15.500000,88.000000,0.000000,0.000000,0.000000,1775738777.988572,0.000000
164.000000,16522.878888,18979.760287,-14170.223674,431.478075,-14564.799018,-2303.280211,1260.928960,-2091.966819,11738.085656,16543.643659,-2594.255220,2657.778878,-18372.798666,17932.871632,1895.517337,-509.686829,0.008000,-0.019000,1.010000,192.000000,0.000000,0.000000,0.000000,0.000000,0.000000,0.000000,0.000000,0.000000,0.000000,1775738777.988590,0.000000
166.000000,16498.806059,18966.483351,-14207.640494,406.108845,-14586.055527,-2315.864243,1247.495562,-2117.403104,11742.019563,16523.124757,-2624.206558,2644.993680,-18407.130946,17918.812384,2021.514120,-283.978913,0.008000,-0.019000,1.010000,192.000000,0.000000,0.000000,0.000000,0.000000,0.000000,0.000000,0.000000,0.000000,0.000000,1775738777.988603,0.000000
168.000000,16510.250152,18971.065458,-14169.195493,428.080610,-14557.288832,-2306.185938,1260.548980,-2095.073711,11748.009830,16530.076150,-2621.591404,2646.357137,-18402.302969,17919.170012,1987.248896,-356.823248,0.008000,-0.019000,1.010000,192.000000,0.000000,0.000000,0.000000,0.000000,0.000000,0.000000,0.000000,0.000000,0.000000,1775738777.988615,0.000000
170.000000,16487.674890,18957.162673,-14203.058386,406.466473,-14575.483152,-2309.493996,1242.287605,-2121.873453,11705.742682,16515.681626,-2613.991811,2641.283291,-18385.092126,17914.632608,1933.068267,-471.554753,0.008000,-0.019000,1.010000,192.000000,0.000000,0.000000,0.000000,0.000000,0.000000,0.000000,0.000000,0.000000,0.000000,1775738777.988626,0.000000
172.000000,16506.293894,18973.390040,-14195.436441,419.251671,-14571.348080,-2294.518327,1247.607320,-2115.324392,11758.425743,16525.248173,-2642.356174,2639.830427,-18430.667332,17917.136004,2067.648121,-211.402799,0.008000,-0.022500,1.013000,192.000000,0.000000,32.000000,127.500000,24.000000,15.500000,96.000000,0.000000,0.000000,0.000000,1775738777.988637,0.000000
174.000000,16515.234591,18977.391002,-14181.623063,430.405191,-14552.393800,-2286.471699,1249.931902,-2103.857947,11728.787330,16537.698095,-2609.610869,2649.352270,-18383.125172,17929.161242,1905.441511,-489.480852,0.008000,-0.022500,1.013000,192.000000,0.000000,0.000000,0.000000,0.000000,0.000000,0.000000,0.000000,0.000000,0.000000,1775738777.988648,0.000000
176.000000,16498.046100,18969.992574,-14218.682256,410.132159,-14580.981681,-2293.780719,1239.985375,-2126.187340,11741.863101,16525.874022,-2634.756581,2640.322166,-18407.846201,17923.305085,2017.289641,-252.842933,0.008000,-0.022500,1.013000,192.000000,0.000000,0.000000,0.000000,0.000000,0.000000,0.000000,0.000000,0.000000,0.000000,1775738777.988660,0.000000
178.000000,16518.833222,18981.481371,-14177.331528,435.188465,-14550.426847,-2279.296789,1256.190390,-2097.979438,11754.000098,16540.402656,-2625.458255,2646.804171,-18404.359329,17933.273963,1975.782451,-330.783466,0.008000,-0.022500,1.013000,192.000000,0.000000,0.000000,0.000000,0.000000,0.000000,0.000000,0.000000,0.000000,0.000000,1775738777.988672,0.000000
180.000000,16496.235609,18965.857502,-14205.494726,412.724961,-14567.570635,-2298.005199,1243.449896,-2118.319526,11714.482214,16530.724350,-2610.259069,2644.636052,-18390.478896,17930.055312,1909.598936,-450.208837,0.008000,-0.022500,1.013000,192.000000,0.000000,0.000000,0.000000,0.000000,0.000000,0.000000,0.000000,0.000000,0.000000,1775738777.988683,0.000000
182.000000,16513.178231,18980.497894,-14191.167258,420.279851,-14564.150818,-2298.407531,1253.441126,-2106.383694,11766.494723,16533.540670,-2632.655517,2642.669099,-18419.402053,17928.401283,2055.242903,-206.194843,0.008000,-0.021250,1.011500,192.000000,0.000000,32.000000,127.500000,48.000000,15.500000,72.000000,0.000000,0.000000,0.000000,1775738777.988694,0.000000
184.000000,16514.608743,18975.088772,-14176.728031,426.515988,-14559.926338,-2311.483301,1254.089326,-2098.582935,11731.134263,16539.665048,-2600.111377,2650.671023,-18378.744230,17931.508175,1893.595087,-497.281611,0.008000,-0.021250,1.011500,192.000000,0.000000,0.000000,0.000000,0.000000,0.000000,0.000000,0.000000,0.000000,0.000000,1775738777.988705,0.000000
186.000000,16505.064548,18974.597034,-14208.311046,405.907679,-14589.542400,-2329.521159,1245.014518,-2118.520691,11742.354839,16519.794347,-2628.319279,2635.337727,-18409.679044,17916.353693,2018.630745,-273.607704,0.008000,-0.021250,1.011500,192.000000,0.000000,0.000000,0.000000,0.000000,0.000000,0.000000,0.000000,0.000000,0.000000,1775738777.988719,0.000000
188.000000,16524.376455,18989.975034,-14170.737764,430.919281,-14565.603681,-2324.849644,1259.185524,-2090.625714,11762.449057,16540.000324,-2615.221157,2649.687546,-18400.917161,17923.908582,1976.922390,-354.923350,0.008000,-0.021250,1.011500,192.000000,0.000000,0.000000,0.000000,0.000000,0.000000,0.000000,0.000000,0.000000,0.000000,1775738777.988730,0.000000
190.000000,16497.800231,18972.451266,-14206.366444,406.131197,-14592.202257,-2342.284005,1243.248730,-2111.815168,11713.431682,16526.097539,-2607.263935,2651.743907,-18390.970634,17919.393530,1908.816625,-481.300113,0.008000,-0.021250,1.011500,192.000000,0.000000,0.000000,0.000000,0.000000,0.000000,0.000000,0.000000,0.000000,0.000000,1775738777.988741,0.000000
192.000000,16509.333731,18981.660185,-14196.621084,416.144778,-14581.674586,-2325.497845,1249.909550,-2107.076598,11752.658993,16525.002304,-2640.009241,2644.837218,-18431.159071,17917.851259,2053.253597,-225.998488,0.009000,-0.019625,1.013750,192.000000,0.000000,40.000000,127.500000,56.000000,15.500000,96.000000,0.000000,0.000000,0.000000,1775738777.988752,0.000000
194.000000,16511.792423,18979.693232,-14185.914598,426.806560,-14570.766934,-2324.424961,1250.870675,-2102.069807,11719.310191,16537.899260,-2609.946145,2651.363927,-18378.833637,17929.429463,1898.914802,-507.094026,0.009000,-0.019625,1.013750,192.000000,0.000000,0.000000,0.000000,0.000000,0.000000,0.000000,0.000000,0.000000,0.000000,1775738778.468207,0.000000
196.000000,16487.227856,18965.410467,-14226.371256,404.812444,-14598.170173,-2333.164493,1237.057297,-2132.356421,11724.071112,16515.055777,-2642.870264,2636.857645,-18428.387455,17918.141832,2013.936879,-270.724329,0.009000,-0.019625,1.013750,192.000000,0.000000,0.000000,0.000000,0.000000,0.000000,0.000000,0.000000,0.000000,0.000000,1775738778.468264,0.000000
198.000000,16516.821565,18984.521208,-14183.120630,433.802656,-14557.758219,-2316.087760,1253.351719,-2101.667476,11739.136188,16527.997437,-2634.756581,2643.809038,-18424.744120,17926.210812,1984.030245,-341.244083,0.009000,-0.019625,1.013750,192.000000,0.000000,0.000000,0.000000,0.000000,0.000000,0.000000,0.000000,0.000000,0.000000,1775738778.468307,0.000000
200.000000,16492.838143,18969.143208,-14215.798881,416.748275,-14586.301397,-2323.888519,1241.259425,-2115.972592,11702.009940,16522.364798,-2617.009296,2649.106401,-18400.760698,17929.652981,1915.142168,-453.762764,0.009000,-0.019625,1.013750,192.000000,0.000000,0.000000,0.000000,0.000000,0.000000,0.000000,0.000000,0.000000,0.000000,1775738778.468350,0.000000
202.000000,16506.942094,18984.029470,-14199.303293,429.444066,-14570.141085,-2311.863281,1253.619940,-2102.270973,11750.267357,16526.566926,-2642.691450,2648.234683,-18433.595411,17931.195251,2045.318728,-195.130729,0.007500,-0.020812,1.012875,192.000000,0.000000,24.000000,127.500000,40.000000,15.500000,80.000000,0.000000,0.000000,0.000000,1775738778.468393,0.000000
204.000000,16509.333731,18978.218016,-14180.863104,432.550959,-14550.292736,-2311.595060,1254.111678,-2095.408987,11719.243135,16531.841938,-2608.672095,2652.213294,-18386.544989,17935.576193,1897.104311,-481.970666,0.007500,-0.020812,1.012875,192.000000,0.000000,0.000000,0.000000,0.000000,0.000000,0.000000,0.000000,0.000000,0.000000,1775738778.468436,0.000000
206.000000,16493.933379,18974.552330,-14213.250782,410.668601,-14577.852437,-2319.172301,1244.276910,-2117.872491,11731.357781,16513.848783,-2634.845988,2639.472799,-18410.953094,17923.528603,2022.408190,-254.564018,0.007500,-0.020812,1.012875,192.000000,0.000000,0.000000,0.000000,0.000000,0.000000,0.000000,0.000000,0.000000,0.000000,1775738778.468472,0.000000
208.000000,16516.016902,18988.768040,-14173.665842,435.054354,-14551.477379,-2311.662115,1258.246751,-2093.442034,11744.724124,16532.892470,-2626.329973,2647.586482,-18403.353501,17935.352675,1977.592942,-335.499684,0.007500,-0.020812,1.012875,192.000000,0.000000,0.000000,0.000000,0.000000,0.000000,0.000000,0.000000,0.000000,0.000000,1775738778.468484,0.000000
210.000000,16500.102460,18981.727240,-14207.707549,413.015534,-14575.281987,-2330.661098,1242.824047,-2114.989116,11706.569696,16525.695208,-2612.181319,2650.849837,-18385.025070,17932.961039,1913.532843,-464.268084,0.007500,-0.020812,1.012875,192.000000,0.000000,0.000000,0.000000,0.000000,0.000000,0.000000,0.000000,0.000000,0.000000,1775738778.468496,0.000000
212.000000,16511.479498,18993.551313,-14199.817383,422.738543,-14580.288777,-2331.264595,1251.116544,-2108.283592,11753.731877,16528.645638,-2641.573863,2649.799305,-18419.245591,17933.273963,2041.138952,-216.051962,0.007750,-0.019406,1.007437,192.000000,0.000000,32.000000,127.500000,56.000000,15.500000,40.000000,0.000000,0.000000,0.000000,1775738778.468509,0.000000
214.000000,16507.925571,18982.040165,-14186.272226,426.091305,-14573.873827,-2340.249996,1252.167076,-2101.779235,11712.358798,16532.601897,-2614.260031,2652.168590,-18391.305911,17933.810405,1891.829299,-510.491492,0.007750,-0.019406,1.007437,192.000000,0.000000,0.000000,0.000000,0.000000,0.000000,0.000000,0.000000,0.000000,0.000000,1775738778.468521,0.000000
216.000000,16494.916856,18975.535807,-14221.208003,403.963078,-14602.662874,-2343.781572,1238.867788,-2128.087238,11717.946734,16509.892524,-2645.485418,2634.868340,-18431.471995,17918.924143,2017.759027,-285.409425,0.007750,-0.019406,1.007437,192.000000,0.000000,0.000000,0.000000,0.000000,0.000000,0.000000,0.000000,0.000000,0.000000,1775738778.468533,0.000000
218.000000,16518.117966,18990.019737,-14180.237255,434.227340,-14566.520103,-2318.278231,1254.201085,-2101.756883,11742.131322,16532.803063,-2632.476703,2645.731288,-18412.763585,17932.514004,1972.988483,-357.471449,0.007750,-0.019406,1.007437,192.000000,0.000000,0.000000,0.000000,0.000000,0.000000,0.000000,0.000000,0.000000,0.000000,1775738778.468553,0.000000
220.000000,16493.732213,18970.417258,-14214.614238,410.087456,-14588.335405,-2329.185883,1235.827951,-2129.182473,11695.818507,16523.236516,-2622.083142,2644.256073,-18395.038652,17930.681161,1912.370552,-468.112584,0.007750,-0.019406,1.007437,192.000000,0.000000,0.000000,0.000000,0.000000,0.000000,0.000000,0.000000,0.000000,0.000000,1775738778.468565,0.000000
222.000000,16508.864344,18986.041127,-14204.041863,423.051467,-14577.673623,-2308.264650,1245.997995,-2119.682982,11742.466598,16524.376455,-2652.168590,2639.361041,-18431.583754,17929.809443,2052.627749,-208.944107,0.007875,-0.017703,1.002719,192.000000,0.000000,32.000000,127.500000,64.000000,15.500000,24.000000,0.000000,0.000000,0.000000,1775738778.468577,0.000000
224.000000,16508.417309,18976.742801,-14189.490877,429.086438,-14569.425830,-2308.175243,1246.400326,-2115.592613,11709.698940,16534.613554,-2620.697334,2645.328956,-18386.813210,17942.326420,1894.332694,-487.111567,0.007875,-0.017703,1.002719,192.000000,0.000000,0.000000,0.000000,0.000000,0.000000,0.000000,0.000000,0.000000,0.000000,1775738778.468589,0.000000
226.000000,16488.814829,18962.929423,-14224.404302,406.846453,-14587.731908,-2316.512444,1235.067992,-2137.206750,11712.649371,16509.534897,-2651.587445,2626.799360,-18418.217411,17927.887193,2020.038905,-251.613587,0.007875,-0.017703,1.002719,192.000000,0.000000,0.000000,0.000000,0.000000,0.000000,0.000000,0.000000,0.000000,0.000000,1775738778.468601,0.000000
228.000000,16511.904181,18974.865255,-14182.405374,431.187502,-14551.142103,-2302.788473,1251.205951,-2104.595554,11733.458845,16527.125719,-2639.316337,2634.197788,-18401.900637,17938.012533,1977.145908,-324.323812,0.007875,-0.017703,1.002719,192.000000,0.000000,0.000000,0.000000,0.000000,0.000000,0.000000,0.000000,0.000000,0.000000,1775738778.468613,0.000000
230.000000,16492.569923,18959.867234,-14213.295485,404.119540,-14574.164399,-2325.028458,1235.649137,-2124.376848,11695.147955,16511.703016,-2623.647764,2634.845988,-18391.708242,17929.183594,1913.264622,-451.572293,0.007875,-0.017703,1.002719,192.000000,0.000000,0.000000,0.000000,0.000000,0.000000,0.000000,0.000000,0.000000,0.000000,1775738778.468625,0.000000
232.000000,16506.629170,18976.228711,-14198.945665,413.663735,-14565.782495,-2324.335554,1245.483905,-2114.050342,11749.999136,16515.212240,-2649.754602,2632.968442,-18427.806309,17922.008684,2054.460592,-207.826520,0.007875,-0.017703,1.002719,192.000000,0.000000,0.000000,0.000000,0.000000,0.000000,0.000000,0.000000,0.000000,0.000000,1775738778.468637,0.000000
234.000000,16516.575696,18977.078077,-14181.399546,422.470322,-14559.121675,-2326.123694,1249.641329,-2101.287496,11718.013789,16529.807929,-2612.807168,2647.050041,-18382.231102,17931.821100,1898.825395,-501.684904,0.010000,-0.018000,0.998000,192.000000,0.000000,40.000000,127.500000,56.000000,15.500000,24.000000,0.000000,0.000000,0.000000,1775738778.468650,0.000000
236.000000,16499.029577,18974.284109,-14216.469433,404.566575,-14591.509353,-2335.556130,1240.119486,-2124.980345,11729.390827,16516.486289,-2639.271634,2637.014107,-18415.199925,17922.992161,2019.122484,-281.386111,0.010000,-0.018000,0.998000,192.000000,0.000000,0.000000,0.000000,0.000000,0.000000,0.000000,0.000000,0.000000,0.000000,1775738778.468662,0.000000
238.000000,16527.662161,18990.712642,-14174.626967,433.601491,-14565.089591,-2324.044981,1256.726832,-2096.191299,11749.328583,16538.838034,-2629.213349,2646.670061,-18403.912294,17940.672391,1976.430652,-357.739670,0.010000,-0.018000,0.998000,192.000000,0.000000,0.000000,0.000000,0.000000,0.000000,0.000000,0.000000,0.000000,0.000000,1775738778.468674,0.000000
240.000000,16503.298760,18974.038240,-14208.668674,411.473264,-14589.207123,-2339.020650,1242.108791,-2112.083389,11707.642580,16530.076150,-2612.851872,2648.279387,-18391.820001,17935.240917,1907.654334,-480.026064,0.010000,-0.018000,0.998000,192.000000,0.000000,0.000000,0.000000,0.000000,0.000000,0.000000,0.000000,0.000000,0.000000,1775738778.468686,0.000000
242.000000,16521.224859,18991.338490,-14198.498630,421.352735,-14583.798001,-2326.995412,1248.881370,-2102.203918,11753.486008,16532.825414,-2639.316337,2648.145276,-18427.538088,17934.525661,2046.056336,-224.545625,0.010000,-0.018000,0.998000,192.000000,0.000000,0.000000,0.000000,0.000000,0.000000,0.000000,0.000000,0.000000,0.000000,1775738778.468698,0.000000
244.000000,16522.767129,18985.012947,-14182.070098,430.382839,-14562.295623,-2319.284060,1251.988262,-2094.224345,11725.345162,16540.089731,-2606.101645,2656.773049,-18383.393393,17946.617955,1891.225802,-503.249526,0.010000,-0.016000,1.002000,192.000000,0.000000,40.000000,127.500000,64.000000,15.500000,40.000000,0.000000,0.000000,0.000000,1775738778.468710,0.000000
246.000000,16500.236571,18973.211226,-14222.057369,409.014572,-14593.431603,-2323.799112,1238.644271,-2122.745171,11728.720275,16519.839051,-2636.812942,2640.500979,-18419.312646,17934.235088,2011.746408,-270.366701,0.010000,-0.016000,1.002000,192.000000,0.000000,0.000000,0.000000,0.000000,0.000000,0.000000,0.000000,0.000000,0.000000,1775738778.468722,0.000000
248.000000,16530.769054,18993.931293,-14182.114802,439.122372,-14557.534702,-2303.570784,1253.843457,-2096.236002,11745.573490,16539.039199,-2628.140465,2649.955767,-18410.483707,17947.579080,1973.279056,-338.494818,0.010000,-0.016000,1.002000,192.000000,0.000000,0.000000,0.000000,0.000000,0.000000,0.000000,0.000000,0.000000,0.000000,1775738778.468734,0.000000
250.000000,16511.904181,18978.843865,-14213.898982,410.936822,-14576.556036,-2316.266574,1235.850303,-2119.638278,11717.119720,16535.261754,-2614.818825,2648.771125,-18384.868608,17949.255460,1899.406540,-455.863828,0.010000,-0.016000,1.002000,192.000000,0.000000,0.000000,0.000000,0.000000,0.000000,0.000000,0.000000,0.000000,0.000000,1775738778.468748,0.000000
252.000000,16516.151013,18980.296729,-14200.510287,413.082589,-14576.109001,-2318.814673,1243.494599,-2109.244717,11754.760057,16524.018827,-2644.300776,2638.735192,-18430.063835,17936.514966,2047.665661,-201.635087,0.010000,-0.016000,1.002000,192.000000,0.000000,0.000000,0.000000,0.000000,0.000000,0.000000,0.000000,0.000000,0.000000,1775738778.468760,0.000000
254.000000,16525.136414,18979.782639,-14181.734822,419.296374,-14561.245091,-2322.010973,1246.422678,-2095.453691,11722.350028,16529.942039,-2607.800377,2647.519427,-18384.578035,17941.991143,1899.339485,-489.413797,0.014000,-0.016000,1.000000,192.000000,0.000000,56.000000,127.500000,64.000000,15.500000,32.000000,0.000000,0.000000,0.000000,1775738778.468772,0.000000
0.000000,16506.807984,18972.898301,-14217.922296,402.040828,-14586.167286,-2324.022630,1237.549035,-2121.359363,11734.487025,16512.284161,-2634.510712,2635.225968,-18402.884114,17930.211774,2017.759027,-266.946884,0.014000,-0.016000,1.000000,192.000000,0.000000,0.000000,0.000000,0.000000,0.000000,0.000000,0.000000,0.000000,0.000000,1775738778.468785,0.000000
2.000000,16525.270525,18983.425973,-14180.483124,427.946499,-14559.680469,-2310.343362,1250.624806,-2103.545022,11748.143941,16528.064493,-2628.498093,2642.155009,-18414.819946,17941.030018,1973.659035,-339.254777,0.014000,-0.016000,1.000000,192.000000,0.000000,0.000000,0.000000,0.000000,0.000000,0.000000,0.000000,0.000000,0.000000,1775738778.468797,0.000000
4.000000,16507.232667,18973.501798,-14211.417939,404.298354,-14581.428716,-2325.564900,1234.106867,-2130.523578,11706.837917,16520.710769,-2620.183244,2638.064639,-18391.685890,17938.191347,1908.347238,-467.732604,0.014000,-0.016000,1.000000,192.000000,0.000000,0.000000,0.000000,0.000000,0.000000,0.000000,0.000000,0.000000,0.000000,1775738778.468809,0.000000
6.000000,16519.548478,18988.119839,-14198.744500,414.334287,-14575.594911,-2321.206310,1243.472248,-2118.051305,11762.180836,16524.130586,-2646.535950,2636.812942,-18422.441891,17938.325457,2047.933882,-215.470817,0.014000,-0.016000,1.000000,192.000000,0.000000,0.000000,0.000000,0.000000,0.000000,0.000000,0.000000,0.000000,0.000000,1775738778.468820,0.000000
8.000000,16521.560135,18984.632967,-14181.086621,420.056334,-14567.123600,-2326.861301,1246.355623,-2100.326371,11720.316019,16528.511528,-2612.360133,2645.798343,-18381.582902,17941.611164,1893.170404,-506.132901,0.010000,-0.018000,1.006000,192.000000,0.000000,40.000000,127.500000,56.000000,15.500000,56.000000,0.000000,0.000000,0.000000,1775738778.468843,0.000000
10.000000,16514.407577,18985.236464,-14215.821232,402.867842,-14592.962216,-2334.416191,1238.443105,-2116.799607,11737.303345,16516.553344,-2632.499055,2639.338689,-18418.865611,17935.598545,2013.065161,-280.067358,0.010000,-0.018000,1.006000,192.000000,0.000000,0.000000,0.000000,0.000000,0.000000,0.000000,0.000000,0.000000,0.000000,1775738778.468855,0.000000
12.000000,16525.270525,18985.236464,-14181.891284,428.706459,-14568.263539,-2324.693182,1251.228303,-2101.399255,11746.244043,16529.450301,-2627.492264,2644.524293,-18412.651826,17943.511062,1976.162431,-354.565722,0.010000,-0.018000,1.006000,192.000000,0.000000,0.000000,0.000000,0.000000,0.000000,0.000000,0.000000,0.000000,0.000000,1775738778.468868,0.000000
14.000000,16504.081071,18972.339508,-14216.871764,411.249746,-14592.358719,-2331.711630,1235.492675,-2126.746133,11701.965237,16518.095615,-2622.552529,2639.361041,-18400.626588,17938.951306,1903.809834,-471.912381,0.010000,-0.018000,1.006000,192.000000,0.000000,0.000000,0.000000,0.000000,0.000000,0.000000,0.000000,0.000000,0.000000,1775738778.468880,0.000000
16.000000,16518.766167,18988.455115,-14205.137098,423.073819,-14583.127449,-2320.423999,1242.064088,-2119.660630,11758.112819,16525.337580,-2649.151105,2636.701183,-18430.376760,17942.169957,2038.344984,-210.106398,0.010000,-0.018000,1.006000,192.000000,0.000000,0.000000,0.000000,0.000000,0.000000,0.000000,0.000000,0.000000,0.000000,1775738778.468893,0.000000
18.000000,16521.157804,18988.723336,-14186.160467,432.349793,-14566.140123,-2312.131502,1244.813352,-2104.774368,11723.042932,16532.736007,-2615.958764,2647.877055,-18387.372003,17954.061085,1886.844860,-491.939544,0.012000,-0.020000,1.006000,192.000000,0.000000,48.000000,127.500000,48.000000,15.500000,56.000000,0.000000,0.000000,0.000000,1775738778.468904,0.000000
20.000000,16508.551420,18985.012947,-14219.486918,409.103979,-14589.095365,-2318.188824,1236.163227,-2122.342840,11736.342220,16518.296780,-2635.717706,2641.059773,-18414.864649,17946.908527,2004.951478,-261.984797,0.012000,-0.020000,1.006000,192.000000,0.000000,0.000000,0.000000,0.000000,0.000000,0.000000,0.000000,0.000000,0.000000,1775738778.468917,0.000000
22.000000,16531.819586,18997.574627,-14178.471467,431.299261,-14554.673678,-2306.878842,1251.652986,-2091.072749,11756.727011,16534.121815,-2623.133674,2647.765296,-18407.868553,17955.648059,1973.815498,-333.197455,0.012000,-0.020000,1.006000,192.000000,0.000000,0.000000,0.000000,0.000000,0.000000,0.000000,0.000000,0.000000,0.000000,1775738778.468929,0.000000
24.000000,16507.500888,18976.295766,-14211.037959,408.522833,-14580.355833,-2314.389028,1236.364393,-2116.330220,11713.990475,16515.256943,-2613.388313,2639.092820,-18385.203884,17949.523681,1908.190776,-452.958101,0.012000,-0.020000,1.006000,192.000000,0.000000,0.000000,0.000000,0.000000,0.000000,0.000000,0.000000,0.000000,0.000000,1775738778.468941,0.000000
26.000000,16515.189888,18984.364746,-14200.510287,416.211834,-14576.466629,-2312.243260,1243.002861,-2115.056171,11762.583168,16518.788519,-2643.138485,2635.762410,-18429.147414,17948.607260,2050.884312,-199.712837,0.012000,-0.020000,1.006000,192.000000,0.000000,0.000000,0.000000,0.000000,0.000000,0.000000,0.000000,0.000000,0.000000,1775738778.468954,0.000000
28.000000,16525.516394,18986.890493,-14179.074964,423.789075,-14557.601757,-2314.880766,1245.036870,-2102.159214,11726.194528,16526.052836,-2611.153139,2644.658404,-18384.779201,17959.000821,1903.698075,-490.307866,0.006000,-0.020000,1.002000,192.000000,0.000000,24.000000,127.500000,48.000000,15.500000,40.000000,0.000000,0.000000,0.000000,1775738778.468966,0.000000
30.000000,16513.737025,18986.354051,-14210.590924,403.404284,-14578.768859,-2321.541586,1234.777419,-2124.667421,11739.672630,16519.190850,-2632.409648,2641.037421,-18412.808289,17950.574213,2028.800789,-267.438622,0.006000,-0.020000,1.002000,192.000000,0.000000,0.000000,0.000000,0.000000,0.000000,0.000000,0.000000,0.000000,0.000000,1775738778.468979,0.000000
32.000000,16537.005190,18997.999310,-14170.827171,428.348831,-14551.097399,-2303.839004,1252.345890,-2101.086331,11762.873741,16536.066417,-2620.607927,2648.055869,-18391.842352,17958.777304,1987.114786,-344.373327,0.006000,-0.020000,1.002000,192.000000,0.000000,0.000000,0.000000,0.000000,0.000000,0.000000,0.000000,0.000000,0.000000,1775738778.468991,0.000000
34.000000,16510.652484,18980.564950,-14205.248857,407.114674,-14574.276158,-2313.025571,1238.934843,-2118.990078,11719.600763,16521.694246,-2611.711933,2641.283291,-18371.390506,17953.636402,1915.566852,-464.603360,0.006000,-0.020000,1.002000,192.000000,0.000000,0.000000,0.000000,0.000000,0.000000,0.000000,0.000000,0.000000,0.000000,1775738778.469003,0.000000
36.000000,16519.570830,18989.796220,-14196.464622,419.318726,-14568.643519,-2308.979906,1248.121410,-2104.796720,11760.236235,16522.901240,-2639.986889,2642.691450,-18434.914164,17952.585870,2051.219589,-210.329915,0.006000,-0.020000,1.002000,192.000000,0.000000,0.000000,0.000000,0.000000,0.000000,0.000000,0.000000,0.000000,0.000000,1775738778.469015,0.000000
38.000000,16530.769054,18995.920598,-14179.589055,430.338136,-14555.724210,-2307.750560,1249.842495,-2093.956124,11722.953525,16531.149033,-2607.219232,2651.095706,-18390.165972,17959.023173,1898.087787,-491.917192,0.004000,-0.016000,1.004000,192.000000,0.000000,16.000000,127.500000,64.000000,15.500000,48.000000,0.000000,0.000000,0.000000,1775738778.469027,0.000000
40.000000,16517.201545,18990.645586,-14215.061273,411.562671,-14582.099269,-2316.020705,1239.650099,-2117.648973,11738.867967,16524.197641,-2631.180302,2642.847913,-18413.836469,17956.519777,2015.836777,-262.588294,0.004000,-0.016000,1.004000,192.000000,0.000000,0.000000,0.000000,0.000000,0.000000,0.000000,0.000000,0.000000,0.000000,1775738778.469039,0.000000
42.000000,16539.575641,19003.743709,-14172.950586,436.820142,-14551.678544,-2306.856490,1255.095155,-2090.513955,11755.765886,16541.229670,-2620.317354,2655.074317,-18399.643111,17963.471170,1977.235315,-335.320870,0.004000,-0.016000,1.004000,192.000000,0.000000,0.000000,0.000000,0.000000,0.000000,0.000000,0.000000,0.000000,0.000000,1775738778.469051,0.000000
44.000000,16520.889583,18988.164543,-14202.186668,413.999011,-14578.210065,-2321.653345,1241.862922,-2114.385618,11720.293667,16529.606763,-2605.028761,2651.475686,-18382.029937,17958.754952,1909.174253,-459.350700,0.004000,-0.016000,1.004000,192.000000,0.000000,0.000000,0.000000,0.000000,0.000000,0.000000,0.000000,0.000000,0.000000,1775738778.469063,0.000000
46.000000,16527.796272,18994.467735,-14194.028281,421.576252,-14571.012803,-2312.377371,1246.981471,-2111.658706,11763.141961,16528.086844,-2636.656479,2641.126828,-18418.776204,17953.502292,2046.212798,-202.260936,0.004000,-0.016000,1.004000,192.000000,0.000000,0.000000,0.000000,0.000000,0.000000,0.000000,0.000000,0.000000,0.000000,1775738778.469075,0.000000
48.000000,16538.167481,19001.642645,-14175.632796,430.941633,-14553.757257,-2306.342400,1249.618977,-2092.458557,11731.044856,16539.776807,-2603.933526,2651.587445,-18377.045498,17966.488655,1894.980895,-485.882221,0.003000,-0.018000,1.001000,192.000000,0.000000,8.000000,127.500000,48.000000,15.500000,24.000000,0.000000,0.000000,0.000000,1775738778.469087,0.000000
50.000000,16521.068397,18996.255874,-14210.948552,410.467435,-14577.718327,-2312.690295,1239.627747,-2112.619831,11742.377191,16526.701036,-2626.486436,2645.597177,-18410.126079,17955.268080,2022.899928,-258.654387,0.003000,-0.018000,1.001000,192.000000,0.000000,0.000000,0.000000,0.000000,0.000000,0.000000,0.000000,0.000000,0.000000,1775738778.469100,0.000000
52.000000,16540.514414,19006.761194,-14170.469543,436.641328,-14547.342306,-2295.747673,1253.642291,-2092.324447,11758.470447,16543.062513,-2618.395104,2653.330881,-18394.502210,17964.253481,1987.807690,-331.275205,0.003000,-0.018000,1.001000,192.000000,0.000000,0.000000,0.000000,0.000000,0.000000,0.000000,0.000000,0.000000,0.000000,1775738778.469112,0.000000
54.000000,16520.129623,18991.047918,-14201.203191,413.708438,-14570.409306,-2307.080007,1239.180713,-2116.598441,11721.388903,16533.406560,-2606.839252,2648.637014,-18379.839466,17963.605280,1918.360820,-454.232151,0.003000,-0.018000,1.001000,192.000000,0.000000,0.000000,0.000000,0.000000,0.000000,0.000000,0.000000,0.000000,0.000000,1775738778.469124,0.000000
56.000000,16525.002304,18992.701947,-14190.809630,420.637479,-14563.457914,-2306.387103,1246.422678,-2116.307869,11769.154581,16528.466824,-2636.030631,2637.505846,-18417.099824,17955.178673,2059.087403,-204.630220,0.003000,-0.018000,1.001000,192.000000,0.000000,0.000000,0.000000,0.000000,0.000000,0.000000,0.000000,0.000000,0.000000,1775738778.469136,0.000000
58.000000,16530.813757,18994.333624,-14175.453982,431.723944,-14551.589138,-2296.909964,1249.641329,-2106.204880,11732.967106,16534.702961,-2607.800377,2641.797381,-18376.196131,17960.632498,1900.948811,-490.710198,0.003500,-0.018000,1.000500,192.000000,0.000000,16.000000,127.500000,56.000000,15.500000,32.000000,0.000000,0.000000,0.000000,1775738778.949046,0.000000
60.000000,16517.581525,18992.165505,-14212.647285,411.965002,-14581.965158,-2304.621316,1239.784210,-2123.929813,11744.187682,16527.662161,-2632.588462,2636.365907,-18408.986140,17954.262251,2012.238146,-262.163611,0.003500,-0.018000,1.000500,192.000000,0.000000,0.000000,0.000000,0.000000,0.000000,0.000000,0.000000,0.000000,0.000000,1775738778.949118,0.000000
62.000000,16537.854557,19004.950703,-14173.576435,436.149590,-14552.974946,-2301.894403,1254.312844,-2091.072749,11760.817380,16545.834130,-2621.569052,2647.385317,-18398.972559,17964.119370,1983.136175,-338.338356,0.003500,-0.018000,1.000500,192.000000,0.000000,0.000000,0.000000,0.000000,0.000000,0.000000,0.000000,0.000000,0.000000,1775738778.949164,0.000000
64.000000,16514.675798,18991.137325,-14205.628837,414.736618,-14577.003071,-2314.009048,1240.633576,-2106.964839,11712.269391,16533.205394,-2610.281421,2647.318262,-18377.447829,17958.933766,1915.611555,-461.719985,0.003500,-0.018000,1.000500,192.000000,0.000000,0.000000,0.000000,0.000000,0.000000,0.000000,0.000000,0.000000,0.000000,1775738778.949211,0.000000
66.000000,16527.349237,19001.888514,-14192.754232,422.537377,-14567.280062,-2305.537737,1249.775439,-2101.935697,11762.940796,16539.262717,-2635.829465,2645.552474,-18425.817004,17962.241824,2046.548074,-204.093779,0.003500,-0.018000,1.000500,192.000000,0.000000,0.000000,0.000000,0.000000,0.000000,0.000000,0.000000,0.000000,0.000000,1775738778.949264,0.000000
68.000000,16533.831243,19000.569761,-14173.285863,430.963985,-14548.996335,-2312.086798,1252.770573,-2092.458557,11730.396656,16547.711676,-2602.525366,2651.274520,-18383.013413,17968.790885,1901.172328,-492.766558,0.003750,-0.018000,0.997250,192.000000,0.000000,16.000000,127.500000,56.000000,15.500000,8.000000,0.000000,0.000000,0.000000,1775738778.949310,0.000000
70.000000,16514.519336,18989.460944,-14210.702683,407.248784,-14587.195466,-2320.222833,1238.644271,-2121.694639,11740.164368,16529.360894,-2629.146293,2636.030631,-18420.631399,17954.821045,2021.603527,-264.287026,0.003750,-0.018000,0.997250,192.000000,0.000000,0.000000,0.000000,0.000000,0.000000,0.000000,0.000000,0.000000,0.000000,1775738778.949344,0.000000
72.000000,16536.513452,19003.587246,-14170.313081,432.461552,-14555.813617,-2307.638801,1253.552884,-2095.587801,11756.011755,16544.582432,-2620.674982,2643.093782,-18405.320454,17964.834626,1984.946666,-335.186760,0.003750,-0.018000,0.997250,192.000000,0.000000,0.000000,0.000000,0.000000,0.000000,0.000000,0.000000,0.000000,0.000000,1775738778.949361,0.000000
74.000000,16519.123795,18992.523133,-14200.554991,410.445083,-14576.667795,-2318.211176,1238.152532,-2113.089217,11714.929249,16535.641734,-2609.342648,2642.691450,-18388.310777,17959.112580,1920.595994,-460.110660,0.003750,-0.018000,0.997250,192.000000,0.000000,0.000000,0.000000,0.000000,0.000000,0.000000,0.000000,0.000000,0.000000,1775738778.949378,0.000000
76.000000,16530.679647,19004.257799,-14190.295540,418.469360,-14566.453048,-2309.382237,1246.579140,-2103.477967,11764.885398,16537.653391,-2635.874168,2641.350346,-18421.503117,17960.006649,2058.238036,-204.138482,0.003750,-0.018000,0.997250,192.000000,0.000000,0.000000,0.000000,0.000000,0.000000,0.000000,0.000000,0.000000,0.000000,1775738778.949396,0.000000
78.000000,16545.118874,19009.421052,-14171.229502,431.120447,-14545.107132,-2300.419188,1250.088364,-2089.798700,11737.482159,16550.840920,-2601.385427,2654.940206,-18374.072716,17974.736449,1902.602840,-491.358398,0.003875,-0.018000,0.997625,192.000000,0.000000,16.000000,127.500000,56.000000,15.500000,24.000000,0.000000,0.000000,0.000000,1775738778.949413,0.000000
80.000000,16534.233574,19010.225714,-14205.450023,412.680258,-14568.151780,-2302.073217,1240.007727,-2111.211671,11756.972880,16541.743760,-2621.189072,2648.301738,-18395.820963,17975.228187,2019.882443,-265.449317,0.003875,-0.018000,0.997625,192.000000,0.000000,0.000000,0.000000,0.000000,0.000000,0.000000,0.000000,0.000000,0.000000,1775738778.949425,0.000000
82.000000,16558.731086,19023.323837,-14166.021546,439.636462,-14539.742713,-2293.288981,1255.788059,-2085.015426,11777.603540,16560.854502,-2610.549642,2655.767221,-18380.152390,17982.872484,1980.990408,-335.566740,0.003875,-0.018000,0.997625,192.000000,0.000000,0.000000,0.000000,0.000000,0.000000,0.000000,0.000000,0.000000,0.000000,1775738778.949438,0.000000
84.000000,16541.386132,19013.779642,-14195.637607,417.709400,-14565.626033,-2311.975039,1243.449896,-2102.405083,11740.633755,16550.952679,-2595.506918,2654.403765,-18365.959032,17978.491542,1912.348200,-459.596569,0.003875,-0.018000,0.997625,192.000000,0.000000,0.000000,0.000000,0.000000,0.000000,0.000000,0.000000,0.000000,0.000000,1775738778.949450,0.000000
86.000000,16563.447304,19034.007971,-14182.561837,428.438238,-14556.260652,-2299.525118,1253.172905,-2085.305999,11793.138003,16556.987650,-2618.909194,2657.600064,-18402.057100,17981.151400,2045.296376,-204.607869,0.003875,-0.018000,0.997625,192.000000,0.000000,0.000000,0.000000,0.000000,0.000000,0.000000,0.000000,0.000000,0.000000,1775738778.949462,0.000000
88.000000,16559.848673,19025.737825,-14169.173142,433.243863,-14550.896233,-2304.621316,1254.290492,-2074.152478,11756.704659,16567.761191,-2585.649799,2669.088861,-18364.595576,17989.130973,1885.079072,-489.056169,0.003938,-0.018000,0.998812,192.000000,0.000000,16.000000,127.500000,56.000000,15.500000,32.000000,0.000000,0.000000,0.000000,1775738778.949474,0.000000
90.000000,16537.072246,19013.980808,-14205.539430,409.752179,-14581.629882,-2315.104284,1244.299262,-2097.755921,11751.541406,16541.475539,-2614.505901,2655.789573,-18405.968655,17970.154341,2016.440274,-269.494983,0.003938,-0.018000,0.998812,192.000000,0.000000,0.000000,0.000000,0.000000,0.000000,0.000000,0.000000,0.000000,0.000000,1775738778.949494,0.000000
92.000000,16547.264641,19014.383139,-14171.274206,431.969813,-14544.481283,-2303.079045,1254.938692,-2084.858964,11762.963148,16552.383191,-2611.711933,2655.789573,-18389.562474,17975.116429,1980.208097,-339.634757,0.003938,-0.018000,0.998812,192.000000,0.000000,0.000000,0.000000,0.000000,0.000000,0.000000,0.000000,0.000000,0.000000,1775738778.949506,0.000000
94.000000,16521.515432,18995.115935,-14206.098223,405.840624,-14568.732926,-2315.596022,1234.308032,-2117.648973,11714.996304,16535.284106,-2607.979191,2645.150142,-18384.533332,17964.342888,1913.197567,-461.675282,0.003938,-0.018000,0.998812,192.000000,0.000000,0.000000,0.000000,0.000000,0.000000,0.000000,0.000000,0.000000,0.000000,1775738778.949518,0.000000
96.000000,16532.512490,19004.011930,-14194.609427,414.133121,-14561.110981,-2311.930336,1239.895968,-2113.223328,11762.091429,16533.451263,-2641.015070,2637.349384,-18431.092016,17960.632498,2058.819182,-202.506805,0.003938,-0.018000,0.998812,192.000000,0.000000,0.000000,0.000000,0.000000,0.000000,0.000000,0.000000,0.000000,0.000000,1775738778.949531,0.000000
98.000000,16544.023638,19009.108127,-14175.163409,426.583043,-14544.235414,-2305.649496,1243.919282,-2095.721912,11733.592955,16544.090693,-2607.912136,2650.134581,-18380.197094,17976.077554,1901.440549,-489.123224,0.002969,-0.019000,1.002406,192.000000,0.000000,8.000000,127.500000,48.000000,15.500000,56.000000,0.000000,0.000000,0.000000,1775738778.949543,0.000000
100.000000,16534.680609,19008.884610,-14209.674503,404.588926,-14571.973928,-2314.165510,1234.397439,-2112.619831,11748.054534,16538.882737,-2625.994697,2647.430020,-18400.961864,17971.562501,2018.116655,-268.511506,0.002969,-0.019000,1.002406,192.000000,0.000000,0.000000,0.000000,0.000000,0.000000,0.000000,0.000000,0.000000,0.000000,1775738778.949555,0.000000
102.000000,16564.319022,19029.090587,-14168.569645,430.405191,-14541.933184,-2299.480414,1252.032966,-2080.656836,11770.808610,16559.401638,-2612.494244,2657.398898,-18398.458469,17981.732545,1982.823251,-341.154676,0.002969,-0.019000,1.002406,192.000000,0.000000,0.000000,0.000000,0.000000,0.000000,0.000000,0.000000,0.000000,0.000000,1775738778.949566,0.000000
104.000000,16539.016847,19008.862258,-14202.387834,411.048581,-14570.386955,-2310.700990,1238.130181,-2103.522671,11733.145920,16548.538691,-2597.809148,2655.387241,-18376.509056,17976.993975,1909.062494,-468.783136,0.002969,-0.019000,1.002406,192.000000,0.000000,0.000000,0.000000,0.000000,0.000000,0.000000,0.000000,0.000000,0.000000,1775738778.949578,0.000000
106.000000,16553.858406,19022.049787,-14193.983578,424.906662,-14567.257710,-2302.810824,1247.696727,-2097.420644,11781.157468,16548.963374,-2626.978174,2652.973253,-18412.182440,17978.022156,2039.619033,-211.603965,0.002969,-0.019000,1.002406,192.000000,0.000000,0.000000,0.000000,0.000000,0.000000,0.000000,0.000000,0.000000,0.000000,1775738778.949590,0.000000
108.000000,16551.176196,19013.690235,-14178.717337,432.752124,-14556.327707,-2308.354057,1247.607320,-2093.173813,11746.579319,16558.172292,-2600.066674,2662.249227,-18370.585843,17983.855961,1884.542630,-497.348666,0.006484,-0.019500,1.003203,192.000000,0.000000,40.000000,127.500000,48.000000,15.500000,48.000000,0.000000,0.000000,0.000000,1775738778.949602,0.000000
110.000000,16528.399769,19001.821459,-14215.374197,409.215737,-14581.406365,-2319.708743,1235.582082,-2119.727685,11753.038973,16537.765150,-2629.190997,2646.893578,-18404.828716,17966.287490,2006.896079,-270.746681,0.006484,-0.019500,1.003203,192.000000,0.000000,0.000000,0.000000,0.000000,0.000000,0.000000,0.000000,0.000000,0.000000,1775738778.949614,0.000000
112.000000,16547.778731,19011.723281,-14174.805781,435.009651,-14552.796132,-2306.700028,1252.412945,-2091.408025,11764.483066,16547.734028,-2623.357191,2647.184151,-18399.017262,17971.160170,1970.552143,-336.796085,0.006484,-0.019500,1.003203,192.000000,0.000000,0.000000,0.000000,0.000000,0.000000,0.000000,0.000000,0.000000,0.000000,1775738778.949626,0.000000
114.000000,16523.594144,18994.780659,-14206.209982,409.729828,-14569.224664,-2312.757351,1233.749239,-2115.369095,11720.740702,16536.535804,-2608.359171,2647.787648,-18380.197094,17969.483789,1907.184947,-460.937674,0.006484,-0.019500,1.003203,192.000000,0.000000,0.000000,0.000000,0.000000,0.000000,0.000000,0.000000,0.000000,0.000000,1775738778.949638,0.000000
116.000000,16533.674781,19008.169354,-14195.749366,417.664697,-14558.629937,-2298.921621,1240.566521,-2110.697581,11763.387831,16534.881775,-2639.897482,2640.724497,-18413.523544,17966.287490,2054.840571,-203.356171,0.006484,-0.019500,1.003203,192.000000,0.000000,0.000000,0.000000,0.000000,0.000000,0.000000,0.000000,0.000000,0.000000,1775738778.949650,0.000000
118.000000,16537.072246,19006.671787,-14180.728994,424.303165,-14548.996335,-2297.088778,1241.058259,-2103.679133,11726.820377,16542.570775,-2610.817863,2647.832352,-18361.980422,17973.596510,1906.424988,-487.133919,0.006484,-0.019500,1.003203,192.000000,0.000000,0.000000,0.000000,0.000000,0.000000,0.000000,0.000000,0.000000,0.000000,1775738778.949662,0.000000
120.000000,16527.438644,19006.180049,-14214.927163,402.577269,-14576.399574,-2307.728208,1231.536416,-2124.868587,11736.319868,16529.852632,-2636.768238,2637.863474,-18431.807271,17964.834626,2027.236167,-265.069337,0.008000,-0.016000,1.002000,192.000000,0.000000,32.000000,127.500000,64.000000,15.500000,40.000000,0.000000,0.000000,0.000000,1775738778.949674,0.000000
122.000000,16554.148978,19022.697988,-14172.660014,429.868749,-14539.496844,-2294.764196,1249.507219,-2091.966819,11761.264415,16552.785522,-2621.278479,2649.039346,-18407.689739,17977.150437,1983.650265,-338.494818,0.008000,-0.016000,1.002000,192.000000,0.000000,0.000000,0.000000,0.000000,0.000000,0.000000,0.000000,0.000000,0.000000,1775738778.949687,0.000000
124.000000,16537.787502,19013.377310,-14203.706587,406.913508,-14565.268405,-2309.069313,1237.079649,-2100.751054,11723.065284,16543.330734,-2601.050151,2651.542741,-18382.767544,17973.864731,1910.783578,-472.337064,0.008000,-0.016000,1.002000,192.000000,0.000000,0.000000,0.000000,0.000000,0.000000,0.000000,0.000000,0.000000,0.000000,1775738778.949699,0.000000
126.000000,16546.392923,19020.283999,-14191.323720,417.128255,-14560.909815,-2304.330743,1247.629672,-2089.619886,11775.614235,16541.944926,-2623.491302,2648.949939,-18418.820908,17971.406039,2044.625824,-217.840101,0.008000,-0.016000,1.002000,192.000000,0.000000,0.000000,0.000000,0.000000,0.000000,0.000000,0.000000,0.000000,0.000000,1775738778.949710,0.000000
128.000000,16553.254909,19021.088662,-14170.156618,428.214720,-14547.923451,-2297.044074,1251.004785,-2080.075691,11738.353877,16550.617403,-2592.489432,2658.963520,-18372.508093,17979.989109,1884.050892,-494.308829,0.008000,-0.016000,1.002000,192.000000,0.000000,0.000000,0.000000,0.000000,0.000000,0.000000,0.000000,0.000000,0.000000,1775738778.949723,0.000000
130.000000,16539.754455,19021.021607,-14206.567610,408.031095,-14576.690147,-2306.409455,1240.186541,-2104.729665,11756.212921,16543.464845,-2617.679848,2651.408631,-18398.905504,17973.909435,2011.344077,-274.077091,0.004000,-0.014000,1.000000,192.000000,0.000000,16.000000,127.500000,72.000000,15.500000,32.000000,0.000000,0.000000,0.000000,1775738778.949735,0.000000
132.000000,16560.608633,19032.890383,-14167.161485,433.936767,-14549.622184,-2301.737941,1255.832762,-2080.701540,11769.534560,16554.908938,-2611.443712,2659.030576,-18392.267036,17980.950234,1972.161469,-339.746516,0.004000,-0.014000,1.000000,192.000000,0.000000,0.000000,0.000000,0.000000,0.000000,0.000000,0.000000,0.000000,0.000000,1775738778.949747,0.000000
134.000000,16538.480406,19020.060482,-14200.644398,412.188520,-14575.617263,-2319.082894,1241.326480,-2102.002752,11732.207147,16547.197586,-2595.976305,2657.644767,-18373.871550,17972.791847,1905.150939,-469.386634,0.004000,-0.014000,1.000000,192.000000,0.000000,0.000000,0.000000,0.000000,0.000000,0.000000,0.000000,0.000000,0.000000,1775738778.949769,0.000000
136.000000,16536.401693,19021.714511,-14198.073947,423.766723,-14579.998205,-2313.114978,1247.294396,-2098.627639,11774.451944,16547.331696,-2628.408686,2652.235645,-18419.178536,17970.467266,2041.407173,-208.631183,0.004000,-0.014000,1.000000,192.000000,0.000000,0.000000,0.000000,0.000000,0.000000,0.000000,0.000000,0.000000,0.000000,1775738778.949781,0.000000
138.000000,16531.573717,19009.622217,-14185.087584,428.751162,-14569.939920,-2315.528967,1244.656890,-2096.884203,11728.049723,16549.209243,-2606.258107,2655.141372,-18389.830695,17973.820028,1887.984799,-493.347704,0.004000,-0.014000,1.000000,192.000000,0.000000,0.000000,0.000000,0.000000,0.000000,0.000000,0.000000,0.000000,0.000000,1775738778.949794,0.000000
140.000000,16515.703978,19007.364691,-14218.637552,406.824101,-14588.469516,-2315.998353,1232.117561,-2125.002697,11734.464673,16531.238440,-2638.466971,2640.456276,-18422.441891,17963.292356,2009.846510,-267.192753,0.008000,-0.014000,0.998000,192.000000,0.000000,32.000000,127.500000,72.000000,15.500000,24.000000,0.000000,0.000000,0.000000,1775738778.949805,0.000000
142.000000,16532.959525,19015.299560,-14180.281959,427.834741,-14549.488074,-2300.240374,1243.874579,-2105.556679,11754.447133,16549.499816,-2634.868340,2645.351308,-18403.219390,17975.786981,1981.996236,-335.410277,0.008000,-0.014000,0.998000,192.000000,0.000000,0.000000,0.000000,0.000000,0.000000,0.000000,0.000000,0.000000,0.000000,1775738778.949818,0.000000
144.000000,16517.268600,19006.895305,-14208.914543,406.153548,-14554.718382,-2308.197595,1229.502407,-2121.962860,11717.142071,16543.129568,-2622.507825,2641.104477,-18388.154315,17973.104772,1921.020677,-464.804526,0.008000,-0.014000,0.998000,192.000000,0.000000,0.000000,0.000000,0.000000,0.000000,0.000000,0.000000,0.000000,0.000000,1775738778.949830,0.000000
146.000000,16531.864289,19021.893325,-14199.102127,415.563633,-14543.721323,-2297.804033,1237.481980,-2109.378828,11774.518999,16550.215071,-2643.876093,2640.299814,-18397.519695,17973.931786,2066.888162,-205.703104,0.008000,-0.014000,0.998000,192.000000,0.000000,0.000000,0.000000,0.000000,0.000000,0.000000,0.000000,0.000000,0.000000,1775738778.949842,0.000000
148.000000,16541.520243,19025.961343,-14178.404412,428.840569,-14526.018742,-2282.873068,1243.293434,-2090.379845,11741.661935,16564.833112,-2605.989886,2652.839142,-18387.170838,17990.047394,1911.051799,-488.385616,0.008000,-0.014000,0.998000,192.000000,0.000000,0.000000,0.000000,0.000000,0.000000,0.000000,0.000000,0.000000,0.000000,1775738778.949854,0.000000
150.000000,16521.940115,19017.266514,-14211.797918,407.338191,-14555.455989,-2296.172356,1233.145742,-2114.184453,11750.513226,16552.338487,-2627.805189,2645.619529,-18407.242704,17983.610092,2030.745391,-268.355044,0.004000,-0.014000,1.004000,192.000000,0.000000,16.000000,127.500000,72.000000,15.500000,48.000000,0.000000,0.000000,0.000000,1775738778.949867,0.000000
152.000000,16540.670877,19024.888459,-14172.995290,429.756991,-14535.384123,-2292.238449,1247.741431,-2095.073711,11763.588996,16565.950700,-2622.820750,2654.716689,-18399.620759,17991.008519,1991.674541,-345.177990,0.004000,-0.014000,1.004000,192.000000,0.000000,0.000000,0.000000,0.000000,0.000000,0.000000,0.000000,0.000000,0.000000,1775738778.949878,0.000000
154.000000,16519.347312,19008.236409,-14206.746424,410.310973,-14566.944786,-2313.360848,1234.710364,-2119.437113,11720.338371,16550.125664,-2616.606965,2648.502904,-18387.774335,17984.034775,1910.671820,-477.254448,0.004000,-0.014000,1.004000,192.000000,0.000000,0.000000,0.000000,0.000000,0.000000,0.000000,0.000000,0.000000,0.000000,1775738778.949891,0.000000
156.000000,16532.736007,19022.049787,-14201.426709,421.933880,-14572.778591,-2311.371542,1243.382841,-2109.490586,11769.154581,16550.617403,-2645.016032,2644.613700,-18421.436062,17975.272891,2044.357603,-214.777912,0.004000,-0.014000,1.004000,192.000000,0.000000,0.000000,0.000000,0.000000,0.000000,0.000000,0.000000,0.000000,0.000000,1775738778.949903,0.000000
158.000000,16545.275336,19024.240258,-14186.294578,430.896930,-14566.184827,-2315.685429,1247.361451,-2092.682075,11741.617232,16564.117857,-2605.900479,2656.705994,-18387.439059,17982.559560,1876.808927,-494.934677,0.004000,-0.014000,1.004000,192.000000,0.000000,0.000000,0.000000,0.000000,0.000000,0.000000,0.000000,0.000000,0.000000,1775738778.949915,0.000000
160.000000,16518.565001,19008.459927,-14228.897003,405.661810,-14597.834897,-2330.102304,1234.017460,-2120.085313,11744.299441,16538.346295,-2635.673003,2639.986889,-18426.085225,17959.425504,2002.470434,-275.619361,0.008000,-0.016000,0.998000,192.000000,0.000000,32.000000,127.500000,64.000000,15.500000,24.000000,0.000000,0.000000,0.000000,1775738778.949927,0.000000
162.000000,16536.535804,19014.159621,-14189.222656,428.639403,-14572.130391,-2315.707781,1246.735602,-2095.990133,11756.592900,16545.632964,-2630.107418,2641.059773,-18418.932667,17964.432295,1966.350015,-337.667803,0.008000,-0.016000,0.998000,192.000000,0.000000,0.000000,0.000000,0.000000,0.000000,0.000000,0.000000,0.000000,0.000000,1775738778.949939,0.000000
164.000000,16525.337580,19009.421052,-14211.574401,408.545185,-14585.139106,-2318.546452,1234.106867,-2113.782121,11716.762092,16534.434740,-2613.857700,2638.019936,-18397.787916,17961.191292,1901.149976,-462.994035,0.008000,-0.016000,0.998000,192.000000,0.000000,0.000000,0.000000,0.000000,0.000000,0.000000,0.000000,0.000000,0.000000,1775738778.949951,0.000000
166.000000,16534.702961,19020.418110,-14196.106994,416.681220,-14576.801905,-2307.482339,1241.907625,-2106.495453,11774.295482,16543.822473,-2635.471837,2639.875131,-18414.775242,17964.097019,2042.994147,-201.836252,0.008000,-0.016000,0.998000,192.000000,0.000000,0.000000,0.000000,0.000000,0.000000,0.000000,0.000000,0.000000,0.000000,1775738778.949963,0.000000
168.000000,16542.593127,19019.456985,-14173.419973,424.526682,-14549.555129,-2299.569821,1245.997995,-2091.877412,11738.711505,16555.199510,-2599.932563,2651.565093,-18375.614986,17974.602339,1895.673799,-486.642180,0.008000,-0.016000,0.998000,192.000000,0.000000,0.000000,0.000000,0.000000,0.000000,0.000000,0.000000,0.000000,0.000000,1775738778.949974,0.000000
170.000000,16532.065455,19017.780604,-14210.367407,402.219641,-14566.251882,-2304.956592,1233.637480,-2113.379790,11751.250833,16543.666010,-2622.172549,2640.858607,-18420.921972,17968.410905,2023.034039,-266.164573,0.006000,-0.014000,1.006000,192.000000,0.000000,24.000000,127.500000,72.000000,15.500000,56.000000,0.000000,0.000000,0.000000,1775738778.949986,0.000000
172.000000,16549.924499,19026.386026,-14180.103145,425.778380,-14543.877786,-2300.240374,1245.707422,-2090.446900,11766.047688,16560.385115,-2620.540872,2646.379488,-18406.795669,17978.960929,1988.142966,-337.556045,0.006000,-0.014000,1.006000,192.000000,0.000000,0.000000,0.000000,0.000000,0.000000,0.000000,0.000000,0.000000,0.000000,1775738778.949998,0.000000
174.000000,16529.830281,19013.869049,-14210.568572,405.885328,-14568.710574,-2312.466778,1232.162265,-2110.965802,11715.555098,16546.594089,-2611.644877,2645.798343,-18392.848181,17977.709231,1916.147997,-469.408985,0.006000,-0.014000,1.006000,192.000000,0.000000,0.000000,0.000000,0.000000,0.000000,0.000000,0.000000,0.000000,0.000000,1775738778.950010,0.000000
176.000000,16540.782635,19025.335494,-14203.527773,416.703572,-14568.867036,-2302.497900,1240.097134,-2106.316639,11758.291633,16551.511473,-2641.976195,2640.635090,-18431.270830,17974.535283,2049.029118,-214.129712,0.006000,-0.014000,1.006000,192.000000,0.000000,0.000000,0.000000,0.000000,0.000000,0.000000,0.000000,0.000000,0.000000,1775738778.950022,0.000000
178.000000,16549.946851,19028.598848,-14182.472430,428.751162,-14561.513312,-2307.728208,1245.908588,-2092.033874,11732.318906,16562.508531,-2604.648781,2653.979081,-18390.233027,17983.341871,1888.051854,-500.701428,0.006000,-0.014000,1.006000,192.000000,0.000000,0.000000,0.000000,0.000000,0.000000,0.000000,0.000000,0.000000,0.000000,1775738779.430000,0.000000
180.000000,16529.517356,19019.188764,-14217.743482,405.572403,-14597.074937,-2325.609604,1235.269157,-2115.302040,11739.382057,16548.337525,-2627.693430,2643.674927,-18421.234896,17967.807408,1998.961210,-281.922553,0.008000,-0.014000,1.002000,192.000000,0.000000,32.000000,127.500000,72.000000,15.500000,40.000000,0.000000,0.000000,0.000000,1775738779.430060,0.000000
182.000000,16553.120798,19029.068235,-14179.454944,432.618014,-14570.677527,-2313.405551,1251.921207,-2087.295304,11760.280938,16562.642641,-2617.456331,2650.358099,-18410.528411,17977.061031,1959.823306,-349.089545,0.008000,-0.014000,1.002000,192.000000,0.000000,0.000000,0.000000,0.000000,0.000000,0.000000,0.000000,0.000000,0.000000,1775738779.430098,0.000000
184.000000,16531.774882,19015.321912,-14214.390721,412.121464,-14592.135202,-2323.933223,1237.102000,-2109.691752,11716.270353,16557.568795,-2608.448578,2649.374622,-18398.681986,17972.791847,1892.410444,-475.980398,0.008000,-0.014000,1.002000,192.000000,0.000000,0.000000,0.000000,0.000000,0.000000,0.000000,0.000000,0.000000,0.000000,1775738779.430144,0.000000
186.000000,16537.005190,19021.356883,-14209.294523,420.190444,-14578.813562,-2312.645592,1241.281777,-2107.545985,11761.599691,16555.691249,-2642.020898,2643.317299,-18440.122120,17972.545978,2032.242958,-210.084046,0.008000,-0.014000,1.002000,192.000000,0.000000,0.000000,0.000000,0.000000,0.000000,0.000000,0.000000,0.000000,0.000000,1775738779.430200,0.000000
188.000000,16542.906051,19018.741729,-14189.110898,427.477113,-14560.842760,-2304.911888,1243.695765,-2098.784101,11727.312115,16565.347202,-2615.198805,2649.844009,-18391.954111,17983.788906,1880.385206,-492.140709,0.008000,-0.014000,1.002000,192.000000,0.000000,0.000000,0.000000,0.000000,0.000000,0.000000,0.000000,0.000000,0.000000,1775738779.430246,0.000000
190.000000,16528.824452,19014.181973,-14221.342113,404.588926,-14586.413155,-2307.236470,1231.424657,-2122.052267,11738.890319,16547.711676,-2638.601081,2638.109343,-18415.378739,17977.172789,2004.169167,-266.388090,0.006000,-0.014000,1.002000,192.000000,0.000000,16.000000,127.500000,72.000000,15.500000,40.000000,0.000000,0.000000,0.000000,1775738779.430292,0.000000
192.000000,16549.410409,19021.714511,-14180.192552,424.124351,-14557.937033,-2297.289943,1242.421716,-2099.924040,11760.996194,16561.837979,-2626.195863,2642.445581,-18416.965713,17986.471115,1978.196440,-330.761114,0.006000,-0.014000,1.002000,192.000000,0.000000,0.000000,0.000000,0.000000,0.000000,0.000000,0.000000,0.000000,0.000000,1775738779.430313,0.000000
194.000000,16534.881775,19011.231543,-14205.986465,402.867842,-14569.001146,-2301.156795,1229.792980,-2117.313697,11721.523013,16553.411371,-2612.628354,2637.662308,-18392.088222,17978.625653,1915.745666,-455.841476,0.006000,-0.014000,1.002000,192.000000,0.000000,0.000000,0.000000,0.000000,0.000000,0.000000,0.000000,0.000000,0.000000,1775738779.430326,0.000000
196.000000,16545.655316,19023.413244,-14193.268322,414.490749,-14560.060449,-2295.188879,1240.924149,-2105.869604,11772.574398,16556.093580,-2635.874168,2636.835293,-18418.083300,17979.162094,2060.517914,-196.583592,0.006000,-0.014000,1.002000,192.000000,0.000000,0.000000,0.000000,0.000000,0.000000,0.000000,0.000000,0.000000,0.000000,1775738779.430337,0.000000
198.000000,16553.880758,19025.871936,-14178.136191,425.577214,-14554.003126,-2297.513461,1243.718117,-2090.290438,11742.265432,16570.175179,-2598.569107,2649.352270,-18381.717012,17989.779173,1902.982819,-484.854041,0.006000,-0.014000,1.002000,192.000000,0.000000,0.000000,0.000000,0.000000,0.000000,0.000000,0.000000,0.000000,0.000000,1775738779.430350,0.000000
200.000000,16535.619382,19019.255819,-14216.625895,406.757046,-14581.294606,-2303.637839,1232.117561,-2116.039648,11745.260566,16550.617403,-2626.642898,2639.338689,-18423.112443,17978.312728,2014.786245,-267.080994,0.004000,-0.014000,1.005000,192.000000,0.000000,8.000000,127.500000,72.000000,15.500000,64.000000,0.000000,0.000000,0.000000,1775738779.430362,0.000000
202.000000,16562.083848,19037.271325,-14179.030261,434.204988,-14553.980774,-2291.612600,1247.361451,-2092.100929,11768.081697,16571.829208,-2619.378581,2650.268692,-18403.465259,17992.439031,1976.207134,-335.030298,0.004000,-0.014000,1.005000,192.000000,0.000000,0.000000,0.000000,0.000000,0.000000,0.000000,0.000000,0.000000,0.000000,1775738779.430374,0.000000
204.000000,16546.884662,19024.262610,-14209.182764,416.412999,-14581.361661,-2305.627144,1236.342041,-2107.545985,11727.289763,16565.816589,-2606.682790,2651.520389,-18393.541085,17992.617845,1900.367665,-463.262256,0.004000,-0.014000,1.005000,192.000000,0.000000,0.000000,0.000000,0.000000,0.000000,0.000000,0.000000,0.000000,0.000000,1775738779.430387,0.000000
206.000000,16557.278223,19034.834985,-14199.258590,424.169055,-14575.527856,-2307.951725,1247.026175,-2097.241830,11778.430555,16562.910862,-2632.744924,2648.480552,-18428.745082,17988.438068,2033.829931,-206.328953,0.004000,-0.014000,1.005000,192.000000,0.000000,0.000000,0.000000,0.000000,0.000000,0.000000,0.000000,0.000000,0.000000,1775738779.430399,0.000000
208.000000,16561.323888,19034.566764,-14179.365537,434.182636,-14558.831103,-2309.628106,1253.172905,-2082.847307,11743.293612,16571.069249,-2600.223136,2658.024747,-18388.333128,17992.461382,1881.815717,-495.225250,0.004000,-0.014000,1.005000,192.000000,0.000000,0.000000,0.000000,0.000000,0.000000,0.000000,0.000000,0.000000,0.000000,1775738779.430410,0.000000
210.000000,16537.631039,19022.318008,-14218.257572,412.344982,-14588.961254,-2319.820502,1240.566521,-2107.769502,11748.345107,16550.885624,-2629.414514,2651.028651,-18424.140623,17982.134877,2002.246917,-270.903143,0.003000,-0.013000,1.001500,192.000000,0.000000,8.000000,127.500000,80.000000,15.500000,24.000000,0.000000,0.000000,0.000000,1775738779.430422,0.000000
212.000000,16568.476447,19044.736808,-14174.984595,441.603415,-14552.349097,-2295.412397,1256.726832,-2078.444013,11766.070040,16572.209188,-2619.669154,2661.444564,-18407.823850,17992.997824,1964.584227,-332.616309,0.003000,-0.013000,1.001500,192.000000,0.000000,0.000000,0.000000,0.000000,0.000000,0.000000,0.000000,0.000000,0.000000,1775738779.430444,0.000000
214.000000,16550.818569,19032.644514,-14203.728939,419.810464,-14569.358774,-2300.665057,1240.678279,-2098.851156,11736.856310,16570.689269,-2600.759578,2664.417346,-18372.709259,17996.976435,1899.272430,-457.316692,0.003000,-0.013000,1.001500,192.000000,0.000000,0.000000,0.000000,0.000000,0.000000,0.000000,0.000000,0.000000,0.000000,1775738779.430456,0.000000
216.000000,16560.295708,19040.221756,-14193.335377,428.214720,-14557.110018,-2289.109205,1246.154457,-2093.576144,11783.593808,16569.504627,-2628.676907,2657.287140,-18417.569210,17994.338929,2044.290548,-195.063674,0.003000,-0.013000,1.001500,192.000000,0.000000,0.000000,0.000000,0.000000,0.000000,0.000000,0.000000,0.000000,0.000000,1775738779.430468,0.000000
218.000000,16568.655261,19039.282982,-14173.375270,434.160284,-14545.867091,-2287.455176,1248.702556,-2081.796775,11754.581243,16579.898188,-2592.176508,2662.696262,-18379.861817,18004.844249,1892.432796,-478.059110,0.003000,-0.013000,1.001500,192.000000,0.000000,0.000000,0.000000,0.000000,0.000000,0.000000,0.000000,0.000000,0.000000,1775738779.430482,0.000000
220.000000,16548.404580,19028.196517,-14209.942724,407.405246,-14574.499676,-2298.161661,1235.760896,-2108.417703,11764.550121,16555.534787,-2615.824654,2648.055869,-18408.025015,17988.616882,2009.131254,-260.442526,0.003500,-0.012500,1.002750,192.000000,0.000000,16.000000,127.500000,80.000000,15.500000,48.000000,0.000000,0.000000,0.000000,1775738779.430494,0.000000
222.000000,16564.453133,19035.684351,-14173.889360,431.522778,-14547.856396,-2292.126690,1249.484867,-2087.630580,11777.827058,16568.744668,-2612.538947,2654.157895,-18400.134850,17992.729603,1971.580323,-331.275205,0.003500,-0.012500,1.002750,192.000000,0.000000,0.000000,0.000000,0.000000,0.000000,0.000000,0.000000,0.000000,0.000000,1775738779.430505,0.000000
224.000000,16535.641734,19016.350092,-14208.445157,412.277926,-14578.455934,-2303.481377,1234.844474,-2110.161139,11722.260621,16551.802045,-2609.677924,2645.328956,-18391.864704,17982.470153,1905.799139,-463.821049,0.003500,-0.012500,1.002750,192.000000,0.000000,0.000000,0.000000,0.000000,0.000000,0.000000,0.000000,0.000000,0.000000,1775738779.430518,0.000000
226.000000,16549.879795,19032.130424,-14199.772680,423.967889,-14570.766934,-2294.607734,1244.075745,-2103.366208,11772.395584,16557.680554,-2636.656479,2645.753639,-18425.124100,17985.308824,2036.847417,-200.003409,0.003500,-0.012500,1.002750,192.000000,0.000000,0.000000,0.000000,0.000000,0.000000,0.000000,0.000000,0.000000,0.000000,1775738779.430530,0.000000
228.000000,16558.306403,19030.208174,-14180.326662,431.075744,-14547.923451,-2295.680618,1247.204989,-2092.771482,11742.757171,16569.638737,-2605.744017,2653.755564,-18373.469218,17992.103755,1886.286066,-486.061035,0.003500,-0.012500,1.002750,192.000000,0.000000,0.000000,0.000000,0.000000,0.000000,0.000000,0.000000,0.000000,0.000000,1775738779.430542,0.000000
230.000000,16542.280202,19023.323837,-14215.485956,408.612240,-14579.417059,-2306.677676,1236.409096,-2112.664534,11752.211958,16544.761246,-2629.794494,2640.456276,-18423.268905,17974.736449,2011.299373,-270.321997,0.004750,-0.015250,1.003375,192.000000,0.000000,24.000000,127.500000,56.000000,15.500000,48.000000,0.000000,0.000000,0.000000,1775738779.430554,0.000000
232.000000,16562.285013,19035.997276,-14173.621139,437.691860,-14552.751428,-2293.311333,1255.117506,-2083.450804,11775.077793,16563.827284,-2614.952936,2652.213294,-18405.856896,17985.264121,1968.182858,-337.354879,0.004750,-0.015250,1.003375,192.000000,0.000000,0.000000,0.000000,0.000000,0.000000,0.000000,0.000000,0.000000,0.000000,1775738779.430566,0.000000
