Sample_index,EXG Channel 0,EXG Channel 1,EXG Channel 2,EXG Channel 3,EXG Channel 4,EXG Channel 5,EXG Channel 6,EXG Channel 7,EXG Channel 8,EXG Channel 9,EXG Channel 10,EXG Channel 11,EXG Channel 12,EXG Channel 13,EXG Channel 14,EXG Channel 15,Accel Channel 0,Accel Channel 1,Accel Channel 2,Not Used,Digital Channel 0 (D11),Digital Channel 1 (D12),Digital Channel 2 (D13),Digital Channel 3 (D17),Not Used,Digital Channel 4 (D18),Analog Channel 0,Analog Channel 1,Analog Channel 2,Timestamp,Marker Channel
210.000000,17274.299833,19376.637861,-12010.665180,140.883045,-11709.184850,-5625.196472,1109.965278,716.507520,11543.200796,16522.722426,-312.499739,2534.710173,-16070.010194,18971.378383,3256.827981,2829.820255,0.012000,-0.026000,1.004000,192.000000,0.000000,0.000000,0.000000,0.000000,0.000000,0.000000,0.000000,0.000000,0.000000,1775740728.995415,101.000000
212.000000,17310.174383,19398.453164,-11949.823731,187.195860,-11654.914815,-5582.459936,1146.264511,762.842687,11552.610880,16576.545426,-271.037253,2543.025022,-16018.645885,19006.962360,2922.311774,2347.581368,0.012000,-0.026000,1.004000,192.000000,0.000000,0.000000,0.000000,0.000000,0.000000,0.000000,0.000000,0.000000,0.000000,1775740728.995475,0.000000
214.000000,17253.333897,19356.968326,-12022.913936,137.105600,-11718.617287,-5624.995306,1101.717484,707.678581,11517.831566,16524.599972,-282.995437,2537.884121,-16029.911164,18982.867179,2967.127021,2410.345067,0.012000,-0.026000,1.004000,192.000000,0.000000,0.000000,0.000000,0.000000,0.000000,0.000000,0.000000,0.000000,0.000000,1775740728.995553,0.000000
216.000000,17290.862476,19387.925492,-11977.852819,177.338741,-11683.994434,-5590.417157,1135.178046,746.928244,11546.866482,16530.947868,-305.235422,2532.206778,-16066.523321,18974.977013,3190.778576,2751.544446,0.014000,-0.024000,1.006000,192.000000,0.000000,56.000000,127.500000,32.000000,15.500000,56.000000,0.000000,0.000000,0.000000,1775740728.995601,0.000000
218.000000,17275.193903,19369.507655,-11993.074357,168.532153,-11698.232496,-5594.753396,1122.661069,733.338384,11523.061874,16550.572699,-260.420175,2550.669319,-16014.600219,19001.664996,2735.093562,2113.826825,0.014000,-0.024000,1.006000,192.000000,0.000000,0.000000,0.000000,0.000000,0.000000,0.000000,0.000000,0.000000,0.000000,1775740728.995656,0.000000
220.000000,17260.821731,19364.634975,-12018.845918,150.740165,-11720.360723,-5602.889431,1109.942926,713.758256,11524.626496,16510.943056,-321.149864,2524.964812,-16086.841057,18968.047973,3236.264376,2844.415944,0.014000,-0.024000,1.006000,192.000000,0.000000,0.000000,0.000000,0.000000,0.000000,0.000000,0.000000,0.000000,0.000000,1775740728.995699,0.000000
222.000000,17299.646711,19386.204408,-11956.998641,190.034531,-11664.928396,-5561.181076,1142.531770,758.439393,11542.284375,16547.734028,-278.145108,2544.969624,-16027.877155,19004.391909,2896.719026,2362.557037,0.014000,-0.024000,1.006000,192.000000,0.000000,0.000000,0.000000,0.000000,0.000000,0.000000,0.000000,0.000000,0.000000,1775740728.995714,0.000000
224.000000,17258.765371,19358.912928,-12018.175366,137.060897,-11718.796100,-5602.867079,1102.298630,711.232509,11523.866537,16529.271487,-283.911858,2533.257310,-16033.755664,18992.210208,2947.591597,2417.743494,0.014000,-0.024000,1.006000,192.000000,0.000000,0.000000,0.000000,0.000000,0.000000,0.000000,0.000000,0.000000,0.000000,1775740728.995725,0.000000
226.000000,17300.004339,19393.044042,-11965.671118,173.181316,-11677.579484,-5573.251018,1136.809723,752.270311,11550.800389,16533.786539,-300.988591,2537.191217,-16058.074362,18989.684461,3181.614361,2746.001213,0.010000,-0.020000,1.010000,192.000000,0.000000,40.000000,127.500000,48.000000,15.500000,72.000000,0.000000,0.000000,0.000000,1775740728.995737,0.000000
228.000000,17295.623397,19386.740850,-11971.370813,161.513705,-11684.173248,-5586.147974,1127.332583,746.861189,11532.539014,16560.563929,-245.288044,2553.709156,-15998.886943,19017.355921,2739.966242,2087.161194,0.010000,-0.020000,1.010000,192.000000,0.000000,0.000000,0.000000,0.000000,0.000000,0.000000,0.000000,0.000000,0.000000,1775740728.995748,0.000000
230.000000,17287.800287,19387.791382,-11990.950941,146.158057,-11702.121699,-5601.011884,1117.967202,729.583291,11546.710020,16527.460996,-301.659143,2531.178597,-16062.142380,18986.443458,3239.237158,2795.778548,0.010000,-0.020000,1.010000,192.000000,0.000000,0.000000,0.000000,0.000000,0.000000,0.000000,0.000000,0.000000,0.000000,1775740728.995760,0.000000
232.000000,17326.848784,19412.132432,-11935.876243,193.208479,-11654.914815,-5573.005149,1152.388889,774.420890,11554.711944,16563.357897,-260.420175,2557.039566,-16004.184306,19018.831136,2914.578070,2325.967232,0.010000,-0.020000,1.010000,192.000000,0.000000,0.000000,0.000000,0.000000,0.000000,0.000000,0.000000,0.000000,0.000000,1775740728.995772,0.000000
234.000000,17271.148237,19370.871111,-12009.569944,140.324252,-11716.605630,-5624.145940,1107.327772,716.038134,11531.019095,16544.113045,-270.679625,2546.266025,-16022.423330,19011.097433,2955.101783,2386.160479,0.010000,-0.020000,1.010000,192.000000,0.000000,0.000000,0.000000,0.000000,0.000000,0.000000,0.000000,0.000000,0.000000,1775740728.995783,0.000000
236.000000,17296.338653,19392.552303,-11970.476743,173.538944,-11682.250998,-5607.046855,1133.367554,745.385974,11550.599223,16534.546499,-303.313172,2537.034754,-16066.143342,18991.316139,3181.189678,2711.512472,0.006000,-0.018000,1.010000,192.000000,0.000000,24.000000,127.500000,56.000000,15.500000,72.000000,0.000000,0.000000,0.000000,1775740728.995795,0.000000
238.000000,17282.748792,19374.581501,-11983.641921,162.385423,-11691.146993,-5607.896222,1123.264566,735.886483,11526.414636,16550.818569,-258.855553,2549.194103,-16010.107518,19011.365653,2752.058536,2092.883240,0.006000,-0.018000,1.010000,192.000000,0.000000,0.000000,0.000000,0.000000,0.000000,0.000000,0.000000,0.000000,0.000000,1775740728.995806,0.000000
240.000000,17266.275557,19368.747696,-12013.213278,147.789734,-11716.449167,-5615.115835,1110.345258,716.216948,11533.723656,16513.602914,-316.433646,2525.411847,-16075.218150,18977.838037,3236.130266,2798.304295,0.006000,-0.018000,1.010000,192.000000,0.000000,0.000000,0.000000,0.000000,0.000000,0.000000,0.000000,0.000000,0.000000,1775740728.995817,0.000000
242.000000,17303.759432,19392.351138,-11957.289214,193.633162,-11670.181056,-5579.867134,1143.671709,762.686224,11542.574947,16547.890490,-278.502736,2546.377784,-16030.045275,19008.772851,2905.749131,2343.759220,0.006000,-0.018000,1.010000,192.000000,0.000000,0.000000,0.000000,0.000000,0.000000,0.000000,0.000000,0.000000,0.000000,1775740728.995829,0.000000
244.000000,17260.151179,19361.572786,-12019.047084,141.888874,-11723.847595,-5617.306306,1103.304458,713.959421,11523.531261,16530.634943,-283.420120,2539.471095,-16036.974315,19001.150906,2953.514809,2418.458750,0.006000,-0.018000,1.010000,192.000000,0.000000,0.000000,0.000000,0.000000,0.000000,0.000000,0.000000,0.000000,0.000000,1775740728.995840,0.000000
246.000000,17299.177325,19392.395841,-11968.129810,178.121052,-11680.954597,-5582.705806,1135.267453,753.924340,11556.030697,16526.701036,-303.849614,2540.074592,-16060.287185,18991.763174,3176.182887,2745.017737,0.014000,-0.016000,1.008000,192.000000,0.000000,56.000000,127.500000,64.000000,15.500000,64.000000,0.000000,0.000000,0.000000,1775740728.995852,0.000000
248.000000,17292.471801,19379.811809,-11974.567112,165.782889,-11687.838934,-5588.405500,1125.231519,747.442335,11539.646869,16547.868138,-249.289006,2555.184371,-15998.149335,19018.227639,2749.801010,2134.211616,0.014000,-0.016000,1.008000,192.000000,0.000000,0.000000,0.000000,0.000000,0.000000,0.000000,0.000000,0.000000,0.000000,1775740728.995864,0.000000
250.000000,17283.240531,19380.258844,-11999.176383,149.510819,-11706.904972,-5595.356893,1114.815606,729.136256,11552.789694,16516.061606,-301.010943,2531.938557,-16059.862502,18985.951720,3237.828998,2838.336270,0.014000,-0.016000,1.008000,192.000000,0.000000,0.000000,0.000000,0.000000,0.000000,0.000000,0.000000,0.000000,0.000000,1775740728.995876,0.000000
252.000000,17321.104386,19407.147993,-11943.319374,191.934430,-11660.770972,-5561.225779,1146.130400,770.688149,11567.094811,16557.166464,-258.766146,2555.832571,-16009.615780,19021.379235,2908.520747,2377.890334,0.014000,-0.016000,1.008000,192.000000,0.000000,0.000000,0.000000,0.000000,0.000000,0.000000,0.000000,0.000000,0.000000,1775740728.995904,0.000000
254.000000,17263.973327,19363.226815,-12011.469842,136.233882,-11721.075978,-5610.600783,1101.784539,710.472549,11530.795578,16529.316190,-278.256867,2534.933690,-16028.234783,19002.447307,2969.608065,2436.116628,0.014000,-0.016000,1.008000,192.000000,0.000000,0.000000,0.000000,0.000000,0.000000,0.000000,0.000000,0.000000,0.000000,1775740728.995916,0.000000
0.000000,17297.612703,19389.221893,-11964.687641,175.796470,-11679.837010,-5581.230590,1136.183874,748.582274,11557.505912,16527.550403,-301.569736,2533.391420,-16057.537920,18997.842848,3198.109948,2758.853466,0.014000,-0.016000,1.002000,192.000000,0.000000,56.000000,127.500000,64.000000,15.500000,40.000000,0.000000,0.000000,0.000000,1775740728.995928,0.000000
2.000000,17279.463086,19367.563053,-11980.087993,160.418470,-11689.783536,-5600.631905,1122.795179,733.763067,11539.356296,16546.661144,-255.212218,2546.288377,-16001.390338,19018.205287,2771.392795,2143.040555,0.014000,-0.016000,1.002000,192.000000,0.000000,0.000000,0.000000,0.000000,0.000000,0.000000,0.000000,0.000000,0.000000,1775740728.995939,0.000000
4.000000,17260.844083,19359.985812,-12006.306589,139.184313,-11711.487080,-5617.753341,1109.942926,712.350096,11530.952040,16501.287103,-321.015754,2514.951231,-16077.118048,18973.568854,3264.159353,2833.955328,0.014000,-0.016000,1.002000,192.000000,0.000000,0.000000,0.000000,0.000000,0.000000,0.000000,0.000000,0.000000,0.000000,1775740728.995951,0.000000
6.000000,17289.074336,19376.861379,-11954.025859,179.775081,-11663.676699,-5588.226687,1140.810685,749.856323,11541.367953,16541.877871,-276.804003,2539.180522,-16026.759568,19008.526982,2939.790838,2367.228552,0.014000,-0.016000,1.002000,192.000000,0.000000,0.000000,0.000000,0.000000,0.000000,0.000000,0.000000,0.000000,0.000000,1775740728.995962,0.000000
8.000000,17243.700295,19348.049980,-12019.695284,130.422429,-11723.579374,-5628.236309,1100.443435,697.575593,11505.716921,16513.401748,-298.574602,2513.118388,-16030.604068,18989.572703,2988.092958,2438.038878,0.014000,-0.016000,1.002000,192.000000,0.000000,0.000000,0.000000,0.000000,0.000000,0.000000,0.000000,0.000000,0.000000,1775740728.995974,0.000000
10.000000,17269.829484,19367.250129,-11980.289159,166.229924,-11698.634827,-5603.247059,1129.590110,732.019631,11539.937441,16519.190850,-316.970088,2518.236937,-16080.247293,18986.532865,3196.500623,2759.233446,0.008000,-0.018000,1.010000,192.000000,0.000000,32.000000,127.500000,56.000000,15.500000,72.000000,0.000000,0.000000,0.000000,1775740728.995985,0.000000
12.000000,17265.984984,19363.517387,-11988.000511,159.703214,-11705.005074,-5605.169309,1120.738819,729.717401,11513.987066,16536.938135,-270.724329,2535.224263,-16026.267830,19011.119784,2762.250932,2148.539084,0.008000,-0.018000,1.010000,192.000000,0.000000,0.000000,0.000000,0.000000,0.000000,0.000000,0.000000,0.000000,0.000000,1775740728.995996,0.000000
14.000000,17250.070542,19358.041210,-12011.827470,142.604130,-11722.886470,-5615.607573,1109.585298,709.980811,11523.643020,16512.641789,-323.273280,2517.633440,-16087.645720,18981.704889,3244.802743,2844.728869,0.008000,-0.018000,1.010000,192.000000,0.000000,0.000000,0.000000,0.000000,0.000000,0.000000,0.000000,0.000000,0.000000,1775740728.996008,0.000000
16.000000,17289.744889,19382.248149,-11953.847045,185.139499,-11671.835085,-5576.000282,1142.196493,756.226570,11534.014229,16545.208281,-282.973085,2536.721830,-16037.801330,19011.142136,2923.585823,2386.540459,0.008000,-0.018000,1.010000,192.000000,0.000000,0.000000,0.000000,0.000000,0.000000,0.000000,0.000000,0.000000,0.000000,1775740728.996019,0.000000
18.000000,17246.896594,19354.263765,-12014.688494,133.126990,-11723.355856,-5612.455977,1101.091635,706.940974,11517.898621,16527.840975,-285.878812,2527.825836,-16038.516586,19002.380252,2965.227123,2447.672480,0.008000,-0.018000,1.010000,192.000000,0.000000,0.000000,0.000000,0.000000,0.000000,0.000000,0.000000,0.000000,0.000000,1775740728.996031,0.000000
20.000000,17274.098667,19372.368678,-11969.381508,164.508839,-11683.770917,-5586.416195,1129.478351,738.233416,11549.749857,16529.942039,-307.314135,2524.964812,-16060.756571,18996.591150,3186.598800,2767.660054,0.005000,-0.018000,1.011000,192.000000,0.000000,8.000000,127.500000,56.000000,15.500000,80.000000,0.000000,0.000000,0.000000,1775740728.996042,0.000000
22.000000,17263.883920,19361.729248,-11978.791592,152.528304,-11691.392862,-5598.150861,1120.135322,729.382125,11523.374799,16548.873967,-263.996454,2537.951176,-16006.128908,19018.831136,2763.592036,2149.679023,0.005000,-0.018000,1.011000,192.000000,0.000000,0.000000,0.000000,0.000000,0.000000,0.000000,0.000000,0.000000,0.000000,1775740728.996054,0.000000
24.000000,17246.270746,19354.599041,-12007.982970,134.445743,-11717.343237,-5617.216899,1107.394827,706.806863,11527.085188,16515.860440,-324.212053,2516.180577,-16076.514551,18981.794296,3249.876589,2835.341136,0.005000,-0.018000,1.011000,192.000000,0.000000,0.000000,0.000000,0.000000,0.000000,0.000000,0.000000,0.000000,0.000000,1775740728.996065,0.000000
26.000000,17278.412554,19374.022707,-11953.020031,178.366921,-11671.097478,-5587.690245,1141.123610,751.599759,11531.421427,16547.756380,-284.738873,2540.074592,-16032.123987,19010.359825,2930.403105,2373.218819,0.005000,-0.018000,1.011000,192.000000,0.000000,0.000000,0.000000,0.000000,0.000000,0.000000,0.000000,0.000000,0.000000,1775740728.996076,0.000000
28.000000,17230.199841,19337.365846,-12022.176328,124.566272,-11727.334467,-5637.311117,1097.716522,696.055674,11502.051234,16522.118929,-297.121739,2525.121275,-16049.826568,18996.501743,2974.659559,2420.470407,0.005000,-0.018000,1.011000,192.000000,0.000000,0.000000,0.000000,0.000000,0.000000,0.000000,0.000000,0.000000,0.000000,1775740728.996087,0.000000
30.000000,17257.804246,19359.851701,-11979.931531,163.950046,-11691.884600,-5607.136262,1128.360764,729.963270,11528.560403,16516.218068,-323.183873,2518.862786,-16078.257987,18985.996423,3187.403463,2737.105219,0.003500,-0.016000,1.009500,192.000000,0.000000,8.000000,127.500000,72.000000,15.500000,64.000000,0.000000,0.000000,0.000000,1775740728.996098,0.000000
32.000000,17253.758580,19353.973192,-11986.927627,157.848019,-11697.561943,-5613.662972,1119.509473,723.011878,11505.091072,16542.526071,-275.686416,2535.537188,-16019.785824,19013.980808,2757.266493,2129.182473,0.003500,-0.016000,1.009500,192.000000,0.000000,0.000000,0.000000,0.000000,0.000000,0.000000,0.000000,0.000000,0.000000,1775740728.996109,0.000000
34.000000,17247.164815,19355.046076,-12013.190927,140.905397,-11724.160519,-5628.281013,1106.768978,702.649439,11520.625534,16514.117004,-329.196492,2513.431312,-16080.381403,18982.643662,3236.934929,2817.973830,0.003500,-0.016000,1.009500,192.000000,0.000000,0.000000,0.000000,0.000000,0.000000,0.000000,0.000000,0.000000,0.000000,1775740728.996120,0.000000
36.000000,17280.312452,19375.900254,-11957.959766,182.054959,-11680.596969,-5594.798099,1138.508456,746.280044,11525.498214,16539.575641,-292.137300,2529.815141,-16038.069551,19008.169354,2912.789930,2364.456935,0.003500,-0.016000,1.009500,192.000000,0.000000,0.000000,0.000000,0.000000,0.000000,0.000000,0.000000,0.000000,0.000000,1775740728.996132,0.000000
38.000000,17254.272670,19360.946937,-12016.744854,133.998708,-11727.200356,-5625.956431,1099.772882,705.622221,11508.309723,16529.584411,-293.791329,2526.976469,-16041.511719,19004.056633,2952.374870,2420.246890,0.003500,-0.016000,1.009500,192.000000,0.000000,0.000000,0.000000,0.000000,0.000000,0.000000,0.000000,0.000000,0.000000,1775740728.996143,0.000000
40.000000,17293.723499,19395.189809,-11967.168685,173.605999,-11686.654292,-5593.009960,1135.490970,748.157590,11554.287261,16541.341429,-304.319001,2535.514836,-16045.780903,19005.755366,3168.963274,2741.508513,0.003750,-0.016000,1.007750,192.000000,0.000000,16.000000,127.500000,64.000000,15.500000,56.000000,0.000000,0.000000,0.000000,1775740728.996154,0.000000
42.000000,17287.353252,19384.818600,-11975.282368,163.614769,-11694.812679,-5602.621210,1126.974955,739.619224,11529.655639,16564.609595,-255.949826,2551.786906,-16013.057949,19031.638686,2748.392850,2125.919119,0.003750,-0.016000,1.007750,192.000000,0.000000,0.000000,0.000000,0.000000,0.000000,0.000000,0.000000,0.000000,0.000000,1775740728.996166,0.000000
44.000000,17275.328013,19380.884693,-11999.019921,147.163885,-11721.053627,-5614.601745,1116.827263,722.497788,11539.915090,16534.837071,-309.683419,2530.552749,-16070.211359,19001.709700,3232.218710,2811.022438,0.003750,-0.016000,1.007750,192.000000,0.000000,0.000000,0.000000,0.000000,0.000000,0.000000,0.000000,0.000000,0.000000,1775740728.996178,0.000000
46.000000,17313.169517,19404.868115,-11942.022972,189.229869,-11665.397783,-5584.113966,1150.265473,766.061338,11552.812046,16565.928348,-267.572733,2552.479810,-16021.886888,19029.604677,2912.991096,2351.895255,0.003750,-0.016000,1.007750,192.000000,0.000000,0.000000,0.000000,0.000000,0.000000,0.000000,0.000000,0.000000,0.000000,1775740728.996189,0.000000
48.000000,17257.312507,19363.450332,-12009.860517,133.574025,-11729.167310,-5636.081771,1106.411351,709.846700,11522.391322,16539.665048,-278.949771,2540.320461,-16031.699304,19013.734938,2960.488553,2404.421855,0.003750,-0.016000,1.007750,192.000000,0.000000,0.000000,0.000000,0.000000,0.000000,0.000000,0.000000,0.000000,0.000000,1775740728.996200,0.000000
50.000000,17283.709918,19384.997414,-11966.878112,171.169659,-11695.907914,-5609.572602,1138.419049,742.122619,11544.497197,16540.983801,-306.107140,2535.559539,-16067.909130,18999.273360,3181.882582,2722.129550,0.005875,-0.016000,1.005875,192.000000,0.000000,32.000000,127.500000,64.000000,15.500000,48.000000,0.000000,0.000000,0.000000,1775740728.996212,0.000000
52.000000,17267.951938,19368.904158,-11979.395089,161.558409,-11703.038121,-5622.626021,1126.572624,731.706706,11518.435063,16558.507569,-263.236494,2550.088173,-16011.292161,19027.190689,2758.607597,2108.797682,0.005875,-0.016000,1.005875,192.000000,0.000000,0.000000,0.000000,0.000000,0.000000,0.000000,0.000000,0.000000,0.000000,1775740728.996223,0.000000
54.000000,17251.389295,19362.578614,-12009.055854,144.235807,-11728.049723,-5635.813550,1112.871005,710.807825,11517.228069,16522.856536,-324.927309,2525.277737,-16089.478563,18988.835095,3243.238120,2800.181842,0.005875,-0.016000,1.005875,192.000000,0.000000,0.000000,0.000000,0.000000,0.000000,0.000000,0.000000,0.000000,0.000000,1775740728.996234,0.000000
56.000000,17289.677833,19387.769030,-11955.903406,189.699255,-11680.798135,-5601.056588,1146.778601,756.047756,11527.621630,16556.741781,-285.677646,2548.277682,-16044.082170,19017.870011,2919.473102,2345.547360,0.005875,-0.016000,1.005875,192.000000,0.000000,0.000000,0.000000,0.000000,0.000000,0.000000,0.000000,0.000000,0.000000,1775740728.996246,0.000000
58.000000,17248.438865,19361.371620,-12017.951848,143.006461,-11730.888394,-5635.031239,1108.624173,708.773817,11506.633342,16540.849691,-292.025541,2542.846208,-16054.095752,19011.455060,2960.980291,2407.931078,0.005875,-0.016000,1.005875,192.000000,0.000000,0.000000,0.000000,0.000000,0.000000,0.000000,0.000000,0.000000,0.000000,1775740728.996257,0.000000
60.000000,17295.779860,19402.185905,-11967.995699,182.054959,-11685.067318,-5598.732006,1140.654223,751.778573,11547.268814,16544.850653,-307.202376,2545.662528,-16066.076287,19012.729110,3181.256733,2735.361783,0.007938,-0.012000,1.004938,192.000000,0.000000,40.000000,127.500000,96.000000,15.500000,48.000000,0.000000,0.000000,0.000000,1775740728.996268,0.000000
62.000000,17296.606874,19398.430812,-11973.605987,169.783851,-11688.241266,-5603.850556,1129.076019,747.509390,11539.691572,16577.081868,-251.077145,2564.907380,-16000.071585,19042.836910,2755.366594,2122.879281,0.007938,-0.012000,1.004938,192.000000,0.000000,0.000000,0.000000,0.000000,0.000000,0.000000,0.000000,0.000000,0.000000,1775740728.996279,0.000000
64.000000,17284.603987,19396.352100,-11995.644807,151.790697,-11709.028388,-5613.819434,1120.180025,731.326727,11552.499122,16544.962412,-301.949716,2542.734449,-16059.169598,19010.605694,3235.593824,2811.000086,0.007938,-0.012000,1.004938,192.000000,0.000000,0.000000,0.000000,0.000000,0.000000,0.000000,0.000000,0.000000,0.000000,1775740728.996290,0.000000
66.000000,17313.482441,19411.908914,-11942.291193,190.369808,-11668.348213,-5588.338445,1152.724165,773.146841,11561.842151,16573.751458,-261.381300,2561.085231,-16016.500117,19038.277154,2914.287497,2347.670775,0.007938,-0.012000,1.004938,192.000000,0.000000,0.000000,0.000000,0.000000,0.000000,0.000000,0.000000,0.000000,0.000000,1775740728.996302,0.000000
68.000000,17264.107438,19378.381297,-12006.887735,139.608996,-11725.702790,-5630.426780,1111.954583,722.251919,11526.906374,16548.963374,-273.317131,2550.311691,-16020.925763,19022.429767,2954.274768,2399.727988,0.007938,-0.012000,1.004938,192.000000,0.000000,0.000000,0.000000,0.000000,0.000000,0.000000,0.000000,0.000000,0.000000,1775740728.996313,0.000000
70.000000,17301.010168,19407.975007,-11961.089010,178.277514,-11690.677606,-5603.425873,1142.531770,758.685262,11559.562273,16553.009040,-294.663047,2549.976414,-16058.029659,19016.528906,3174.417099,2721.794274,0.008969,-0.012000,1.003469,192.000000,0.000000,40.000000,127.500000,80.000000,15.500000,40.000000,0.000000,0.000000,0.000000,1775740728.996324,0.000000
72.000000,17282.659386,19386.807905,-11973.829505,166.296979,-11703.261638,-5622.469559,1130.283014,744.246035,11530.907337,16567.850598,-249.825448,2562.806316,-16010.219277,19038.455968,2754.807801,2113.312735,0.008969,-0.012000,1.003469,192.000000,0.000000,0.000000,0.000000,0.000000,0.000000,0.000000,0.000000,0.000000,0.000000,1775740728.996335,0.000000
74.000000,17268.801304,19382.739888,-12004.406691,151.030737,-11723.288801,-5630.225614,1117.095484,723.570672,11536.785845,16532.780711,-308.364667,2538.644080,-16071.731278,19007.275284,3243.461638,2806.909717,0.008969,-0.012000,1.003469,192.000000,0.000000,0.000000,0.000000,0.000000,0.000000,0.000000,0.000000,0.000000,0.000000,1775740729.475331,0.000000
76.000000,17305.413461,19404.219914,-11950.382525,193.230831,-11671.857437,-5591.691207,1150.198418,765.770765,11547.447627,16567.649432,-271.216067,2559.252388,-16025.060835,19039.707665,2919.651916,2355.762107,0.008969,-0.012000,1.003469,192.000000,0.000000,0.000000,0.000000,0.000000,0.000000,0.000000,0.000000,0.000000,0.000000,1775740729.475436,0.000000
78.000000,17241.845100,19356.945974,-12020.924630,136.323289,-11730.150787,-5636.864082,1106.970144,705.733979,11517.719807,16536.826377,-286.974047,2541.102772,-16043.344562,19021.535697,2969.719824,2412.982573,0.008969,-0.012000,1.003469,192.000000,0.000000,0.000000,0.000000,0.000000,0.000000,0.000000,0.000000,0.000000,0.000000,1775740729.475534,0.000000
80.000000,17281.944130,19391.032385,-11974.544761,172.443708,-11683.502696,-5600.833070,1136.049764,743.419021,11542.440837,16541.877871,-314.556100,2535.850112,-16071.999499,19011.924447,3195.181870,2740.189760,0.009484,-0.012000,1.001734,192.000000,0.000000,40.000000,127.500000,80.000000,15.500000,32.000000,0.000000,0.000000,0.000000,1775740729.475623,0.000000
82.000000,17265.292080,19371.385201,-11986.458240,155.746955,-11686.989568,-5606.488062,1118.838920,727.906910,11523.151281,16563.000269,-265.248151,2548.948234,-16012.543859,19036.645476,2766.810687,2128.824845,0.009484,-0.012000,1.001734,192.000000,0.000000,0.000000,0.000000,0.000000,0.000000,0.000000,0.000000,0.000000,0.000000,1775740729.475712,0.000000
84.000000,17245.108455,19362.109227,-12012.453319,135.809199,-11708.871926,-5617.328658,1104.757321,704.102302,11523.821834,16518.967333,-328.503588,2517.164054,-16082.907150,18999.116897,3254.928083,2818.532624,0.009484,-0.012000,1.001734,192.000000,0.000000,0.000000,0.000000,0.000000,0.000000,0.000000,0.000000,0.000000,0.000000,1775740729.475782,0.000000
86.000000,17291.220104,19389.825391,-11947.745019,178.568086,-11654.110152,-5582.705806,1139.782505,755.243093,11539.713924,16554.663069,-279.888544,2540.074592,-16028.011266,19035.192613,2935.029916,2363.026424,0.009484,-0.012000,1.001734,192.000000,0.000000,0.000000,0.000000,0.000000,0.000000,0.000000,0.000000,0.000000,0.000000,1775740729.475862,0.000000
88.000000,17259.279461,19368.077143,-12003.311456,132.165865,-11709.497775,-5624.660030,1106.388999,715.769913,11529.432121,16538.435702,-277.675721,2531.513874,-16026.938382,19020.440462,2978.906391,2413.228442,0.009484,-0.012000,1.001734,192.000000,0.000000,0.000000,0.000000,0.000000,0.000000,0.000000,0.000000,0.000000,0.000000,1775740729.475896,0.000000
90.000000,17287.688528,19393.200504,-11959.546740,172.533115,-11677.087745,-5596.563887,1139.380174,753.857285,11561.372764,16545.901185,-292.003190,2541.661566,-16047.949022,19019.054654,3194.578373,2731.405524,0.009484,-0.012000,1.001734,192.000000,0.000000,0.000000,0.000000,0.000000,0.000000,0.000000,0.000000,0.000000,0.000000,1775740729.475908,0.000000
92.000000,17283.084069,19388.149010,-11969.806191,163.972397,-11678.540609,-5608.522070,1128.763095,744.938939,11538.596337,16575.070211,-246.249169,2560.034699,-15992.047309,19049.676543,2769.291731,2117.090180,0.012000,-0.012000,1.002000,192.000000,0.000000,48.000000,127.500000,80.000000,15.500000,40.000000,0.000000,0.000000,0.000000,1775740729.475920,0.000000
94.000000,17267.951938,19380.169437,-11997.008264,146.783906,-11704.289818,-5622.581318,1116.626098,723.704782,11543.111389,16537.519281,-306.107140,2535.157208,-16060.957737,19010.404528,3250.435382,2804.831005,0.012000,-0.012000,1.002000,192.000000,0.000000,0.000000,0.000000,0.000000,0.000000,0.000000,0.000000,0.000000,0.000000,1775740729.475932,0.000000
96.000000,17304.094708,19403.102327,-11939.340763,191.599153,-11662.022670,-5594.641637,1152.254778,770.263466,11552.901453,16565.369554,-263.996454,2558.827705,-16014.488460,19038.545375,2926.558605,2347.402554,0.012000,-0.012000,1.002000,192.000000,0.000000,0.000000,0.000000,0.000000,0.000000,0.000000,0.000000,0.000000,0.000000,1775740729.475944,0.000000
98.000000,17246.449560,19361.304565,-12007.111252,138.871388,-11728.876737,-5641.960280,1110.814644,712.305392,11514.367046,16539.955621,-277.675721,2544.410830,-16034.470920,19021.625104,2971.507963,2399.370360,0.012000,-0.012000,1.002000,192.000000,0.000000,0.000000,0.000000,0.000000,0.000000,0.000000,0.000000,0.000000,0.000000,1775740729.475958,0.000000
100.000000,17279.127810,19387.232588,-11964.709993,171.102604,-11701.674664,-5618.625059,1139.268415,745.676547,11536.227052,16531.797234,-305.928326,2539.560502,-16068.512627,19010.628046,3188.051663,2729.952661,0.012000,-0.012000,1.002000,192.000000,0.000000,0.000000,0.000000,0.000000,0.000000,0.000000,0.000000,0.000000,0.000000,1775740729.475975,0.000000
102.000000,17263.660403,19369.619414,-11975.438830,161.781926,-11714.661028,-5629.152731,1129.567758,739.529817,11514.299990,16559.178121,-258.229704,2556.659586,-16012.879135,19029.179994,2758.227618,2118.006601,0.006000,-0.012000,1.000000,192.000000,0.000000,24.000000,127.500000,80.000000,15.500000,32.000000,0.000000,0.000000,0.000000,1775740729.475987,0.000000
104.000000,17259.458275,19372.368678,-12001.724482,148.102659,-11730.821339,-5634.047763,1119.956508,724.978831,11517.697456,16520.353141,-313.505568,2532.273833,-16077.185104,18996.725261,3241.002946,2811.961211,0.006000,-0.012000,1.000000,192.000000,0.000000,0.000000,0.000000,0.000000,0.000000,0.000000,0.000000,0.000000,0.000000,1775740729.475999,0.000000
106.000000,17299.266732,19393.871056,-11949.399048,188.067578,-11679.434678,-5596.809756,1149.840790,767.648312,11544.921880,16557.077057,-264.555247,2556.838400,-16031.632248,19027.525965,2917.774369,2358.287854,0.006000,-0.012000,1.000000,192.000000,0.000000,0.000000,0.000000,0.000000,0.000000,0.000000,0.000000,0.000000,0.000000,1775740729.476011,0.000000
108.000000,17259.234757,19365.216120,-12015.917840,135.339813,-11730.463711,-5630.873815,1105.763150,716.038134,11522.011342,16539.665048,-272.154840,2547.383612,-16036.013190,19018.205287,2960.309739,2418.369343,0.006000,-0.012000,1.000000,192.000000,0.000000,0.000000,0.000000,0.000000,0.000000,0.000000,0.000000,0.000000,0.000000,1775740729.476022,0.000000
110.000000,17300.093746,19401.381242,-11968.018051,171.124956,-11686.497830,-5595.580410,1136.228578,756.919474,11554.063744,16546.638792,-296.942925,2546.690708,-16061.136551,19015.031340,3187.358759,2743.408411,0.006000,-0.012000,1.000000,192.000000,0.000000,0.000000,0.000000,0.000000,0.000000,0.000000,0.000000,0.000000,0.000000,1775740729.476034,0.000000
112.000000,17282.927606,19380.772934,-11972.063717,159.792621,-11683.145068,-5601.816547,1126.371458,745.207160,11535.288278,16565.548368,-248.283177,2562.202819,-15997.970521,19043.820386,2763.368519,2125.270918,0.004000,-0.016000,1.006000,192.000000,0.000000,16.000000,127.500000,64.000000,15.500000,56.000000,0.000000,0.000000,0.000000,1775740729.476046,0.000000
114.000000,17266.901406,19381.219969,-11995.331883,140.637176,-11704.446281,-5614.154710,1114.457979,724.375334,11545.458322,16533.205394,-307.805873,2537.034754,-16056.263871,19009.421052,3251.575321,2813.995220,0.004000,-0.016000,1.006000,192.000000,0.000000,0.000000,0.000000,0.000000,0.000000,0.000000,0.000000,0.000000,0.000000,1775740729.476060,0.000000
116.000000,17299.132621,19403.214085,-11937.329106,186.771177,-11659.809847,-5578.660140,1149.326700,771.381053,11545.145398,16571.672746,-268.399747,2557.933635,-16017.014207,19041.764026,2926.916233,2353.012842,0.004000,-0.016000,1.006000,192.000000,0.000000,0.000000,0.000000,0.000000,0.000000,0.000000,0.000000,0.000000,0.000000,1775740729.476072,0.000000
118.000000,17260.084124,19373.843893,-12004.294932,135.451571,-11721.232441,-5623.810664,1107.551290,721.335497,11522.436025,16556.294746,-273.674759,2550.423449,-16032.548670,19033.963267,2969.384547,2404.667724,0.004000,-0.016000,1.006000,192.000000,0.000000,0.000000,0.000000,0.000000,0.000000,0.000000,0.000000,0.000000,0.000000,1775740729.476084,0.000000
120.000000,17306.106365,19407.371510,-11956.551606,178.702197,-11682.765088,-5594.775748,1143.738764,767.648312,11564.479657,16561.457999,-285.476480,2554.983205,-16053.805179,19028.800014,3187.135242,2725.124684,0.004000,-0.016000,1.006000,192.000000,0.000000,0.000000,0.000000,0.000000,0.000000,0.000000,0.000000,0.000000,0.000000,1775740729.476095,0.000000
122.000000,17296.740985,19394.049870,-11967.213388,170.342644,-11692.197525,-5611.651315,1133.814589,761.568637,11548.207587,16580.926368,-230.692355,2574.205705,-15994.260132,19052.336401,2753.600806,2111.815168,0.002000,-0.016000,1.004000,192.000000,0.000000,8.000000,127.500000,64.000000,15.500000,48.000000,0.000000,0.000000,0.000000,1775740729.476107,0.000000
124.000000,17284.134601,19391.725289,-11996.963560,150.986034,-11721.455958,-5626.917556,1119.978859,741.809695,11547.380572,16538.770978,-289.723312,2549.216455,-16063.528188,19016.350092,3245.249777,2803.288734,0.002000,-0.016000,1.004000,192.000000,0.000000,0.000000,0.000000,0.000000,0.000000,0.000000,0.000000,0.000000,0.000000,1775740729.476118,0.000000
126.000000,17327.251116,19418.793251,-11939.206653,194.616639,-11671.209237,-5591.668855,1153.551180,787.697826,11567.072459,16575.338432,-247.880846,2573.088118,-16012.722673,19045.742636,2919.964840,2345.279139,0.002000,-0.016000,1.004000,192.000000,0.000000,0.000000,0.000000,0.000000,0.000000,0.000000,0.000000,0.000000,0.000000,1775740729.476130,0.000000
128.000000,17278.233740,19381.890521,-12005.792499,142.268853,-11729.502586,-5634.830074,1110.948755,733.092515,11541.412656,16547.577566,-258.833201,2556.994862,-16020.836356,19026.140157,2960.890885,2404.891241,0.002000,-0.016000,1.004000,192.000000,0.000000,0.000000,0.000000,0.000000,0.000000,0.000000,0.000000,0.000000,0.000000,1775740729.476142,0.000000
130.000000,17315.516450,19414.077033,-11959.814961,184.267781,-11696.086728,-5598.106158,1144.811648,771.269294,11569.061764,16552.807874,-283.643637,2557.643063,-16054.051048,19020.485165,3184.743605,2737.306385,0.002000,-0.016000,1.004000,192.000000,0.000000,0.000000,0.000000,0.000000,0.000000,0.000000,0.000000,0.000000,0.000000,1775740729.476154,0.000000
132.000000,17302.664197,19395.614492,-11971.437868,168.845078,-11701.831126,-5607.806815,1129.634813,757.388861,11551.605052,16580.233464,-235.699145,2574.384519,-15990.929722,19053.029305,2748.459905,2117.403104,0.008000,-0.016000,1.000000,192.000000,0.000000,32.000000,127.500000,64.000000,15.500000,32.000000,0.000000,0.000000,0.000000,1775740729.476166,0.000000
134.000000,17279.083106,19381.264672,-11999.064624,143.341737,-11721.299496,-5624.905899,1112.334563,729.002145,11550.912148,16524.801138,-301.815605,2537.727658,-16060.711868,19006.068290,3242.858141,2825.998107,0.008000,-0.016000,1.000000,192.000000,0.000000,0.000000,0.000000,0.000000,0.000000,0.000000,0.000000,0.000000,0.000000,1775740729.476178,0.000000
136.000000,17315.605857,19405.605722,-11938.446693,185.295962,-11661.665042,-5584.628056,1144.833999,773.593876,11561.976261,16562.687345,-261.962445,2556.659586,-16004.407824,19040.489976,2915.203919,2359.561903,0.008000,-0.016000,1.000000,192.000000,0.000000,0.000000,0.000000,0.000000,0.000000,0.000000,0.000000,0.000000,0.000000,1775740729.476190,0.000000
138.000000,17262.922795,19372.122809,-12002.931476,130.757705,-11714.437510,-5622.424856,1101.985705,717.535701,11537.858729,16548.225766,-270.165535,2545.103734,-16006.374777,19031.057540,2973.653731,2411.842634,0.008000,-0.016000,1.000000,192.000000,0.000000,0.000000,0.000000,0.000000,0.000000,0.000000,0.000000,0.000000,0.000000,1775740729.476202,0.000000
140.000000,17292.494153,19398.386109,-11959.837313,172.466060,-11677.065394,-5592.026483,1134.753363,752.918512,11565.753706,16556.942947,-293.657219,2543.025022,-16034.761493,19027.660075,3198.914611,2748.795181,0.008000,-0.016000,1.000000,192.000000,0.000000,0.000000,0.000000,0.000000,0.000000,0.000000,0.000000,0.000000,0.000000,1775740729.476214,0.000000
142.000000,17284.469877,19385.891484,-11971.147295,166.341682,-11688.017748,-5599.693131,1127.153769,747.844666,11545.301860,16581.440458,-244.013994,2562.269874,-15979.932663,19056.762046,2752.773792,2115.592613,0.010000,-0.014000,1.004000,192.000000,0.000000,40.000000,127.500000,72.000000,15.500000,48.000000,0.000000,0.000000,0.000000,1775740729.476226,0.000000
144.000000,17274.344537,19384.125696,-11997.812927,150.606054,-11713.476385,-5614.199414,1116.000249,732.399611,11551.649755,16545.856481,-297.769940,2541.259234,-16050.564176,19024.754348,3246.412068,2824.008801,0.010000,-0.014000,1.004000,192.000000,0.000000,0.000000,0.000000,0.000000,0.000000,0.000000,0.000000,0.000000,0.000000,1775740729.476237,0.000000
146.000000,17315.114118,19409.226705,-11941.553586,190.190994,-11670.471629,-5588.763128,1148.276168,775.538477,11559.539921,16574.489066,-256.799192,2559.945292,-16010.554553,19048.246032,2915.449788,2352.498752,0.010000,-0.014000,1.004000,192.000000,0.000000,0.000000,0.000000,0.000000,0.000000,0.000000,0.000000,0.000000,0.000000,1775740729.476250,0.000000
148.000000,17270.120057,19374.089762,-12003.199697,137.060897,-11726.194528,-5631.142036,1108.221842,721.871939,11533.254270,16550.885624,-263.862343,2545.975452,-16023.473862,19033.538584,2960.488553,2399.772692,0.010000,-0.014000,1.004000,192.000000,0.000000,0.000000,0.000000,0.000000,0.000000,0.000000,0.000000,0.000000,0.000000,1775740729.476262,0.000000
150.000000,17305.726386,19402.118850,-11954.852874,174.634179,-11686.609588,-5599.782538,1140.386002,757.880599,11562.557407,16550.527996,-287.622248,2542.868560,-16041.310554,19027.391854,3190.644466,2736.859350,0.010000,-0.014000,1.004000,192.000000,0.000000,0.000000,0.000000,0.000000,0.000000,0.000000,0.000000,0.000000,0.000000,1775740729.476274,0.000000
152.000000,17297.098612,19392.149972,-11961.401935,165.224095,-11687.794231,-5604.297591,1130.819455,752.158553,11546.330040,16579.518208,-236.302642,2561.554618,-15983.978329,19057.186730,2754.673690,2105.735493,0.006000,-0.016000,1.006000,192.000000,0.000000,24.000000,127.500000,64.000000,15.500000,56.000000,0.000000,0.000000,0.000000,1775740729.476286,0.000000
154.000000,17275.395069,19380.683527,-11993.074357,144.056993,-11708.067263,-5616.501643,1118.235423,728.398648,11554.242558,16541.073208,-296.987629,2534.464304,-16055.123932,19018.294694,3252.022356,2818.912604,0.006000,-0.016000,1.006000,192.000000,0.000000,0.000000,0.000000,0.000000,0.000000,0.000000,0.000000,0.000000,0.000000,1775740729.476297,0.000000
156.000000,17299.557304,19396.128582,-11945.308679,188.514613,-11660.301585,-5577.989588,1151.159543,767.804774,11554.041392,16570.242234,-266.186925,2552.524513,-16009.124042,19046.256727,2922.781160,2355.538589,0.006000,-0.016000,1.006000,192.000000,0.000000,0.000000,0.000000,0.000000,0.000000,0.000000,0.000000,0.000000,0.000000,1775740729.476310,0.000000
158.000000,17248.282403,19361.215158,-12017.705979,133.529321,-11720.494833,-5624.548271,1103.930307,710.830177,11516.021075,16548.114007,-285.051797,2538.532321,-16025.552574,19031.728093,2966.411765,2419.643393,0.006000,-0.016000,1.006000,192.000000,0.000000,0.000000,0.000000,0.000000,0.000000,0.000000,0.000000,0.000000,0.000000,1775740729.476328,0.000000
160.000000,17293.567037,19398.430812,-11967.459258,174.723586,-11680.149934,-5593.188774,1138.799028,754.036099,11551.828569,16554.417199,-303.402579,2541.080420,-16049.647754,19029.202346,3192.253791,2760.641606,0.006000,-0.016000,1.006000,192.000000,0.000000,0.000000,0.000000,0.000000,0.000000,0.000000,0.000000,0.000000,0.000000,1775740729.476340,0.000000
162.000000,17283.240531,19382.404611,-11972.555455,159.613807,-11687.593065,-5606.733931,1128.249005,747.509390,11536.249404,16583.318005,-244.304567,2560.213513,-15987.509905,19053.006953,2745.509475,2120.621755,0.005000,-0.018000,1.004000,192.000000,0.000000,16.000000,127.500000,48.000000,15.500000,40.000000,0.000000,0.000000,0.000000,1775740729.476351,0.000000
164.000000,17271.103534,19378.023669,-11995.465993,138.044374,-11711.375321,-5626.828149,1115.732028,729.560939,11544.184273,16536.826377,-301.145053,2530.083362,-16057.716734,19008.616389,3249.630719,2826.534549,0.005000,-0.018000,1.004000,192.000000,0.000000,0.000000,0.000000,0.000000,0.000000,0.000000,0.000000,0.000000,0.000000,1775740729.476364,0.000000
166.000000,17309.772052,19404.689301,-11933.395199,182.501993,-11663.564940,-5589.187812,1154.199380,783.585105,11563.138552,16567.291804,-250.317186,2553.977377,-16001.658559,19039.104168,2920.076599,2362.199409,0.005000,-0.018000,1.004000,192.000000,0.000000,0.000000,0.000000,0.000000,0.000000,0.000000,0.000000,0.000000,0.000000,1775740729.476376,0.000000
168.000000,17259.279461,19370.580539,-12000.450432,134.132818,-11718.416121,-5628.035143,1114.659144,730.656174,11534.528319,16548.404580,-258.810849,2544.030850,-16012.365045,19027.414206,2963.148411,2411.172081,0.005000,-0.018000,1.004000,192.000000,0.000000,0.000000,0.000000,0.000000,0.000000,0.000000,0.000000,0.000000,0.000000,1775740729.476389,0.000000
170.000000,17293.835258,19400.822449,-11955.031688,175.394139,-11673.690280,-5595.759224,1145.616310,764.675530,11558.511741,16547.979897,-284.872983,2543.650871,-16043.769246,19025.290790,3193.796062,2746.783524,0.005000,-0.018000,1.004000,192.000000,0.000000,0.000000,0.000000,0.000000,0.000000,0.000000,0.000000,0.000000,0.000000,1775740729.476401,0.000000
172.000000,17285.542761,19392.082917,-11961.871321,166.229924,-11679.278216,-5605.549288,1134.976880,756.964178,11544.966584,16574.310252,-234.514503,2562.560447,-15979.306815,19055.487997,2754.092545,2106.540156,0.003500,-0.017000,1.001000,192.000000,0.000000,8.000000,127.500000,64.000000,15.500000,24.000000,0.000000,0.000000,0.000000,1775740729.476412,0.000000
174.000000,17266.856702,19385.846780,-11991.330921,147.275644,-11708.424891,-5623.408332,1119.397714,731.885520,11550.353354,16538.659220,-295.110082,2540.275757,-16052.754647,19019.233467,3255.486876,2816.766836,0.003500,-0.017000,1.001000,192.000000,0.000000,0.000000,0.000000,0.000000,0.000000,0.000000,0.000000,0.000000,0.000000,1775740729.476424,0.000000
176.000000,17309.302665,19410.545458,-11932.501129,190.705084,-11660.279233,-5582.906971,1154.422898,778.667722,11560.121067,16573.527941,-256.218047,2560.079403,-16008.699359,19047.821349,2931.610099,2348.900121,0.003500,-0.017000,1.001000,192.000000,0.000000,0.000000,0.000000,0.000000,0.000000,0.000000,0.000000,0.000000,0.000000,1775740729.476436,0.000000
178.000000,17250.495225,19364.165588,-12003.579677,133.417563,-11725.926307,-5631.767885,1112.222804,726.386991,11525.274697,16540.268545,-265.359910,2545.930749,-16023.876193,19030.297581,2970.748004,2404.265392,0.003500,-0.017000,1.001000,192.000000,0.000000,0.000000,0.000000,0.000000,0.000000,0.000000,0.000000,0.000000,0.000000,1775740729.476449,0.000000
180.000000,17287.554418,19394.407498,-11961.044307,172.980150,-11686.408423,-5598.664951,1146.398621,767.782422,11549.503988,16532.266621,-290.952658,2540.409868,-16057.582624,19015.545430,3198.869908,2745.688289,0.003500,-0.017000,1.001000,192.000000,0.000000,0.000000,0.000000,0.000000,0.000000,0.000000,0.000000,0.000000,0.000000,1775740729.476462,0.000000
182.000000,17275.663290,19378.202483,-11969.582673,163.614769,-11692.376339,-5604.811681,1138.776677,757.634730,11524.112406,16560.094543,-239.074259,2559.766479,-16000.451565,19044.759160,2750.560969,2109.915270,0.004750,-0.017500,0.999500,192.000000,0.000000,24.000000,127.500000,56.000000,15.500000,24.000000,0.000000,0.000000,0.000000,1775740729.476474,0.000000
184.000000,17257.759542,19367.205425,-11998.014092,142.492371,-11714.683379,-5620.703771,1122.169330,730.119733,11535.198872,16516.575696,-298.418140,2529.725734,-16066.791542,19005.330682,3251.061231,2832.949499,0.004750,-0.017500,0.999500,192.000000,0.000000,0.000000,0.000000,0.000000,0.000000,0.000000,0.000000,0.000000,0.000000,1775740729.476485,0.000000
186.000000,17299.445546,19392.127620,-11939.698391,186.324142,-11658.804018,-5582.817564,1151.986557,772.364530,11550.420409,16550.863272,-259.503753,2549.618787,-16009.481670,19036.354904,2920.277765,2360.299511,0.004750,-0.017500,0.999500,192.000000,0.000000,0.000000,0.000000,0.000000,0.000000,0.000000,0.000000,0.000000,0.000000,1775740729.476497,0.000000
188.000000,17260.374696,19367.540701,-12003.289104,137.440877,-11710.749472,-5617.552175,1109.093560,722.676602,11531.711999,16537.698095,-268.198582,2542.935615,-16006.866516,19030.789319,2964.489515,2417.363515,0.004750,-0.017500,0.999500,192.000000,0.000000,0.000000,0.000000,0.000000,0.000000,0.000000,0.000000,0.000000,0.000000,1775740729.476509,0.000000
190.000000,17297.947979,19397.201466,-11951.947147,174.008331,-11667.074164,-5584.985684,1142.174142,761.166306,11568.726488,16545.252984,-287.398730,2544.634348,-16041.891699,19030.118767,3198.378169,2755.500705,0.004750,-0.017500,0.999500,192.000000,0.000000,0.000000,0.000000,0.000000,0.000000,0.000000,0.000000,0.000000,0.000000,1775740729.476521,0.000000
192.000000,17276.423249,19377.062544,-11962.698336,162.452479,-11678.093574,-5597.972047,1132.249967,751.555056,11550.174540,16572.298595,-235.721497,2560.638197,-15979.485629,19059.421904,2755.165429,2112.597479,0.006375,-0.018750,1.001750,192.000000,0.000000,32.000000,127.500000,48.000000,15.500000,48.000000,0.000000,0.000000,0.000000,1775740729.476533,0.000000
194.000000,17250.986964,19365.439637,-11989.855705,147.409755,-11702.680493,-5613.238289,1126.729086,731.326727,11538.663392,16527.528051,-303.335524,2531.469170,-16049.312478,19017.244162,3258.683176,2830.647270,0.006375,-0.018750,1.001750,192.000000,0.000000,0.000000,0.000000,0.000000,0.000000,0.000000,0.000000,0.000000,0.000000,1775740729.956586,0.000000
196.000000,17290.437793,19384.818600,-11937.709086,188.559316,-11657.194693,-5578.414271,1158.759136,772.878620,11549.571043,16561.636813,-261.582465,2552.993900,-16004.743100,19051.442331,2923.407009,2354.041023,0.006375,-0.018750,1.001750,192.000000,0.000000,0.000000,0.000000,0.000000,0.000000,0.000000,0.000000,0.000000,0.000000,1775740729.956672,0.000000
198.000000,17248.774141,19353.772027,-12004.607857,136.144475,-11715.935077,-5617.529823,1115.284993,721.827235,11521.474900,16534.747664,-271.193715,2540.208702,-16019.025864,19036.556069,2966.277655,2404.488910,0.006375,-0.018750,1.001750,192.000000,0.000000,0.000000,0.000000,0.000000,0.000000,0.000000,0.000000,0.000000,0.000000,1775740729.956717,0.000000
200.000000,17292.717671,19392.842876,-11953.243548,181.563220,-11671.030423,-5582.325826,1151.137191,766.642483,11562.155075,16538.413350,-285.364721,2547.003632,-16041.288202,19033.762101,3198.624039,2746.291786,0.006375,-0.018750,1.001750,192.000000,0.000000,0.000000,0.000000,0.000000,0.000000,0.000000,0.000000,0.000000,0.000000,1775740729.956764,0.000000
202.000000,17275.059792,19371.653422,-11966.878112,167.816897,-11686.497830,-5595.423948,1135.558025,752.292663,11532.941345,16568.387040,-236.772029,2564.974435,-15990.795611,19060.763009,2754.003138,2111.032857,0.007188,-0.019375,1.002875,192.000000,0.000000,32.000000,127.500000,48.000000,15.500000,48.000000,0.000000,0.000000,0.000000,1775740729.956811,0.000000
204.000000,17255.703182,19360.812826,-11993.700206,147.588569,-11711.285914,-5609.237326,1122.951641,730.455009,11537.523453,16531.305496,-298.015809,2539.113467,-16063.304670,19023.569706,3252.759964,2833.418886,0.007188,-0.019375,1.002875,192.000000,0.000000,0.000000,0.000000,0.000000,0.000000,0.000000,0.000000,0.000000,0.000000,1775740729.956858,0.000000
206.000000,17285.699223,19374.089762,-11939.318411,185.027741,-11659.876902,-5576.737890,1154.378194,770.978721,11542.865520,16555.735952,-261.984797,2549.775249,-16017.371835,19045.899099,2928.100875,2360.903008,0.007188,-0.019375,1.002875,192.000000,0.000000,0.000000,0.000000,0.000000,0.000000,0.000000,0.000000,0.000000,0.000000,1775740729.956905,0.000000
208.000000,17227.629391,19333.141367,-12012.788595,129.550711,-11717.700865,-5618.423893,1109.339429,710.651363,11506.566287,16529.919687,-279.285047,2528.138760,-16034.739141,19032.242183,2969.742175,2419.308116,0.007188,-0.019375,1.002875,192.000000,0.000000,0.000000,0.000000,0.000000,0.000000,0.000000,0.000000,0.000000,0.000000,1775740729.956952,0.000000
210.000000,17268.287214,19366.266652,-11965.984042,169.381519,-11672.483286,-5582.705806,1141.123610,746.190637,11535.891776,16521.783653,-308.990515,2526.283565,-16064.645775,19022.340360,3204.770768,2763.413222,0.007188,-0.019375,1.002875,192.000000,0.000000,0.000000,0.000000,0.000000,0.000000,0.000000,0.000000,0.000000,0.000000,1775740729.957031,0.000000
212.000000,17258.921833,19355.895442,-11975.796458,157.713909,-11678.026519,-5594.865155,1126.639679,732.667832,11524.872366,16559.021659,-258.050890,2545.461362,-15993.723690,19052.604622,2757.914693,2121.538177,0.008594,-0.022688,1.003437,192.000000,0.000000,40.000000,127.500000,24.000000,15.500000,48.000000,0.000000,0.000000,0.000000,1775740729.957091,0.000000
214.000000,17248.528272,19355.269594,-12000.405729,140.905397,-11704.111004,-5610.779597,1115.106179,715.009953,11529.901508,16519.637885,-315.338411,2521.679106,-16059.370763,19018.451156,3262.237103,2836.861055,0.008594,-0.022688,1.003437,192.000000,0.000000,0.000000,0.000000,0.000000,0.000000,0.000000,0.000000,0.000000,0.000000,1775740729.957138,0.000000
216.000000,17290.929531,19385.533856,-11940.748923,185.385369,-11655.026574,-5579.665968,1151.584226,764.541419,11553.214378,16555.981822,-267.930361,2548.568255,-16004.698396,19048.178977,2926.871529,2359.919531,0.008594,-0.022688,1.003437,192.000000,0.000000,0.000000,0.000000,0.000000,0.000000,0.000000,0.000000,0.000000,0.000000,1775740729.957186,0.000000
218.000000,17238.246469,19345.837157,-12008.273543,128.455475,-11718.974914,-5629.130379,1109.495891,711.590136,11525.475863,16530.500833,-275.976989,2534.263138,-16014.734330,19032.510404,2965.115364,2409.898032,0.008594,-0.022688,1.003437,192.000000,0.000000,0.000000,0.000000,0.000000,0.000000,0.000000,0.000000,0.000000,0.000000,1775740729.957234,0.000000
220.000000,17282.882903,19382.538722,-11954.472894,167.593380,-11676.819524,-5600.162518,1148.656148,763.803812,11558.265872,16530.903164,-292.249059,2535.961871,-16049.021906,19024.888459,3196.813547,2746.828228,0.008594,-0.022688,1.003437,192.000000,0.000000,0.000000,0.000000,0.000000,0.000000,0.000000,0.000000,0.000000,0.000000,1775740729.957261,0.000000
222.000000,17269.673022,19365.953727,-11967.995699,154.919941,-11689.939998,-5613.573565,1136.385040,752.270311,11538.194005,16546.772903,-240.258901,2552.613920,-15991.577922,19048.156625,2754.606635,2102.203918,0.007297,-0.021344,1.004719,192.000000,0.000000,24.000000,127.500000,48.000000,15.500000,56.000000,0.000000,0.000000,0.000000,1775740729.957273,0.000000
224.000000,17263.928624,19370.737001,-11991.822659,140.994804,-11706.256772,-5625.576451,1124.605671,730.052677,11544.050162,16512.418272,-300.116873,2530.910376,-16049.580699,19011.298598,3255.620987,2819.851377,0.007297,-0.021344,1.004719,192.000000,0.000000,0.000000,0.000000,0.000000,0.000000,0.000000,0.000000,0.000000,0.000000,1775740729.957285,0.000000
226.000000,17305.346406,19397.492039,-11935.049228,188.291095,-11655.451257,-5584.158669,1156.926293,772.744509,11556.298918,16556.317098,-258.967311,2558.872409,-16013.236763,19052.604622,2924.859872,2350.911778,0.007297,-0.021344,1.004719,192.000000,0.000000,0.000000,0.000000,0.000000,0.000000,0.000000,0.000000,0.000000,0.000000,1775740729.957297,0.000000
228.000000,17261.939318,19370.401725,-12003.333807,142.335909,-11713.006999,-5615.875794,1115.888490,723.637727,11529.968563,16539.285068,-266.343387,2553.955025,-16020.501080,19044.245070,2964.288350,2409.473349,0.007297,-0.021344,1.004719,192.000000,0.000000,0.000000,0.000000,0.000000,0.000000,0.000000,0.000000,0.000000,0.000000,1775740729.957309,0.000000
230.000000,17295.869266,19396.575617,-11958.429153,182.144366,-11668.459972,-5584.158669,1144.498723,759.601684,11558.176465,16544.582432,-291.578506,2555.631406,-16050.921804,19041.741674,3199.316943,2758.227618,0.007297,-0.021344,1.004719,192.000000,0.000000,0.000000,0.000000,0.000000,0.000000,0.000000,0.000000,0.000000,0.000000,1775740729.957325,0.000000
232.000000,17277.943167,19376.079068,-11969.113287,171.147307,-11674.114963,-5586.147974,1132.741706,747.285872,11534.103636,16569.459923,-240.772991,2567.142554,-15995.176553,19070.709535,2758.585245,2128.713087,0.007297,-0.021344,1.004719,192.000000,0.000000,0.000000,0.000000,0.000000,0.000000,0.000000,0.000000,0.000000,0.000000,1775740729.957337,0.000000
234.000000,17254.362077,19363.517387,-11999.981046,149.980205,-11697.181964,-5599.491966,1120.135322,719.010916,11524.604145,16517.112138,-311.426855,2536.766533,-16073.698231,19029.627029,3267.489763,2847.500485,0.006000,-0.018000,1.006000,192.000000,0.000000,24.000000,127.500000,56.000000,15.500000,56.000000,0.000000,0.000000,0.000000,1775740729.957348,0.000000
236.000000,17289.789592,19380.594120,-11945.643955,184.848927,-11649.729210,-5567.081936,1150.243121,757.277102,11543.312555,16548.091656,-271.998378,2552.189237,-16020.232859,19052.381105,2935.186378,2373.151764,0.006000,-0.018000,1.006000,192.000000,0.000000,0.000000,0.000000,0.000000,0.000000,0.000000,0.000000,0.000000,0.000000,1775740729.957360,0.000000
238.000000,17245.779007,19349.011105,-12012.408616,130.042449,-11704.289818,-5610.846652,1104.846728,703.319991,11514.545860,16522.074225,-285.990570,2533.749048,-16031.811062,19035.304372,2969.161030,2428.695849,0.006000,-0.018000,1.006000,192.000000,0.000000,0.000000,0.000000,0.000000,0.000000,0.000000,0.000000,0.000000,0.000000,1775740729.957372,0.000000
240.000000,17287.040327,19382.225797,-11960.999603,164.419432,-11670.114001,-5590.752434,1136.027412,743.687242,11553.572005,16529.338542,-303.782559,2536.453609,-16047.636097,19025.268438,3206.961239,2767.414185,0.006000,-0.018000,1.006000,192.000000,0.000000,0.000000,0.000000,0.000000,0.000000,0.000000,0.000000,0.000000,0.000000,1775740729.957384,0.000000
242.000000,17283.307586,19374.983832,-11966.475781,156.708080,-11681.379280,-5606.108082,1128.137246,742.189675,11535.645906,16548.963374,-249.467820,2551.921016,-15989.007472,19051.107055,2770.901057,2120.599403,0.006000,-0.018000,1.006000,192.000000,0.000000,0.000000,0.000000,0.000000,0.000000,0.000000,0.000000,0.000000,0.000000,1775740729.957397,0.000000
244.000000,17276.892635,19381.331728,-11992.046176,139.050202,-11705.474461,-5621.620193,1117.006077,730.007974,11544.698363,16520.554307,-302.307344,2531.200949,-16057.962603,19015.567781,3265.209885,2838.112752,0.008000,-0.014000,1.010000,192.000000,0.000000,32.000000,127.500000,72.000000,15.500000,72.000000,0.000000,0.000000,0.000000,1775740729.957408,0.000000
246.000000,17322.490194,19411.171307,-11931.472949,183.530174,-11656.770010,-5585.544477,1155.272264,783.562754,11564.345546,16559.066362,-250.183076,2562.314577,-16001.256228,19050.168282,2929.106704,2360.791249,0.008000,-0.014000,1.010000,192.000000,0.000000,0.000000,0.000000,0.000000,0.000000,0.000000,0.000000,0.000000,0.000000,1775740729.957420,0.000000
248.000000,17273.651633,19376.816675,-11998.483479,131.361202,-11717.186775,-5630.918518,1116.022601,731.237320,11533.209566,16541.207318,-259.660215,2550.959891,-16017.394187,19039.282982,2967.529353,2409.652163,0.008000,-0.014000,1.010000,192.000000,0.000000,0.000000,0.000000,0.000000,0.000000,0.000000,0.000000,0.000000,0.000000,1775740729.957432,0.000000
250.000000,17315.114118,19409.986664,-11953.377659,173.829517,-11678.071222,-5596.943867,1148.544389,768.274160,11569.397041,16541.609650,-282.838974,2551.652795,-16034.023885,19033.471529,3198.020541,2752.058536,0.008000,-0.014000,1.010000,192.000000,0.000000,0.000000,0.000000,0.000000,0.000000,0.000000,0.000000,0.000000,0.000000,1775740729.957443,0.000000
252.000000,17309.906162,19399.906027,-11963.592406,167.101642,-11682.765088,-5603.224707,1136.385040,757.075936,11554.890758,16567.336508,-232.525198,2569.221266,-15991.734385,19064.227529,2753.511399,2120.845273,0.008000,-0.014000,1.010000,192.000000,0.000000,0.000000,0.000000,0.000000,0.000000,0.000000,0.000000,0.000000,0.000000,1775740729.957455,0.000000
254.000000,17301.434851,19399.548399,-11987.307607,150.382537,-11702.881658,-5612.590088,1123.309269,737.048773,11566.178389,16541.296725,-288.158690,2548.322385,-16055.727429,19032.219831,3253.721089,2837.352793,0.006000,-0.010000,1.006000,192.000000,0.000000,24.000000,127.500000,88.000000,15.500000,56.000000,0.000000,0.000000,0.000000,1775740729.957467,0.000000
0.000000,17344.171386,19431.891374,-11926.220289,198.751712,-11648.723382,-5570.971140,1160.167296,786.200259,11580.863485,16578.914711,-243.455201,2575.524458,-15995.422422,19067.177959,2926.983288,2367.139145,0.006000,-0.010000,1.006000,192.000000,0.000000,0.000000,0.000000,0.000000,0.000000,0.000000,0.000000,0.000000,0.000000,1775740729.957478,0.000000
2.000000,17287.017976,19390.831219,-11998.014092,141.665356,-11706.681455,-5615.741684,1112.625135,727.169302,11548.341697,16558.462865,-255.346329,2563.007481,-16005.436004,19053.856320,2971.731481,2421.498587,0.006000,-0.010000,1.006000,192.000000,0.000000,0.000000,0.000000,0.000000,0.000000,0.000000,0.000000,0.000000,0.000000,1775740729.957490,0.000000
4.000000,17312.186040,19411.730100,-11956.886882,174.276552,-11673.869094,-5586.595009,1141.145961,758.528800,11568.122991,16546.951717,-286.996399,2555.027909,-16036.102597,19042.591040,3206.983591,2766.721280,0.006000,-0.010000,1.006000,192.000000,0.000000,0.000000,0.000000,0.000000,0.000000,0.000000,0.000000,0.000000,0.000000,1775740729.957502,0.000000
6.000000,17294.908141,19393.066394,-11966.632243,164.307673,-11686.587237,-5602.598858,1134.418086,750.549227,11541.636174,16569.437572,-242.561131,2565.533229,-15986.369966,19061.791189,2763.748498,2121.180549,0.006000,-0.010000,1.006000,192.000000,0.000000,0.000000,0.000000,0.000000,0.000000,0.000000,0.000000,0.000000,0.000000,1775740729.957514,0.000000
8.000000,17274.635109,19384.796248,-11999.534011,142.693537,-11712.157632,-5622.938946,1118.481293,722.631898,11542.083209,16527.013961,-308.543480,2536.185388,-16061.404772,19024.799052,3258.370251,2836.414020,0.006000,-0.012000,1.004000,192.000000,0.000000,24.000000,127.500000,80.000000,15.500000,48.000000,0.000000,0.000000,0.000000,1775740729.957525,0.000000
10.000000,17326.200584,19417.072167,-11936.412684,191.308581,-11653.730172,-5577.520201,1155.138153,772.431585,11555.784828,16568.096467,-267.416271,2558.805353,-16012.141527,19055.197424,2928.927890,2364.859267,0.006000,-0.012000,1.004000,192.000000,0.000000,0.000000,0.000000,0.000000,0.000000,0.000000,0.000000,0.000000,0.000000,1775740729.957537,0.000000
12.000000,17283.441697,19386.897312,-12003.087938,137.798505,-11704.178060,-5624.995306,1109.853519,720.575538,11539.803331,16554.193682,-267.885657,2551.026946,-16010.867478,19048.536604,2969.138678,2418.391695,0.006000,-0.012000,1.004000,192.000000,0.000000,0.000000,0.000000,0.000000,0.000000,0.000000,0.000000,0.000000,0.000000,1775740729.957548,0.000000
14.000000,17326.222935,19423.129490,-11953.198845,176.444671,-11665.040155,-5590.595971,1143.671709,765.189620,11571.073421,16552.070266,-288.583373,2548.791772,-16035.588507,19038.478319,3209.285821,2761.647434,0.006000,-0.012000,1.004000,192.000000,0.000000,0.000000,0.000000,0.000000,0.000000,0.000000,0.000000,0.000000,0.000000,1775740729.957560,0.000000
16.000000,17318.690398,19412.400652,-11960.440810,167.571028,-11673.757335,-5600.520146,1135.423915,761.233361,11552.610880,16579.115877,-230.468837,2570.294150,-15978.502152,19072.832951,2764.664920,2120.979383,0.006000,-0.012000,1.004000,192.000000,0.000000,0.000000,0.000000,0.000000,0.000000,0.000000,0.000000,0.000000,0.000000,1775740729.957571,0.000000
18.000000,17301.300740,19403.772879,-11988.827525,151.030737,-11700.601780,-5613.126530,1124.851540,739.239244,11558.444686,16540.380304,-287.711655,2548.478848,-16047.569042,19034.186785,3262.930007,2837.665717,0.006000,-0.008000,1.000000,192.000000,0.000000,24.000000,127.500000,96.000000,15.500000,32.000000,0.000000,0.000000,0.000000,1775740729.957584,0.000000
20.000000,17341.466825,19429.119757,-11931.964687,194.951915,-11651.696164,-5576.603779,1159.295578,783.808623,11567.921825,16573.192665,-251.032442,2568.751880,-16001.658559,19062.618203,2930.268995,2363.093479,0.006000,-0.008000,1.000000,192.000000,0.000000,0.000000,0.000000,0.000000,0.000000,0.000000,0.000000,0.000000,0.000000,1775740729.957596,0.000000
22.000000,17297.769165,19399.034309,-11994.504868,142.402964,-11705.742682,-5618.490948,1117.654278,731.572596,11548.185235,16557.837016,-257.000358,2562.694557,-15994.438946,19055.309183,2971.485611,2414.837767,0.006000,-0.008000,1.000000,192.000000,0.000000,0.000000,0.000000,0.000000,0.000000,0.000000,0.000000,0.000000,0.000000,1775740729.957608,0.000000
24.000000,17344.439607,19436.406426,-11942.581766,181.585572,-11668.303510,-5585.946809,1150.868970,773.079785,11592.754613,16564.900168,-272.512468,2566.337891,-16032.414559,19053.588099,3208.034123,2758.451135,0.006000,-0.008000,1.000000,192.000000,0.000000,0.000000,0.000000,0.000000,0.000000,0.000000,0.000000,0.000000,0.000000,1775740729.957620,0.000000
26.000000,17332.637886,19422.794214,-11954.249377,169.493278,-11678.965292,-5599.111986,1138.709621,764.943750,11575.297901,16593.577456,-220.611718,2582.386444,-15970.857855,19078.666756,2761.200400,2115.346744,0.006000,-0.008000,1.000000,192.000000,0.000000,0.000000,0.000000,0.000000,0.000000,0.000000,0.000000,0.000000,0.000000,1775740729.957632,0.000000
28.000000,17315.404691,19416.312208,-11982.591389,150.248426,-11704.043949,-5617.507472,1127.600804,746.212989,11577.309558,16552.494949,-280.045006,2556.458420,-16042.584603,19039.417093,3262.281807,2836.414020,0.006000,-0.010000,0.998000,192.000000,0.000000,24.000000,127.500000,88.000000,15.500000,24.000000,0.000000,0.000000,0.000000,1775740729.957643,0.000000
30.000000,17346.563023,19435.087673,-11930.869452,191.465043,-11656.501789,-5585.186849,1161.083717,788.770710,11589.424204,16582.401583,-241.130619,2577.357301,-15998.730481,19062.729962,2930.470160,2362.847610,0.006000,-0.010000,0.998000,192.000000,0.000000,0.000000,0.000000,0.000000,0.000000,0.000000,0.000000,0.000000,0.000000,1775740729.957655,0.000000
32.000000,17296.852743,19402.454126,-12000.182211,142.067688,-11716.158595,-5623.229518,1119.889452,738.188712,11549.772209,16556.428856,-257.670910,2563.454516,-16014.555516,19046.010857,2969.608065,2415.910651,0.006000,-0.010000,0.998000,192.000000,0.000000,0.000000,0.000000,0.000000,0.000000,0.000000,0.000000,0.000000,0.000000,1775740729.957666,0.000000
34.000000,17335.610668,19437.233441,-11955.434019,180.892668,-11677.490077,-5590.730082,1151.427764,776.164326,11576.437840,16565.302499,-279.754434,2569.914170,-16045.713847,19047.150796,3204.301382,2760.686309,0.006000,-0.010000,0.998000,192.000000,0.000000,0.000000,0.000000,0.000000,0.000000,0.000000,0.000000,0.000000,0.000000,1775740729.957678,0.000000
36.000000,17336.862366,19436.138205,-11963.055964,175.192973,-11679.837010,-5596.899163,1141.883569,772.699806,11558.623500,16593.286883,-227.071372,2587.706159,-15984.000681,19080.052564,2762.116821,2115.190281,0.006000,-0.010000,0.998000,192.000000,0.000000,0.000000,0.000000,0.000000,0.000000,0.000000,0.000000,0.000000,0.000000,1775740729.957690,0.000000
38.000000,17335.968296,19447.045856,-11985.005377,162.184258,-11697.360778,-5601.190698,1130.662993,760.786326,11574.962625,16568.029412,-279.217992,2573.713967,-16052.553481,19053.163416,3262.795897,2834.983508,0.008000,-0.010000,1.000000,192.000000,0.000000,32.000000,127.500000,88.000000,15.500000,32.000000,0.000000,0.000000,0.000000,1775740729.957702,0.000000
40.000000,17375.463828,19471.141037,-11924.007466,204.563165,-11648.052829,-5564.220913,1165.755232,808.619059,11594.810974,16608.284904,-227.652517,2599.686694,-15993.075489,19090.937864,2926.044515,2363.249941,0.008000,-0.010000,1.000000,192.000000,0.000000,0.000000,0.000000,0.000000,0.000000,0.000000,0.000000,0.000000,0.000000,1775740729.957713,0.000000
42.000000,17321.283200,19429.253868,-11990.749775,146.336871,-11710.190679,-5617.619230,1123.152807,749.588102,11561.909206,16583.429764,-240.124791,2579.614828,-16009.571077,19068.452009,2972.111460,2413.004924,0.008000,-0.010000,1.000000,192.000000,0.000000,0.000000,0.000000,0.000000,0.000000,0.000000,0.000000,0.000000,0.000000,1775740729.957725,0.000000
44.000000,17354.475540,19453.617269,-11943.341725,184.357188,-11670.695146,-5590.931248,1155.696947,783.674512,11591.145288,16580.121706,-263.974102,2576.709101,-16036.996667,19060.383029,3205.173100,2760.418088,0.008000,-0.010000,1.000000,192.000000,0.000000,0.000000,0.000000,0.000000,0.000000,0.000000,0.000000,0.000000,0.000000,1775740729.957736,0.000000
46.000000,17342.830282,19438.686304,-11951.745981,178.255162,-11672.483286,-5598.553192,1147.091525,775.136146,11570.157000,16597.220790,-214.643802,2590.991866,-15976.959881,19085.439335,2764.262589,2118.990078,0.008000,-0.010000,1.000000,192.000000,0.000000,0.000000,0.000000,0.000000,0.000000,0.000000,0.000000,0.000000,0.000000,1775740729.957748,0.000000
48.000000,17317.036368,19421.207240,-11984.267769,153.847057,-11705.697978,-5618.803873,1128.003136,742.949634,11572.056898,16555.445380,-279.620323,2560.839362,-16046.809083,19046.882575,3265.612217,2840.258520,0.009000,-0.011000,0.999000,192.000000,0.000000,40.000000,127.500000,80.000000,15.500000,24.000000,0.000000,0.000000,0.000000,1775740729.957760,0.000000
50.000000,17362.499817,19452.767903,-11921.839347,201.009238,-11649.215120,-5576.804945,1164.168258,791.698789,11584.484468,16587.408374,-237.442581,2582.542906,-15991.890847,19078.353832,2935.320489,2365.753337,0.009000,-0.011000,0.999000,192.000000,0.000000,0.000000,0.000000,0.000000,0.000000,0.000000,0.000000,0.000000,0.000000,1775740729.957773,0.000000
52.000000,17311.269618,19415.574600,-11989.855705,143.833476,-11709.698940,-5625.978783,1116.961374,737.048773,11561.216302,16568.342336,-245.556265,2572.797546,-16003.379643,19063.288756,2979.129908,2414.077808,0.009000,-0.011000,0.999000,192.000000,0.000000,0.000000,0.000000,0.000000,0.000000,0.000000,0.000000,0.000000,0.000000,1775740729.957785,0.000000
54.000000,17349.960488,19446.643525,-11941.911214,184.334837,-11665.107210,-5590.081881,1151.852447,781.059358,11590.787660,16568.007060,-268.824431,2570.450612,-16030.537013,19056.113846,3214.963164,2755.791277,0.009000,-0.011000,0.999000,192.000000,0.000000,0.000000,0.000000,0.000000,0.000000,0.000000,0.000000,0.000000,0.000000,1775740729.957797,0.000000
56.000000,17329.329828,19423.442414,-11958.540912,168.040415,-11678.384146,-5608.834995,1137.748496,767.290684,11567.720660,16588.771831,-218.510654,2585.158060,-15968.287405,19080.119619,2768.151792,2112.463368,0.009000,-0.011000,0.999000,192.000000,0.000000,0.000000,0.000000,0.000000,0.000000,0.000000,0.000000,0.000000,0.000000,1775740729.957810,0.000000
58.000000,17314.555325,19418.972065,-11988.112269,150.404888,-11705.496813,-5621.977821,1126.907900,748.425811,11565.329023,16542.615478,-286.862288,2553.284473,-16041.243498,19035.371427,3265.433403,2832.346002,0.006500,-0.011500,0.999500,192.000000,0.000000,16.000000,127.500000,80.000000,15.500000,32.000000,0.000000,0.000000,0.000000,1775740730.437482,0.000000
60.000000,17361.069305,19449.482197,-11929.260126,195.376598,-11653.976042,-5585.455070,1162.447174,796.571469,11582.875142,16582.870970,-240.325956,2580.307732,-16003.223181,19070.888349,2929.643146,2359.785421,0.006500,-0.011500,0.999500,192.000000,0.000000,0.000000,0.000000,0.000000,0.000000,0.000000,0.000000,0.000000,0.000000,1775740730.437558,0.000000
62.000000,17318.668046,19422.056606,-11992.403804,147.275644,-11705.921496,-5618.647411,1123.376325,745.095401,11561.909206,16567.492970,-246.427983,2574.473926,-16001.882076,19066.574462,2972.826716,2416.201224,0.006500,-0.011500,0.999500,192.000000,0.000000,0.000000,0.000000,0.000000,0.000000,0.000000,0.000000,0.000000,0.000000,1775740730.437612,0.000000
64.000000,17356.040163,19456.388886,-11941.218310,186.570011,-11665.062507,-5585.455070,1156.322796,784.054492,11592.642855,16574.757287,-268.377396,2576.865563,-16027.430120,19064.182826,3207.050646,2759.456963,0.006500,-0.011500,0.999500,192.000000,0.000000,0.000000,0.000000,0.000000,0.000000,0.000000,0.000000,0.000000,0.000000,1775740730.437667,0.000000
66.000000,17350.385171,19446.777635,-11944.191092,177.919886,-11674.517295,-5594.842803,1146.935063,779.941771,11576.974282,16604.060424,-211.179282,2599.060845,-15964.666422,19094.514143,2763.972016,2115.145578,0.006500,-0.011500,0.999500,192.000000,0.000000,0.000000,0.000000,0.000000,0.000000,0.000000,0.000000,0.000000,0.000000,1775740730.437720,0.000000
68.000000,17341.489177,19450.219804,-11967.123981,164.419432,-11697.539591,-5605.303419,1139.246063,768.408271,11588.194858,16573.371479,-262.856515,2580.464194,-16026.848975,19064.428695,3261.588903,2834.357659,0.006250,-0.013750,1.001750,192.000000,0.000000,24.000000,127.500000,64.000000,15.500000,48.000000,0.000000,0.000000,0.000000,1775740730.437770,0.000000
70.000000,17372.759267,19465.575453,-11911.624600,204.607869,-11650.198597,-5580.604742,1171.969017,807.568527,11597.649646,16611.123575,-221.215215,2604.045284,-15983.128963,19093.105983,2926.133922,2359.405441,0.006250,-0.013750,1.001750,192.000000,0.000000,0.000000,0.000000,0.000000,0.000000,0.000000,0.000000,0.000000,0.000000,1775740730.437795,0.000000
72.000000,17319.137432,19428.873888,-11981.071470,151.768345,-11711.017693,-5628.660992,1127.533749,748.582274,11564.122029,16581.686328,-238.537817,2586.297999,-15998.864591,19072.721192,2981.812117,2408.020485,0.006250,-0.013750,1.001750,192.000000,0.000000,0.000000,0.000000,0.000000,0.000000,0.000000,0.000000,0.000000,0.000000,1775740730.437819,0.000000
74.000000,17353.425008,19457.685287,-11935.473911,190.883898,-11668.750545,-5593.099367,1158.580322,781.551097,11590.340625,16582.848618,-265.002282,2582.967589,-16028.190080,19065.367468,3215.477254,2753.891379,0.006250,-0.013750,1.001750,192.000000,0.000000,0.000000,0.000000,0.000000,0.000000,0.000000,0.000000,0.000000,0.000000,1775740730.437844,0.000000
76.000000,17335.565965,19434.730045,-11947.856778,177.450499,-11675.120792,-5601.816547,1144.945758,767.111870,11567.899474,16601.422918,-218.153026,2593.808185,-15971.215483,19090.334367,2769.336435,2115.413799,0.006250,-0.013750,1.001750,192.000000,0.000000,0.000000,0.000000,0.000000,0.000000,0.000000,0.000000,0.000000,0.000000,1775740730.437882,0.000000
78.000000,17317.505755,19427.532783,-11978.143391,155.635197,-11699.663007,-5618.178024,1129.500703,744.804829,11566.312500,16559.088714,-282.615457,2561.912246,-16043.143397,19048.335439,3274.195287,2837.822180,0.007125,-0.016875,1.002875,192.000000,0.000000,32.000000,127.500000,48.000000,15.500000,48.000000,0.000000,0.000000,0.000000,1775740730.437907,0.000000
80.000000,17356.576604,19449.638659,-11924.812129,198.617601,-11650.086838,-5583.398710,1161.776622,789.687132,11579.678843,16591.297578,-240.974157,2583.280514,-15994.774222,19077.660927,2940.081410,2361.059470,0.007125,-0.016875,1.002875,192.000000,0.000000,0.000000,0.000000,0.000000,0.000000,0.000000,0.000000,0.000000,0.000000,1775740730.437931,0.000000
82.000000,17304.966426,19409.696091,-11996.337711,143.855827,-11709.095443,-5627.163425,1118.838920,733.003108,11549.101657,16563.782580,-254.698128,2566.136726,-16009.705187,19061.232395,2976.939437,2420.269241,0.007125,-0.016875,1.002875,192.000000,0.000000,0.000000,0.000000,0.000000,0.000000,0.000000,0.000000,0.000000,0.000000,1775740730.437957,0.000000
84.000000,17342.673819,19438.529842,-11946.605080,183.530174,-11665.420135,-5590.663027,1151.561874,768.251809,11582.361052,16565.011926,-280.156765,2565.868505,-16034.426216,19054.392762,3211.744513,2763.614388,0.007125,-0.016875,1.002875,192.000000,0.000000,0.000000,0.000000,0.000000,0.000000,0.000000,0.000000,0.000000,0.000000,1775740730.437971,0.000000
86.000000,17334.649543,19429.544440,-11953.511769,176.355264,-11666.515370,-5594.574582,1141.682403,762.194486,11566.044279,16591.878723,-228.993622,2582.475851,-15966.834541,19085.953425,2767.414185,2120.264127,0.007125,-0.016875,1.002875,192.000000,0.000000,0.000000,0.000000,0.000000,0.000000,0.000000,0.000000,0.000000,0.000000,1775740730.437985,0.000000
88.000000,17327.161709,19435.221784,-11977.808115,161.513705,-11685.693167,-5602.330637,1133.121685,746.592968,11579.522381,16565.615423,-283.420120,2565.846153,-16026.871327,19057.164378,3267.065080,2842.203121,0.007562,-0.015437,1.004437,192.000000,0.000000,32.000000,127.500000,72.000000,15.500000,56.000000,0.000000,0.000000,0.000000,1775740730.437998,0.000000
90.000000,17369.182988,19462.982650,-11919.917097,206.150139,-11641.168492,-5568.579503,1168.571552,796.035027,11595.615637,16606.519116,-238.314299,2590.634238,-15976.669309,19091.921340,2933.621756,2364.948674,0.007562,-0.015437,1.004437,192.000000,0.000000,0.000000,0.000000,0.000000,0.000000,0.000000,0.000000,0.000000,0.000000,1775740730.438011,0.000000
92.000000,17327.385226,19436.115853,-11983.306644,155.255217,-11702.188754,-5617.574527,1129.187778,752.493829,11572.705099,16589.420031,-241.063564,2582.498203,-15994.215428,19080.365489,2970.658597,2414.904823,0.007562,-0.015437,1.004437,192.000000,0.000000,0.000000,0.000000,0.000000,0.000000,0.000000,0.000000,0.000000,0.000000,1775740730.438024,0.000000
94.000000,17362.857445,19464.860197,-11935.697429,191.889726,-11667.431792,-5593.591105,1162.000139,792.011713,11604.154003,16590.336453,-259.101422,2583.012293,-16022.244516,19071.223625,3207.967068,2751.410335,0.007562,-0.015437,1.004437,192.000000,0.000000,0.000000,0.000000,0.000000,0.000000,0.000000,0.000000,0.000000,0.000000,1775740730.438036,0.000000
96.000000,17352.285069,19452.611441,-11942.425304,184.513650,-11671.544513,-5600.609553,1153.148848,784.523879,11579.969416,16611.525907,-210.911061,2595.775139,-15953.892881,19091.496657,2762.854429,2109.356476,0.007562,-0.015437,1.004437,192.000000,0.000000,0.000000,0.000000,0.000000,0.000000,0.000000,0.000000,0.000000,0.000000,1775740730.438049,0.000000
98.000000,17333.129625,19443.246060,-11972.801324,160.709043,-11697.785461,-5617.753341,1135.580377,759.333463,11582.025776,16568.297633,-271.014902,2571.009406,-16043.255155,19054.213948,3271.513077,2835.989336,0.006781,-0.015719,1.006219,192.000000,0.000000,24.000000,127.500000,64.000000,15.500000,64.000000,0.000000,0.000000,0.000000,1775740730.438061,0.000000
100.000000,17368.735953,19464.010830,-11919.827690,202.730322,-11651.539701,-5584.717463,1167.588075,802.159405,11588.351320,16600.685310,-229.485360,2591.282438,-15995.645940,19083.181808,2943.769448,2361.394746,0.006781,-0.015719,1.006219,192.000000,0.000000,0.000000,0.000000,0.000000,0.000000,0.000000,0.000000,0.000000,0.000000,1775740730.438074,0.000000
102.000000,17316.231706,19427.957467,-11990.705072,147.968548,-11706.524993,-5625.509396,1122.549310,740.312128,11553.214378,16573.125610,-245.690375,2572.417566,-16012.588562,19062.528796,2981.365082,2417.788198,0.006781,-0.015719,1.006219,192.000000,0.000000,0.000000,0.000000,0.000000,0.000000,0.000000,0.000000,0.000000,0.000000,1775740730.438087,0.000000
104.000000,17346.786540,19450.756246,-11948.259109,179.573915,-11668.169399,-5591.378282,1147.426802,766.486021,11580.259988,16572.030374,-277.273390,2564.303883,-16040.707057,19055.309183,3215.767827,2765.871914,0.006781,-0.015719,1.006219,192.000000,0.000000,0.000000,0.000000,0.000000,0.000000,0.000000,0.000000,0.000000,0.000000,1775740730.438099,0.000000
106.000000,17340.662162,19438.820414,-11951.120132,168.643912,-11671.768030,-5597.212088,1140.184836,761.121602,11562.490351,16592.504572,-227.227834,2577.267894,-15973.405954,19082.690070,2770.901057,2122.186377,0.006781,-0.015719,1.006219,192.000000,0.000000,0.000000,0.000000,0.000000,0.000000,0.000000,0.000000,0.000000,0.000000,1775740730.438112,0.000000
108.000000,17326.737026,19435.579411,-11978.322205,150.986034,-11696.645522,-5609.438492,1129.679517,741.630881,11574.001500,16557.680554,-282.682512,2556.234903,-16035.834376,19050.525910,3274.418804,2842.940729,0.006781,-0.015719,1.006219,192.000000,0.000000,0.000000,127.500000,72.000000,15.500000,32.000000,0.000000,0.000000,0.000000,1775740730.438124,0.000000
110.000000,17380.314157,19472.012755,-11915.044417,204.451407,-11640.855568,-5562.455125,1169.666787,797.152614,11596.129727,16597.109031,-234.335689,2586.745034,-15982.301948,19086.623977,2938.181512,2367.943808,0.006781,-0.015719,1.006219,192.000000,0.000000,0.000000,0.000000,0.000000,0.000000,0.000000,0.000000,0.000000,0.000000,1775740730.438137,0.000000
112.000000,17332.883755,19438.418083,-11980.602083,153.802354,-11697.181964,-5608.902050,1127.399639,743.575483,11577.041337,16583.049784,-237.420230,2583.861659,-15986.660539,19082.243035,2976.648864,2422.526768,0.006781,-0.015719,1.006219,192.000000,0.000000,0.000000,0.000000,0.000000,0.000000,0.000000,0.000000,0.000000,0.000000,1775740730.438150,0.000000
114.000000,17365.517302,19464.189644,-11931.249432,192.739092,-11663.207312,-5585.097442,1161.128421,779.405329,11607.104433,16584.994386,-259.906085,2585.001598,-16016.187193,19074.509332,3210.984553,2763.904961,0.006781,-0.015719,1.006219,192.000000,0.000000,0.000000,0.000000,0.000000,0.000000,0.000000,0.000000,0.000000,0.000000,1775740730.438163,0.000000
116.000000,17348.529976,19446.129435,-11940.950089,178.143403,-11677.825353,-5604.386998,1149.594921,769.324692,11579.522381,16600.595903,-212.341572,2596.691560,-15964.040573,19092.569541,2772.219810,2114.117398,0.006781,-0.015719,1.006219,192.000000,0.000000,0.000000,0.000000,0.000000,0.000000,0.000000,0.000000,0.000000,0.000000,1775740730.438174,0.000000
118.000000,17331.229726,19441.144996,-11972.086069,157.311577,-11705.474461,-5620.659068,1136.206226,749.297529,11579.500029,16557.926423,-275.507602,2567.500182,-16039.142434,19053.230471,3273.681196,2834.983508,0.006391,-0.014859,1.003109,192.000000,0.000000,24.000000,127.500000,72.000000,15.500000,32.000000,0.000000,0.000000,0.000000,1775740730.438187,0.000000
120.000000,17371.328756,19463.139112,-11915.089120,205.233718,-11654.780704,-5586.393843,1172.930142,795.856213,11591.659378,16592.504572,-233.553378,2590.678941,-15991.130887,19081.080744,2941.757791,2360.098345,0.006391,-0.014859,1.003109,192.000000,0.000000,0.000000,0.000000,0.000000,0.000000,0.000000,0.000000,0.000000,0.000000,1775740730.438199,0.000000
122.000000,17317.639866,19424.068263,-11986.793516,148.795563,-11714.839842,-5633.488969,1127.287880,736.400573,11563.809104,16569.281109,-245.153933,2577.022025,-16003.580809,19066.149779,2984.226106,2416.603555,0.006391,-0.014859,1.003109,192.000000,0.000000,0.000000,0.000000,0.000000,0.000000,0.000000,0.000000,0.000000,0.000000,1775740730.438214,0.000000
124.000000,17354.006154,19451.404447,-11941.687696,186.100624,-11673.064431,-5600.766015,1158.423860,771.582219,11590.966474,16565.078982,-271.752509,2571.925827,-16034.850900,19055.085666,3216.550138,2759.233446,0.006391,-0.014859,1.003109,192.000000,0.000000,0.000000,0.000000,0.000000,0.000000,0.000000,0.000000,0.000000,0.000000,1775740730.438227,0.000000
126.000000,17336.281220,19431.354932,-11950.427228,169.448575,-11678.562960,-5611.628963,1143.761116,758.998186,11566.871293,16583.474467,-223.942128,2585.202764,-15978.859780,19079.985509,2779.327664,2118.520691,0.006391,-0.014859,1.003109,192.000000,0.000000,0.000000,0.000000,0.000000,0.000000,0.000000,0.000000,0.000000,0.000000,1775740730.438239,0.000000
128.000000,17318.958619,19427.376321,-11978.612778,150.315481,-11705.317999,-5620.480254,1131.713525,737.406401,11568.413564,16543.308382,-287.219916,2558.090098,-16045.691496,19040.937011,3288.142775,2838.425677,0.006391,-0.014859,1.003109,192.000000,0.000000,0.000000,0.000000,0.000000,0.000000,0.000000,0.000000,0.000000,0.000000,1775740730.438251,0.000000
130.000000,17357.001288,19451.471502,-11925.639144,198.394084,-11656.099457,-5582.102309,1168.370386,787.742530,11578.494201,16581.641624,-247.657329,2584.375749,-16003.446699,19075.872788,2945.110553,2365.954502,0.006391,-0.014859,1.003109,192.000000,0.000000,0.000000,127.500000,80.000000,15.500000,16.000000,0.000000,0.000000,0.000000,1775740730.438263,0.000000
132.000000,17306.709863,19415.060510,-11996.583581,144.794601,-11716.538574,-5629.398600,1125.611499,735.707669,11546.732372,16557.568795,-257.827372,2573.266932,-16009.302856,19061.880596,2989.098786,2419.352820,0.006391,-0.014859,1.003109,192.000000,0.000000,0.000000,0.000000,0.000000,0.000000,0.000000,0.000000,0.000000,0.000000,1775740730.438275,0.000000
134.000000,17357.493026,19459.160502,-11944.168740,189.162813,-11671.119830,-5593.278181,1162.849505,785.797928,11580.237637,16567.291804,-274.457070,2579.592476,-16056.241519,19058.371372,3224.485007,2762.206228,0.006391,-0.014859,1.003109,192.000000,0.000000,0.000000,0.000000,0.000000,0.000000,0.000000,0.000000,0.000000,0.000000,1775740730.438288,0.000000
136.000000,17358.431799,19459.696944,-11948.862606,181.876145,-11675.813696,-5600.408387,1153.573531,786.468480,11570.335814,16599.813592,-213.347401,2602.994752,-15986.638187,19092.100154,2773.046824,2116.956069,0.006391,-0.014859,1.003109,192.000000,0.000000,0.000000,0.000000,0.000000,0.000000,0.000000,0.000000,0.000000,0.000000,1775740730.438300,0.000000
138.000000,17353.760285,19464.726086,-11969.985005,166.431089,-11701.272333,-5614.154710,1145.035165,775.829050,11586.607884,16573.013851,-263.057680,2589.024912,-16045.579737,19064.071067,3270.998987,2837.598662,0.006391,-0.014859,1.003109,192.000000,0.000000,0.000000,0.000000,0.000000,0.000000,0.000000,0.000000,0.000000,0.000000,1775740730.438312,0.000000
140.000000,17392.317044,19487.748383,-11910.663475,209.681715,-11654.959518,-5585.611532,1179.680369,823.997059,11605.293942,16615.281000,-212.408628,2616.249337,-15989.923893,19096.279931,2933.934681,2357.147915,0.002000,-0.020000,0.996000,192.000000,0.000000,8.000000,127.500000,48.000000,15.500000,16.000000,0.000000,0.000000,0.000000,1775740730.438325,0.000000
142.000000,17333.017866,19444.162481,-11984.156011,155.434031,-11720.763054,-5636.372344,1134.239272,765.390785,11568.704136,16583.653281,-227.496055,2597.339761,-16008.632303,19072.967061,2972.022053,2409.540404,0.002000,-0.020000,0.996000,192.000000,0.000000,0.000000,0.000000,0.000000,0.000000,0.000000,0.000000,0.000000,0.000000,1775740730.438337,0.000000
144.000000,17365.718468,19469.844636,-11938.916080,196.561241,-11682.899199,-5602.017713,1166.358729,797.800815,11595.436823,16577.506551,-254.742832,2594.992828,-16040.528243,19064.026363,3205.553079,2755.366594,0.002000,-0.020000,0.996000,192.000000,0.000000,0.000000,0.000000,0.000000,0.000000,0.000000,0.000000,0.000000,0.000000,1775740730.438349,0.000000
146.000000,17354.564947,19453.371400,-11949.466103,182.300828,-11695.080900,-5615.853443,1153.037089,779.897068,11567.675956,16592.616331,-209.078218,2604.000581,-15984.872399,19085.193465,2763.256760,2114.542081,0.002000,-0.020000,0.996000,192.000000,0.000000,0.000000,0.000000,0.000000,0.000000,0.000000,0.000000,0.000000,0.000000,1775740730.438363,0.000000
148.000000,17335.208337,19444.654220,-11978.523371,159.077365,-11714.996304,-5630.873815,1135.066287,749.789268,11570.715793,16551.779694,-273.875925,2573.713967,-16060.398943,19045.832043,3267.422708,2837.978642,0.002000,-0.020000,0.996000,192.000000,0.000000,0.000000,0.000000,0.000000,0.000000,0.000000,0.000000,0.000000,0.000000,1775740730.438376,0.000000
150.000000,17369.652375,19466.558929,-11918.508937,198.729360,-11662.313242,-5595.446300,1167.141040,790.670608,11583.679805,16583.474467,-236.324994,2591.260086,-16005.145431,19072.676488,2940.304928,2365.999206,0.004000,-0.020000,0.994000,192.000000,0.000000,16.000000,127.500000,48.000000,15.500000,8.000000,0.000000,0.000000,0.000000,1775740730.438389,0.000000
152.000000,17313.348331,19424.850574,-11989.073394,140.592473,-11718.930211,-5636.595862,1119.643583,732.868997,11550.934500,16558.954604,-253.602893,2573.937484,-16021.149280,19054.571575,2989.590524,2418.034067,0.004000,-0.020000,0.994000,192.000000,0.000000,0.000000,0.000000,0.000000,0.000000,0.000000,0.000000,0.000000,0.000000,1775740730.438401,0.000000
154.000000,17345.311325,19448.498720,-11946.158045,175.997636,-11676.439545,-5603.917611,1150.019604,768.877658,11580.081174,16555.803008,-278.189811,2567.209609,-16051.167673,19049.207157,3229.223577,2758.920522,0.004000,-0.020000,0.994000,192.000000,0.000000,0.000000,0.000000,0.000000,0.000000,0.000000,0.000000,0.000000,0.000000,1775740730.438414,0.000000
156.000000,17331.095616,19432.584278,-11957.177455,167.705139,-11681.714556,-5612.545384,1143.202322,761.389823,11557.707078,16579.272339,-227.943090,2583.235810,-15991.555571,19077.280948,2781.808708,2113.290383,0.004000,-0.020000,0.994000,192.000000,0.000000,0.000000,0.000000,0.000000,0.000000,0.000000,0.000000,0.000000,0.000000,1775740730.438426,0.000000
158.000000,17318.511584,19432.003132,-11986.413537,150.516647,-11707.195545,-5624.861196,1132.160560,742.614358,11557.304747,16539.866214,-292.025541,2555.854923,-16065.651603,19040.378218,3279.380891,2834.849398,0.004000,-0.020000,0.994000,192.000000,0.000000,0.000000,0.000000,0.000000,0.000000,0.000000,0.000000,0.000000,0.000000,1775740730.438438,0.000000
160.000000,17370.568796,19471.297499,-11922.241679,202.931488,-11650.198597,-5577.475497,1170.918485,799.097216,11576.527247,16587.855409,-241.600006,2589.360188,-16009.861649,19081.460724,2943.791800,2362.266465,0.004000,-0.014000,0.994000,192.000000,0.000000,16.000000,127.500000,72.000000,15.500000,8.000000,0.000000,0.000000,0.000000,1775740730.438451,0.000000
162.000000,17332.637886,19448.744589,-11986.145316,155.076403,-11704.736853,-5615.294649,1126.013830,749.565750,11558.914072,16577.908883,-243.209331,2586.856793,-16006.531239,19076.029250,2982.572077,2419.621041,0.004000,-0.014000,0.994000,192.000000,0.000000,0.000000,0.000000,0.000000,0.000000,0.000000,0.000000,0.000000,0.000000,1775740730.438464,0.000000
164.000000,17369.406506,19478.539464,-11942.447655,197.455311,-11667.655309,-5584.337483,1155.875761,784.814451,11596.196782,16586.313139,-263.638826,2592.981171,-16027.340713,19074.308166,3213.823225,2766.542466,0.004000,-0.014000,0.994000,192.000000,0.000000,0.000000,0.000000,0.000000,0.000000,0.000000,0.000000,0.000000,0.000000,1775740730.438477,0.000000
166.000000,17354.520244,19457.595880,-11952.237720,188.514613,-11676.752469,-5596.318018,1146.443325,773.549172,11573.420355,16606.675578,-214.934375,2606.258107,-15986.258207,19101.867867,2767.905923,2123.371020,0.004000,-0.014000,0.994000,192.000000,0.000000,0.000000,0.000000,0.000000,0.000000,0.000000,0.000000,0.000000,0.000000,1775740730.438489,0.000000
168.000000,17334.873061,19449.035162,-11981.920836,165.425261,-11708.380188,-5621.910765,1132.875816,751.063317,11578.762421,16568.543502,-274.524125,2576.776156,-16051.614708,19061.992355,3267.176839,2842.381935,0.004000,-0.014000,0.994000,192.000000,0.000000,0.000000,0.000000,0.000000,0.000000,0.000000,0.000000,0.000000,0.000000,1775740730.438502,0.000000
170.000000,17368.892416,19473.599729,-11924.365094,206.463064,-11663.408478,-5585.388015,1169.018587,798.717236,11585.378538,16598.941874,-234.670965,2598.524403,-16007.894696,19086.959253,2933.889977,2363.987549,0.002000,-0.018000,0.998000,192.000000,0.000000,8.000000,127.500000,56.000000,15.500000,24.000000,0.000000,0.000000,0.000000,1775740730.438514,0.000000
172.000000,17314.041235,19435.020618,-11993.499040,152.550656,-11725.501624,-5631.119684,1126.729086,741.094439,11549.593395,16575.584301,-248.327881,2585.940371,-16027.072492,19068.988451,2969.786879,2415.217747,0.002000,-0.018000,0.998000,192.000000,0.000000,0.000000,0.000000,0.000000,0.000000,0.000000,0.000000,0.000000,0.000000,1775740730.438527,0.000000
174.000000,17347.591203,19461.082752,-11949.041420,186.771177,-11687.414251,-5603.984666,1153.975863,771.358701,11576.817820,16576.053688,-273.920628,2583.235810,-16054.207510,19061.411209,3208.056475,2759.702833,0.002000,-0.018000,0.998000,192.000000,0.000000,0.000000,0.000000,0.000000,0.000000,0.000000,0.000000,0.000000,0.000000,1775740730.438538,0.000000
176.000000,17338.404636,19446.822339,-11958.026821,176.064691,-11695.304417,-5614.892318,1143.045860,762.060375,11556.254215,16595.186781,-226.467875,2597.473871,-15998.417556,19085.394631,2763.390870,2119.012430,0.002000,-0.018000,0.998000,192.000000,0.000000,0.000000,0.000000,0.000000,0.000000,0.000000,0.000000,0.000000,0.000000,1775740730.438551,0.000000
178.000000,17327.005247,19444.676571,-11982.881961,155.054051,-11714.616324,-5631.343202,1129.388944,744.581311,11562.669165,16554.283089,-282.727216,2573.781022,-16070.636042,19046.681410,3269.657882,2836.570482,0.002000,-0.018000,0.998000,192.000000,0.000000,0.000000,0.000000,0.000000,0.000000,0.000000,0.000000,0.000000,0.000000,1775740730.917658,0.000000
180.000000,17370.792314,19473.376211,-11923.672190,198.796415,-11664.973100,-5593.680512,1165.084680,796.258544,11576.773116,16589.509438,-236.749677,2596.848023,-16022.915068,19079.292605,2941.400163,2360.657139,0.004000,-0.014000,1.006000,192.000000,0.000000,16.000000,127.500000,72.000000,15.500000,56.000000,0.000000,0.000000,0.000000,1775740730.917771,0.000000
182.000000,17327.653447,19446.576470,-11985.206543,151.030737,-11716.717388,-5628.705696,1129.187778,753.499657,11556.455380,16579.048822,-239.856570,2594.031703,-16025.552574,19072.587082,2984.337864,2408.802796,0.004000,-0.014000,1.006000,192.000000,0.000000,0.000000,0.000000,0.000000,0.000000,0.000000,0.000000,0.000000,0.000000,1775740730.917858,0.000000
184.000000,17369.294747,19482.898054,-11934.468083,191.040360,-11677.445373,-5595.066320,1163.810630,796.996152,11588.574837,16583.541522,-258.721442,2600.647819,-16051.480597,19069.167265,3224.015620,2751.790315,0.004000,-0.014000,1.006000,192.000000,0.000000,0.000000,0.000000,0.000000,0.000000,0.000000,0.000000,0.000000,0.000000,1775740730.917917,0.000000
186.000000,17358.945889,19466.089543,-11945.308679,179.529211,-11683.078013,-5601.682437,1149.393755,782.623980,11574.582645,16607.368482,-204.987848,2613.544776,-15980.022070,19096.570503,2772.800955,2112.709238,0.004000,-0.014000,1.006000,192.000000,0.000000,0.000000,0.000000,0.000000,0.000000,0.000000,0.000000,0.000000,0.000000,1775740730.917994,0.000000
188.000000,17346.875947,19462.356801,-11971.683737,168.018063,-11702.613437,-5613.484158,1139.067249,761.255713,11582.584570,16570.488104,-265.851649,2586.946200,-16045.423275,19062.685259,3270.820173,2837.241034,0.004000,-0.014000,1.006000,192.000000,0.000000,0.000000,0.000000,0.000000,0.000000,0.000000,0.000000,0.000000,0.000000,1775740730.918052,0.000000
190.000000,17377.430782,19478.472409,-11919.648876,211.738075,-11656.010050,-5583.801041,1169.510325,798.136091,11592.486393,16606.787337,-228.479532,2606.235755,-16000.250399,19090.423774,2934.024088,2367.586180,0.006000,-0.010000,1.002000,192.000000,0.000000,24.000000,127.500000,88.000000,15.500000,40.000000,0.000000,0.000000,0.000000,1775740730.918064,0.000000
192.000000,17327.608744,19442.709618,-11987.911104,159.390290,-11716.583278,-5625.934079,1127.623156,745.095401,11559.495218,16581.976900,-239.968328,2591.304790,-16015.382530,19075.179884,2975.933609,2419.285765,0.006000,-0.010000,1.002000,192.000000,0.000000,0.000000,0.000000,0.000000,0.000000,0.000000,0.000000,0.000000,0.000000,1775740730.918131,0.000000
194.000000,17360.912843,19465.977784,-11944.571071,191.867374,-11681.133411,-5602.934134,1158.714433,779.360626,11585.691462,16578.311214,-265.583428,2587.460290,-16049.066609,19062.908776,3205.933059,2765.603693,0.006000,-0.010000,1.002000,192.000000,0.000000,0.000000,0.000000,0.000000,0.000000,0.000000,0.000000,0.000000,0.000000,1775740730.918198,0.000000
196.000000,17345.020753,19446.799987,-11957.378621,176.064691,-11691.392862,-5615.741684,1145.951586,767.178925,11556.924767,16593.242180,-221.930471,2597.362113,-15983.911274,19078.219721,2759.389908,2121.314659,0.006000,-0.010000,1.002000,192.000000,0.000000,0.000000,0.000000,0.000000,0.000000,0.000000,0.000000,0.000000,0.000000,1775740730.918274,0.000000
198.000000,17321.484366,19434.037141,-11989.565133,150.203723,-11719.824281,-5632.237271,1127.891377,737.272291,11554.689593,16549.589223,-288.359855,2567.164906,-16078.503856,19037.360732,3265.299292,2838.962119,0.006000,-0.010000,1.002000,192.000000,0.000000,0.000000,0.000000,0.000000,0.000000,0.000000,0.000000,0.000000,0.000000,1775740730.918311,0.000000
200.000000,17361.896320,19460.456903,-11927.941373,195.980095,-11665.844818,-5597.189736,1163.922389,784.635637,11567.675956,16582.312177,-247.277349,2585.739206,-16024.367931,19062.797017,2935.745172,2365.574523,0.008000,-0.013000,1.004000,192.000000,0.000000,40.000000,127.500000,64.000000,15.500000,56.000000,0.000000,0.000000,0.000000,1775740730.918323,0.000000
202.000000,17312.342502,19427.353969,-11994.482517,142.671185,-11720.874813,-5642.720239,1119.934156,729.851512,11540.943270,16561.860330,-256.441564,2572.998711,-16030.335847,19050.078875,2976.425347,2417.072942,0.008000,-0.013000,1.004000,192.000000,0.000000,0.000000,0.000000,0.000000,0.000000,0.000000,0.000000,0.000000,0.000000,1775740730.918334,0.000000
204.000000,17357.202453,19464.211996,-11942.738228,183.463118,-11678.250036,-5602.978838,1154.288787,773.705634,11576.996634,16570.108124,-275.552306,2577.424357,-16052.195853,19048.961288,3214.918460,2759.322853,0.008000,-0.013000,1.004000,192.000000,0.000000,0.000000,0.000000,0.000000,0.000000,0.000000,0.000000,0.000000,0.000000,1775740730.918346,0.000000
206.000000,17353.894395,19459.428723,-11946.493321,176.176450,-11679.211161,-5605.459881,1146.599787,772.342178,11563.272663,16600.037110,-217.191901,2600.245488,-15982.994852,19084.165285,2769.179972,2115.391447,0.008000,-0.013000,1.004000,192.000000,0.000000,0.000000,0.000000,0.000000,0.000000,0.000000,0.000000,0.000000,0.000000,1775740730.918357,0.000000
208.000000,17344.886642,19460.412200,-11969.359156,160.574932,-11696.064376,-5613.238289,1138.463752,757.187695,11577.197799,16568.141171,-269.003245,2580.710063,-16044.953888,19053.856320,3271.691891,2835.117618,0.008000,-0.013000,1.004000,192.000000,0.000000,0.000000,0.000000,0.000000,0.000000,0.000000,0.000000,0.000000,0.000000,1775740730.918368,0.000000
210.000000,17383.264587,19482.987461,-11913.390388,204.473758,-11646.242338,-5576.000282,1172.505459,802.025295,11599.504840,16608.664883,-221.036401,2607.509805,-15987.889884,19090.312015,2936.929814,2363.629921,0.008000,-0.014500,1.006000,192.000000,0.000000,32.000000,127.500000,64.000000,15.500000,64.000000,0.000000,0.000000,0.000000,1775740730.918388,0.000000
212.000000,17321.193793,19436.629943,-11985.742985,152.036566,-11708.760167,-5622.871890,1128.070191,742.055564,11560.881026,16584.212075,-239.923625,2591.908287,-16005.838335,19071.983584,2980.426309,2415.396561,0.008000,-0.014500,1.006000,192.000000,0.000000,0.000000,0.000000,0.000000,0.000000,0.000000,0.000000,0.000000,0.000000,1775740730.918400,0.000000
214.000000,17358.275337,19464.189644,-11938.647859,194.303715,-11663.319071,-5588.316093,1160.547276,778.064224,11593.179297,16578.892360,-268.489154,2587.460290,-16032.302801,19064.227529,3217.600670,2762.832077,0.008000,-0.014500,1.006000,192.000000,0.000000,0.000000,0.000000,0.000000,0.000000,0.000000,0.000000,0.000000,0.000000,1775740730.918412,0.000000
216.000000,17345.736008,19449.392790,-11947.677964,183.284305,-11671.700975,-5595.669817,1147.985595,768.072995,11572.526285,16598.852467,-217.482474,2602.413607,-15969.852027,19093.932997,2769.425842,2123.818055,0.008000,-0.014500,1.006000,192.000000,0.000000,0.000000,0.000000,0.000000,0.000000,0.000000,0.000000,0.000000,0.000000,1775740730.918424,0.000000
218.000000,17331.497947,19446.554118,-11976.645825,159.591455,-11699.439490,-5616.099312,1132.339374,746.145933,11576.728413,16563.782580,-277.943942,2576.016197,-16040.528243,19058.013744,3270.820173,2840.526741,0.008000,-0.014500,1.006000,192.000000,0.000000,0.000000,0.000000,0.000000,0.000000,0.000000,0.000000,0.000000,0.000000,1775740730.918436,0.000000
220.000000,17373.385116,19471.118685,-11920.431187,203.758502,-11647.628146,-5581.141184,1167.543372,796.213841,11592.844020,16601.065290,-233.821599,2599.284363,-15992.404937,19087.629806,2938.919120,2367.586180,0.007000,-0.016250,1.004000,192.000000,0.000000,24.000000,127.500000,56.000000,15.500000,40.000000,0.000000,0.000000,0.000000,1775740730.918447,0.000000
222.000000,17307.827450,19419.843783,-11995.443642,147.722679,-11718.259659,-5629.219786,1120.939984,733.584253,11555.047221,16573.639700,-245.288044,2584.532211,-16014.086129,19071.402439,2974.838373,2417.989363,0.007000,-0.016250,1.004000,192.000000,0.000000,0.000000,0.000000,0.000000,0.000000,0.000000,0.000000,0.000000,0.000000,1775740730.918459,0.000000
224.000000,17345.020753,19449.862176,-11953.735286,185.407720,-11682.407460,-5594.373416,1150.980729,766.307207,11576.326081,16568.543502,-276.424024,2576.262066,-16051.234728,19060.673602,3211.141015,2766.453059,0.007000,-0.016250,1.004000,192.000000,0.000000,0.000000,0.000000,0.000000,0.000000,0.000000,0.000000,0.000000,0.000000,1775740730.918470,0.000000
226.000000,17329.262773,19436.026446,-11962.765391,175.729415,-11691.526972,-5598.530841,1141.369479,755.824239,11554.555482,16588.905941,-227.853683,2592.042398,-15980.692623,19090.468477,2762.139173,2126.723781,0.007000,-0.016250,1.004000,192.000000,0.000000,0.000000,0.000000,0.000000,0.000000,0.000000,0.000000,0.000000,0.000000,1775740730.918481,0.000000
228.000000,17312.990703,19431.757263,-11988.961636,157.333929,-11709.698940,-5611.897184,1127.153769,735.193579,11557.148285,16550.237423,-289.589201,2565.488525,-16072.535941,19054.839796,3266.774507,2846.584063,0.007000,-0.016250,1.004000,192.000000,0.000000,0.000000,0.000000,0.000000,0.000000,0.000000,0.000000,0.000000,0.000000,1775740730.918493,0.000000
230.000000,17359.281166,19462.736781,-11926.712027,200.428093,-11653.640765,-5577.989588,1162.313063,787.004922,11571.855732,16592.750441,-245.086878,2592.064749,-16015.226068,19091.027271,2940.528445,2373.218819,0.006500,-0.015125,1.004000,192.000000,0.000000,24.000000,127.500000,72.000000,15.500000,48.000000,0.000000,0.000000,0.000000,1775740730.918504,0.000000
232.000000,17311.873116,19430.214993,-11992.157935,149.309653,-11706.815565,-5619.027390,1121.431723,735.059468,11547.984069,16574.466714,-249.780744,2582.185278,-16017.930629,19080.745468,2986.193059,2416.983535,0.006500,-0.015125,1.004000,192.000000,0.000000,0.000000,0.000000,0.000000,0.000000,0.000000,0.000000,0.000000,0.000000,1775740730.918516,0.000000
234.000000,17352.396828,19464.279051,-11943.900519,192.023837,-11662.648518,-5583.242247,1156.054575,776.633713,11581.042299,16580.009947,-273.294779,2583.705197,-16042.025810,19077.638576,3221.266356,2761.558027,0.006500,-0.015125,1.004000,192.000000,0.000000,0.000000,0.000000,0.000000,0.000000,0.000000,0.000000,0.000000,0.000000,1775740730.918530,0.000000
236.000000,17338.114064,19447.425836,-11954.361135,183.284305,-11672.192713,-5594.999265,1145.906883,769.682320,11568.972357,16611.972941,-214.934375,2609.029723,-15975.618777,19112.753166,2774.834964,2120.062962,0.006500,-0.015125,1.004000,192.000000,0.000000,0.000000,0.000000,0.000000,0.000000,0.000000,0.000000,0.000000,0.000000,1775740730.918542,0.000000
238.000000,17320.925572,19443.916612,-11983.261941,167.414566,-11700.445318,-5607.359780,1133.501665,748.381108,11570.246407,16569.862255,-279.575620,2583.191107,-16049.647754,19073.391744,3269.277903,2841.152589,0.006500,-0.015125,1.004000,192.000000,0.000000,0.000000,0.000000,0.000000,0.000000,0.000000,0.000000,0.000000,0.000000,1775740730.918554,0.000000
240.000000,17362.075134,19470.850464,-11924.543908,214.442636,-11652.009088,-5566.813715,1169.599732,798.516071,11585.132669,16605.401529,-236.794381,2610.013200,-15999.043405,19105.175925,2935.611062,2374.626979,0.004250,-0.016563,1.002000,192.000000,0.000000,8.000000,127.500000,56.000000,15.500000,32.000000,0.000000,0.000000,0.000000,1775740730.918565,0.000000
242.000000,17299.177325,19422.525993,-11996.181249,158.227999,-11715.510394,-5615.339353,1124.873891,736.601739,11548.185235,16579.764078,-251.568884,2594.299924,-16013.929667,19089.887332,2972.469088,2427.846483,0.004250,-0.016563,1.002000,192.000000,0.000000,0.000000,0.000000,0.000000,0.000000,0.000000,0.000000,0.000000,0.000000,1775740730.918578,0.000000
244.000000,17338.359933,19452.745551,-11946.895653,197.120034,-11673.042080,-5583.331654,1157.887418,774.376187,11574.739107,16577.797124,-278.927419,2585.962723,-16043.881004,19080.968986,3204.949582,2775.058481,0.004250,-0.016563,1.002000,192.000000,0.000000,0.000000,0.000000,0.000000,0.000000,0.000000,0.000000,0.000000,0.000000,1775740730.918590,0.000000
246.000000,17332.839052,19441.144996,-11955.590481,183.485470,-11680.664024,-5589.612495,1145.057517,767.022463,11561.596282,16599.947703,-225.238529,2599.865508,-15982.681928,19106.829954,2766.386004,2133.764581,0.004250,-0.016563,1.002000,192.000000,0.000000,0.000000,0.000000,0.000000,0.000000,0.000000,0.000000,0.000000,0.000000,1775740730.918601,0.000000
248.000000,17325.194755,19443.983667,-11978.031633,166.565200,-11701.965237,-5602.643562,1134.529845,752.583236,11576.996634,16566.129514,-276.938114,2580.307732,-16044.082170,19074.710497,3265.411051,2852.842552,0.004250,-0.016563,1.002000,192.000000,0.000000,0.000000,0.000000,0.000000,0.000000,0.000000,0.000000,0.000000,0.000000,1775740730.918612,0.000000
250.000000,17360.398753,19462.155636,-11919.715931,205.971325,-11647.762257,-5569.674739,1166.112860,793.822204,11593.514573,16603.009892,-230.111209,2605.341685,-15988.716899,19107.411099,2938.762657,2378.069148,0.007125,-0.017281,0.999000,192.000000,0.000000,40.000000,127.500000,56.000000,15.500000,16.000000,0.000000,0.000000,0.000000,1775740730.918624,0.000000
252.000000,17301.278389,19415.149917,-11988.559304,147.812086,-11704.468632,-5619.139149,1121.387019,731.594948,11562.982090,16573.192665,-245.936244,2583.124051,-15996.227085,19089.105021,2981.365082,2425.387791,0.007125,-0.017281,0.999000,192.000000,0.000000,0.000000,0.000000,0.000000,0.000000,0.000000,0.000000,0.000000,0.000000,1775740730.918635,0.000000
254.000000,17338.449340,19443.983667,-11939.050190,185.966514,-11660.636861,-5587.779652,1153.215903,767.313035,11593.805145,16571.002194,-273.719463,2576.373825,-16022.333923,19083.382974,3222.875681,2772.063347,0.007125,-0.017281,0.999000,192.000000,0.000000,0.000000,0.000000,0.000000,0.000000,0.000000,0.000000,0.000000,0.000000,1775740730.918647,0.000000
0.000000,17328.167537,19433.299534,-11946.895653,178.232810,-11666.448315,-5595.088672,1144.386964,763.893219,11568.793543,16594.583284,-222.936299,2593.919944,-15965.448733,19107.411099,2782.546315,2125.829712,0.007125,-0.017281,0.999000,192.000000,0.000000,0.000000,0.000000,0.000000,0.000000,0.000000,0.000000,0.000000,0.000000,1775740730.918658,0.000000
2.000000,17317.125775,19436.652295,-11972.354290,162.631293,-11691.169344,-5609.371437,1135.401563,749.521047,11577.331910,16564.654298,-273.786518,2581.157098,-16034.225051,19078.040907,3282.040749,2839.610319,0.007125,-0.017281,0.999000,192.000000,0.000000,0.000000,0.000000,0.000000,0.000000,0.000000,0.000000,0.000000,0.000000,1775740730.918670,0.000000
4.000000,17355.593128,19461.596842,-11918.710103,207.446540,-11645.616489,-5577.117870,1167.342206,795.789158,11588.932465,16603.300465,-232.011107,2609.230889,-15991.935550,19105.399442,2949.692661,2369.575485,0.007562,-0.015641,0.998500,192.000000,0.000000,32.000000,127.500000,72.000000,15.500000,24.000000,0.000000,0.000000,0.000000,1775740730.918681,0.000000
6.000000,17296.696281,19416.267504,-11989.721595,158.004482,-11702.836955,-5616.054608,1125.432685,738.971023,11556.231863,16584.681461,-242.896407,2600.580764,-16007.648827,19095.788192,2986.662446,2421.364477,0.007562,-0.015641,0.998500,192.000000,0.000000,0.000000,0.000000,0.000000,0.000000,0.000000,0.000000,0.000000,0.000000,1775740730.918692,0.000000
8.000000,17327.564040,19438.663952,-11943.766408,201.076293,-11659.340460,-5572.066375,1160.390813,771.403405,11580.237637,16575.539598,-272.110137,2590.522479,-16042.763417,19087.607454,3220.059361,2772.532734,0.007562,-0.015641,0.998500,192.000000,0.000000,0.000000,0.000000,0.000000,0.000000,0.000000,0.000000,0.000000,0.000000,1775740730.918704,0.000000
10.000000,17307.536877,19417.586257,-11957.445676,189.922773,-11671.231588,-5577.810774,1145.571607,755.824239,11557.975299,16596.192610,-227.965442,2599.396121,-15975.641128,19116.061224,2772.264513,2139.330165,0.007562,-0.015641,0.998500,192.000000,0.000000,0.000000,0.000000,0.000000,0.000000,0.000000,0.000000,0.000000,0.000000,1775740730.918715,0.000000
12.000000,17295.846915,19415.820469,-11981.183229,171.169659,-11693.248057,-5592.093538,1132.339374,738.166361,11560.098715,16560.183949,-289.030408,2575.613865,-16038.673048,19082.041869,3273.278865,2862.096174,0.007562,-0.015641,0.998500,192.000000,0.000000,0.000000,0.000000,0.000000,0.000000,0.000000,0.000000,0.000000,0.000000,1775740730.918726,0.000000
14.000000,17344.886642,19447.291726,-11917.950144,213.570918,-11639.603870,-5556.978948,1168.370386,791.497623,11583.836267,16599.210095,-239.588349,2600.759578,-15998.372853,19108.841611,2945.646995,2392.329561,0.007562,-0.015641,0.998500,192.000000,0.000000,0.000000,0.000000,0.000000,0.000000,0.000000,0.000000,0.000000,0.000000,1775740730.918738,0.000000
16.000000,17289.946054,19404.398728,-11986.078261,156.216342,-11699.215972,-5605.482233,1125.991479,737.138180,11559.674032,16579.853485,-242.896407,2592.377674,-16000.831544,19096.257579,2981.655655,2435.334317,0.008000,-0.014000,0.996000,192.000000,0.000000,32.000000,127.500000,72.000000,15.500000,16.000000,0.000000,0.000000,0.000000,1775740730.918749,0.000000
18.000000,17317.483403,19427.711597,-11938.491397,191.643857,-11658.178170,-5576.916704,1156.836886,769.279989,11587.300788,16574.377307,-271.797213,2583.302865,-16027.877155,19084.724079,3217.332449,2778.075967,0.008000,-0.014000,0.996000,192.000000,0.000000,0.000000,0.000000,0.000000,0.000000,0.000000,0.000000,0.000000,0.000000,1775740730.918761,0.000000
20.000000,17312.141336,19418.726196,-11943.699353,181.250296,-11660.994489,-5590.014826,1147.784430,760.339291,11565.731354,16599.612427,-223.338631,2597.451520,-15961.715992,19110.339178,2774.857315,2127.997831,0.008000,-0.014000,0.996000,192.000000,0.000000,0.000000,0.000000,0.000000,0.000000,0.000000,0.000000,0.000000,0.000000,1775740730.918773,0.000000
22.000000,17302.217162,19416.066339,-11971.616682,161.603112,-11688.151859,-5611.494852,1134.418086,740.379183,11577.711889,16567.090639,-279.955599,2574.473926,-16026.424292,19076.073954,3275.067005,2843.946558,0.008000,-0.014000,0.996000,192.000000,0.000000,0.000000,0.000000,0.000000,0.000000,0.000000,0.000000,0.000000,0.000000,1775740730.918784,0.000000
24.000000,17347.993535,19448.230499,-11911.602248,206.418360,-11639.559166,-5575.799117,1170.963189,792.212879,11590.675901,16598.897171,-235.185055,2599.798453,-15981.720803,19102.784288,2948.262149,2366.915627,0.008000,-0.014000,0.996000,192.000000,0.000000,0.000000,0.000000,0.000000,0.000000,0.000000,0.000000,0.000000,0.000000,1775740730.918796,0.000000
26.000000,17294.774031,19409.003187,-11979.976234,151.611883,-11699.663007,-5616.188719,1128.047839,741.519122,11557.841189,16578.311214,-240.080087,2593.986999,-15995.288312,19091.943692,2984.270809,2416.983535,0.008000,-0.018000,0.996000,192.000000,0.000000,32.000000,127.500000,56.000000,15.500000,16.000000,0.000000,0.000000,0.000000,1775740730.918807,0.000000
28.000000,17325.015941,19431.824318,-11937.194996,185.720645,-11664.637824,-5591.311227,1157.663901,772.744509,11584.663282,16574.153790,-266.566904,2586.789738,-16030.291144,19080.253730,3226.720181,2761.513324,0.008000,-0.018000,0.996000,192.000000,0.000000,0.000000,0.000000,0.000000,0.000000,0.000000,0.000000,0.000000,0.000000,1775740730.918818,0.000000
30.000000,17304.206467,19406.946827,-11945.532196,180.669150,-11664.593120,-5589.768957,1149.147886,758.975835,11555.784828,16592.772793,-222.019878,2598.949087,-15974.009451,19106.874657,2791.732882,2117.112531,0.008000,-0.018000,0.996000,192.000000,0.000000,0.000000,0.000000,0.000000,0.000000,0.000000,0.000000,0.000000,0.000000,1775740730.918829,0.000000
32.000000,17279.105458,19395.525085,-11980.825601,163.413604,-11688.062452,-5598.016751,1131.981746,727.593986,11554.823703,16552.204377,-291.802024,2570.428261,-16042.674010,19072.810599,3291.495537,2844.661813,0.008000,-0.018000,0.996000,192.000000,0.000000,0.000000,0.000000,0.000000,0.000000,0.000000,0.000000,0.000000,0.000000,1775740730.918840,0.000000
34.000000,17320.389130,19425.498775,-11927.293173,211.827482,-11636.206405,-5554.676718,1164.525886,772.118660,11562.311538,16587.967168,-255.994529,2592.444729,-16001.591504,19105.690015,2958.633358,2384.774671,0.008000,-0.018000,0.996000,192.000000,0.000000,0.000000,0.000000,0.000000,0.000000,0.000000,0.000000,0.000000,0.000000,1775740730.918852,0.000000
36.000000,17280.580673,19401.113022,-11994.460165,161.089022,-11693.292760,-5592.808794,1121.588185,721.402552,11542.329078,16578.490028,-261.314244,2586.588572,-16007.604123,19100.660873,2996.117234,2441.056364,0.008000,-0.016000,1.002000,192.000000,0.000000,32.000000,127.500000,64.000000,15.500000,40.000000,0.000000,0.000000,0.000000,1775740730.918863,0.000000
38.000000,17316.723444,19427.778653,-11946.649783,197.231793,-11655.674774,-5565.964349,1154.735822,761.926265,11569.218227,16575.740764,-283.800099,2585.113357,-16039.902394,19092.010747,3226.541367,2790.570592,0.008000,-0.016000,1.002000,192.000000,0.000000,0.000000,0.000000,0.000000,0.000000,0.000000,0.000000,0.000000,0.000000,1775740730.918875,0.000000
40.000000,17311.962523,19417.452147,-11951.611871,183.351360,-11660.726268,-5579.107175,1146.689194,758.752317,11557.260043,16599.075985,-226.177302,2602.838290,-15972.690698,19114.988341,2779.417071,2144.180494,0.008000,-0.016000,1.002000,192.000000,0.000000,0.000000,0.000000,0.000000,0.000000,0.000000,0.000000,0.000000,0.000000,1775740730.918886,0.000000
42.000000,17293.410575,19408.489097,-11976.601121,162.340720,-11683.949731,-5595.267486,1135.222749,740.937977,11561.015136,16557.680554,-285.342370,2574.675092,-16038.851862,19073.391744,3278.039787,2858.586950,0.008000,-0.016000,1.002000,192.000000,0.000000,0.000000,0.000000,0.000000,0.000000,0.000000,0.000000,0.000000,0.000000,1775740731.398543,0.000000
44.000000,17333.800177,19431.913725,-11918.106606,205.859566,-11632.227794,-5563.572712,1170.247933,787.139033,11576.370785,16592.437517,-240.415363,2597.473871,-15985.967634,19101.577294,2944.663518,2384.461747,0.008000,-0.016000,1.002000,192.000000,0.000000,0.000000,0.000000,0.000000,0.000000,0.000000,0.000000,0.000000,0.000000,1775740731.398606,0.000000
46.000000,17283.665214,19396.776783,-11985.117136,149.533170,-11696.019673,-5614.981725,1126.550272,731.483189,11548.118180,16571.896264,-251.211256,2585.806261,-15995.243608,19086.713384,2982.505021,2429.120532,0.010000,-0.014000,1.004000,192.000000,0.000000,40.000000,127.500000,72.000000,15.500000,48.000000,0.000000,0.000000,0.000000,1775740731.398649,0.000000
48.000000,17322.333732,19428.002170,-11937.619679,187.508784,-11661.530931,-5589.545439,1159.876723,772.275123,11582.897494,16574.757287,-274.322960,2584.688674,-16019.986989,19075.291643,3218.986478,2769.001158,0.010000,-0.014000,1.004000,192.000000,0.000000,0.000000,0.000000,0.000000,0.000000,0.000000,0.000000,0.000000,0.000000,1775740731.398691,0.000000
50.000000,17311.359025,19412.825336,-11942.179435,179.082177,-11668.527027,-5600.095463,1151.070136,767.089518,11562.713869,16595.633816,-222.109285,2604.067636,-15963.079448,19099.297416,2773.672673,2121.471121,0.010000,-0.014000,1.004000,192.000000,0.000000,0.000000,0.000000,0.000000,0.000000,0.000000,0.000000,0.000000,0.000000,1775740731.398742,0.000000
52.000000,17292.985891,19406.432737,-11969.403859,161.446650,-11692.152821,-5616.278126,1138.575511,745.385974,11571.587511,16558.753438,-279.776785,2579.324255,-16032.347504,19065.278061,3275.536391,2835.989336,0.010000,-0.014000,1.004000,192.000000,0.000000,0.000000,0.000000,0.000000,0.000000,0.000000,0.000000,0.000000,0.000000,1775740731.398785,0.000000
54.000000,17328.502813,19428.404501,-11912.809242,204.987848,-11647.270518,-5583.555172,1171.700796,789.262448,11577.086041,16590.135287,-237.956671,2596.780967,-15989.320396,19096.235227,2949.580902,2365.015729,0.010000,-0.014000,1.004000,192.000000,0.000000,0.000000,0.000000,0.000000,0.000000,0.000000,0.000000,0.000000,0.000000,1775740731.398820,0.000000
56.000000,17280.133638,19395.703899,-11983.507810,150.181371,-11702.747548,-5621.530786,1126.393810,734.746544,11546.397095,16570.979842,-247.657329,2583.101700,-15994.170725,19083.718250,2995.424330,2416.201224,0.008000,-0.014000,1.000000,192.000000,0.000000,32.000000,127.500000,72.000000,15.500000,32.000000,0.000000,0.000000,0.000000,1775740731.398832,0.000000
58.000000,17315.427043,19428.158632,-11941.553586,187.061749,-11667.923530,-5589.366625,1154.713470,769.101175,11570.536980,16569.594034,-276.491079,2578.117261,-16048.507815,19073.861131,3232.084600,2765.022548,0.008000,-0.014000,1.000000,192.000000,0.000000,0.000000,0.000000,0.000000,0.000000,0.000000,0.000000,0.000000,0.000000,1775740731.398843,0.000000
60.000000,17305.681682,19414.591123,-11951.678926,181.384406,-11669.912835,-5586.684416,1143.291729,758.528800,11551.962680,16594.180953,-227.540759,2597.049188,-15982.369004,19105.466498,2786.457871,2125.025049,0.008000,-0.014000,1.000000,192.000000,0.000000,0.000000,0.000000,0.000000,0.000000,0.000000,0.000000,0.000000,0.000000,1775740731.398855,0.000000
62.000000,17282.793496,19402.230609,-11982.412575,164.911171,-11696.801984,-5594.328713,1129.210130,729.516236,11554.331965,16559.871025,-290.572678,2575.479755,-16049.513644,19076.677451,3285.617028,2849.758011,0.008000,-0.014000,1.000000,192.000000,0.000000,0.000000,0.000000,0.000000,0.000000,0.000000,0.000000,0.000000,0.000000,1775740731.398867,0.000000
64.000000,17322.825470,19425.856403,-11926.242641,210.329915,-11645.191806,-5555.503733,1163.162430,771.783384,11560.054011,16590.828191,-255.011052,2592.332970,-16007.045329,19105.131221,2950.519675,2385.780500,0.008000,-0.014000,1.000000,192.000000,0.000000,0.000000,0.000000,0.000000,0.000000,0.000000,0.000000,0.000000,0.000000,1775740731.398878,0.000000
66.000000,17274.076316,19389.981853,-11993.744909,155.255217,-11703.060472,-5601.883602,1121.655240,718.072142,11534.885947,16575.919578,-260.286064,2579.570124,-16013.169707,19097.062242,2986.327170,2440.139942,0.002000,-0.016000,1.002000,192.000000,0.000000,8.000000,127.500000,64.000000,15.500000,40.000000,0.000000,0.000000,0.000000,1775740731.398890,0.000000
68.000000,17310.867287,19417.005112,-11946.761542,190.347456,-11660.502751,-5568.959483,1153.081793,758.417041,11568.659433,16575.003156,-282.928381,2574.451575,-16040.640001,19087.540399,3215.521957,2788.402473,0.002000,-0.016000,1.002000,192.000000,0.000000,0.000000,0.000000,0.000000,0.000000,0.000000,0.000000,0.000000,0.000000,1775740731.398903,0.000000
70.000000,17294.416403,19397.089708,-11953.489417,178.277514,-11671.700975,-5582.728157,1144.252854,750.571579,11542.642002,16592.236351,-233.911006,2586.566220,-15981.832562,19108.953370,2766.967150,2143.688755,0.002000,-0.016000,1.002000,192.000000,0.000000,0.000000,0.000000,0.000000,0.000000,0.000000,0.000000,0.000000,0.000000,1775740731.398914,0.000000
72.000000,17279.597197,19392.842876,-11980.289159,160.463173,-11694.298589,-5601.369512,1132.965223,730.544416,11551.850921,16553.925461,-293.746626,2562.336929,-16044.059818,19071.782419,3271.803650,2857.491715,0.002000,-0.016000,1.002000,192.000000,0.000000,0.000000,0.000000,0.000000,0.000000,0.000000,0.000000,0.000000,0.000000,1775740731.398926,0.000000
74.000000,17323.026636,19420.782557,-11921.928754,204.429055,-11645.683544,-5570.300587,1167.811593,779.114756,11567.698308,16590.358805,-251.323015,2586.633275,-15994.126021,19101.376128,2941.623681,2382.673607,0.002000,-0.016000,1.002000,192.000000,0.000000,0.000000,0.000000,0.000000,0.000000,0.000000,0.000000,0.000000,0.000000,1775740731.398937,0.000000
76.000000,17278.792534,19389.490114,-11989.565133,150.471944,-11703.731025,-5616.680457,1122.683421,727.146951,11550.979203,16577.171275,-255.525143,2582.051168,-15999.199867,19091.004919,2980.672178,2424.113741,0.008000,-0.014000,1.000000,192.000000,0.000000,32.000000,127.500000,72.000000,15.500000,32.000000,0.000000,0.000000,0.000000,1775740731.398949,0.000000
78.000000,17317.930438,19421.430757,-11936.993830,189.855717,-11660.480399,-5589.008998,1158.379156,767.804774,11581.936369,16580.144057,-275.731120,2582.632313,-16026.334885,19088.948558,3216.594841,2767.235371,0.008000,-0.014000,1.000000,192.000000,0.000000,0.000000,0.000000,0.000000,0.000000,0.000000,0.000000,0.000000,0.000000,1775740731.398961,0.000000
80.000000,17305.458165,19406.477440,-11942.134731,176.399967,-11665.889521,-5602.777672,1147.583264,759.288759,11561.305709,16600.104165,-225.663212,2597.138595,-15966.231044,19110.361530,2782.412205,2113.424493,0.008000,-0.014000,1.000000,192.000000,0.000000,0.000000,0.000000,0.000000,0.000000,0.000000,0.000000,0.000000,0.000000,1775740731.398972,0.000000
82.000000,17281.251226,19390.540646,-11973.136601,155.188162,-11691.549324,-5620.390847,1132.451133,733.785419,11571.028718,16563.044973,-281.430814,2572.663435,-16032.548670,19075.045773,3286.891077,2831.697802,0.008000,-0.014000,1.000000,192.000000,0.000000,0.000000,0.000000,0.000000,0.000000,0.000000,0.000000,0.000000,0.000000,1775740731.398985,0.000000
84.000000,17323.339560,19420.939019,-11916.273763,202.998543,-11637.547509,-5576.737890,1166.269322,780.500565,11571.006366,16592.750441,-247.232645,2588.957857,-15991.890847,19100.415003,2956.733460,2363.205238,0.008000,-0.014000,1.000000,192.000000,0.000000,0.000000,0.000000,0.000000,0.000000,0.000000,0.000000,0.000000,0.000000,1775740731.398997,0.000000
86.000000,17281.273577,19393.736946,-11985.340653,154.159982,-11691.370510,-5611.539556,1124.605671,730.097381,11551.202721,16583.429764,-252.664119,2586.029778,-15995.087146,19096.391689,2992.831527,2418.436398,0.006000,-0.014000,0.999000,192.000000,0.000000,16.000000,127.500000,72.000000,15.500000,24.000000,0.000000,0.000000,0.000000,1775740731.399009,0.000000
88.000000,17308.028615,19412.735929,-11944.615775,189.676903,-11657.529969,-5582.906971,1152.858276,761.479230,11573.643872,16578.065345,-278.458032,2585.023950,-16030.939344,19088.680338,3226.295498,2769.604655,0.006000,-0.014000,0.999000,192.000000,0.000000,0.000000,0.000000,0.000000,0.000000,0.000000,0.000000,0.000000,0.000000,1775740731.399020,0.000000
90.000000,17302.686549,19406.209219,-11954.562301,183.798395,-11666.694184,-5581.565867,1144.588130,756.092460,11547.268814,16601.378215,-231.273500,2598.412645,-15975.059983,19116.575315,2776.064310,2132.937566,0.006000,-0.014000,0.999000,192.000000,0.000000,0.000000,0.000000,0.000000,0.000000,0.000000,0.000000,0.000000,0.000000,1775740731.399031,0.000000
92.000000,17289.253150,19404.711652,-11982.010243,166.051110,-11684.307359,-5584.471593,1132.965223,736.288814,11555.606014,16572.410354,-288.873945,2578.564296,-16041.131740,19086.646329,3274.508211,2859.481020,0.006000,-0.014000,0.999000,192.000000,0.000000,0.000000,0.000000,0.000000,0.000000,0.000000,0.000000,0.000000,0.000000,1775740731.399043,0.000000
94.000000,17322.825470,19422.950676,-11926.220289,207.491244,-11637.413399,-5549.021727,1165.129383,780.724082,11564.010270,16605.826212,-249.043137,2601.296020,-15993.656635,19117.469384,2942.316585,2396.107006,0.006000,-0.014000,0.999000,192.000000,0.000000,0.000000,0.000000,0.000000,0.000000,0.000000,0.000000,0.000000,0.000000,1775740731.399055,0.000000
96.000000,17278.166685,19392.261731,-11987.955807,154.271740,-11690.543495,-5588.561963,1124.404505,729.672698,11537.322287,16579.719374,-254.943997,2585.739206,-16002.642036,19101.420832,2982.728539,2444.789105,0.004000,-0.015000,0.997500,192.000000,0.000000,8.000000,127.500000,64.000000,15.500000,16.000000,0.000000,0.000000,0.000000,1775740731.399066,0.000000
98.000000,17311.761357,19419.352045,-11939.184301,189.989828,-11652.366716,-5559.839971,1157.082755,764.362605,11566.312500,16580.725203,-277.385149,2583.638142,-16031.431083,19094.156515,3221.802798,2789.117728,0.004000,-0.015000,0.997500,192.000000,0.000000,0.000000,0.000000,0.000000,0.000000,0.000000,0.000000,0.000000,0.000000,1775740731.399078,0.000000
100.000000,17298.238551,19403.728176,-11949.130827,177.338741,-11661.575635,-5576.916704,1144.677537,750.236303,11544.340735,16601.512325,-228.680698,2597.317409,-15970.611986,19117.827012,2777.852449,2140.403049,0.004000,-0.015000,0.997500,192.000000,0.000000,0.000000,0.000000,0.000000,0.000000,0.000000,0.000000,0.000000,0.000000,1775740731.399090,0.000000
102.000000,17283.329938,19397.246170,-11975.528237,153.824705,-11689.157687,-5602.822376,1129.277185,727.437523,11552.141494,16562.910862,-289.969181,2568.662473,-16043.478673,19074.732849,3282.644246,2852.596683,0.004000,-0.015000,0.997500,192.000000,0.000000,0.000000,0.000000,0.000000,0.000000,0.000000,0.000000,0.000000,0.000000,1775740731.399101,0.000000
