Sample_index,EXG Channel 0,EXG Channel 1,EXG Channel 2,EXG Channel 3,EXG Channel 4,EXG Channel 5,EXG Channel 6,EXG Channel 7,EXG Channel 8,EXG Channel 9,EXG Channel 10,EXG Channel 11,EXG Channel 12,EXG Channel 13,EXG Channel 14,EXG Channel 15,Accel Channel 0,Accel Channel 1,Accel Channel 2,Not Used,Digital Channel 0 (D11),Digital Channel 1 (D12),Digital Channel 2 (D13),Digital Channel 3 (D17),Not Used,Digital Channel 4 (D18),Analog Channel 0,Analog Channel 1,Analog Channel 2,Timestamp,Marker Channel
90.000000,9048.187321,12559.892244,1063.674815,2786.279057,-17157.467265,-11499.391377,3237.426667,-2020.016553,-16053.201682,1855.507714,-227.473703,3753.237874,11342.191558,-13214.306618,-4182.324312,610.761417,-0.002000,-0.012000,1.000000,192.000000,0.000000,0.000000,0.000000,0.000000,0.000000,0.000000,0.000000,0.000000,0.000000,1770297885.121524,101.000000
92.000000,9001.673341,12514.026465,1013.763370,2734.221844,-17203.914190,-11551.225072,3187.068187,-2069.793888,-16065.070458,1850.657386,-236.056773,3746.957034,11350.372297,-13218.709912,-4178.300998,604.949964,-0.002000,-0.012000,1.000000,192.000000,0.000000,0.000000,0.000000,0.000000,0.000000,0.000000,0.000000,0.000000,0.000000,1770297885.121602,0.000000
94.000000,9024.270955,12534.210090,1043.021803,2765.089603,-17170.319518,-11506.074548,3216.103103,-2043.508237,-16105.013025,1817.710914,-270.567867,3713.898803,11316.308238,-13260.999413,-4212.677981,582.262943,-0.006000,-0.014000,1.002000,192.000000,127.500000,104.000000,127.500000,72.000000,15.500000,40.000000,0.000000,0.000000,0.000000,1770297885.121662,0.000000
96.000000,9024.963859,12532.153729,1042.351251,2762.742670,-17172.577044,-11524.872366,3213.107969,-2046.235150,-16044.618612,1859.486325,-220.187035,3760.278673,11350.998145,-13211.445595,-4157.580931,622.429028,-0.006000,-0.014000,1.002000,192.000000,0.000000,0.000000,0.000000,0.000000,0.000000,0.000000,0.000000,0.000000,0.000000,1770297885.121721,0.000000
98.000000,8996.778309,12501.844764,1014.746847,2730.600861,-17199.600303,-11553.124971,3182.709596,-2077.795813,-16107.136441,1812.525310,-273.786518,3711.887146,11299.723244,-13262.161703,-4206.575955,580.094824,-0.006000,-0.014000,1.002000,192.000000,0.000000,0.000000,0.000000,0.000000,0.000000,0.000000,0.000000,0.000000,0.000000,1770297885.121785,0.000000
100.000000,9041.012411,12545.184796,1059.830315,2779.394720,-17160.462399,-11503.012360,3230.274109,-2030.790094,-16063.259967,1844.130676,-236.704974,3741.391449,11348.427695,-13229.394046,-4170.388480,609.509720,-0.006000,-0.014000,1.002000,192.000000,0.000000,0.000000,0.000000,0.000000,0.000000,0.000000,0.000000,0.000000,0.000000,1770297885.121823,0.000000
102.000000,9004.243792,12506.091595,1012.981059,2729.237405,-17206.708158,-11549.682802,3185.168288,-2072.900781,-16072.044202,1839.392106,-242.248206,3739.357440,11332.759122,-13233.797340,-4173.428318,602.737141,-0.006000,-0.014000,1.002000,192.000000,0.000000,0.000000,0.000000,0.000000,0.000000,0.000000,0.000000,0.000000,0.000000,1770297885.121843,0.000000
104.000000,9044.387525,12543.620174,1046.463972,2768.084737,-17169.827780,-11517.451586,3220.327582,-2033.204083,-16096.832287,1818.023839,-266.343387,3716.648068,11313.089587,-13258.339555,-4205.726588,575.892696,-0.002000,-0.011000,1.005000,192.000000,0.000000,8.000000,127.500000,96.000000,15.500000,64.000000,0.000000,0.000000,0.000000,1770297885.121858,0.000000
106.000000,9040.095990,12545.050686,1046.307510,2768.330606,-17175.594530,-11517.809214,3221.802798,-2031.930033,-16032.258097,1876.473651,-208.899404,3772.482726,11364.319785,-13202.706063,-4167.326291,624.530092,-0.002000,-0.011000,1.005000,192.000000,0.000000,0.000000,0.000000,0.000000,0.000000,0.000000,0.000000,0.000000,0.000000,1770297885.121878,0.000000
108.000000,9020.761731,12521.670761,1018.099608,2740.748553,-17205.702329,-11536.629383,3191.896163,-2056.494600,-16094.910037,1826.741019,-259.883733,3724.739400,11315.145947,-13250.494093,-4209.347571,578.060815,-0.002000,-0.011000,1.005000,192.000000,0.000000,0.000000,0.000000,0.000000,0.000000,0.000000,0.000000,0.000000,0.000000,1770297885.121893,0.000000
110.000000,9069.667348,12570.710489,1069.955655,2792.716359,-17156.416733,-11498.564362,3243.551045,-2005.711437,-16041.556423,1868.069395,-213.347401,3763.542028,11343.063276,-13211.758520,-4189.655684,611.521377,-0.002000,-0.011000,1.005000,192.000000,0.000000,0.000000,0.000000,0.000000,0.000000,0.000000,0.000000,0.000000,0.000000,1770297885.121912,0.000000
112.000000,9029.523615,12530.611459,1025.252166,2744.458943,-17201.053167,-11543.245500,3198.266411,-2049.967891,-16046.630269,1865.230723,-215.604927,3761.172743,11349.835855,-13213.412549,-4185.230039,606.268717,-0.002000,-0.011000,1.005000,192.000000,0.000000,0.000000,0.000000,0.000000,0.000000,0.000000,0.000000,0.000000,0.000000,1770297885.121928,0.000000
114.000000,9050.176626,12551.666802,1050.263768,2768.308254,-17175.259253,-11517.138662,3224.552062,-2026.230338,-16081.521342,1835.033516,-248.774916,3730.103818,11322.969058,-13250.985831,-4219.070580,576.920876,-0.002000,-0.011000,1.005000,192.000000,0.000000,0.000000,127.500000,80.000000,15.500000,104.000000,0.000000,0.000000,0.000000,1770297885.121948,0.000000
116.000000,9042.129998,12543.195491,1044.474667,2764.977844,-17181.674204,-11523.777130,3221.333411,-2033.807580,-16030.089978,1875.981912,-204.049075,3771.678063,11373.014614,-13198.481583,-4169.740280,607.140435,-0.002000,-0.011000,1.005000,192.000000,0.000000,0.000000,0.000000,0.000000,0.000000,0.000000,0.000000,0.000000,0.000000,1770297885.121966,0.000000
118.000000,9012.133957,12512.998284,1016.333820,2732.590167,-17211.379672,-11545.994764,3191.091501,-2064.407118,-16099.134517,1821.667173,-260.509582,3717.855062,11299.276209,-13264.508637,-4216.455426,578.664312,-0.002000,-0.011000,1.005000,192.000000,0.000000,0.000000,0.000000,0.000000,0.000000,0.000000,0.000000,0.000000,0.000000,1770297885.121986,0.000000
120.000000,9058.647938,12560.115762,1066.066452,2784.915600,-17158.607204,-11500.844240,3239.751248,-2018.071952,-16053.268737,1853.406650,-224.433866,3748.856932,11334.726075,-13224.610773,-4186.057053,602.804196,-0.002000,-0.011000,1.005000,192.000000,0.000000,0.000000,0.000000,0.000000,0.000000,0.000000,0.000000,0.000000,0.000000,1770297885.122006,0.000000
122.000000,9008.289457,12509.399654,1014.702143,2731.718449,-17201.299036,-11552.968508,3188.722216,-2069.615074,-16062.656470,1849.115115,-229.753581,3746.577054,11347.444218,-13231.338648,-4177.317521,600.881946,-0.002000,-0.011000,1.005000,192.000000,0.000000,0.000000,0.000000,0.000000,0.000000,0.000000,0.000000,0.000000,0.000000,1770297885.122024,0.000000
124.000000,9036.095027,12534.835939,1041.591292,2763.815554,-17173.940500,-11521.027866,3216.863062,-2041.518932,-16101.950836,1815.833368,-264.890524,3712.602402,11295.521116,-13261.737020,-4206.888879,576.518545,-0.002000,-0.011000,1.005000,192.000000,0.000000,0.000000,127.500000,72.000000,15.500000,72.000000,0.000000,0.000000,0.000000,1770297885.122042,0.000000
126.000000,9034.865682,12535.819416,1039.669042,2762.832077,-17173.694631,-11515.238764,3216.036047,-2044.290548,-16043.791597,1860.402746,-216.163721,3756.747098,11354.954404,-13207.735206,-4159.100850,629.447476,-0.002000,-0.011000,1.005000,192.000000,0.000000,0.000000,0.000000,0.000000,0.000000,0.000000,0.000000,0.000000,0.000000,1770297885.122061,0.000000
128.000000,9011.776329,12511.903049,1010.075332,2734.780638,-17201.880181,-11540.429180,3186.419986,-2070.978531,-16103.381348,1819.409647,-266.432794,3713.742341,11295.766985,-13260.418267,-4212.275650,584.028731,-0.002000,-0.011000,1.005000,192.000000,0.000000,0.000000,0.000000,0.000000,0.000000,0.000000,0.000000,0.000000,0.000000,1770297885.122080,0.000000
130.000000,9044.722801,12547.978765,1054.957635,2780.154679,-17156.237919,-11498.631418,3230.944661,-2031.594757,-16062.410600,1849.383336,-235.408573,3743.246644,11327.484110,-13227.784720,-4179.552696,611.722542,-0.002000,-0.011000,1.005000,192.000000,0.000000,0.000000,0.000000,0.000000,0.000000,0.000000,0.000000,0.000000,0.000000,1770297885.122122,0.000000
132.000000,9000.153422,12502.895296,1006.208480,2730.623213,-17204.964722,-11541.814988,3181.904934,-2078.488717,-16068.892606,1845.315319,-241.689413,3739.871531,11329.607526,-13232.970325,-4187.331103,607.185138,-0.002000,-0.011000,1.005000,192.000000,0.000000,0.000000,0.000000,0.000000,0.000000,0.000000,0.000000,0.000000,0.000000,1770297885.122142,0.000000
134.000000,9035.402123,12539.552157,1041.412478,2769.671711,-17167.525550,-11511.841299,3218.539443,-2041.161304,-16100.676787,1823.030630,-268.735024,3714.770521,11311.144985,-13254.405648,-4217.237737,579.759548,-0.002000,-0.012500,1.006500,192.000000,127.500000,120.000000,127.500000,72.000000,15.500000,64.000000,0.000000,0.000000,0.000000,1770297885.122162,0.000000
136.000000,9038.911347,12541.966145,1045.324033,2769.470545,-17169.112524,-11511.438967,3219.634678,-2039.619033,-16038.762455,1873.254999,-213.123883,3765.553685,11364.476247,-13198.503935,-4168.600341,621.356144,-0.002000,-0.012500,1.006500,192.000000,0.000000,0.000000,0.000000,0.000000,0.000000,0.000000,0.000000,0.000000,0.000000,1770297885.122181,0.000000
138.000000,9012.491585,12517.155709,1016.870262,2738.088696,-17201.231980,-11541.077380,3191.292666,-2066.217609,-16098.776889,1828.216234,-261.850686,3720.291402,11299.633837,-13251.589328,-4217.193033,584.721635,-0.002000,-0.012500,1.006500,192.000000,0.000000,0.000000,0.000000,0.000000,0.000000,0.000000,0.000000,0.000000,0.000000,1770297885.122200,0.000000
140.000000,9058.647938,12563.468523,1063.361891,2785.876725,-17157.623727,-11498.117327,3238.924234,-2017.468455,-16054.587490,1859.508676,-226.914910,3751.449734,11356.764896,-13232.702104,-4189.901553,601.328981,-0.002000,-0.012500,1.006500,192.000000,0.000000,0.000000,0.000000,0.000000,0.000000,0.000000,0.000000,0.000000,0.000000,1770297885.122219,0.000000
142.000000,9013.720931,12517.848613,1015.350344,2735.898225,-17205.702329,-11545.681840,3191.583239,-2064.094193,-16061.158903,1857.005281,-230.111209,3749.438077,11324.734846,-13216.519441,-4196.875298,603.742969,-0.002000,-0.012500,1.006500,192.000000,0.000000,0.000000,0.000000,0.000000,0.000000,0.000000,0.000000,0.000000,0.000000,1770297885.122239,0.000000
144.000000,9043.493455,12547.241157,1051.917798,2768.576475,-17167.726716,-11506.543935,3223.412123,-2031.952385,-16095.334720,1830.518464,-259.816678,3722.861853,11299.946761,-13253.556282,-4215.047266,571.087071,-0.003000,-0.011250,1.008250,192.000000,127.500000,112.000000,127.500000,88.000000,15.500000,72.000000,0.000000,0.000000,0.000000,1770297885.122259,0.000000
146.000000,9029.277745,12532.198433,1044.564074,2760.462792,-17184.401117,-11525.609973,3216.438379,-2045.743411,-16039.298897,1872.785613,-212.632145,3765.732499,11364.632710,-13207.869316,-4158.139725,615.187063,-0.003000,-0.011250,1.008250,192.000000,0.000000,0.000000,0.000000,0.000000,0.000000,0.000000,0.000000,0.000000,0.000000,1770297885.122278,0.000000
148.000000,8994.610190,12502.090633,1012.958707,2726.644603,-17211.424376,-11558.690555,3182.977817,-2078.242848,-16113.372578,1813.978173,-276.334617,3705.695713,11277.997348,-13269.090744,-4198.931658,586.554478,-0.003000,-0.011250,1.008250,192.000000,0.000000,0.000000,0.000000,0.000000,0.000000,0.000000,0.000000,0.000000,0.000000,1770297885.122296,0.000000
150.000000,9043.851083,12551.979727,1061.663158,2778.657112,-17154.226262,-11506.566287,3232.509283,-2029.828969,-16067.998537,1848.355156,-241.689413,3737.748115,11319.504538,-13232.679752,-4160.598416,610.761417,-0.003000,-0.011250,1.008250,192.000000,0.000000,0.000000,0.000000,0.000000,0.000000,0.000000,0.000000,0.000000,0.000000,1770297885.122318,0.000000
152.000000,8999.080539,12508.304418,1015.976192,2730.757324,-17188.647948,-11542.932575,3186.218820,-2074.755976,-16074.748763,1848.645729,-244.550436,3739.290385,11336.782436,-13233.685581,-4156.955082,612.348391,-0.003000,-0.011250,1.008250,192.000000,0.000000,0.000000,0.000000,0.000000,0.000000,0.000000,0.000000,0.000000,0.000000,1770297885.122337,0.000000
154.000000,9033.703391,12537.294631,1046.978062,2762.586208,-17153.533358,-11514.903488,3219.031181,-2040.378993,-16102.934313,1824.572900,-269.338521,3712.155367,11302.897191,-13259.457142,-4189.298056,584.207545,-0.003500,-0.010625,1.004125,192.000000,127.500000,112.000000,127.500000,88.000000,15.500000,32.000000,0.000000,0.000000,0.000000,1770297885.122357,0.000000
156.000000,9038.844292,12543.329602,1048.699146,2765.827211,-17154.002744,-11509.829642,3221.355763,-2034.902815,-16040.885871,1872.673854,-213.861491,3764.123173,11363.783343,-13205.678845,-4148.282605,625.871196,-0.003500,-0.010625,1.004125,192.000000,0.000000,0.000000,0.000000,0.000000,0.000000,0.000000,0.000000,0.000000,0.000000,1770297885.122373,0.000000
158.000000,9008.356513,12513.244154,1014.925660,2734.043030,-17185.675166,-11541.949098,3189.057492,-2065.301188,-16105.929447,1825.086990,-269.293817,3717.743304,11298.158622,-13255.590290,-4204.966629,583.738158,-0.003500,-0.010625,1.004125,192.000000,0.000000,0.000000,0.000000,0.000000,0.000000,0.000000,0.000000,0.000000,0.000000,1770297885.122395,0.000000
160.000000,9061.508961,12565.033146,1065.440603,2789.631818,-17142.871576,-11486.717938,3241.584091,-2011.634649,-16057.359106,1861.207409,-230.088857,3753.997833,11339.486997,-13217.480566,-4177.719853,611.923708,-0.003500,-0.010625,1.004125,192.000000,0.000000,0.000000,0.000000,0.000000,0.000000,0.000000,0.000000,0.000000,0.000000,1770297885.122413,0.000000
162.000000,9022.013428,12525.403503,1022.279384,2740.748553,-17188.960873,-11533.097808,3195.494794,-2055.824048,-16056.956775,1866.862400,-226.892558,3755.875380,11346.639555,-13213.859584,-4184.045396,609.107388,-0.003500,-0.010625,1.004125,192.000000,0.000000,0.000000,0.000000,0.000000,0.000000,0.000000,0.000000,0.000000,0.000000,1770297885.122433,0.000000
164.000000,9048.902577,12551.108009,1053.705937,2772.331568,-17165.491541,-11510.522546,3226.742533,-2027.906719,-16090.216171,1841.537874,-256.240398,3727.019277,11314.765968,-13239.206462,-4214.399065,581.681798,-0.003500,-0.010625,1.004125,192.000000,0.000000,0.000000,0.000000,0.000000,0.000000,0.000000,0.000000,0.000000,0.000000,1770297885.122454,0.000000
166.000000,9037.234966,12540.222709,1049.772030,2765.469583,-17172.375878,-11520.267906,3223.859158,-2034.366373,-16037.086074,1874.461994,-210.486378,3766.090127,11366.890236,-13204.896534,-4167.370995,621.780827,-0.002000,-0.010000,1.000000,192.000000,127.500000,120.000000,127.500000,88.000000,15.500000,32.000000,0.000000,0.000000,0.000000,1770297885.122471,0.000000
168.000000,9009.384693,12513.400616,1019.150140,2735.741763,-17202.014292,-11543.491369,3192.991399,-2063.825973,-16099.559200,1829.356173,-263.661178,3720.693734,11316.084721,-13246.895462,-4214.600231,575.959751,-0.002000,-0.010000,1.000000,192.000000,0.000000,0.000000,0.000000,0.000000,0.000000,0.000000,0.000000,0.000000,0.000000,1770297885.122490,0.000000
170.000000,9043.091123,12543.106084,1060.031481,2781.562839,-17161.289413,-11501.313627,3234.409181,-2028.286699,-16066.299804,1851.462048,-237.844913,3743.850141,11329.227546,-13226.711837,-4182.547829,606.492234,-0.002000,-0.010000,1.000000,192.000000,0.000000,0.000000,0.000000,0.000000,0.000000,0.000000,0.000000,0.000000,0.000000,1770297885.122507,0.000000
172.000000,9005.406082,12507.209183,1017.719629,2733.484236,-17197.052204,-11537.970488,3188.945733,-2072.721967,-16076.045165,1848.735136,-242.985814,3741.860836,11327.975849,-13232.567994,-4176.646969,615.209414,-0.002000,-0.010000,1.000000,192.000000,0.000000,0.000000,0.000000,0.000000,0.000000,0.000000,0.000000,0.000000,0.000000,1770297885.122525,0.000000
174.000000,9031.401161,12529.806796,1049.168533,2762.563856,-17162.630518,-11505.068720,3216.796007,-2042.904740,-16105.996502,1819.320240,-271.774861,3712.535347,11309.245087,-13259.255977,-4199.333990,588.946115,-0.002000,-0.010000,1.000000,192.000000,0.000000,0.000000,0.000000,0.000000,0.000000,0.000000,0.000000,0.000000,0.000000,1770297885.122548,0.000000
176.000000,9030.842368,12527.705732,1048.922664,2758.249969,-17163.479884,-11511.751892,3215.700771,-2044.424658,-16042.919879,1865.968331,-218.264785,3760.010452,11365.280910,-13208.830441,-4148.327309,632.084981,-0.004000,-0.008000,1.004000,192.000000,127.500000,112.000000,127.500000,96.000000,15.500000,48.000000,0.000000,0.000000,0.000000,1770297885.122570,0.000000
178.000000,9000.891030,12499.475479,1020.111265,2726.242271,-17189.005576,-11546.642965,3186.889373,-2073.817202,-16110.802127,1812.279440,-273.741814,3706.835652,11295.476412,-13265.045078,-4183.441899,581.324170,-0.004000,-0.008000,1.004000,192.000000,0.000000,0.000000,0.000000,0.000000,0.000000,0.000000,0.000000,0.000000,0.000000,1770297885.122589,0.000000
180.000000,9051.160103,12553.812570,1067.653426,2784.334455,-17138.557689,-11490.808307,3236.353783,-2022.005859,-16062.835284,1848.310452,-238.493113,3742.218464,11332.848529,-13227.382389,-4161.805411,610.984935,-0.004000,-0.008000,1.004000,192.000000,0.000000,0.000000,0.000000,0.000000,0.000000,0.000000,0.000000,0.000000,0.000000,1770297885.122604,0.000000
182.000000,9012.849213,12514.339389,1024.581614,2739.541559,-17183.976434,-11529.253307,3191.963219,-2064.205952,-16060.935385,1856.759412,-236.056773,3751.337975,11345.969003,-13218.419339,-4162.833591,609.844996,-0.004000,-0.008000,1.004000,192.000000,0.000000,0.000000,0.000000,0.000000,0.000000,0.000000,0.000000,0.000000,0.000000,1770297885.122617,0.000000
184.000000,9039.425437,12539.954488,1049.347347,2771.884533,-17155.634422,-11509.539069,3219.478216,-2034.858112,-16097.905171,1829.087952,-269.070300,3721.654859,11322.946706,-13248.482436,-4196.830594,586.554478,-0.004000,-0.008000,1.004000,192.000000,0.000000,0.000000,0.000000,0.000000,0.000000,0.000000,0.000000,0.000000,0.000000,1770297885.122629,0.000000
186.000000,9050.936586,12548.783427,1054.197675,2776.511344,-17153.198082,-11505.627514,3225.580242,-2025.470379,-16028.637115,1881.815717,-208.608831,3774.181458,11371.561750,-13195.709967,-4155.144591,629.581586,-0.004000,-0.008000,1.004000,192.000000,0.000000,0.000000,127.500000,88.000000,15.500000,56.000000,0.000000,0.000000,0.000000,1770297885.122642,0.000000
188.000000,9014.994981,12512.104215,1019.574823,2738.714545,-17193.252408,-11539.937441,3190.935038,-2060.719080,-16091.311406,1831.725458,-259.213180,3724.538234,11306.294657,-13243.207424,-4203.044379,583.514641,-0.004000,-0.008000,1.004000,192.000000,0.000000,0.000000,0.000000,0.000000,0.000000,0.000000,0.000000,0.000000,0.000000,1770297885.122654,0.000000
190.000000,9060.413725,12557.612366,1068.189868,2787.933086,-17147.431332,-11490.361272,3239.952414,-2013.758065,-16053.782827,1854.881865,-231.608776,3746.308833,11351.266366,-13223.828462,-4174.277684,610.202624,-0.004000,-0.008000,1.004000,192.000000,0.000000,0.000000,0.000000,0.000000,0.000000,0.000000,0.000000,0.000000,0.000000,1770297885.122666,0.000000
192.000000,9017.431321,12514.406444,1023.464027,2737.216978,-17189.206742,-11541.926747,3194.399559,-2059.310920,-16054.520435,1855.172438,-231.474666,3748.968691,11355.781419,-13224.834290,-4169.136783,613.465978,-0.004000,-0.008000,1.004000,192.000000,0.000000,0.000000,0.000000,0.000000,0.000000,0.000000,0.000000,0.000000,0.000000,1770297885.122679,0.000000
194.000000,9044.409876,12541.742628,1056.678719,2769.828173,-17162.071724,-11512.042464,3224.753228,-2031.371240,-16086.997519,1825.802246,-261.448355,3717.564490,11322.678485,-13245.844930,-4198.775196,584.654580,-0.004000,-0.008000,1.004000,192.000000,0.000000,0.000000,0.000000,0.000000,0.000000,0.000000,0.000000,0.000000,0.000000,1770297885.122692,0.000000
196.000000,9039.693658,12536.914651,1057.237513,2767.615350,-17165.960928,-11510.209621,3222.339239,-2034.098152,-16031.140510,1866.929456,-213.034476,3759.362252,11364.453896,-13212.049092,-4149.914283,631.637947,-0.002000,-0.010000,1.012000,192.000000,127.500000,120.000000,127.500000,88.000000,15.500000,80.000000,0.000000,0.000000,0.000000,1770297885.122704,0.000000
198.000000,9019.174757,12516.172232,1032.717649,2739.519207,-17182.992957,-11534.975354,3195.740663,-2056.002862,-16086.662243,1821.466007,-260.040195,3717.229213,11316.040017,-13253.176302,-4192.673170,589.482557,-0.002000,-0.010000,1.012000,192.000000,0.000000,0.000000,0.000000,0.000000,0.000000,0.000000,0.000000,0.000000,0.000000,1770297885.122717,0.000000
200.000000,9065.845199,12560.674555,1080.460975,2790.347074,-17141.374009,-11483.454583,3243.819266,-2008.639515,-16041.534071,1852.758450,-224.009183,3748.186379,11359.871788,-13220.878031,-4161.648948,623.501912,-0.002000,-0.010000,1.012000,192.000000,0.000000,0.000000,0.000000,0.000000,0.000000,0.000000,0.000000,0.000000,0.000000,1770297885.122730,0.000000
202.000000,9021.700504,12515.658142,1036.025707,2737.753420,-17181.182466,-11533.053104,3197.618210,-2057.545132,-16042.539900,1858.167572,-222.690430,3751.337975,11365.929111,-13220.743921,-4151.970643,628.709868,-0.002000,-0.010000,1.012000,192.000000,0.000000,0.000000,0.000000,0.000000,0.000000,0.000000,0.000000,0.000000,0.000000,1770297885.122743,0.000000
204.000000,9061.576016,12552.247948,1069.173344,2769.872876,-17146.537262,-11494.250476,3229.044763,-2022.855225,-16073.228845,1831.189016,-251.323015,3721.744266,11329.942802,-13245.241433,-4185.207687,594.511699,-0.002000,-0.010000,1.012000,192.000000,0.000000,0.000000,0.000000,0.000000,0.000000,0.000000,0.000000,0.000000,0.000000,1770297885.122755,0.000000
206.000000,9066.627510,12557.433552,1076.102385,2775.550219,-17141.217547,-11490.562438,3235.035030,-2018.139007,-16007.313550,1883.916781,-194.370770,3773.220333,11393.332349,-13189.898514,-4132.435218,628.463999,-0.002000,-0.008000,1.008000,192.000000,127.500000,120.000000,127.500000,96.000000,15.500000,64.000000,0.000000,0.000000,0.000000,1770297885.122768,0.000000
208.000000,9036.743228,12529.493872,1044.787591,2746.023565,-17171.593567,-11528.985087,3205.530728,-2045.296376,-16066.970356,1840.867322,-241.421192,3732.160179,11351.758105,-13238.804130,-4178.636274,601.776016,-0.002000,-0.008000,1.008000,192.000000,0.000000,0.000000,0.000000,0.000000,0.000000,0.000000,0.000000,0.000000,0.000000,1770297885.122781,0.000000
210.000000,9080.709109,12572.744497,1091.189813,2797.477281,-17128.052369,-11479.475973,3253.944606,-1995.966076,-16028.167728,1865.990682,-209.525253,3759.876342,11393.868791,-13208.182241,-4152.149457,623.412505,-0.002000,-0.008000,1.008000,192.000000,0.000000,0.000000,0.000000,0.000000,0.000000,0.000000,0.000000,0.000000,0.000000,1770297885.601625,0.000000
212.000000,9032.228176,12525.090578,1041.390126,2747.699946,-17176.823876,-11525.297049,3205.083693,-2043.485885,-16033.487443,1868.628188,-211.671020,3765.777202,11375.070974,-13209.456290,-4160.084326,622.071400,-0.002000,-0.008000,1.008000,192.000000,0.000000,0.000000,0.000000,0.000000,0.000000,0.000000,0.000000,0.000000,0.000000,1770297885.601699,0.000000
214.000000,9055.205769,12548.336392,1069.486269,2777.159545,-17154.718000,-11506.521583,3233.559815,-2017.982545,-16075.016984,1832.932452,-249.736041,3730.684964,11328.288773,-13243.632107,-4188.627504,579.893658,-0.002000,-0.008000,1.008000,192.000000,0.000000,0.000000,0.000000,0.000000,0.000000,0.000000,0.000000,0.000000,0.000000,1770297885.601754,0.000000
216.000000,9053.328222,12543.508416,1068.860420,2774.142060,-17156.439085,-11507.616819,3231.078771,-2024.486902,-16020.366969,1872.673854,-204.183186,3768.794688,11380.994187,-13204.605961,-4138.872521,635.705964,-0.002000,-0.008000,1.008000,192.000000,0.000000,0.000000,127.500000,72.000000,15.500000,72.000000,0.000000,0.000000,0.000000,1770297885.601803,0.000000
218.000000,9024.226251,12514.249982,1039.490228,2741.687327,-17187.083326,-11534.684781,3199.495757,-2055.801696,-16071.239540,1833.647708,-249.043137,3727.354554,11340.805750,-13237.664191,-4187.420510,597.551536,-0.002000,-0.008000,1.008000,192.000000,0.000000,0.000000,0.000000,0.000000,0.000000,0.000000,0.000000,0.000000,0.000000,1770297885.601869,0.000000
220.000000,9066.247531,12558.707602,1084.797214,2790.704702,-17140.099959,-11485.667406,3245.965033,-2010.874690,-16043.925708,1849.115115,-227.496055,3748.544007,11351.646346,-13220.520403,-4160.129030,623.703077,-0.002000,-0.008000,1.008000,192.000000,0.000000,0.000000,0.000000,0.000000,0.000000,0.000000,0.000000,0.000000,0.000000,1770297885.601923,0.000000
222.000000,9031.445865,12521.089616,1043.401783,2742.961376,-17179.997823,-11531.510834,3202.312076,-2050.549036,-16034.694437,1859.866304,-217.504825,3758.602292,11367.784306,-13215.446557,-4154.071707,619.880929,-0.002000,-0.008000,1.008000,192.000000,0.000000,0.000000,0.000000,0.000000,0.000000,0.000000,0.000000,0.000000,0.000000,1770297885.601942,0.000000
224.000000,9056.569225,12546.525901,1070.447394,2774.723205,-17151.655811,-11497.335016,3231.861083,-2021.625879,-16073.832342,1824.438789,-252.574712,3724.046495,11334.055523,-13248.571843,-4190.080367,600.278449,-0.002000,-0.008000,1.008000,192.000000,0.000000,0.000000,0.000000,0.000000,0.000000,0.000000,0.000000,0.000000,0.000000,1770297885.601961,0.000000
226.000000,9060.592539,12550.817436,1075.007150,2775.706682,-17150.381762,-11501.403034,3237.672536,-2017.915489,-16012.275638,1873.210296,-198.885822,3774.896714,11393.153536,-13200.157964,-4140.146570,641.875046,-0.004000,-0.016000,1.014000,192.000000,127.500000,112.000000,127.500000,64.000000,15.500000,88.000000,0.000000,0.000000,0.000000,1770297885.601979,0.000000
228.000000,9031.691734,12520.955505,1043.222969,2742.179065,-17180.221341,-11532.337848,3204.591954,-2049.453801,-16071.977147,1828.976194,-249.087840,3730.506150,11334.077875,-13246.850758,-4180.647931,593.796443,-0.004000,-0.016000,1.014000,192.000000,0.000000,0.000000,0.000000,0.000000,0.000000,0.000000,0.000000,0.000000,0.000000,1770297885.601997,0.000000
230.000000,9075.501153,12562.887378,1090.452205,2794.929182,-17133.908526,-11483.789859,3253.184647,-2003.565669,-16035.946135,1853.674871,-221.952822,3753.796667,11379.027233,-13215.334799,-4157.826800,624.440685,-0.004000,-0.016000,1.014000,192.000000,0.000000,0.000000,0.000000,0.000000,0.000000,0.000000,0.000000,0.000000,0.000000,1770297885.602015,0.000000
232.000000,9042.062943,12530.477349,1046.843952,2749.219865,-17173.806390,-11522.927764,3207.788254,-2043.687051,-16030.626420,1865.878924,-214.956726,3762.044461,11370.980605,-13205.723549,-4147.209721,630.118028,-0.004000,-0.016000,1.014000,192.000000,0.000000,0.000000,0.000000,0.000000,0.000000,0.000000,0.000000,0.000000,0.000000,1770297885.602033,0.000000
234.000000,9068.147429,12558.171160,1073.442527,2781.249914,-17146.380800,-11490.338920,3235.347955,-2017.311992,-16067.372688,1837.380449,-249.423116,3731.735496,11336.447160,-13236.971287,-4188.493393,597.998571,-0.004000,-0.016000,1.014000,192.000000,0.000000,0.000000,0.000000,0.000000,0.000000,0.000000,0.000000,0.000000,0.000000,1770297885.602050,0.000000
236.000000,9063.006528,12555.556006,1073.263714,2781.249914,-17150.046486,-11498.229086,3235.303251,-2021.715286,-16009.928704,1883.827374,-201.836252,3776.595447,11393.913495,-13194.212400,-4141.286509,641.986804,-0.003000,-0.016000,1.016000,192.000000,127.500000,120.000000,127.500000,64.000000,15.500000,104.000000,0.000000,0.000000,0.000000,1770297885.602069,0.000000
238.000000,9038.441961,12527.392808,1044.564074,2749.823362,-17183.283530,-11529.052142,3205.776597,-2048.604435,-16073.407659,1838.609795,-252.239436,3728.896824,11339.419942,-13234.020857,-4194.640123,597.395074,-0.003000,-0.016000,1.016000,192.000000,0.000000,0.000000,0.000000,0.000000,0.000000,0.000000,0.000000,0.000000,0.000000,1770297885.602087,0.000000
240.000000,9081.737290,12569.749364,1089.401673,2798.684275,-17140.681105,-11484.438060,3251.530618,-2004.169167,-16031.766359,1865.610703,-218.018915,3760.189266,11372.880503,-13206.796432,-4176.311693,623.546615,-0.003000,-0.016000,1.016000,192.000000,0.000000,0.000000,0.000000,0.000000,0.000000,0.000000,0.000000,0.000000,0.000000,1770297885.602105,0.000000
242.000000,9034.999792,12521.111968,1043.960577,2744.704812,-17179.215512,-11528.962735,3204.524899,-2054.460592,-16036.415522,1859.866304,-220.946994,3759.272845,11379.183695,-13213.032569,-4162.028928,626.541749,-0.003000,-0.016000,1.016000,192.000000,0.000000,0.000000,0.000000,0.000000,0.000000,0.000000,0.000000,0.000000,0.000000,1770297885.602122,0.000000
244.000000,9051.338917,12538.948660,1064.524181,2768.107089,-17156.796712,-11504.353464,3226.161388,-2034.366373,-16083.845923,1817.777970,-264.510544,3716.245737,11338.414113,-13248.035401,-4187.018178,594.757568,-0.003000,-0.016000,1.016000,192.000000,0.000000,0.000000,0.000000,0.000000,0.000000,0.000000,0.000000,0.000000,0.000000,1770297885.602140,0.000000
246.000000,9067.409821,12555.444247,1077.532897,2779.931161,-17143.385666,-11487.075566,3237.381963,-2018.429580,-16017.014207,1871.913895,-206.664229,3771.767470,11390.627788,-13202.326083,-4137.710230,639.014022,-0.003500,-0.015000,1.011000,192.000000,127.500000,112.000000,127.500000,72.000000,15.500000,56.000000,0.000000,0.000000,0.000000,1770297885.602158,0.000000
248.000000,9030.305926,12520.150843,1037.567978,2740.212111,-17181.853018,-11535.869424,3199.138129,-2056.069917,-16072.245368,1832.686583,-252.507657,3729.813246,11351.333422,-13246.828407,-4182.681940,601.418388,-0.003500,-0.015000,1.011000,192.000000,0.000000,0.000000,0.000000,0.000000,0.000000,0.000000,0.000000,0.000000,0.000000,1770297885.602175,0.000000
250.000000,9075.970540,12566.016622,1089.938115,2795.555031,-17133.439140,-11477.710185,3251.172990,-2005.510271,-16040.550594,1854.479534,-228.904215,3751.650900,11360.542340,-13220.542755,-4161.201914,634.498970,-0.003500,-0.015000,1.011000,192.000000,0.000000,0.000000,0.000000,0.000000,0.000000,0.000000,0.000000,0.000000,0.000000,1770297885.602198,0.000000
252.000000,9035.647993,12523.458901,1047.939187,2744.570702,-17174.275777,-11521.653714,3203.295553,-2052.717156,-16032.973353,1863.911970,-221.148160,3759.831638,11372.746393,-13211.087967,-4159.145553,632.263795,-0.003500,-0.015000,1.011000,192.000000,0.000000,0.000000,0.000000,0.000000,0.000000,0.000000,0.000000,0.000000,0.000000,1770297885.602217,0.000000
254.000000,9063.051231,12547.934061,1072.034368,2770.766946,-17146.224337,-11501.693607,3225.088504,-2027.102056,-16072.580644,1831.457237,-256.776840,3725.499359,11334.524910,-13246.135503,-4182.726643,596.657466,-0.003500,-0.015000,1.011000,192.000000,0.000000,0.000000,0.000000,0.000000,0.000000,0.000000,0.000000,0.000000,0.000000,1770297885.602235,0.000000
0.000000,9070.516714,12554.997212,1078.091690,2779.171202,-17135.204927,-11489.958941,3233.895091,-2019.725981,-16010.599257,1879.781709,-206.172491,3773.957941,11396.416890,-13193.832421,-4135.765628,641.338604,-0.003750,-0.016500,1.007500,192.000000,127.500000,112.000000,127.500000,56.000000,15.500000,48.000000,0.000000,0.000000,0.000000,1770297885.602252,0.000000
2.000000,9034.999792,12518.787386,1038.350289,2741.173237,-17178.142628,-11528.359238,3195.830070,-2057.791002,-16067.998537,1838.073354,-253.669948,3729.992059,11344.404381,-13240.368753,-4178.032777,601.306629,-0.003750,-0.016500,1.007500,192.000000,0.000000,0.000000,0.000000,0.000000,0.000000,0.000000,0.000000,0.000000,0.000000,1770297885.602270,0.000000
4.000000,9076.775202,12563.423820,1085.914801,2796.449101,-17131.472186,-11479.051289,3248.066097,-2009.131254,-16036.773150,1856.670005,-229.463009,3750.957996,11368.320747,-13221.034494,-4164.129992,619.970336,-0.003750,-0.016500,1.007500,192.000000,0.000000,0.000000,0.000000,0.000000,0.000000,0.000000,0.000000,0.000000,0.000000,1770297885.602287,0.000000
6.000000,9033.770446,12521.760168,1041.390126,2751.767963,-17180.534265,-11524.872366,3203.899050,-2053.298301,-16037.980144,1864.426060,-225.082067,3759.921045,11377.462611,-13210.305656,-4164.509972,624.820665,-0.003750,-0.016500,1.007500,192.000000,0.000000,0.000000,0.000000,0.000000,0.000000,0.000000,0.000000,0.000000,0.000000,1770297885.602305,0.000000
8.000000,9050.936586,12536.065285,1068.323978,2775.416109,-17156.506140,-11506.879211,3225.982574,-2031.885330,-16081.811915,1829.490284,-261.426003,3725.119379,11332.401494,-13235.361962,-4197.031760,591.114234,-0.003750,-0.016500,1.007500,192.000000,0.000000,0.000000,0.000000,0.000000,0.000000,0.000000,0.000000,0.000000,0.000000,1770297885.602323,0.000000
10.000000,9062.581845,12547.554081,1080.103347,2784.580324,-17142.066913,-11496.060967,3235.370306,-2021.223548,-16023.116234,1872.584447,-208.877052,3772.281560,11403.860021,-13202.616656,-4136.167960,634.387211,-0.003875,-0.015250,1.003750,192.000000,127.500000,112.000000,127.500000,72.000000,15.500000,32.000000,0.000000,0.000000,0.000000,1770297885.602340,0.000000
12.000000,9033.211652,12520.106139,1046.419268,2746.470600,-17169.358393,-11520.513775,3199.741626,-2051.756031,-16080.895493,1834.966461,-253.737003,3731.981365,11352.518064,-13238.915889,-4179.820917,602.737141,-0.003875,-0.015250,1.003750,192.000000,0.000000,0.000000,0.000000,0.000000,0.000000,0.000000,0.000000,0.000000,0.000000,1770297885.602358,0.000000
14.000000,9086.609970,12573.347994,1098.185909,2799.243069,-17124.252573,-11475.430307,3249.943644,-1998.111844,-16036.840205,1863.688453,-220.835235,3758.848162,11360.676451,-13213.881935,-4156.061012,623.434856,-0.003875,-0.015250,1.003750,192.000000,0.000000,0.000000,0.000000,0.000000,0.000000,0.000000,0.000000,0.000000,0.000000,1770297885.602376,0.000000
16.000000,9046.287423,12531.572584,1051.247245,2749.935120,-17165.200968,-11520.267906,3204.636658,-2040.356641,-16028.726522,1869.186982,-214.889671,3767.721804,11385.151611,-13206.774081,-4146.203893,621.087923,-0.003875,-0.015250,1.003750,192.000000,0.000000,0.000000,0.000000,0.000000,0.000000,0.000000,0.000000,0.000000,0.000000,1770297885.602394,0.000000
18.000000,9066.538103,12552.002079,1073.733100,2779.417071,-17142.469244,-11494.764566,3228.374210,-2017.066123,-16070.948967,1834.787647,-252.418250,3734.887092,11332.937936,-13247.566014,-4173.651835,595.718693,-0.003875,-0.015250,1.003750,192.000000,0.000000,0.000000,0.000000,0.000000,0.000000,0.000000,0.000000,0.000000,0.000000,1770297885.602413,0.000000
20.000000,9070.896694,12556.964166,1077.443490,2786.703740,-17140.167015,-11492.194115,3234.744458,-2014.205100,-16011.783899,1882.195697,-202.417398,3781.848107,11393.421756,-13190.524362,-4130.960003,652.268607,-0.003875,-0.015250,1.003750,192.000000,0.000000,0.000000,127.500000,64.000000,15.500000,40.000000,0.000000,0.000000,0.000000,1770297885.602431,0.000000
22.000000,9031.915251,12517.513337,1040.674870,2747.029394,-17177.337966,-11526.034656,3197.618210,-2053.588874,-16075.531074,1835.659365,-256.821544,3732.271937,11332.513253,-13241.419285,-4178.390405,607.431007,-0.003875,-0.015250,1.003750,192.000000,0.000000,0.000000,0.000000,0.000000,0.000000,0.000000,0.000000,0.000000,0.000000,1770297885.602450,0.000000
24.000000,9082.698415,12568.855294,1093.045007,2804.138101,-17125.236049,-11472.077545,3250.480086,-2001.397550,-16042.919879,1858.525200,-228.703049,3755.204827,11359.916491,-13212.920810,-4150.204855,634.007231,-0.003875,-0.015250,1.003750,192.000000,0.000000,0.000000,0.000000,0.000000,0.000000,0.000000,0.000000,0.000000,0.000000,1770297885.602468,0.000000
26.000000,9049.886054,12538.121645,1049.839085,2757.355899,-17169.537207,-11515.909316,3206.290687,-2039.216702,-16029.933516,1874.618456,-214.599099,3769.442888,11377.082631,-13202.259028,-4147.075611,628.687516,-0.003875,-0.015250,1.003750,192.000000,0.000000,0.000000,0.000000,0.000000,0.000000,0.000000,0.000000,0.000000,0.000000,1770297885.602508,0.000000
28.000000,9062.783010,12549.856311,1065.418251,2780.892286,-17153.466303,-11500.352502,3226.451960,-2022.430542,-16070.546635,1835.748772,-252.775878,3737.345783,11329.987506,-13239.273517,-4192.382597,595.249307,-0.003875,-0.015250,1.003750,192.000000,0.000000,0.000000,0.000000,0.000000,0.000000,0.000000,0.000000,0.000000,0.000000,1770297885.602528,0.000000
30.000000,9072.617778,12556.606538,1070.112118,2791.576420,-17149.532396,-11489.556609,3235.884397,-2015.523853,-16011.783899,1873.947903,-206.150139,3779.434118,11387.207971,-13192.848944,-4147.321480,643.707889,-0.002938,-0.015625,1.005875,192.000000,127.500000,120.000000,127.500000,64.000000,15.500000,64.000000,0.000000,0.000000,0.000000,1770297885.602545,0.000000
32.000000,9040.475969,12521.626058,1033.432905,2753.958434,-17178.522608,-11527.778092,3198.534632,-2053.231246,-16069.518455,1837.335746,-255.480439,3741.704374,11351.355773,-13235.540776,-4191.063844,601.820719,-0.002938,-0.015625,1.005875,192.000000,0.000000,0.000000,0.000000,0.000000,0.000000,0.000000,0.000000,0.000000,0.000000,1770297885.602562,0.000000
34.000000,9078.786859,12567.111858,1087.769996,2805.434502,-17128.678218,-11476.570246,3249.340147,-2005.443216,-16042.741065,1854.747755,-234.536855,3760.524542,11360.497637,-13220.185127,-4154.809315,619.322135,-0.002938,-0.015625,1.005875,192.000000,0.000000,0.000000,0.000000,0.000000,0.000000,0.000000,0.000000,0.000000,0.000000,1770297885.602581,0.000000
36.000000,9039.827769,12526.923421,1046.218103,2754.584283,-17176.019213,-11521.027866,3202.088559,-2048.671490,-16028.927687,1866.124793,-219.985869,3769.532295,11363.828047,-13207.243467,-4151.501256,632.979051,-0.002938,-0.015625,1.005875,192.000000,0.000000,0.000000,0.000000,0.000000,0.000000,0.000000,0.000000,0.000000,0.000000,1770297885.602599,0.000000
38.000000,9065.129944,12553.007907,1077.532897,2780.847583,-17144.212680,-11496.195077,3228.664783,-2021.044734,-16072.692403,1829.400877,-256.665082,3732.182530,11325.986543,-13246.291965,-4186.839364,603.362990,-0.002938,-0.015625,1.005875,192.000000,0.000000,0.000000,0.000000,0.000000,0.000000,0.000000,0.000000,0.000000,0.000000,1770297885.602612,0.000000
40.000000,9074.428269,12559.914596,1086.160670,2786.346112,-17136.300163,-11490.428327,3237.739591,-2015.210928,-16001.166821,1883.402691,-198.952877,3786.206697,11402.384806,-13197.520458,-4126.489654,647.172409,0.000531,-0.016813,1.004938,192.000000,0.000000,16.000000,127.500000,56.000000,15.500000,48.000000,0.000000,0.000000,0.000000,1770297885.602628,0.000000
42.000000,9035.156254,12524.375322,1043.424135,2746.112972,-17179.997823,-11529.387418,3197.908783,-2049.185580,-16069.741973,1831.345478,-251.613587,3737.703411,11339.777570,-13235.630183,-4181.653760,605.978144,0.000531,-0.016813,1.004938,192.000000,0.000000,0.000000,0.000000,0.000000,0.000000,0.000000,0.000000,0.000000,0.000000,1770297885.602645,0.000000
44.000000,9079.747984,12570.352861,1089.535783,2798.572516,-17132.746235,-11483.119307,3246.434420,-2003.722132,-16037.868385,1851.886732,-226.110247,3760.748060,11372.634634,-13221.928563,-4163.459440,629.045144,0.000531,-0.016813,1.004938,192.000000,0.000000,0.000000,0.000000,0.000000,0.000000,0.000000,0.000000,0.000000,0.000000,1770297885.602662,0.000000
46.000000,9046.019202,12534.970049,1051.493114,2754.740745,-17166.810294,-11519.709113,3205.866004,-2043.664699,-16031.453434,1863.666101,-220.745828,3766.827734,11388.996111,-13205.500031,-4147.343832,634.297804,0.000531,-0.016813,1.004938,192.000000,0.000000,0.000000,0.000000,0.000000,0.000000,0.000000,0.000000,0.000000,0.000000,1770297885.602675,0.000000
48.000000,9062.000699,12550.035125,1068.793365,2775.304350,-17150.202948,-11506.141604,3223.456827,-2024.464551,-16070.636042,1825.914005,-254.720480,3731.847254,11336.782436,-13245.755523,-4178.815088,596.590411,0.000531,-0.016813,1.004938,192.000000,0.000000,0.000000,0.000000,0.000000,0.000000,0.000000,0.000000,0.000000,0.000000,1770297885.602692,0.000000
50.000000,9072.528371,12561.523922,1082.450280,2789.832984,-17144.615012,-11489.422499,3236.219673,-2011.299373,-16014.175536,1870.773956,-205.591345,3780.752871,11380.323634,-13199.800336,-4134.782152,642.657357,0.000531,-0.016813,1.004938,192.000000,0.000000,0.000000,0.000000,0.000000,0.000000,0.000000,0.000000,0.000000,0.000000,1770297885.602708,0.000000
52.000000,9041.347687,12530.119721,1044.787591,2752.863199,-17182.277701,-11532.069627,3197.238230,-2046.816295,-16067.149170,1837.425153,-248.149067,3745.347708,11347.041887,-13233.618526,-4188.873373,603.653563,0.004000,-0.014000,1.002000,192.000000,0.000000,16.000000,127.500000,72.000000,15.500000,40.000000,0.000000,0.000000,0.000000,1770297885.602724,0.000000
54.000000,9086.229990,12573.772678,1094.967257,2803.668714,-17134.959058,-11487.612008,3246.345013,-1998.402417,-16036.169652,1861.810906,-226.199654,3764.637263,11365.347965,-13220.386293,-4165.806373,616.259946,0.004000,-0.014000,1.002000,192.000000,0.000000,0.000000,0.000000,0.000000,0.000000,0.000000,0.000000,0.000000,0.000000,1770297885.602739,0.000000
56.000000,9038.710182,12525.425854,1051.962501,2758.652301,-17178.343794,-11528.225127,3202.088559,-2042.703574,-16026.781920,1863.956674,-214.889671,3771.655711,11377.104983,-13208.048130,-4154.764611,621.736124,0.004000,-0.014000,1.002000,192.000000,0.000000,0.000000,0.000000,0.000000,0.000000,0.000000,0.000000,0.000000,0.000000,1770297885.602755,0.000000
58.000000,9058.670289,12544.760113,1074.895391,2782.054577,-17150.001782,-11510.969581,3225.602594,-2022.184673,-16077.788601,1824.259975,-258.430869,3732.562510,11333.474378,-13248.951822,-4189.946257,588.253211,0.004000,-0.014000,1.002000,192.000000,0.000000,0.000000,0.000000,0.000000,0.000000,0.000000,0.000000,0.000000,0.000000,1770297885.602778,0.000000
60.000000,9066.560455,12553.119666,1081.064472,2788.894211,-17140.591698,-11498.094976,3233.984498,-2014.674486,-16013.549687,1875.132546,-204.674924,3783.278618,11393.488812,-13201.409662,-4134.446875,638.566987,0.004000,-0.014000,1.002000,192.000000,0.000000,0.000000,0.000000,0.000000,0.000000,0.000000,0.000000,0.000000,0.000000,1770297885.602797,0.000000
62.000000,9034.776275,12521.246078,1042.664175,2744.436591,-17173.761687,-11526.347581,3192.633771,-2052.381879,-16069.719621,1825.668135,-253.334672,3737.904577,11344.694954,-13248.080104,-4182.145498,606.402827,0.004000,-0.014000,1.002000,192.000000,0.000000,0.000000,127.500000,72.000000,15.500000,32.000000,0.000000,0.000000,0.000000,1770297885.602815,0.000000
64.000000,9075.434098,12563.468523,1087.948810,2796.560859,-17126.286581,-11485.108612,3241.785257,-2009.354771,-16040.327077,1846.052926,-233.106343,3754.087240,11377.037928,-13218.888726,-4154.921073,620.551481,0.004000,-0.014000,1.002000,192.000000,0.000000,0.000000,0.000000,0.000000,0.000000,0.000000,0.000000,0.000000,0.000000,1770297885.602845,0.000000
66.000000,9045.460408,12534.925346,1054.577655,2759.635777,-17164.709230,-11516.781034,3204.860175,-2043.038850,-16024.680856,1868.114098,-219.740000,3770.404013,11385.129259,-13207.042302,-4150.763649,633.649604,0.004000,-0.014000,1.002000,192.000000,0.000000,0.000000,0.000000,0.000000,0.000000,0.000000,0.000000,0.000000,0.000000,1770297885.602860,0.000000
68.000000,9049.304908,12537.182872,1066.044100,2769.023510,-17156.684954,-11511.595429,3216.393675,-2036.400382,-16069.697269,1828.439752,-259.861381,3731.199054,11341.208081,-13244.392067,-4190.907382,594.243478,0.004000,-0.014000,1.002000,192.000000,0.000000,0.000000,0.000000,0.000000,0.000000,0.000000,0.000000,0.000000,0.000000,1770297885.602876,0.000000
70.000000,9060.592539,12547.218805,1079.857478,2779.662940,-17141.374009,-11499.659598,3227.726010,-2024.866882,-16016.813042,1866.102441,-215.023782,3769.420537,11396.103966,-13206.885839,-4138.894873,641.092734,0.004000,-0.014000,1.002000,192.000000,0.000000,0.000000,0.000000,0.000000,0.000000,0.000000,0.000000,0.000000,0.000000,1770297885.602891,0.000000
72.000000,9031.378809,12519.234421,1045.882827,2744.548350,-17178.567312,-11526.772264,3194.533669,-2057.098097,-16065.718659,1833.267728,-255.391032,3732.406048,11345.790189,-13241.821616,-4183.911286,601.083112,0.004000,-0.014000,1.002000,192.000000,0.000000,0.000000,127.500000,64.000000,15.500000,56.000000,0.000000,0.000000,0.000000,1770297885.602907,0.000000
74.000000,9074.920008,12566.217788,1098.945868,2802.417016,-17126.912430,-11477.754888,3248.311966,-2006.381989,-16035.923783,1860.179229,-231.251148,3758.870513,11377.060279,-13212.183203,-4161.380727,620.573833,0.004000,-0.014000,1.002000,192.000000,0.000000,0.000000,0.000000,0.000000,0.000000,0.000000,0.000000,0.000000,0.000000,1770297886.082684,0.000000
76.000000,9035.335068,12523.257735,1055.024690,2754.807801,-17174.566349,-11526.615802,3201.909745,-2050.124353,-16025.798443,1869.544610,-218.264785,3772.549781,11396.215724,-13197.185182,-4149.646062,627.368763,0.004000,-0.014000,1.002000,192.000000,0.000000,0.000000,0.000000,0.000000,0.000000,0.000000,0.000000,0.000000,0.000000,1770297886.082764,0.000000
78.000000,9050.780124,12532.466654,1068.636902,2774.522039,-17162.339945,-11512.556554,3217.913594,-2036.780362,-16078.548560,1823.388257,-265.426965,3726.661650,11336.447160,-13245.263785,-4190.549754,591.807138,0.004000,-0.014000,1.002000,192.000000,0.000000,0.000000,0.000000,0.000000,0.000000,0.000000,0.000000,0.000000,0.000000,1770297886.082824,0.000000
80.000000,9056.815095,12544.424837,1081.198583,2790.481185,-17147.364276,-11492.574095,3231.950490,-2025.850359,-16020.232859,1868.471726,-215.135540,3772.348615,11399.590838,-13196.738147,-4137.933748,641.338604,0.004000,-0.014000,1.002000,192.000000,0.000000,0.000000,0.000000,0.000000,0.000000,0.000000,0.000000,0.000000,0.000000,1770297886.082884,0.000000
82.000000,9016.112568,12504.772842,1040.339594,2748.482257,-17181.853018,-11533.656601,3190.867983,-2067.268141,-16079.643795,1825.511673,-264.287026,3727.734533,11340.895157,-13242.268651,-4176.043472,604.592336,-0.002000,-0.020000,1.002000,192.000000,127.500000,120.000000,127.500000,48.000000,15.500000,40.000000,0.000000,0.000000,0.000000,1770297886.082939,0.000000
84.000000,9064.079412,12555.287785,1089.021693,2802.752292,-17129.035846,-11476.793763,3241.606443,-2015.680315,-16049.267775,1847.885769,-241.376488,3752.120286,11364.923282,-13211.803223,-4155.993957,623.948946,-0.002000,-0.020000,1.002000,192.000000,0.000000,0.000000,0.000000,0.000000,0.000000,0.000000,0.000000,0.000000,0.000000,1770297886.082988,0.000000
86.000000,9031.781141,12523.190680,1045.994585,2759.903998,-17173.694631,-11518.971505,3200.479233,-2051.800734,-16040.707057,1861.945017,-230.245320,3765.330167,11365.280910,-13206.684674,-4148.014384,633.068458,-0.002000,-0.020000,1.002000,192.000000,0.000000,0.000000,0.000000,0.000000,0.000000,0.000000,0.000000,0.000000,0.000000,1770297886.083007,0.000000
88.000000,9055.965728,12545.184796,1068.547495,2782.054577,-17148.235994,-11502.051234,3222.674516,-2027.057353,-16083.398889,1832.239548,-262.141259,3736.608176,11324.220756,-13238.334744,-4185.520611,607.810987,-0.002000,-0.020000,1.002000,192.000000,0.000000,0.000000,0.000000,0.000000,0.000000,0.000000,0.000000,0.000000,0.000000,1770297886.083025,0.000000
90.000000,9075.054118,12562.797971,1087.390016,2794.705664,-17133.617953,-11483.879266,3239.214806,-2011.344077,-16014.331998,1879.133508,-204.071427,3786.072586,11389.800774,-13192.871296,-4133.396343,648.312348,-0.002000,-0.020000,1.002000,192.000000,0.000000,0.000000,0.000000,0.000000,0.000000,0.000000,0.000000,0.000000,0.000000,1770297886.083051,0.000000
92.000000,9038.285498,12526.454035,1048.095649,2751.052708,-17168.956061,-11520.625534,3199.048722,-2049.967891,-16066.053935,1842.878979,-246.562093,3745.906502,11358.418925,-13233.931450,-4172.131917,602.021885,-0.004000,-0.018000,1.004000,192.000000,127.500000,112.000000,127.500000,56.000000,15.500000,48.000000,0.000000,0.000000,0.000000,1770297886.083069,0.000000
94.000000,9081.804345,12572.856256,1096.129548,2800.070083,-17125.928953,-11484.303949,3246.613234,-2004.102111,-16039.634173,1859.978063,-228.814808,3762.804420,11363.962157,-13212.719645,-4165.269931,630.587415,-0.004000,-0.018000,1.004000,192.000000,0.000000,0.000000,0.000000,0.000000,0.000000,0.000000,0.000000,0.000000,0.000000,1770297886.083087,0.000000
96.000000,9050.087219,12539.060418,1058.332748,2758.741708,-17160.820026,-11516.781034,3208.145882,-2040.378993,-16029.195908,1870.282217,-217.326011,3775.321397,11384.704576,-13200.850868,-4147.030908,635.549502,-0.004000,-0.018000,1.004000,192.000000,0.000000,0.000000,0.000000,0.000000,0.000000,0.000000,0.000000,0.000000,0.000000,1770297886.083105,0.000000
98.000000,9066.359289,12555.533654,1075.588295,2778.232429,-17142.849224,-11496.530354,3223.769751,-2020.910623,-16070.211359,1838.363926,-252.507657,3741.972594,11358.083648,-13230.355171,-4185.408853,597.931516,-0.004000,-0.018000,1.004000,192.000000,0.000000,0.000000,0.000000,0.000000,0.000000,0.000000,0.000000,0.000000,0.000000,1770297886.083123,0.000000
100.000000,9082.273732,12573.884436,1090.988647,2795.197403,-17129.371122,-11480.392394,3239.326565,-2007.007838,-16005.771280,1888.923572,-198.885822,3792.733406,11412.912478,-13182.880066,-4134.402172,628.352240,-0.004000,-0.018000,1.004000,192.000000,0.000000,0.000000,0.000000,0.000000,0.000000,0.000000,0.000000,0.000000,0.000000,1770297886.083141,0.000000
102.000000,9029.277745,12518.005075,1042.239492,2752.997309,-17178.366146,-11533.053104,3195.628905,-2058.483906,-16070.479580,1841.068487,-251.837105,3744.721859,11348.427695,-13228.902308,-4177.585742,601.396036,-0.004000,-0.018000,1.004000,192.000000,0.000000,0.000000,127.500000,56.000000,15.500000,40.000000,0.000000,0.000000,0.000000,1770297886.083158,0.000000
104.000000,9074.875304,12562.060364,1090.988647,2806.127406,-17129.035846,-11479.923007,3245.585054,-2011.075856,-16044.596260,1858.368738,-232.659308,3762.558551,11363.604529,-13213.948991,-4156.038661,623.926595,-0.004000,-0.018000,1.004000,192.000000,0.000000,0.000000,0.000000,0.000000,0.000000,0.000000,0.000000,0.000000,0.000000,1770297886.083176,0.000000
106.000000,9023.131016,12508.974970,1040.205483,2760.775716,-17182.523570,-11529.856805,3199.205184,-2064.384766,-16041.444664,1856.602950,-228.524235,3765.307816,11373.640463,-13214.530136,-4146.539169,648.982900,-0.004000,-0.018000,1.004000,192.000000,0.000000,0.000000,0.000000,0.000000,0.000000,0.000000,0.000000,0.000000,0.000000,1770297886.083194,0.000000
108.000000,9042.018240,12527.862195,1058.846838,2783.820365,-17161.267061,-11510.991932,3217.220690,-2045.408135,-16088.428031,1814.984002,-273.205372,3720.671382,11324.533680,-13248.795360,-4195.891821,608.459188,-0.004000,-0.018000,1.004000,192.000000,0.000000,0.000000,0.000000,0.000000,0.000000,0.000000,0.000000,0.000000,0.000000,1770297886.083212,0.000000
110.000000,9065.398164,12552.963204,1073.956618,2797.589040,-17149.018305,-11496.038615,3231.458751,-2026.811484,-16023.183289,1864.962502,-217.661288,3774.874362,11382.581160,-13203.086043,-4143.655794,658.102412,-0.004000,-0.018000,1.004000,192.000000,0.000000,0.000000,0.000000,0.000000,0.000000,0.000000,0.000000,0.000000,0.000000,1770297886.083230,0.000000
112.000000,9035.469179,12522.430721,1037.187998,2752.527923,-17179.930768,-11526.079360,3191.449129,-2062.618978,-16069.473752,1830.138484,-258.341462,3736.876397,11358.106000,-13241.843968,-4184.984170,614.538862,-0.004000,-0.018000,1.004000,192.000000,0.000000,0.000000,127.500000,72.000000,15.500000,64.000000,0.000000,0.000000,0.000000,1770297886.083248,0.000000
114.000000,9085.648845,12571.515151,1094.475519,2801.590002,-17121.123328,-11482.828734,3244.400411,-2008.795978,-16037.086074,1854.032499,-232.167570,3756.925912,11372.433468,-13217.882898,-4159.436126,639.505761,-0.004000,-0.018000,1.004000,192.000000,0.000000,0.000000,0.000000,0.000000,0.000000,0.000000,0.000000,0.000000,0.000000,1770297886.083265,0.000000
116.000000,9046.198016,12533.405427,1052.990681,2751.410335,-17157.847244,-11520.357313,3199.316943,-2051.934844,-16024.323228,1865.476592,-219.404724,3767.185362,11396.282780,-13202.884877,-4142.024117,644.065516,-0.004000,-0.018000,1.004000,192.000000,0.000000,0.000000,0.000000,0.000000,0.000000,0.000000,0.000000,0.000000,0.000000,1770297886.083283,0.000000
118.000000,9063.207693,12550.415105,1072.883734,2769.962283,-17138.445930,-11500.553668,3216.393675,-2033.964042,-16070.032545,1829.333821,-260.129602,3729.053286,11341.029267,-13248.504788,-4182.883106,602.535975,-0.004000,-0.018000,1.004000,192.000000,0.000000,0.000000,0.000000,0.000000,0.000000,0.000000,0.000000,0.000000,0.000000,1770297886.083300,0.000000
120.000000,9074.674138,12560.518093,1084.171365,2781.004045,-17129.862860,-11489.936589,3228.016582,-2023.101094,-16010.576905,1875.333712,-209.279383,3775.611970,11411.347855,-13193.295979,-4135.475056,645.518380,-0.004000,-0.018000,1.004000,192.000000,0.000000,0.000000,0.000000,0.000000,0.000000,0.000000,0.000000,0.000000,0.000000,1770297886.083318,0.000000
122.000000,9039.157216,12525.984648,1045.525199,2739.116876,-17175.348660,-11528.605107,3187.112890,-2060.428507,-16061.136551,1835.726420,-251.166552,3736.384658,11344.359677,-13235.630183,-4183.263085,601.485443,-0.004000,-0.016000,1.004000,192.000000,127.500000,112.000000,127.500000,72.000000,15.500000,48.000000,0.000000,0.000000,0.000000,1770297886.083338,0.000000
124.000000,9087.034653,12571.761021,1092.642676,2792.582249,-17129.304067,-11481.979368,3237.359612,-2011.992277,-16036.929612,1850.299758,-231.765238,3750.600368,11372.008785,-13218.888726,-4168.175658,617.131664,-0.004000,-0.016000,1.004000,192.000000,0.000000,0.000000,0.000000,0.000000,0.000000,0.000000,0.000000,0.000000,0.000000,1770297886.083355,0.000000
126.000000,9041.414743,12531.125549,1047.179228,2748.146981,-17173.694631,-11527.420464,3194.176041,-2054.907626,-16025.932554,1863.353177,-217.862453,3763.430269,11381.173000,-13222.085026,-4155.301053,631.034449,-0.004000,-0.016000,1.004000,192.000000,0.000000,0.000000,0.000000,0.000000,0.000000,0.000000,0.000000,0.000000,0.000000,1770297886.083373,0.000000
128.000000,9054.803438,12542.815512,1063.987740,2773.493859,-17154.405076,-11505.694569,3215.566661,-2035.461609,-16077.520380,1820.191958,-263.594122,3720.403161,11340.224605,-13249.354154,-4198.842251,593.371760,-0.004000,-0.016000,1.004000,192.000000,0.000000,0.000000,0.000000,0.000000,0.000000,0.000000,0.000000,0.000000,0.000000,1770297886.083390,0.000000
130.000000,9066.113420,12555.131323,1074.291894,2790.883516,-17145.129102,-11495.233952,3228.664783,-2022.922280,-16022.468033,1864.269598,-215.224947,3772.505077,11379.764841,-13208.070482,-4144.169884,643.976110,-0.004000,-0.016000,1.004000,192.000000,0.000000,0.000000,0.000000,0.000000,0.000000,0.000000,0.000000,0.000000,0.000000,1770297886.083408,0.000000
132.000000,9025.634411,12510.763110,1031.488303,2745.129495,-17182.568274,-11537.434046,3183.737777,-2069.615074,-16078.682670,1823.164740,-264.108212,3731.020240,11336.313049,-13250.069410,-4184.537135,608.302725,-0.003000,-0.015000,1.005000,192.000000,127.500000,120.000000,127.500000,72.000000,15.500000,56.000000,0.000000,0.000000,0.000000,1770297886.083438,0.000000
134.000000,9070.315548,12553.879625,1080.773900,2798.661923,-17137.015419,-11487.634359,3232.241062,-2024.933937,-16053.246385,1831.256071,-250.496000,3737.748115,11358.709497,-13233.238546,-4163.548847,626.117066,-0.003000,-0.015000,1.005000,192.000000,0.000000,0.000000,0.000000,0.000000,0.000000,0.000000,0.000000,0.000000,0.000000,1770297886.083456,0.000000
136.000000,9035.960917,12520.955505,1044.832295,2757.266493,-17172.666451,-11525.699380,3195.450091,-2062.015481,-16036.795501,1849.070412,-232.391087,3752.343804,11373.349890,-13214.284267,-4150.048393,639.818685,-0.003000,-0.015000,1.005000,192.000000,0.000000,0.000000,0.000000,0.000000,0.000000,0.000000,0.000000,0.000000,0.000000,1770297886.083473,0.000000
138.000000,9052.948243,12541.362648,1061.394937,2776.176068,-17152.661640,-11504.398168,3213.420893,-2041.764801,-16078.772077,1818.739095,-268.980893,3720.336106,11340.537529,-13248.437732,-4185.073577,601.820719,-0.003000,-0.015000,1.005000,192.000000,0.000000,0.000000,0.000000,0.000000,0.000000,0.000000,0.000000,0.000000,0.000000,1770297886.083491,0.000000
140.000000,9067.633339,12555.645413,1077.465841,2787.575458,-17136.993067,-11496.351540,3230.832902,-2025.671545,-16021.775129,1863.710804,-222.377506,3765.687795,11397.310960,-13205.209458,-4142.471152,647.150057,-0.003000,-0.015000,1.005000,192.000000,0.000000,0.000000,0.000000,0.000000,0.000000,0.000000,0.000000,0.000000,0.000000,1770297886.083509,0.000000
142.000000,9038.285498,12523.123625,1039.870207,2743.453114,-17176.868579,-11536.428217,3192.901992,-2058.528609,-16070.680746,1823.902348,-261.515410,3729.857949,11343.264442,-13243.274479,-4173.160097,609.509720,-0.002500,-0.014500,1.004500,192.000000,127.500000,120.000000,127.500000,72.000000,15.500000,48.000000,0.000000,0.000000,0.000000,1770297886.083526,0.000000
144.000000,9081.804345,12571.179875,1090.854536,2797.432577,-17129.840509,-11488.908409,3246.032089,-2005.487920,-16042.428141,1848.265749,-236.682622,3751.807362,11360.676451,-13234.669058,-4161.090155,626.966432,-0.002500,-0.014500,1.004500,192.000000,0.000000,0.000000,0.000000,0.000000,0.000000,0.000000,0.000000,0.000000,0.000000,1770297886.083544,0.000000
146.000000,9045.169836,12532.421950,1055.941112,2751.410335,-17171.817085,-11532.069627,3205.441321,-2043.910568,-16025.977257,1865.029557,-216.141369,3769.934627,11385.106907,-13212.920810,-4144.415753,637.292938,-0.002500,-0.014500,1.004500,192.000000,0.000000,0.000000,0.000000,0.000000,0.000000,0.000000,0.000000,0.000000,0.000000,1770297886.083561,0.000000
148.000000,9065.375813,12553.343183,1075.141260,2771.750423,-17150.694686,-11507.415653,3221.489873,-2024.173978,-16079.241464,1819.700220,-259.861381,3726.482836,11335.284869,-13252.908081,-4186.705254,595.182251,-0.002500,-0.014500,1.004500,192.000000,0.000000,0.000000,0.000000,0.000000,0.000000,0.000000,0.000000,0.000000,0.000000,1770297886.083579,0.000000
150.000000,9077.713976,12567.737707,1090.854536,2790.905868,-17141.329305,-11488.595484,3237.896054,-2010.159434,-16007.000626,1879.334674,-197.991752,3785.223220,11399.143803,-13196.693444,-4136.793809,642.299729,-0.002500,-0.014500,1.004500,192.000000,0.000000,0.000000,0.000000,0.000000,0.000000,0.000000,0.000000,0.000000,0.000000,1770297886.083597,0.000000
152.000000,9038.821940,12529.359761,1050.286120,2753.198475,-17174.879274,-11525.922898,3197.797024,-2051.040775,-16069.451400,1835.391144,-250.071317,3739.200978,11351.311070,-13234.937279,-4172.936579,610.895528,-0.004250,-0.012250,1.005250,192.000000,127.500000,104.000000,127.500000,88.000000,15.500000,56.000000,0.000000,0.000000,0.000000,1770297886.083614,0.000000
154.000000,9076.775202,12565.457829,1087.904106,2799.488938,-17137.462454,-11483.007548,3238.186626,-2015.054466,-16049.424237,1850.456220,-238.806038,3753.573150,11367.404326,-13221.146252,-4157.022137,629.559234,-0.004250,-0.012250,1.005250,192.000000,0.000000,0.000000,0.000000,0.000000,0.000000,0.000000,0.000000,0.000000,0.000000,1770297886.083634,0.000000
156.000000,9037.167911,12531.818453,1049.593216,2760.507495,-17170.408925,-11516.982200,3200.143957,-2053.924150,-16038.024847,1860.447450,-229.775933,3763.117345,11381.731794,-13209.724511,-4139.006631,654.302615,-0.004250,-0.012250,1.005250,192.000000,0.000000,0.000000,0.000000,0.000000,0.000000,0.000000,0.000000,0.000000,0.000000,1770297886.083652,0.000000
158.000000,9053.305871,12547.732895,1064.323016,2782.680426,-17155.857939,-11497.089147,3217.354800,-2036.847417,-16082.013080,1825.377563,-270.925495,3725.991097,11338.257651,-13249.376506,-4181.966684,621.870234,-0.004250,-0.012250,1.005250,192.000000,0.000000,0.000000,0.000000,0.000000,0.000000,0.000000,0.000000,0.000000,0.000000,1770297886.083670,0.000000
160.000000,9072.036633,12564.027317,1083.970199,2800.003028,-17137.395398,-11489.154278,3234.990327,-2018.697800,-16022.378626,1867.778822,-215.828444,3776.148412,11398.674416,-13199.532115,-4133.418695,659.309406,-0.004250,-0.012250,1.005250,192.000000,0.000000,0.000000,0.000000,0.000000,0.000000,0.000000,0.000000,0.000000,0.000000,1770297886.083688,0.000000
162.000000,9042.040591,12533.293668,1047.603911,2761.267455,-17171.727678,-11525.498214,3196.433568,-2052.359528,-16067.886778,1834.720592,-253.066451,3742.330222,11365.951463,-13230.399874,-4169.695576,621.579662,-0.004125,-0.009125,1.003625,192.000000,127.500000,112.000000,127.500000,104.000000,15.500000,40.000000,0.000000,0.000000,0.000000,1770297886.083706,0.000000
164.000000,9091.057967,12582.288692,1099.974048,2813.816406,-17119.178727,-11474.312720,3247.686118,-2000.816405,-16038.181309,1854.904217,-232.502846,3763.899656,11370.846495,-13217.122938,-4155.725736,641.115086,-0.004125,-0.009125,1.003625,192.000000,0.000000,0.000000,0.000000,0.000000,0.000000,0.000000,0.000000,0.000000,0.000000,1770297886.083724,0.000000
166.000000,9055.943377,12548.135227,1061.238475,2764.933141,-17165.670355,-11517.652752,3205.798949,-2039.194350,-16019.338789,1873.813793,-214.397933,3781.177554,11379.921303,-13202.728415,-4137.419657,646.546560,-0.004125,-0.009125,1.003625,192.000000,0.000000,0.000000,0.000000,0.000000,0.000000,0.000000,0.000000,0.000000,0.000000,1770297886.083741,0.000000
168.000000,9066.158124,12558.215863,1075.878868,2778.590057,-17151.879329,-11509.695531,3222.518053,-2025.984469,-16069.160827,1833.513598,-255.458087,3738.820999,11336.894195,-13241.911023,-4176.356396,604.882908,-0.004125,-0.009125,1.003625,192.000000,0.000000,0.000000,0.000000,0.000000,0.000000,0.000000,0.000000,0.000000,0.000000,1770297886.083759,0.000000
170.000000,9084.754775,12574.666747,1093.223821,2796.337342,-17134.556727,-11494.652807,3243.171065,-2006.829024,-16011.493327,1879.982874,-204.853738,3784.887944,11388.124393,-13194.882953,-4127.629593,652.000386,-0.004125,-0.009125,1.003625,192.000000,0.000000,0.000000,0.000000,0.000000,0.000000,0.000000,0.000000,0.000000,0.000000,1770297886.083777,0.000000
172.000000,9048.656708,12538.948660,1052.208370,2752.706737,-17177.986166,-11536.964659,3199.495757,-2044.491714,-16065.875121,1840.330880,-247.500866,3747.471124,11341.252785,-13238.848834,-4160.866637,605.598164,-0.003063,-0.009563,1.005812,192.000000,127.500000,120.000000,127.500000,88.000000,15.500000,64.000000,0.000000,0.000000,0.000000,1770297886.083795,0.000000
174.000000,9094.969522,12581.908713,1099.571717,2805.792130,-17134.042637,-11486.784993,3247.552007,-1997.709512,-16036.996667,1855.641825,-224.210349,3765.598388,11362.129314,-13222.442653,-4145.578044,625.312403,-0.003063,-0.009563,1.005812,192.000000,0.000000,0.000000,0.000000,0.000000,0.000000,0.000000,0.000000,0.000000,0.000000,1770297886.083812,0.000000
176.000000,9064.302929,12551.644451,1064.434774,2765.536638,-17167.614957,-11518.524470,3209.151710,-2032.354716,-16023.496213,1864.336653,-209.726418,3777.735386,11384.592817,-13214.686598,-4132.256404,640.399830,-0.003063,-0.009563,1.005812,192.000000,0.000000,0.000000,0.000000,0.000000,0.000000,0.000000,0.000000,0.000000,0.000000,1770297886.083830,0.000000
178.000000,9079.278598,12570.509323,1075.923571,2782.434557,-17154.315669,-11508.332075,3220.841673,-2020.374181,-16061.203606,1838.520388,-246.271520,3744.163065,11353.948576,-13232.456235,-4167.035719,605.508757,-0.003063,-0.009563,1.005812,192.000000,0.000000,0.000000,0.000000,0.000000,0.000000,0.000000,0.000000,0.000000,0.000000,1770297886.083848,0.000000
180.000000,9091.125022,12580.277035,1091.949772,2798.840737,-17134.377913,-11481.755851,3237.136094,-2008.036018,-16004.206658,1874.283180,-202.037418,3785.312627,11399.635541,-13200.426185,-4121.460512,661.991616,-0.003063,-0.009563,1.005812,192.000000,0.000000,0.000000,0.000000,0.000000,0.000000,0.000000,0.000000,0.000000,0.000000,1770297886.083866,0.000000
182.000000,9049.841350,12539.641564,1049.615568,2758.428783,-17168.397268,-11522.391322,3194.444262,-2050.012594,-16058.029659,1838.341574,-248.082012,3745.727688,11370.757088,-13234.512595,-4154.362280,624.977127,-0.003063,-0.009563,1.005812,192.000000,0.000000,0.000000,127.500000,96.000000,15.500000,48.000000,0.000000,0.000000,0.000000,1770297886.083883,0.000000
184.000000,9093.293142,12581.193457,1097.604763,2811.916508,-17116.831793,-11481.331167,3244.467466,-2001.844585,-16036.527280,1851.484400,-233.642785,3762.558551,11365.839704,-13213.367845,-4132.770495,641.673880,-0.003063,-0.009563,1.005812,192.000000,0.000000,0.000000,0.000000,0.000000,0.000000,0.000000,0.000000,0.000000,0.000000,1770297886.083901,0.000000
186.000000,9055.362231,12540.066247,1056.589312,2766.833039,-17156.886119,-11521.921935,3201.127434,-2044.849341,-16020.925763,1864.493115,-218.756523,3775.120232,11375.786230,-13212.160851,-4119.739428,655.576665,-0.003063,-0.009563,1.005812,192.000000,0.000000,0.000000,0.000000,0.000000,0.000000,0.000000,0.000000,0.000000,0.000000,1770297886.083924,0.000000
188.000000,9068.907388,12550.057477,1073.174307,2784.133289,-17138.535337,-11493.781089,3217.108931,-2028.689030,-16068.199702,1824.729362,-257.849724,3734.305946,11335.173110,-13242.782741,-4162.833591,618.316307,-0.003063,-0.009563,1.005812,192.000000,0.000000,0.000000,0.000000,0.000000,0.000000,0.000000,0.000000,0.000000,0.000000,1770297886.083942,0.000000
190.000000,9088.286351,12569.972881,1090.452205,2799.712455,-17118.485822,-11475.832638,3234.945623,-2010.315896,-16004.161954,1867.398842,-205.881918,3779.747043,11401.602495,-13185.048185,-4115.067913,661.768098,-0.003063,-0.009563,1.005812,192.000000,0.000000,0.000000,0.000000,0.000000,0.000000,0.000000,0.000000,0.000000,0.000000,1770297886.083959,0.000000
192.000000,9054.334051,12536.154692,1050.777859,2758.294673,-17159.031887,-11511.796595,3195.718312,-2045.765763,-16051.055914,1840.822618,-245.310395,3748.722821,11358.418925,-13234.534947,-4162.945350,617.869272,-0.003063,-0.009563,1.005812,192.000000,0.000000,0.000000,0.000000,0.000000,0.000000,0.000000,0.000000,0.000000,0.000000,1770297886.083977,0.000000
194.000000,9100.199831,12577.840695,1097.917688,2810.038961,-17116.273000,-11461.773391,3246.590882,-1998.044789,-16025.597277,1854.568941,-228.412477,3765.240760,11369.527742,-13215.424206,-4153.691727,633.224920,-0.004000,-0.008000,1.008000,192.000000,127.500000,112.000000,127.500000,96.000000,15.500000,64.000000,0.000000,0.000000,0.000000,1770297886.563072,0.000000
196.000000,9044.611042,12529.359761,1051.224893,2758.764059,-17164.329250,-11517.116310,3199.965143,-2049.833781,-16016.857745,1866.840049,-218.264785,3775.723729,11383.117602,-13199.956799,-4136.659698,648.044127,-0.004000,-0.008000,1.008000,192.000000,0.000000,0.000000,0.000000,0.000000,0.000000,0.000000,0.000000,0.000000,0.000000,1770297886.563134,0.000000
198.000000,9046.130961,12527.392808,1062.020786,2768.375310,-17151.119369,-11511.058988,3210.738684,-2044.782286,-16079.085002,1812.122978,-273.183021,3721.721914,11335.888366,-13258.183093,-4186.235867,614.203586,-0.004000,-0.008000,1.008000,192.000000,0.000000,0.000000,0.000000,0.000000,0.000000,0.000000,0.000000,0.000000,0.000000,1770297886.563221,0.000000
200.000000,9057.060964,12539.172177,1083.456109,2784.535621,-17135.406093,-11500.710130,3227.681306,-2031.661812,-16026.446644,1847.639900,-226.132599,3761.686833,11382.938788,-13215.982999,-4112.586869,659.957607,-0.004000,-0.008000,1.008000,192.000000,0.000000,0.000000,0.000000,0.000000,0.000000,0.000000,0.000000,0.000000,0.000000,1770297886.563270,0.000000
202.000000,9030.216519,12508.885563,1046.642786,2746.805876,-17162.094076,-11529.119197,3188.476347,-2065.234132,-16074.346432,1812.122978,-265.516372,3726.304022,11347.175997,-13251.365811,-4151.054222,619.053914,-0.004000,-0.008000,1.008000,192.000000,0.000000,0.000000,0.000000,0.000000,0.000000,0.000000,0.000000,0.000000,0.000000,1770297886.563313,0.000000
204.000000,9075.255284,12555.220730,1095.302534,2801.657057,-17118.038788,-11479.543028,3238.879530,-2017.177882,-16044.864481,1836.709897,-242.181151,3748.633414,11369.147762,-13227.404741,-4138.537245,644.847828,-0.004000,-0.014000,1.002000,192.000000,127.500000,112.000000,127.500000,72.000000,15.500000,40.000000,0.000000,0.000000,0.000000,1770297886.563342,0.000000
206.000000,9042.286461,12523.235383,1052.990681,2759.166391,-17160.507102,-11521.139624,3196.254754,-2054.214722,-16028.212431,1854.568941,-227.943090,3763.296159,11378.870771,-13209.255124,-4122.265175,658.750613,-0.004000,-0.014000,1.002000,192.000000,0.000000,0.000000,0.000000,0.000000,0.000000,0.000000,0.000000,0.000000,0.000000,1770297886.563376,0.000000
208.000000,9060.749002,12539.194529,1064.658292,2774.611446,-17148.638326,-11509.203793,3208.928193,-2037.987356,-16073.832342,1813.821711,-267.528029,3723.778275,11328.646401,-13254.785628,-4167.370995,616.930499,-0.004000,-0.014000,1.002000,192.000000,0.000000,0.000000,0.000000,0.000000,0.000000,0.000000,0.000000,0.000000,0.000000,1770297886.563393,0.000000
210.000000,9079.792688,12565.301366,1085.981856,2798.863089,-17126.912430,-11473.664519,3232.598690,-2012.819292,-16012.432100,1861.676796,-214.800264,3772.549781,11385.576294,-13201.700235,-4124.433294,662.684520,-0.004000,-0.014000,1.002000,192.000000,0.000000,0.000000,0.000000,0.000000,0.000000,0.000000,0.000000,0.000000,0.000000,1770297886.563406,0.000000
212.000000,9041.526501,12529.806796,1046.642786,2754.539580,-17161.758800,-11510.321380,3190.175079,-2053.544170,-16058.700211,1836.553435,-248.059660,3746.174722,11352.540416,-13219.358113,-4165.560504,629.402772,-0.004000,-0.014000,1.002000,192.000000,0.000000,0.000000,0.000000,0.000000,0.000000,0.000000,0.000000,0.000000,0.000000,1770297886.563418,0.000000
214.000000,9091.035615,12577.460715,1097.828281,2805.322743,-17116.585924,-11465.796705,3238.790123,-2006.538451,-16037.823682,1849.293929,-234.961538,3756.165952,11372.768745,-13223.694351,-4140.884178,631.392077,-0.004000,-0.014000,0.998000,192.000000,127.500000,112.000000,127.500000,72.000000,15.500000,24.000000,0.000000,0.000000,0.000000,1770297886.563431,0.000000
216.000000,9056.792743,12540.960317,1057.885713,2760.954530,-17154.516835,-11509.762586,3200.009847,-2043.910568,-16019.852879,1858.659310,-216.878976,3773.890886,11379.630730,-13207.042302,-4124.299183,657.409508,-0.004000,-0.014000,0.998000,192.000000,0.000000,0.000000,0.000000,0.000000,0.000000,0.000000,0.000000,0.000000,0.000000,1770297886.563462,0.000000
218.000000,9069.488534,12552.963204,1070.335635,2775.661978,-17144.167977,-11496.217429,3212.660934,-2029.270176,-16066.925653,1817.867377,-259.123773,3734.373001,11337.452988,-13246.001392,-4173.294207,614.091827,-0.004000,-0.014000,0.998000,192.000000,0.000000,0.000000,0.000000,0.000000,0.000000,0.000000,0.000000,0.000000,0.000000,1770297886.563494,0.000000
220.000000,9075.925836,12561.143942,1086.138318,2788.313066,-17128.477052,-11488.930760,3228.620080,-2017.870786,-16007.782937,1863.196714,-208.832348,3779.054139,11398.294437,-13196.447575,-4124.813274,653.810877,-0.004000,-0.014000,0.998000,192.000000,0.000000,0.000000,0.000000,0.000000,0.000000,0.000000,0.000000,0.000000,0.000000,1770297886.563512,0.000000
222.000000,9032.094065,12517.289819,1043.044155,2742.804914,-17178.656719,-11531.600241,3186.241172,-2060.272045,-16066.389211,1816.839196,-256.419212,3736.541121,11350.484055,-13247.476607,-4161.313672,615.209414,-0.004000,-0.014000,0.998000,192.000000,0.000000,0.000000,0.000000,0.000000,0.000000,0.000000,0.000000,0.000000,0.000000,1770297886.563530,0.000000
224.000000,9078.295121,12567.111858,1092.396807,2797.723150,-17128.722921,-11482.739327,3236.979632,-2010.561765,-16048.306650,1827.143350,-243.298738,3750.712127,11357.100172,-13235.004334,-4149.199027,629.045144,0.002000,-0.010000,1.000000,192.000000,0.000000,8.000000,127.500000,88.000000,15.500000,32.000000,0.000000,0.000000,0.000000,1770297886.563549,0.000000
226.000000,9046.823865,12537.339334,1055.158801,2760.529847,-17167.369088,-11513.584735,3199.518108,-2046.123391,-16025.865498,1848.109287,-222.869244,3775.164935,11376.479134,-13210.775043,-4131.988183,650.368708,0.002000,-0.010000,1.000000,192.000000,0.000000,0.000000,0.000000,0.000000,0.000000,0.000000,0.000000,0.000000,0.000000,1770297886.563567,0.000000
228.000000,9058.714993,12547.598785,1070.872077,2777.405414,-17146.403151,-11500.576019,3213.934983,-2032.511179,-16071.731278,1816.548624,-262.096555,3739.625661,11334.703724,-13239.117055,-4167.929789,605.106426,0.002000,-0.010000,1.000000,192.000000,0.000000,0.000000,0.000000,0.000000,0.000000,0.000000,0.000000,0.000000,0.000000,1770297886.563585,0.000000
230.000000,9067.968615,12556.226558,1083.009074,2799.667752,-17134.020285,-11488.215505,3231.481103,-2020.754161,-16016.008379,1853.652519,-217.124846,3779.277656,11390.158402,-13210.305656,-4117.616012,654.749650,0.002000,-0.010000,1.000000,192.000000,0.000000,0.000000,0.000000,0.000000,0.000000,0.000000,0.000000,0.000000,0.000000,1770297886.563604,0.000000
232.000000,9039.917176,12527.616325,1044.049984,2760.485144,-17169.827780,-11520.893755,3193.661951,-2051.867789,-16063.416429,1820.638993,-254.385204,3746.487647,11349.701744,-13233.506767,-4157.759745,639.483409,0.002000,-0.010000,1.000000,192.000000,0.000000,0.000000,0.000000,0.000000,0.000000,0.000000,0.000000,0.000000,0.000000,1770297886.563758,0.000000
234.000000,9079.144487,12569.123515,1088.395845,2807.244993,-17128.700570,-11483.387528,3238.387792,-2007.767797,-16044.082170,1831.189016,-237.979023,3759.094031,11359.603567,-13228.455273,-4146.516817,646.032470,0.002000,-0.010000,1.004000,192.000000,0.000000,8.000000,127.500000,88.000000,15.500000,48.000000,0.000000,0.000000,0.000000,1770297886.563779,0.000000
236.000000,9046.376830,12536.534671,1050.800210,2764.195533,-17164.888044,-11513.629438,3200.211012,-2043.865865,-16026.781920,1848.109287,-220.902290,3777.064833,11373.908684,-13210.685636,-4128.568367,659.152944,0.002000,-0.010000,1.004000,192.000000,0.000000,0.000000,0.000000,0.000000,0.000000,0.000000,0.000000,0.000000,0.000000,1770297886.563795,0.000000
238.000000,9065.398164,12554.326660,1065.820583,2780.132327,-17147.900718,-11504.979313,3214.471425,-2026.230338,-16074.458191,1811.497129,-262.834163,3738.128094,11327.551166,-13248.415381,-4174.322387,613.421275,0.002000,-0.010000,1.004000,192.000000,0.000000,0.000000,0.000000,0.000000,0.000000,0.000000,0.000000,0.000000,0.000000,1770297886.563818,0.000000
240.000000,9085.850011,12576.119611,1084.394882,2800.762987,-17133.617953,-11483.879266,3233.671574,-2007.588983,-16009.258152,1864.001377,-208.877052,3790.878211,11390.158402,-13195.240580,-4123.874500,660.047014,0.002000,-0.010000,1.004000,192.000000,0.000000,0.000000,0.000000,0.000000,0.000000,0.000000,0.000000,0.000000,0.000000,1770297886.563837,0.000000
242.000000,9046.622699,12535.908823,1042.038327,2755.187780,-17168.509027,-11525.788787,3191.382073,-2049.140876,-16058.700211,1830.786685,-247.187942,3755.294234,11350.148779,-13227.114168,-4163.057108,620.462074,0.002000,-0.010000,1.004000,192.000000,0.000000,0.000000,0.000000,0.000000,0.000000,0.000000,0.000000,0.000000,0.000000,1770297886.563884,0.000000
244.000000,9080.798516,12568.676480,1085.043083,2796.650266,-17135.987238,-11485.063909,3232.375173,-2012.126388,-16046.093827,1834.988813,-238.269596,3757.954092,11361.257596,-13233.462063,-4155.055184,635.571854,0.002000,-0.010000,1.004000,192.000000,0.000000,0.000000,127.500000,80.000000,15.500000,24.000000,0.000000,0.000000,0.000000,1770297886.563902,0.000000
246.000000,9040.051286,12527.437511,1047.536856,2755.098373,-17168.710192,-11524.537089,3192.924344,-2055.421717,-16035.722618,1840.129714,-228.233663,3763.676138,11385.218666,-13220.810976,-4134.513931,644.400793,0.002000,-0.010000,1.004000,192.000000,0.000000,0.000000,0.000000,0.000000,0.000000,0.000000,0.000000,0.000000,0.000000,1770297886.563918,0.000000
248.000000,9056.278653,12541.742628,1062.914856,2772.040996,-17154.427428,-11510.097862,3207.251812,-2039.842551,-16086.751650,1798.913097,-273.048910,3722.548929,11328.244070,-13259.501846,-4172.869524,609.822644,0.002000,-0.010000,1.004000,192.000000,0.000000,0.000000,0.000000,0.000000,0.000000,0.000000,0.000000,0.000000,0.000000,1770297886.563934,0.000000
250.000000,9078.630397,12563.557930,1087.568830,2797.834909,-17131.293372,-11483.320473,3230.743495,-2015.926184,-16014.980199,1851.059717,-213.034476,3777.109537,11383.788155,-13198.995674,-4121.616974,661.186953,0.002000,-0.010000,1.004000,192.000000,0.000000,0.000000,0.000000,0.000000,0.000000,0.000000,0.000000,0.000000,0.000000,1770297886.563965,0.000000
252.000000,9040.364211,12525.515261,1042.708879,2756.975920,-17169.403096,-11520.402017,3186.241172,-2058.975644,-16065.159865,1816.570975,-254.407555,3742.106705,11344.739657,-13245.822578,-4155.725736,627.055839,0.002000,-0.010000,1.004000,192.000000,0.000000,0.000000,0.000000,0.000000,0.000000,0.000000,0.000000,0.000000,0.000000,1770297886.563982,0.000000
254.000000,9084.933589,12572.990367,1092.106234,2813.123502,-17118.754043,-11463.740344,3238.901882,-2010.070027,-16043.299859,1838.498037,-237.487285,3761.396260,11368.097230,-13219.313409,-4144.125181,644.110220,0.000000,-0.011000,1.006000,192.000000,127.500000,120.000000,127.500000,80.000000,15.500000,64.000000,0.000000,0.000000,0.000000,1770297886.564000,0.000000
0.000000,9050.355440,12536.668782,1052.163667,2770.118746,-17155.857939,-11507.214487,3199.562812,-2048.224455,-16027.296010,1857.295854,-220.723476,3780.171726,11374.668643,-13201.767290,-4119.314744,663.757403,0.000000,-0.011000,1.006000,192.000000,0.000000,0.000000,0.000000,0.000000,0.000000,0.000000,0.000000,0.000000,0.000000,1770297886.564017,0.000000
2.000000,9059.586711,12546.235328,1061.283178,2781.898115,-17143.832701,-11498.452604,3211.699809,-2034.098152,-16079.196761,1809.060789,-266.388090,3735.021202,11337.877671,-13248.728305,-4160.240788,618.919804,0.000000,-0.011000,1.006000,192.000000,0.000000,0.000000,0.000000,0.000000,0.000000,0.000000,0.000000,0.000000,0.000000,1770297886.564039,0.000000
4.000000,9080.686758,12569.190570,1083.657275,2802.081740,-17133.170919,-11478.313682,3233.693926,-2009.645344,-16021.819833,1858.055813,-210.016991,3786.452566,11375.518009,-13201.744938,-4118.152454,672.161659,0.000000,-0.011000,1.006000,192.000000,0.000000,0.000000,0.000000,0.000000,0.000000,0.000000,0.000000,0.000000,0.000000,1770297886.564088,0.000000
6.000000,9043.292289,12530.656163,1042.977100,2754.986615,-17175.326309,-11518.278601,3189.750396,-2050.683147,-16066.724487,1824.081162,-248.305529,3749.438077,11335.486035,-13237.910061,-4158.519704,629.760400,0.000000,-0.011000,1.006000,192.000000,0.000000,0.000000,0.000000,0.000000,0.000000,0.000000,0.000000,0.000000,0.000000,1770297886.564107,0.000000
8.000000,9088.196944,12577.594826,1092.843842,2809.256650,-17125.146642,-11471.652862,3241.785257,-2001.352847,-16042.897528,1836.195807,-231.854645,3762.625606,11365.236207,-13227.918831,-4148.148495,639.773982,-0.005000,-0.013500,1.005000,192.000000,127.500000,88.000000,127.500000,64.000000,15.500000,48.000000,0.000000,0.000000,0.000000,1770297886.564125,0.000000
10.000000,9061.553664,12550.079829,1061.573751,2770.208153,-17155.142683,-11504.688740,3206.670667,-2033.159379,-16019.137623,1859.575732,-212.520386,3783.703301,11381.888256,-13203.711892,-4131.608204,654.839057,-0.005000,-0.013500,1.005000,192.000000,0.000000,0.000000,0.000000,0.000000,0.000000,0.000000,0.000000,0.000000,0.000000,1770297886.564140,0.000000
12.000000,9060.324318,12549.319869,1069.530972,2774.007949,-17152.460474,-11501.984179,3211.945678,-2029.873673,-16068.356164,1819.700220,-254.340500,3742.978423,11345.678430,-13235.429017,-4168.846210,617.243423,-0.005000,-0.013500,1.005000,192.000000,0.000000,0.000000,0.000000,0.000000,0.000000,0.000000,0.000000,0.000000,0.000000,1770297886.564153,0.000000
14.000000,9077.311644,12569.257625,1089.178156,2797.633743,-17132.500366,-11483.566342,3233.291594,-2011.478187,-16021.819833,1857.049985,-212.587442,3781.825755,11379.809544,-13203.287208,-4117.861881,648.871142,-0.005000,-0.013500,1.005000,192.000000,0.000000,0.000000,0.000000,0.000000,0.000000,0.000000,0.000000,0.000000,0.000000,1770297886.564171,0.000000
16.000000,9040.118341,12531.527881,1047.223931,2757.802934,-17172.509989,-11521.005514,3191.605591,-2052.560693,-16064.668127,1827.098647,-249.780744,3752.254397,11341.342192,-13240.748732,-4154.563445,625.267699,-0.005000,-0.013500,1.005000,192.000000,0.000000,0.000000,0.000000,0.000000,0.000000,0.000000,0.000000,0.000000,0.000000,1770297886.564184,0.000000
18.000000,9072.953054,12569.481143,1088.976990,2808.653153,-17125.392512,-11469.641205,3237.203149,-2011.657001,-16052.195853,1835.972290,-238.940148,3762.603255,11362.799867,-13230.154005,-4143.275814,637.941138,-0.003500,-0.012750,1.006500,192.000000,127.500000,120.000000,127.500000,80.000000,15.500000,64.000000,0.000000,0.000000,0.000000,1770297886.564196,0.000000
20.000000,9050.243682,12547.397619,1059.964426,2775.661978,-17151.253480,-11493.915200,3205.418969,-2038.546150,-16035.096769,1855.038328,-221.058753,3781.065796,11368.991300,-13201.186144,-4129.194215,659.242351,-0.003500,-0.012750,1.006500,192.000000,0.000000,0.000000,0.000000,0.000000,0.000000,0.000000,0.000000,0.000000,0.000000,1770297886.564210,0.000000
22.000000,9054.177589,12547.576433,1062.423117,2780.892286,-17148.459512,-11495.636284,3209.486986,-2035.573368,-16075.307557,1816.570975,-259.771974,3741.927891,11329.853395,-13245.084971,-4164.308806,612.638964,-0.003500,-0.012750,1.006500,192.000000,0.000000,0.000000,0.000000,0.000000,0.000000,0.000000,0.000000,0.000000,0.000000,1770297886.564228,0.000000
24.000000,9075.456449,12571.448096,1085.735987,2814.196386,-17130.980448,-11473.910388,3238.767772,-2009.690047,-16021.864536,1854.814810,-213.079180,3785.670255,11378.602550,-13195.978188,-4121.415808,670.932313,-0.003500,-0.012750,1.006500,192.000000,0.000000,0.000000,0.000000,0.000000,0.000000,0.000000,0.000000,0.000000,0.000000,1770297886.564245,0.000000
26.000000,9039.850121,12533.606593,1042.105382,2768.755289,-17170.632442,-11509.874345,3195.383036,-2050.951368,-16065.048106,1829.669098,-246.740907,3759.697528,11345.678430,-13228.701142,-4162.811239,643.059688,-0.003500,-0.012750,1.006500,192.000000,0.000000,0.000000,0.000000,0.000000,0.000000,0.000000,0.000000,0.000000,0.000000,1770297886.564271,0.000000
28.000000,9087.280522,12578.220675,1089.625190,2810.463644,-17125.727788,-11473.932740,3242.075830,-2003.878594,-16044.663315,1838.922720,-235.028593,3766.157182,11369.438335,-13230.623392,-4158.095021,639.662223,-0.002750,-0.015375,1.006250,192.000000,127.500000,120.000000,127.500000,56.000000,15.500000,56.000000,0.000000,0.000000,0.000000,1770297886.564290,0.000000
30.000000,9056.859798,12549.789256,1055.650539,2771.325740,-17162.496407,-11510.500194,3209.352876,-2033.382897,-16016.254248,1861.430926,-207.670058,3791.772281,11409.649123,-13208.584572,-4124.768570,651.486296,-0.002750,-0.015375,1.006250,192.000000,0.000000,0.000000,0.000000,0.000000,0.000000,0.000000,0.000000,0.000000,0.000000,1770297886.564307,0.000000
32.000000,9064.124115,12556.718297,1067.027577,2778.165374,-17154.472131,-11501.470089,3217.220690,-2024.621013,-16073.385307,1818.157949,-256.106288,3746.062964,11329.138139,-13240.905194,-4170.500239,613.175406,-0.002750,-0.015375,1.006250,192.000000,0.000000,0.000000,0.000000,0.000000,0.000000,0.000000,0.000000,0.000000,0.000000,1770297886.564324,0.000000
34.000000,9091.393243,12581.886361,1091.390978,2800.315952,-17131.248669,-11478.984234,3240.667670,-1999.609411,-16003.290236,1862.459107,-199.534023,3794.163918,11386.671530,-13203.935409,-4117.124273,659.354110,-0.002750,-0.015375,1.006250,192.000000,0.000000,0.000000,0.000000,0.000000,0.000000,0.000000,0.000000,0.000000,0.000000,1770297886.564343,0.000000
36.000000,9049.506074,12538.322811,1048.788553,2752.170295,-17171.682974,-11527.442816,3194.936001,-2043.217664,-16049.804217,1828.216234,-238.627224,3756.367118,11354.037983,-13241.620450,-4153.803486,620.573833,-0.002750,-0.015375,1.006250,192.000000,0.000000,0.000000,0.000000,0.000000,0.000000,0.000000,0.000000,0.000000,0.000000,1770297886.564355,0.000000
38.000000,9103.664351,12588.100146,1099.728179,2812.408246,-17120.564535,-11470.691737,3246.054440,-1994.177937,-16030.604068,1841.649633,-224.746790,3770.605179,11364.476247,-13215.066578,-4140.347736,632.777886,-0.002750,-0.015375,1.006250,192.000000,0.000000,0.000000,127.500000,72.000000,15.500000,80.000000,0.000000,0.000000,0.000000,1770297886.564369,0.000000
40.000000,9063.900598,12554.550177,1061.841972,2772.666844,-17153.421599,-11495.613932,3208.592917,-2031.706516,-16014.890792,1867.398842,-206.865395,3792.420482,11385.710405,-13205.544735,-4115.984334,658.571799,-0.002750,-0.015375,1.006250,192.000000,0.000000,0.000000,0.000000,0.000000,0.000000,0.000000,0.000000,0.000000,0.000000,1770297886.564387,0.000000
42.000000,9071.321377,12558.171160,1072.637865,2780.691121,-17136.747198,-11491.300045,3216.796007,-2026.096228,-16063.394077,1825.981060,-252.395898,3747.024089,11338.704686,-13244.503825,-4152.797658,619.210377,-0.002750,-0.015375,1.006250,192.000000,0.000000,0.000000,0.000000,0.000000,0.000000,0.000000,0.000000,0.000000,0.000000,1770297886.564406,0.000000
44.000000,9089.649807,12576.700756,1094.140243,2804.294563,-17118.441119,-11464.768525,3239.259510,-2006.158472,-16006.754757,1865.945979,-202.842081,3787.860726,11396.439242,-13193.608903,-4099.511099,669.971188,-0.002750,-0.015375,1.006250,192.000000,0.000000,0.000000,0.000000,0.000000,0.000000,0.000000,0.000000,0.000000,0.000000,1770297886.564424,0.000000
46.000000,9047.360307,12535.685305,1047.492152,2757.981748,-17159.680088,-11507.996799,3194.399559,-2050.772554,-16060.577757,1829.914967,-244.371622,3749.505132,11346.706611,-13230.936316,-4135.855035,639.326947,-0.002750,-0.015375,1.006250,192.000000,0.000000,0.000000,0.000000,0.000000,0.000000,0.000000,0.000000,0.000000,0.000000,1770297886.564442,0.000000
48.000000,9097.875249,12585.864971,1097.738874,2814.509310,-17109.858049,-11455.850179,3247.887283,-1999.430597,-16041.154091,1840.487342,-231.474666,3758.669348,11369.974777,-13223.873165,-4127.607242,650.435764,-0.004375,-0.013688,1.007125,192.000000,127.500000,104.000000,127.500000,80.000000,15.500000,64.000000,0.000000,0.000000,0.000000,1770297886.564460,0.000000
50.000000,9068.370946,12556.114800,1065.507658,2784.937952,-17139.563518,-11486.136792,3218.114760,-2027.079705,-16013.817908,1867.734118,-204.540814,3786.854897,11391.588913,-13192.312502,-4105.210794,673.592171,-0.004375,-0.013688,1.007125,192.000000,0.000000,0.000000,0.000000,0.000000,0.000000,0.000000,0.000000,0.000000,0.000000,1770297886.564475,0.000000
52.000000,9073.198923,12562.149771,1072.079071,2793.565726,-17137.350695,-11479.766545,3224.328545,-2020.396533,-16063.349374,1832.798342,-247.389108,3751.226217,11333.653192,-13228.276459,-4157.245655,631.302670,-0.004375,-0.013688,1.007125,192.000000,0.000000,0.000000,0.000000,0.000000,0.000000,0.000000,0.000000,0.000000,0.000000,1770297886.564493,0.000000
54.000000,9091.393243,12580.366442,1095.101368,2813.838758,-17119.871631,-11460.633452,3246.121495,-1999.207079,-16003.133774,1874.774918,-200.584555,3795.885002,11389.443146,-13190.278493,-4111.066951,666.886648,-0.004375,-0.013688,1.007125,192.000000,0.000000,0.000000,0.000000,0.000000,0.000000,0.000000,0.000000,0.000000,0.000000,1770297886.564510,0.000000
56.000000,9060.011394,12548.559910,1053.840048,2768.241199,-17165.513893,-11507.929743,3204.971934,-2033.561711,-16048.038429,1836.553435,-235.833256,3761.284502,11352.607471,-13220.296886,-4152.842361,635.683612,-0.004375,-0.013688,1.007125,192.000000,0.000000,0.000000,0.000000,0.000000,0.000000,0.000000,0.000000,0.000000,0.000000,1770297886.564526,0.000000
58.000000,9107.575906,12592.682253,1104.153824,2817.437389,-17123.313799,-11469.037708,3256.090374,-1983.449099,-16025.262001,1849.740964,-216.767218,3777.467165,11372.254654,-13217.100587,-4146.114486,649.944025,-0.003188,-0.010844,1.004563,192.000000,127.500000,120.000000,127.500000,96.000000,15.500000,40.000000,0.000000,0.000000,0.000000,1770297887.044002,0.000000
60.000000,9075.858781,12561.881550,1068.167516,2773.069176,-17159.411867,-11515.618743,3217.980649,-2019.211891,-16006.710053,1865.118964,-195.466005,3798.634267,11395.791041,-13199.934447,-4121.393457,656.582493,-0.003188,-0.010844,1.004563,192.000000,0.000000,0.000000,0.000000,0.000000,0.000000,0.000000,0.000000,0.000000,0.000000,1770297887.044075,0.000000
62.000000,9077.266941,12562.574454,1072.481402,2777.584228,-17154.874462,-11511.483671,3220.908728,-2017.244937,-16065.405734,1819.655516,-246.584445,3753.573150,11345.387858,-13259.412439,-4156.463344,603.273583,-0.003188,-0.010844,1.004563,192.000000,0.000000,0.000000,0.000000,0.000000,0.000000,0.000000,0.000000,0.000000,0.000000,1770297887.044129,0.000000
64.000000,9093.069624,12578.175971,1094.564926,2803.221679,-17133.997933,-11483.409880,3245.070964,-2000.615239,-16012.297989,1858.659310,-202.775026,3792.912220,11382.290588,-13212.116148,-4106.395436,654.280264,-0.003188,-0.010844,1.004563,192.000000,0.000000,0.000000,0.000000,0.000000,0.000000,0.000000,0.000000,0.000000,0.000000,1770297887.044178,0.000000
66.000000,9042.197054,12528.644506,1044.742888,2753.757269,-17178.880236,-11528.605107,3195.874774,-2052.381879,-16068.467923,1819.409647,-249.065488,3749.661595,11335.687201,-13254.696221,-4141.666489,624.865368,-0.003188,-0.010844,1.004563,192.000000,0.000000,0.000000,0.000000,0.000000,0.000000,0.000000,0.000000,0.000000,0.000000,1770297887.044233,0.000000
68.000000,9083.056043,12569.279977,1093.246173,2810.329534,-17120.810404,-11467.540141,3247.484952,-2007.633687,-16056.710906,1827.746848,-242.471724,3755.026013,11365.415021,-13226.980058,-4134.022192,639.215188,-0.003188,-0.010844,1.004563,192.000000,0.000000,0.000000,0.000000,0.000000,0.000000,0.000000,0.000000,0.000000,0.000000,1770297887.044288,0.000000
70.000000,9052.210635,12539.149825,1059.696205,2772.957417,-17146.894890,-11496.038615,3210.224594,-2042.681222,-16031.386379,1849.428040,-222.422209,3773.890886,11383.519934,-13212.831403,-4104.204965,672.429880,-0.004000,-0.012000,1.006000,192.000000,127.500000,112.000000,127.500000,80.000000,15.500000,56.000000,0.000000,0.000000,0.000000,1770297887.044336,0.000000
72.000000,9066.113420,12552.538520,1072.704920,2785.921429,-17131.494538,-11483.946321,3218.941774,-2029.471341,-16076.112220,1818.247356,-262.990625,3735.445885,11334.882538,-13241.240471,-4150.137800,634.096638,-0.004000,-0.012000,1.006000,192.000000,0.000000,0.000000,0.000000,0.000000,0.000000,0.000000,0.000000,0.000000,0.000000,1770297887.044354,0.000000
74.000000,9098.612857,12582.378099,1103.282106,2813.414075,-17102.951360,-11460.655804,3244.623929,-1999.698818,-16004.787803,1870.863363,-205.054904,3788.754796,11403.882373,-13187.953912,-4096.337151,676.699063,-0.004000,-0.012000,1.006000,192.000000,0.000000,0.000000,0.000000,0.000000,0.000000,0.000000,0.000000,0.000000,0.000000,1770297887.044372,0.000000
76.000000,9068.035670,12551.555044,1064.367719,2773.247990,-17139.451759,-11502.297104,3205.821300,-2035.595719,-16040.662353,1842.275481,-233.307509,3760.703356,11374.400422,-13225.594249,-4129.663602,635.504798,-0.004000,-0.012000,1.006000,192.000000,0.000000,0.000000,0.000000,0.000000,0.000000,0.000000,0.000000,0.000000,0.000000,1770297887.044390,0.000000
78.000000,9112.917973,12592.883419,1107.908917,2825.819293,-17101.520848,-11458.063001,3253.832847,-1990.825175,-16020.009341,1856.066508,-217.616584,3774.159107,11386.202143,-13204.538906,-4130.289451,636.689441,-0.004000,-0.012000,1.006000,192.000000,0.000000,0.000000,0.000000,0.000000,0.000000,0.000000,0.000000,0.000000,0.000000,1770297887.044408,0.000000
80.000000,9084.486554,12566.016622,1070.559152,2791.129385,-17147.923070,-11497.714996,3219.589975,-2022.877577,-15999.870419,1870.706900,-198.394084,3792.196964,11417.740454,-13186.858676,-4111.491634,655.420203,-0.004000,-0.012000,1.006000,192.000000,0.000000,0.000000,127.500000,88.000000,15.500000,40.000000,0.000000,0.000000,0.000000,1770297887.044426,0.000000
82.000000,9096.064758,12578.578303,1077.622304,2802.417016,-17144.369143,-11491.277694,3227.882472,-2011.746408,-16046.943193,1836.285214,-240.035384,3759.764583,11361.659928,-13223.895517,-4162.945350,614.784731,-0.004000,-0.012000,1.006000,192.000000,0.000000,0.000000,0.000000,0.000000,0.000000,0.000000,0.000000,0.000000,0.000000,1770297887.044443,0.000000
84.000000,9106.435967,12590.871762,1100.756359,2822.153607,-17126.867727,-11476.927874,3252.491743,-1994.580268,-15990.236818,1877.077148,-192.537927,3806.166805,11403.725911,-13194.771194,-4107.311858,663.131555,-0.004000,-0.012000,1.006000,192.000000,0.000000,0.000000,0.000000,0.000000,0.000000,0.000000,0.000000,0.000000,0.000000,1770297887.044461,0.000000
86.000000,9059.921987,12547.084695,1053.393013,2767.570647,-17171.101829,-11523.441854,3202.379132,-2043.642347,-16046.160882,1837.849836,-236.168532,3766.224237,11362.419887,-13232.590345,-4139.855998,630.274490,-0.004000,-0.012000,1.006000,192.000000,0.000000,0.000000,0.000000,0.000000,0.000000,0.000000,0.000000,0.000000,0.000000,1770297887.044479,0.000000
88.000000,9090.655636,12580.768774,1099.281144,2816.342153,-17126.152471,-11479.520676,3247.842580,-2004.012704,-16036.147301,1836.933415,-234.380392,3766.023072,11377.663777,-13232.523290,-4138.201968,641.986804,-0.004000,-0.012000,1.006000,192.000000,0.000000,0.000000,0.000000,0.000000,0.000000,0.000000,0.000000,0.000000,0.000000,1770297887.044497,0.000000
90.000000,9055.116362,12543.821340,1064.412423,2777.807746,-17154.427428,-11499.704301,3213.242079,-2042.234187,-16012.342693,1856.692357,-213.257994,3784.262095,11415.639390,-13208.584572,-4110.396398,669.837078,-0.004000,-0.004000,1.000000,192.000000,127.500000,112.000000,127.500000,112.000000,15.500000,32.000000,0.000000,0.000000,0.000000,1770297887.044525,0.000000
92.000000,9060.547836,12547.107046,1067.586370,2782.345150,-17146.134930,-11495.815098,3215.521957,-2039.104943,-16076.380441,1808.904327,-266.253980,3730.081466,11330.747465,-13252.952785,-4153.065879,627.301708,-0.004000,-0.004000,1.000000,192.000000,0.000000,0.000000,0.000000,0.000000,0.000000,0.000000,0.000000,0.000000,0.000000,1770297887.044543,0.000000
94.000000,9096.064758,12578.354785,1096.956563,2813.570537,-17111.512078,-11459.806437,3245.339184,-2007.477225,-16007.022978,1862.839086,-209.368790,3782.295141,11394.137012,-13203.063691,-4100.136948,676.095566,-0.004000,-0.004000,1.000000,192.000000,0.000000,0.000000,0.000000,0.000000,0.000000,0.000000,0.000000,0.000000,0.000000,1770297887.044560,0.000000
96.000000,9052.992946,12542.055552,1053.907103,2767.727109,-17145.486730,-11494.228124,3199.920440,-2048.716193,-16051.435894,1836.329917,-243.298738,3752.187342,11357.815428,-13227.360037,-4134.223358,645.540732,-0.004000,-0.004000,1.000000,192.000000,0.000000,0.000000,0.000000,0.000000,0.000000,0.000000,0.000000,0.000000,0.000000,1770297887.044578,0.000000
98.000000,9106.793595,12594.246876,1106.254888,2822.108903,-17100.626779,-11445.389562,3250.971824,-1996.524870,-16035.655562,1844.197732,-231.273500,3761.239798,11366.666718,-13213.948991,-4124.008611,656.962473,-0.004000,-0.004000,1.000000,192.000000,0.000000,0.000000,0.000000,0.000000,0.000000,0.000000,0.000000,0.000000,0.000000,1770297887.044594,0.000000
100.000000,9071.366080,12559.109933,1074.001321,2785.317932,-17139.787035,-11491.657673,3216.751303,-2031.035963,-16005.123079,1872.025653,-202.886784,3790.609990,11415.393521,-13182.589493,-4099.354637,673.391005,-0.002000,-0.010000,1.002000,192.000000,127.500000,120.000000,127.500000,88.000000,15.500000,40.000000,0.000000,0.000000,0.000000,1770297887.044610,0.000000
102.000000,9074.584731,12565.346070,1077.622304,2792.269324,-17139.362352,-11487.142621,3221.176949,-2025.246862,-16070.993670,1822.740057,-258.922608,3739.022164,11356.116695,-13241.598098,-4144.281643,629.000441,-0.002000,-0.010000,1.002000,192.000000,0.000000,0.000000,0.000000,0.000000,0.000000,0.000000,0.000000,0.000000,0.000000,1770297887.044628,0.000000
104.000000,9101.898563,12592.011701,1108.490063,2823.740581,-17114.104881,-11465.707298,3252.916426,-1993.865012,-16005.301893,1872.606799,-200.986886,3792.152261,11396.618056,-13194.368862,-4102.841509,668.205400,-0.002000,-0.010000,1.002000,192.000000,0.000000,0.000000,0.000000,0.000000,0.000000,0.000000,0.000000,0.000000,0.000000,1770297887.044645,0.000000
106.000000,9064.839371,12554.594881,1068.078109,2778.455946,-17157.154340,-11509.337903,3211.811568,-2029.851321,-16043.255155,1844.667118,-229.552416,3764.816077,11373.148724,-13222.062674,-4140.817123,629.246310,-0.002000,-0.010000,1.002000,192.000000,0.000000,0.000000,0.000000,0.000000,0.000000,0.000000,0.000000,0.000000,0.000000,1770297887.044663,0.000000
108.000000,9106.525374,12596.593809,1114.256813,2826.176921,-17117.636456,-11467.741307,3260.314853,-1982.957361,-16032.749836,1851.573807,-218.041267,3774.404976,11382.290588,-13216.452386,-4143.521684,635.303633,-0.002000,-0.010000,1.002000,192.000000,0.000000,0.000000,0.000000,0.000000,0.000000,0.000000,0.000000,0.000000,0.000000,1770297887.044681,0.000000
110.000000,9076.641092,12562.708564,1081.466804,2784.893249,-17154.159207,-11506.298066,3224.350896,-2016.507330,-16006.397129,1868.404671,-193.230831,3798.701322,11402.183640,-13198.146307,-4111.446930,652.223903,0.002000,-0.010000,1.010000,192.000000,0.000000,8.000000,127.500000,88.000000,15.500000,72.000000,0.000000,0.000000,0.000000,1770297887.044699,0.000000
112.000000,9080.843220,12565.413125,1082.919667,2790.771757,-17152.147550,-11498.251438,3229.067114,-2012.528719,-16059.549577,1825.086990,-238.448410,3756.165952,11344.091456,-13241.486340,-4160.486658,608.012153,0.002000,-0.010000,1.010000,192.000000,0.000000,0.000000,0.000000,0.000000,0.000000,0.000000,0.000000,0.000000,0.000000,1770297887.044716,0.000000
114.000000,9091.370891,12577.505419,1101.873946,2809.994258,-17141.061084,-11484.393356,3250.077754,-1996.614277,-16009.951056,1859.843953,-196.829462,3793.381607,11395.947504,-13208.875145,-4117.347791,659.667034,0.002000,-0.010000,1.010000,192.000000,0.000000,0.000000,0.000000,0.000000,0.000000,0.000000,0.000000,0.000000,0.000000,1770297887.044733,0.000000
116.000000,9050.735420,12537.518148,1055.002338,2761.289807,-17174.991032,-11525.855842,3203.161443,-2040.669565,-16062.075324,1822.807112,-239.007203,3756.590635,11358.553035,-13246.783703,-4147.276777,634.118990,0.002000,-0.010000,1.010000,192.000000,0.000000,0.000000,0.000000,0.000000,0.000000,0.000000,0.000000,0.000000,0.000000,1770297887.044749,0.000000
118.000000,9096.757662,12581.752250,1104.645563,2810.620107,-17123.090282,-11473.061022,3249.742478,-1994.043826,-16044.104522,1831.881920,-229.932395,3762.558551,11358.284814,-13233.327953,-4138.492541,642.277377,0.002000,-0.010000,1.010000,192.000000,0.000000,0.000000,0.000000,0.000000,0.000000,0.000000,0.000000,0.000000,0.000000,1770297887.044766,0.000000
120.000000,9069.555589,12554.281956,1076.817641,2775.684330,-17146.738427,-11502.654732,3218.472388,-2024.799827,-16011.292161,1857.184095,-202.171529,3787.257229,11392.706501,-13216.072406,-4106.931878,668.160697,0.002000,-0.008000,1.004000,192.000000,0.000000,8.000000,127.500000,96.000000,15.500000,48.000000,0.000000,0.000000,0.000000,1770297887.044783,0.000000
122.000000,9076.551685,12564.474352,1080.930362,2783.038054,-17141.798692,-11494.608104,3224.105027,-2016.686143,-16064.668127,1817.576804,-248.104363,3745.526522,11355.580253,-13242.626279,-4149.221378,634.811894,0.002000,-0.008000,1.004000,192.000000,0.000000,0.000000,0.000000,0.000000,0.000000,0.000000,0.000000,0.000000,0.000000,1770297887.044804,0.000000
124.000000,9109.364046,12595.275056,1113.832130,2817.549147,-17117.927029,-11473.061022,3255.956263,-1985.840736,-15998.931646,1868.941113,-192.336761,3796.086168,11405.178774,-13205.410624,-4098.572326,676.095566,0.002000,-0.008000,1.004000,192.000000,0.000000,0.000000,0.000000,0.000000,0.000000,0.000000,0.000000,0.000000,0.000000,1770297887.044821,0.000000
126.000000,9068.683871,12551.912672,1065.194734,2768.777641,-17167.302032,-11519.306781,3207.251812,-2032.689993,-16039.321248,1842.677813,-224.545625,3768.660577,11371.449992,-13222.822633,-4136.190311,639.639871,0.002000,-0.008000,1.004000,192.000000,0.000000,0.000000,0.000000,0.000000,0.000000,0.000000,0.000000,0.000000,0.000000,1770297887.044838,0.000000
128.000000,9112.694456,12596.102070,1113.072170,2822.846511,-17119.737520,-11468.568321,3256.135077,-1984.276114,-16030.425254,1845.315319,-221.192863,3772.013339,11371.673509,-13227.561203,-4138.939576,639.952795,0.002000,-0.008000,1.004000,192.000000,0.000000,0.000000,0.000000,0.000000,0.000000,0.000000,0.000000,0.000000,0.000000,1770297887.044855,0.000000
130.000000,9088.487516,12570.509323,1082.427929,2793.878650,-17147.230166,-11496.999740,3227.457789,-2013.311030,-15995.400071,1875.356063,-191.152119,3804.669238,11417.449882,-13191.530191,-4108.965887,666.014930,0.006000,-0.008000,1.000000,192.000000,0.000000,24.000000,127.500000,96.000000,15.500000,32.000000,0.000000,0.000000,0.000000,1770297887.044871,0.000000
132.000000,9082.899580,12569.481143,1086.697112,2798.885441,-17144.279736,-11492.439984,3232.956318,-2011.209966,-16053.492254,1830.406705,-241.577654,3759.138734,11363.045736,-13236.323087,-4155.792791,621.847882,0.006000,-0.008000,1.000000,192.000000,0.000000,0.000000,0.000000,0.000000,0.000000,0.000000,0.000000,0.000000,0.000000,1770297887.044888,0.000000
134.000000,9114.728464,12602.226448,1118.458941,2831.496636,-17115.825965,-11468.031879,3263.533504,-1979.045806,-15985.319434,1881.301627,-186.681770,3809.206642,11410.453786,-13186.456345,-4106.775416,664.852639,0.006000,-0.008000,1.000000,192.000000,0.000000,0.000000,0.000000,0.000000,0.000000,0.000000,0.000000,0.000000,0.000000,1770297887.044905,0.000000
136.000000,9078.563342,12563.848503,1073.889562,2781.406377,-17155.165035,-11507.594467,3217.466559,-2019.681277,-16024.434987,1853.183133,-219.337668,3781.848107,11381.128297,-13206.304694,-4140.101867,623.658374,0.006000,-0.008000,1.000000,192.000000,0.000000,0.000000,0.000000,0.000000,0.000000,0.000000,0.000000,0.000000,0.000000,1770297887.044923,0.000000
138.000000,9128.698305,12613.089396,1119.665935,2834.961156,-17117.882325,-11453.033859,3265.522810,-1969.389852,-16010.755719,1859.754546,-212.073351,3786.631380,11389.197277,-13212.965514,-4150.003690,631.257967,0.006000,-0.008000,1.000000,192.000000,0.000000,0.000000,0.000000,0.000000,0.000000,0.000000,0.000000,0.000000,0.000000,1770297887.044941,0.000000
140.000000,9086.073528,12571.828076,1080.282161,2789.832984,-17153.063971,-11496.396243,3227.055457,-2012.349905,-15973.763582,1889.460014,-180.490336,3815.219261,11436.448865,-13177.515647,-4140.124218,669.144174,0.006000,-0.008000,1.000000,192.000000,0.000000,0.000000,127.500000,88.000000,15.500000,48.000000,0.000000,0.000000,0.000000,1770297887.044959,0.000000
142.000000,9069.309720,12554.818398,1076.549420,2777.785394,-17157.579024,-11516.535165,3220.864024,-2027.303222,-16055.570967,1814.626374,-251.144201,3743.693679,11348.137122,-13252.192825,-4157.424469,620.350316,0.006000,-0.008000,1.000000,192.000000,0.000000,0.000000,0.000000,0.000000,0.000000,0.000000,0.000000,0.000000,0.000000,1770297887.044976,0.000000
144.000000,9097.696435,12583.942721,1101.359856,2806.306220,-17131.718055,-11489.556609,3246.881455,-2001.509309,-16001.077414,1854.412479,-207.267726,3783.144508,11395.254599,-13211.467947,-4095.599544,662.908037,0.006000,-0.008000,1.000000,192.000000,0.000000,0.000000,0.000000,0.000000,0.000000,0.000000,0.000000,0.000000,0.000000,1770297887.044993,0.000000
146.000000,9061.576016,12543.977802,1057.081051,2759.501667,-17175.929806,-11528.783921,3200.278068,-2042.860036,-16042.942231,1825.131693,-241.018860,3750.086278,11363.023384,-13250.538796,-4143.789905,645.093697,0.006000,-0.008000,1.000000,192.000000,0.000000,0.000000,0.000000,0.000000,0.000000,0.000000,0.000000,0.000000,0.000000,1770297887.045011,0.000000
148.000000,9107.173575,12589.642416,1108.892394,2815.179862,-17127.739445,-11477.397260,3250.815362,-1993.105053,-16031.788711,1828.216234,-233.195750,3757.238836,11371.695861,-13236.814825,-4132.792846,643.260854,0.006000,-0.008000,1.000000,192.000000,0.000000,0.000000,0.000000,0.000000,0.000000,0.000000,0.000000,0.000000,0.000000,1770297887.045028,0.000000
150.000000,9081.066737,12564.474352,1080.349217,2787.933086,-17149.778265,-11498.430252,3222.562757,-2020.374181,-15996.651768,1861.788554,-198.327029,3795.169746,11416.958143,-13203.823650,-4103.892041,672.385177,0.006000,-0.008000,1.000000,192.000000,0.000000,0.000000,127.500000,88.000000,15.500000,48.000000,0.000000,0.000000,0.000000,1770297887.045045,0.000000
152.000000,9080.642054,12565.524884,1080.662141,2792.246973,-17148.593622,-11498.944342,3224.619117,-2019.323649,-16064.601071,1817.353286,-249.333709,3748.052269,11334.837834,-13249.890596,-4154.161114,625.647679,0.006000,-0.008000,1.000000,192.000000,0.000000,0.000000,0.000000,0.000000,0.000000,0.000000,0.000000,0.000000,0.000000,1770297887.045063,0.000000
154.000000,9120.852842,12604.551030,1118.123665,2828.568557,-17113.926067,-11458.621795,3261.611254,-1981.593905,-15991.734385,1875.020787,-190.481566,3801.763511,11404.530573,-13178.096792,-4105.568422,670.999369,0.006000,-0.008000,1.000000,192.000000,0.000000,0.000000,0.000000,0.000000,0.000000,0.000000,0.000000,0.000000,0.000000,1770297887.045085,0.000000
156.000000,9078.295121,12565.301366,1072.146126,2779.953513,-17153.913337,-11505.158127,3214.314963,-2025.090399,-16024.457338,1849.673909,-217.840101,3779.098842,11391.410099,-13222.465005,-4131.451742,641.495066,0.006000,-0.008000,1.000000,192.000000,0.000000,0.000000,0.000000,0.000000,0.000000,0.000000,0.000000,0.000000,0.000000,1770297887.045102,0.000000
158.000000,9117.343619,12606.965018,1119.777694,2831.653098,-17110.260381,-11454.106743,3262.795897,-1977.883515,-16023.853841,1851.976139,-218.421247,3780.127022,11380.882428,-13217.368807,-4135.430352,638.276415,0.006000,-0.008000,1.000000,192.000000,0.000000,0.000000,0.000000,0.000000,0.000000,0.000000,0.000000,0.000000,0.000000,1770297887.045120,0.000000
160.000000,9094.142508,12584.009777,1091.659199,2796.113824,-17140.435236,-11491.255342,3231.548158,-2005.107940,-15989.253341,1882.888601,-185.497127,3811.061837,11413.471271,-13188.333891,-4106.462491,664.584418,0.004000,-0.009000,1.000000,192.000000,0.000000,8.000000,127.500000,88.000000,15.500000,32.000000,0.000000,0.000000,0.000000,1770297887.045138,0.000000
162.000000,9093.091976,12582.243989,1091.010999,2797.477281,-17143.117445,-11485.466240,3233.760981,-2003.677428,-16042.830472,1839.593272,-233.419267,3764.726670,11365.526779,-13234.557299,-4154.094059,614.404752,0.004000,-0.009000,1.000000,192.000000,0.000000,0.000000,0.000000,0.000000,0.000000,0.000000,0.000000,0.000000,0.000000,1770297887.045155,0.000000
164.000000,9115.957810,12603.053463,1114.905013,2828.568557,-17120.475128,-11462.466295,3261.275978,-1979.559896,-15989.543914,1878.440604,-188.492261,3806.546784,11418.276896,-13185.562275,-4114.486768,666.573723,0.004000,-0.009000,1.000000,192.000000,0.000000,0.000000,0.000000,0.000000,0.000000,0.000000,0.000000,0.000000,0.000000,1770297887.045172,0.000000
166.000000,9066.247531,12552.136189,1062.266655,2775.438461,-17166.922053,-11513.517679,3209.531690,-2031.438295,-16031.721655,1844.644766,-226.467875,3773.063871,11388.638483,-13227.583555,-4148.975509,643.886703,0.004000,-0.009000,1.000000,192.000000,0.000000,0.000000,0.000000,0.000000,0.000000,0.000000,0.000000,0.000000,0.000000,1770297887.045190,0.000000
168.000000,9102.122081,12588.636588,1108.780635,2823.874691,-17121.011570,-11459.940548,3257.364423,-1988.098262,-16030.984048,1836.978118,-226.199654,3767.140659,11368.901893,-13229.662267,-4139.319556,648.401755,0.004000,-0.009000,1.000000,192.000000,0.000000,0.000000,0.000000,0.000000,0.000000,0.000000,0.000000,0.000000,0.000000,1770297887.045207,0.000000
170.000000,9077.333996,12568.721183,1077.555248,2790.369426,-17148.124236,-11487.343787,3226.362553,-2018.854263,-16000.853896,1867.465897,-197.567069,3796.779072,11412.152518,-13203.711892,-4109.949363,677.615485,0.004000,-0.010500,1.005000,192.000000,0.000000,16.000000,127.500000,80.000000,15.500000,72.000000,0.000000,0.000000,0.000000,1770297887.045225,0.000000
172.000000,9071.924874,12565.904864,1077.935228,2788.447176,-17147.990125,-11485.868572,3222.272184,-2021.759989,-16061.293013,1824.394086,-250.563055,3749.706298,11349.589986,-13238.088875,-4146.896797,633.068458,0.004000,-0.010500,1.005000,192.000000,0.000000,0.000000,0.000000,0.000000,0.000000,0.000000,0.000000,0.000000,0.000000,1770297887.045243,0.000000
174.000000,9106.748892,12603.969884,1108.937098,2821.706572,-17116.831793,-11459.582920,3253.206998,-1986.131309,-16003.156126,1870.036348,-203.266764,3796.287334,11411.750187,-13199.509764,-4104.741407,669.390043,0.004000,-0.010500,1.005000,192.000000,0.000000,0.000000,0.000000,0.000000,0.000000,0.000000,0.000000,0.000000,0.000000,1770297887.045260,0.000000
176.000000,9074.383566,12570.285805,1068.368681,2778.120670,-17151.074666,-11501.112461,3211.543347,-2021.715286,-16033.688609,1854.121906,-225.998488,3777.847144,11383.050547,-13221.280363,-4131.474093,645.361918,0.004000,-0.010500,1.005000,192.000000,0.000000,0.000000,0.000000,0.000000,0.000000,0.000000,0.000000,0.000000,0.000000,1770297887.045278,0.000000
178.000000,9120.741084,12615.592792,1116.044952,2831.720153,-17108.002854,-11449.792856,3260.650129,-1973.837849,-16020.679894,1859.687490,-217.884805,3786.363159,11384.793983,-13208.003427,-4130.982355,648.781735,0.004000,-0.010500,1.005000,192.000000,0.000000,0.000000,0.000000,0.000000,0.000000,0.000000,0.000000,0.000000,0.000000,1770297887.524849,0.000000
180.000000,9100.512755,12589.262437,1086.719464,2801.277077,-17142.223375,-11482.404051,3230.631737,-2002.939821,-15983.106611,1891.985761,-184.200726,3817.230918,11418.880393,-13180.533133,-4099.332285,675.268552,0.004000,-0.010500,1.005000,192.000000,0.000000,0.000000,127.500000,48.000000,15.500000,56.000000,0.000000,0.000000,0.000000,1770297887.524928,0.000000
182.000000,9106.435967,12598.113727,1093.559097,2811.022438,-17134.310858,-11470.848199,3238.276033,-1991.160451,-16038.293068,1849.025708,-229.261843,3775.544915,11376.859114,-13218.285229,-4156.373937,628.396944,0.004000,-0.010500,1.005000,192.000000,0.000000,0.000000,0.000000,0.000000,0.000000,0.000000,0.000000,0.000000,0.000000,1770297887.524986,0.000000
184.000000,9129.950002,12621.158376,1121.454075,2833.396534,-17111.489726,-11451.737458,3264.606388,-1966.662939,-15975.149390,1897.372532,-172.399005,3826.663354,11424.647143,-13177.292130,-4113.749160,668.987712,0.004000,-0.010500,1.005000,192.000000,0.000000,0.000000,0.000000,0.000000,0.000000,0.000000,0.000000,0.000000,0.000000,1770297887.525041,0.000000
186.000000,9082.229028,12573.191532,1069.620379,2779.215906,-17161.401172,-11510.947229,3214.985515,-2018.518987,-16025.351408,1857.005281,-213.347401,3786.966656,11382.782326,-13222.107377,-4131.518797,631.123856,0.004000,-0.010500,1.005000,192.000000,0.000000,0.000000,0.000000,0.000000,0.000000,0.000000,0.000000,0.000000,0.000000,1770297887.525119,0.000000
188.000000,9120.316401,12610.317780,1111.619307,2826.042810,-17115.334227,-11463.002737,3258.325548,-1979.224620,-16022.065702,1858.502848,-212.743904,3785.871421,11384.503410,-13219.112244,-4133.172826,632.621423,0.004000,-0.010500,1.005000,192.000000,0.000000,0.000000,0.000000,0.000000,0.000000,0.000000,0.000000,0.000000,0.000000,1770297887.525175,0.000000
190.000000,9080.507944,12572.878608,1074.582466,2790.905868,-17153.801579,-11496.731519,3224.037972,-2019.725981,-15996.562361,1875.847802,-191.643857,3805.652714,11406.162251,-13198.213362,-4109.457625,662.192781,0.000000,-0.012250,1.005500,192.000000,127.500000,112.000000,127.500000,72.000000,15.500000,56.000000,0.000000,0.000000,0.000000,1770297887.525192,0.000000
192.000000,9078.406880,12569.592901,1071.833202,2789.162432,-17159.411867,-11495.412766,3220.796969,-2024.643365,-16059.504874,1827.299813,-250.831276,3752.902598,11346.170169,-13245.532005,-4165.068765,635.325984,0.000000,-0.012250,1.005500,192.000000,0.000000,0.000000,0.000000,0.000000,0.000000,0.000000,0.000000,0.000000,0.000000,1770297887.525209,0.000000
194.000000,9107.419444,12597.510230,1105.561984,2820.857205,-17120.139852,-11459.717030,3253.855199,-1994.759082,-16000.205696,1871.355101,-201.120997,3797.337866,11401.535440,-13196.961665,-4108.272983,668.428918,0.000000,-0.012250,1.005500,192.000000,0.000000,0.000000,0.000000,0.000000,0.000000,0.000000,0.000000,0.000000,0.000000,1770297887.525225,0.000000
196.000000,9059.832580,12549.856311,1060.009129,2767.637702,-17167.592605,-11506.990970,3204.971934,-2044.670528,-16043.188100,1841.202598,-236.190884,3767.677101,11378.379032,-13237.887709,-4137.889044,651.374537,0.000000,-0.012250,1.005500,192.000000,0.000000,0.000000,0.000000,0.000000,0.000000,0.000000,0.000000,0.000000,0.000000,1770297887.525249,0.000000
198.000000,9111.867441,12599.857163,1112.602784,2819.605508,-17117.345884,-11451.424533,3253.385812,-1993.529736,-16039.365952,1836.687545,-237.241416,3762.536199,11377.216742,-13231.740979,-4136.011497,646.881836,0.000000,-0.012250,1.005500,192.000000,0.000000,0.000000,0.000000,0.000000,0.000000,0.000000,0.000000,0.000000,0.000000,1770297887.525267,0.000000
200.000000,9090.990912,12578.041861,1087.613533,2787.150775,-17138.602393,-11484.147487,3224.440303,-2022.095266,-15992.203771,1878.753528,-195.823633,3801.160014,11410.811414,-13191.865467,-4103.579116,677.660188,-0.001000,-0.012125,1.003750,192.000000,127.500000,120.000000,127.500000,80.000000,15.500000,40.000000,0.000000,0.000000,0.000000,1770297887.525290,0.000000
202.000000,9093.695473,12578.198323,1089.267563,2793.968057,-17133.372084,-11483.745156,3227.636603,-2017.826082,-16050.519472,1833.155970,-246.070355,3752.321452,11356.876654,-13240.435808,-4132.032887,621.669069,-0.001000,-0.012125,1.003750,192.000000,0.000000,0.000000,0.000000,0.000000,0.000000,0.000000,0.000000,0.000000,0.000000,1770297887.525310,0.000000
204.000000,9109.744025,12600.483012,1108.601821,2825.416961,-17110.282732,-11452.676231,3254.369289,-1994.379103,-15996.651768,1879.580543,-199.154043,3800.802386,11422.501376,-13190.747880,-4087.932895,674.955627,-0.001000,-0.012125,1.003750,192.000000,0.000000,0.000000,0.000000,0.000000,0.000000,0.000000,0.000000,0.000000,0.000000,1770297887.525327,0.000000
206.000000,9070.740231,12563.177951,1063.563056,2781.384025,-17155.008573,-11490.182458,3210.783388,-2033.896987,-16038.293068,1852.691394,-234.067468,3774.807307,11376.322672,-13216.832366,-4125.550881,657.007177,-0.001000,-0.012125,1.003750,192.000000,0.000000,0.000000,0.000000,0.000000,0.000000,0.000000,0.000000,0.000000,0.000000,1770297887.525349,0.000000
208.000000,9108.380569,12603.187573,1108.288897,2831.071953,-17108.584000,-11446.440094,3256.269187,-1988.277076,-16033.375684,1853.630168,-230.312375,3776.997778,11380.793021,-13211.780871,-4132.658736,657.163639,-0.001000,-0.012125,1.003750,192.000000,0.000000,0.000000,0.000000,0.000000,0.000000,0.000000,0.000000,0.000000,0.000000,1770297887.525370,0.000000
210.000000,9077.065775,12572.923311,1079.477498,2795.957362,-17142.312782,-11483.946321,3226.787237,-2019.971850,-16001.211524,1879.267619,-200.226927,3803.216374,11407.033969,-13189.071499,-4107.580079,679.627142,-0.001000,-0.012125,1.003750,192.000000,0.000000,0.000000,0.000000,0.000000,0.000000,0.000000,0.000000,0.000000,0.000000,1770297887.525388,0.000000
212.000000,9068.236836,12565.949567,1074.023673,2790.905868,-17154.025096,-11491.344749,3224.507359,-2025.246862,-16069.250234,1825.712839,-256.687433,3750.175685,11337.967078,-13241.307526,-4153.065879,624.485388,-0.002000,-0.014000,1.000000,192.000000,127.500000,120.000000,127.500000,72.000000,15.500000,32.000000,0.000000,0.000000,0.000000,1770297887.525410,0.000000
214.000000,9096.914124,12593.151640,1105.517281,2823.695877,-17127.985314,-11465.997871,3258.169086,-1993.976771,-16010.286332,1871.757432,-205.948973,3795.952057,11390.381919,-13207.735206,-4108.474148,663.958569,-0.002000,-0.014000,1.000000,192.000000,0.000000,0.000000,0.000000,0.000000,0.000000,0.000000,0.000000,0.000000,0.000000,1770297887.525428,0.000000
216.000000,9059.251435,12558.841712,1060.545571,2773.113879,-17165.871521,-11510.991932,3210.604574,-2035.752182,-16047.904318,1846.455258,-235.945014,3769.085261,11365.906759,-13227.292982,-4137.889044,641.293900,-0.002000,-0.014000,1.000000,192.000000,0.000000,0.000000,0.000000,0.000000,0.000000,0.000000,0.000000,0.000000,0.000000,1770297887.525441,0.000000
218.000000,9105.430139,12604.081643,1108.467711,2823.315897,-17116.988256,-11457.414801,3258.303196,-1988.031207,-16041.601126,1843.258958,-234.939186,3770.605179,11362.218721,-13225.951877,-4137.196140,640.399830,-0.002000,-0.014000,1.000000,192.000000,0.000000,0.000000,0.000000,0.000000,0.000000,0.000000,0.000000,0.000000,0.000000,1770297887.525468,0.000000
220.000000,9083.480726,12583.361576,1082.025597,2793.118691,-17135.294334,-11476.816115,3228.798894,-2013.266327,-16004.139603,1876.853630,-202.395046,3803.886927,11399.568486,-13191.440784,-4098.393512,671.446403,-0.002000,-0.014000,1.000000,192.000000,0.000000,0.000000,0.000000,0.000000,0.000000,0.000000,0.000000,0.000000,0.000000,1770297887.525486,0.000000
222.000000,9084.978293,12585.730861,1082.897315,2794.012760,-17126.219526,-11471.496400,3226.876644,-2011.634649,-16055.414504,1838.140409,-246.003299,3760.859819,11352.696878,-13232.545642,-4146.919149,630.363897,0.002000,-0.010000,0.998000,192.000000,0.000000,8.000000,127.500000,88.000000,15.500000,24.000000,0.000000,0.000000,0.000000,1770297887.525505,0.000000
224.000000,9112.582697,12610.608352,1113.496854,2827.741543,-17103.577209,-11437.141769,3258.012624,-1982.465623,-15995.467126,1880.541668,-195.890688,3806.345619,11413.739492,-13184.824668,-4090.123366,673.681578,0.002000,-0.010000,0.998000,192.000000,0.000000,0.000000,0.000000,0.000000,0.000000,0.000000,0.000000,0.000000,0.000000,1770297887.525523,0.000000
226.000000,9068.125077,12566.776582,1064.032443,2783.350978,-17141.239898,-11487.142621,3210.761036,-2027.102056,-16037.801330,1852.691394,-227.406648,3780.596409,11392.170059,-13217.994656,-4121.594622,660.896380,0.002000,-0.010000,0.998000,192.000000,0.000000,0.000000,0.000000,0.000000,0.000000,0.000000,0.000000,0.000000,0.000000,1770297887.525540,0.000000
228.000000,9107.732368,12607.479108,1107.260717,2831.451932,-17097.788107,-11445.769542,3254.056365,-1986.354826,-16039.790635,1848.019880,-232.659308,3776.796612,11377.261445,-13208.204592,-4123.807445,656.761307,0.002000,-0.010000,0.998000,192.000000,0.000000,0.000000,0.000000,0.000000,0.000000,0.000000,0.000000,0.000000,0.000000,1770297887.525559,0.000000
230.000000,9078.093955,12578.980634,1077.577600,2801.835871,-17126.957134,-11474.044499,3225.781408,-2017.468455,-16004.564286,1878.485308,-202.931488,3807.284392,11407.481004,-13185.294054,-4088.603448,681.504688,0.002000,-0.010000,0.998000,192.000000,0.000000,0.000000,0.000000,0.000000,0.000000,0.000000,0.000000,0.000000,0.000000,1770297887.525577,0.000000
232.000000,9069.421478,12568.743535,1072.347292,2796.627915,-17133.305029,-11475.631473,3221.132245,-2024.688068,-16068.825551,1824.192920,-259.436698,3755.093068,11347.220701,-13239.117055,-4145.578044,641.182141,-0.002000,-0.006000,1.008000,192.000000,127.500000,120.000000,127.500000,104.000000,15.500000,64.000000,0.000000,0.000000,0.000000,1770297887.525595,0.000000
234.000000,9099.909258,12595.900905,1109.272374,2826.154569,-17104.918314,-11451.826865,3257.185609,-1992.032169,-16013.661446,1863.733156,-210.732247,3795.572078,11398.652065,-13198.459232,-4105.300201,674.530944,-0.002000,-0.006000,1.008000,192.000000,0.000000,0.000000,0.000000,0.000000,0.000000,0.000000,0.000000,0.000000,0.000000,1770297887.525614,0.000000
