Sample_index,EXG Channel 0,EXG Channel 1,EXG Channel 2,EXG Channel 3,EXG Channel 4,EXG Channel 5,EXG Channel 6,EXG Channel 7,EXG Channel 8,EXG Channel 9,EXG Channel 10,EXG Channel 11,EXG Channel 12,EXG Channel 13,EXG Channel 14,EXG Channel 15,Accel Channel 0,Accel Channel 1,Accel Channel 2,Not Used,Digital Channel 0 (D11),Digital Channel 1 (D12),Digital Channel 2 (D13),Digital Channel 3 (D17),Not Used,Digital Channel 4 (D18),Analog Channel 0,Analog Channel 1,Analog Channel 2,Timestamp,Marker Channel
212.000000,16933.882765,18894.734251,-13342.024486,-396.855223,-13873.616025,-4029.237214,1377.806232,-553.965635,11507.549764,15728.274373,-1480.110166,2594.076406,-17787.965272,16175.130448,2466.559704,559.754736,0.004000,-0.018000,1.008000,192.000000,0.000000,0.000000,0.000000,0.000000,0.000000,0.000000,0.000000,0.000000,0.000000,1775739313.932679,101.000000
214.000000,16948.746675,18895.583617,-13307.826317,-376.425728,-13848.984402,-4014.954450,1390.569078,-532.552663,11515.059950,15747.742742,-1450.650567,2606.839252,-17750.034362,16191.715442,2322.525063,305.011905,0.004000,-0.018000,1.008000,192.000000,0.000000,0.000000,0.000000,0.000000,0.000000,0.000000,0.000000,0.000000,0.000000,1775739313.932736,0.000000
216.000000,16930.909983,18889.459239,-13348.171216,-406.734694,-13879.785106,-4036.188607,1370.161935,-562.101670,11496.083319,15737.706809,-1460.619445,2594.702255,-17762.327822,16182.953558,2372.995302,406.511176,0.006000,-0.010000,1.004000,192.000000,0.000000,24.000000,127.500000,88.000000,15.500000,48.000000,0.000000,0.000000,0.000000,1775739313.932778,0.000000
218.000000,16953.015858,18894.466030,-13316.588201,-387.869822,-13859.221501,-4024.431589,1383.774147,-539.749925,11521.944287,15741.216033,-1470.163640,2596.758616,-17777.750525,16182.595930,2413.027276,496.141672,0.006000,-0.010000,1.004000,192.000000,0.000000,0.000000,0.000000,0.000000,0.000000,0.000000,0.000000,0.000000,0.000000,1775739313.932820,0.000000
220.000000,16943.784588,18898.623454,-13327.652315,-398.777473,-13868.966862,-4033.394639,1375.034615,-547.461277,11482.649920,15747.116893,-1442.805105,2602.614773,-17748.268574,16194.956445,2263.874085,232.167570,0.006000,-0.010000,1.004000,192.000000,0.000000,0.000000,0.000000,0.000000,0.000000,0.000000,0.000000,0.000000,0.000000,1775739313.932862,0.000000
222.000000,16934.463910,18889.727460,-13341.331582,-404.857147,-13879.338071,-4037.797932,1372.039482,-556.960768,11504.599333,15733.817605,-1478.791413,2592.332970,-17793.977892,16181.567750,2471.097108,569.902428,0.006000,-0.010000,1.004000,192.000000,0.000000,0.000000,0.000000,0.000000,0.000000,0.000000,0.000000,0.000000,0.000000,1775739313.932904,0.000000
224.000000,16969.958481,18913.800289,-13308.429814,-381.633685,-13848.827940,-4025.415066,1384.332941,-529.781047,11512.869479,15750.201434,-1454.629177,2603.911174,-17758.326859,16191.938960,2325.810769,301.882661,0.006000,-0.010000,1.004000,192.000000,0.000000,0.000000,0.000000,0.000000,0.000000,0.000000,0.000000,0.000000,0.000000,1775739313.932938,0.000000
226.000000,16946.489149,18906.401861,-13348.059457,-401.482034,-13880.567417,-4038.848464,1372.419461,-553.071565,11509.069682,15746.491044,-1458.339567,2604.537023,-17764.495941,16191.558980,2387.546287,398.844528,0.002000,-0.010000,1.000000,192.000000,0.000000,8.000000,127.500000,88.000000,15.500000,32.000000,0.000000,0.000000,0.000000,1775739313.932949,0.000000
228.000000,16943.695181,18905.060757,-13315.425910,-374.570534,-13855.801684,-4021.838787,1388.915049,-530.898634,11504.711092,15752.928347,-1463.256951,2607.889784,-17753.610641,16197.035157,2443.984442,491.827785,0.002000,-0.010000,1.000000,192.000000,0.000000,0.000000,0.000000,0.000000,0.000000,0.000000,0.000000,0.000000,0.000000,1775739313.932961,0.000000
230.000000,16920.225849,18877.635166,-13328.948716,-386.416958,-13866.351708,-4027.158502,1377.158031,-544.510847,11472.569284,15756.996364,-1437.530093,2615.869357,-17763.780685,16204.880620,2291.389083,214.487340,0.002000,-0.010000,1.000000,192.000000,0.000000,0.000000,0.000000,0.000000,0.000000,0.000000,0.000000,0.000000,0.000000,1775739313.932973,0.000000
232.000000,16909.608771,18877.813980,-13340.169292,-389.009761,-13872.096106,-4020.542386,1376.308665,-554.837353,11496.865630,15754.045934,-1479.283152,2602.368903,-17802.270389,16195.537590,2489.447890,559.195943,0.002000,-0.010000,1.000000,192.000000,0.000000,0.000000,0.000000,0.000000,0.000000,0.000000,0.000000,0.000000,0.000000,1775739313.932984,0.000000
234.000000,16917.968323,18876.048193,-13308.072186,-367.552086,-13845.117551,-4006.572545,1387.842165,-535.056059,11476.793763,15770.049783,-1457.803125,2612.293078,-17766.932281,16212.904896,2339.043002,288.918649,0.002000,-0.010000,1.000000,192.000000,0.000000,0.000000,0.000000,0.000000,0.000000,0.000000,0.000000,0.000000,0.000000,1775739313.932996,0.000000
236.000000,16865.642889,18852.690620,-13347.411257,-394.329476,-13877.125249,-4018.977764,1371.123060,-566.393204,11466.243740,15753.218919,-1474.857506,2599.574935,-17789.485191,16206.624056,2395.659971,382.639513,0.010000,-0.014000,1.010000,192.000000,0.000000,40.000000,127.500000,72.000000,15.500000,72.000000,0.000000,0.000000,0.000000,1775739313.933008,0.000000
238.000000,16881.423221,18851.014239,-13313.950695,-370.837792,-13852.538330,-4009.590031,1391.217278,-543.728536,11455.984289,15763.791295,-1481.071291,2599.239659,-17796.168363,16214.357759,2456.791992,477.612076,0.010000,-0.014000,1.010000,192.000000,0.000000,0.000000,0.000000,0.000000,0.000000,0.000000,0.000000,0.000000,0.000000,1775739313.933019,0.000000
240.000000,16858.155055,18838.497262,-13328.613440,-383.980618,-13861.255510,-4014.708580,1380.779014,-555.239684,11419.394483,15767.412277,-1458.853657,2605.118168,-17757.030458,16220.884469,2300.776816,192.716741,0.010000,-0.014000,1.010000,192.000000,0.000000,0.000000,0.000000,0.000000,0.000000,0.000000,0.000000,0.000000,0.000000,1775739313.933031,0.000000
242.000000,16866.179331,18836.776177,-13338.716428,-389.926182,-13863.334222,-4008.025409,1379.102633,-561.006434,11449.546987,15753.263623,-1496.181070,2594.121110,-17795.207238,16207.987512,2507.642210,547.595387,0.010000,-0.014000,1.010000,192.000000,0.000000,0.000000,0.000000,0.000000,0.000000,0.000000,0.000000,0.000000,0.000000,1775739313.933042,0.000000
244.000000,16879.031584,18852.780027,-13305.769957,-368.334397,-13831.080655,-3993.005036,1389.429139,-538.051193,11448.138827,15771.010908,-1466.430898,2608.537985,-17764.048906,16223.969009,2357.214970,277.809832,0.010000,-0.014000,1.010000,192.000000,0.000000,0.000000,0.000000,0.000000,0.000000,0.000000,0.000000,0.000000,0.000000,1775739313.933054,0.000000
246.000000,16874.091849,18852.869434,-13348.573547,-391.535508,-13864.652975,-4004.315019,1372.866496,-561.386414,11451.245719,15769.580396,-1474.857506,2600.692523,-17768.474551,16220.884469,2404.958296,375.039920,0.006000,-0.016000,1.008000,192.000000,0.000000,24.000000,127.500000,64.000000,15.500000,64.000000,0.000000,0.000000,0.000000,1775739313.933065,0.000000
248.000000,16890.632140,18861.720724,-13315.314152,-364.154621,-13837.540309,-3988.132356,1390.971409,-533.782009,11465.997871,15783.170257,-1478.500840,2612.516595,-17784.970139,16229.400483,2457.373137,476.896820,0.006000,-0.016000,1.008000,192.000000,0.000000,0.000000,0.000000,0.000000,0.000000,0.000000,0.000000,0.000000,0.000000,1775739313.933077,0.000000
250.000000,16866.715773,18833.334009,-13333.083789,-377.833888,-13848.425609,-3992.446243,1379.616723,-549.428230,11427.642277,15773.536655,-1451.723451,2618.797436,-17752.649516,16232.105044,2291.769062,196.740055,0.006000,-0.016000,1.008000,192.000000,0.000000,0.000000,0.000000,0.000000,0.000000,0.000000,0.000000,0.000000,0.000000,1775739313.933088,0.000000
252.000000,16864.838226,18850.567204,-13343.723219,-385.902868,-13860.786123,-3995.150804,1378.767357,-557.005472,11447.311812,15754.671783,-1493.655323,2599.910212,-17796.436584,16212.681378,2498.612106,565.745004,0.006000,-0.016000,1.008000,192.000000,0.000000,0.000000,0.000000,0.000000,0.000000,0.000000,0.000000,0.000000,0.000000,1775739313.933100,0.000000
254.000000,16900.779832,18877.009318,-13305.412329,-362.724109,-13831.035951,-3979.102251,1392.960714,-533.402030,11452.072734,15779.839847,-1463.279303,2614.572956,-17771.357926,16228.372303,2345.793229,287.577544,0.006000,-0.016000,1.008000,192.000000,0.000000,0.000000,0.000000,0.000000,0.000000,0.000000,0.000000,0.000000,0.000000,1775739313.933112,0.000000
0.000000,16873.309538,18865.274652,-13345.377248,-392.049598,-13858.059211,-3994.368493,1374.274656,-563.286312,11453.167969,15762.271376,-1476.511535,2603.240621,-17781.125639,16221.577373,2402.656067,385.947572,0.006000,-0.016000,1.008000,192.000000,0.000000,24.000000,127.500000,64.000000,15.500000,64.000000,0.000000,0.000000,0.000000,1775739313.933123,0.000000
2.000000,16893.359052,18867.174550,-13309.078015,-367.529734,-13834.768693,-3977.559981,1392.290162,-535.905425,11469.820019,15770.943853,-1478.970227,2609.409703,-17782.757316,16224.907783,2466.984387,498.622715,0.006000,-0.016000,1.008000,192.000000,0.000000,0.000000,0.000000,0.000000,0.000000,0.000000,0.000000,0.000000,0.000000,1775739313.933135,0.000000
4.000000,16894.208419,18866.951033,-13319.359817,-378.124461,-13844.491702,-3987.640618,1384.131775,-542.074507,11434.280745,15775.905940,-1444.727355,2619.065657,-17724.642780,16235.457806,2301.916754,205.434883,0.006000,-0.016000,1.008000,192.000000,0.000000,0.000000,0.000000,0.000000,0.000000,0.000000,0.000000,0.000000,0.000000,1775739313.933147,0.000000
6.000000,16886.452363,18867.733344,-13333.106140,-383.421824,-13856.919272,-3992.781519,1384.064720,-551.819867,11467.204865,15762.785466,-1482.188878,2603.799415,-17795.095479,16219.878640,2510.726751,565.856763,0.006000,-0.016000,1.008000,192.000000,0.000000,0.000000,0.000000,0.000000,0.000000,0.000000,0.000000,0.000000,0.000000,1775739313.933159,0.000000
8.000000,16911.061634,18881.457315,-13293.431794,-360.041900,-13825.559774,-3978.163478,1399.733293,-526.920024,11461.236949,15779.705737,-1457.713718,2614.707066,-17755.242319,16231.300382,2360.187752,286.594067,0.006000,-0.016000,1.008000,192.000000,0.000000,0.000000,0.000000,0.000000,0.000000,0.000000,0.000000,0.000000,0.000000,1775739313.933170,0.000000
10.000000,16871.364936,18867.755695,-13341.309230,-393.301295,-13864.854141,-4008.718313,1378.432081,-564.023920,11449.479932,15769.960376,-1466.162678,2606.146348,-17763.333650,16224.550155,2413.787235,362.344129,0.008000,-0.014000,1.005000,192.000000,0.000000,40.000000,127.500000,80.000000,15.500000,40.000000,0.000000,0.000000,0.000000,1775739313.933182,0.000000
12.000000,16875.455305,18861.094875,-13309.837974,-370.480164,-13843.530577,-3996.983647,1394.212412,-543.996757,11465.282615,15765.802952,-1488.313256,2598.792624,-17789.664005,16209.172155,2473.980483,487.044512,0.008000,-0.014000,1.005000,192.000000,0.000000,0.000000,0.000000,0.000000,0.000000,0.000000,0.000000,0.000000,0.000000,1775739313.933194,0.000000
14.000000,16877.846942,18862.234814,-13318.756320,-378.973827,-13851.845426,-3988.467632,1384.444700,-550.724632,11437.342934,15768.440457,-1455.657358,2608.537985,-17748.022705,16219.118681,2303.257859,192.515575,0.008000,-0.014000,1.005000,192.000000,0.000000,0.000000,0.000000,0.000000,0.000000,0.000000,0.000000,0.000000,0.000000,1775739313.933205,0.000000
16.000000,16865.933462,18857.764466,-13334.938983,-391.289638,-13853.834731,-3993.474423,1379.013226,-569.410690,11456.565435,15752.146036,-1496.784567,2592.869412,-17793.419098,16205.148841,2508.715094,548.511809,0.008000,-0.014000,1.005000,192.000000,0.000000,0.000000,0.000000,0.000000,0.000000,0.000000,0.000000,0.000000,0.000000,1775739313.933216,0.000000
18.000000,16873.577759,18853.584689,-13303.937114,-372.849449,-13828.666667,-3988.065301,1389.675008,-552.065736,11438.684039,15762.003155,-1478.523192,2595.216345,-17743.753522,16214.223649,2359.427793,279.441509,0.008000,-0.014000,1.005000,192.000000,0.000000,0.000000,0.000000,0.000000,0.000000,0.000000,0.000000,0.000000,0.000000,1775739313.933228,0.000000
20.000000,16851.158959,18846.275669,-13349.668783,-406.667639,-13861.747248,-3998.458862,1368.217333,-583.469937,11415.460576,15741.752475,-1493.252992,2582.721720,-17782.869075,16202.488983,2409.741570,368.133231,0.008000,-0.014000,1.006500,192.000000,0.000000,32.000000,127.500000,72.000000,15.500000,64.000000,0.000000,0.000000,0.000000,1775739313.933255,0.000000
22.000000,16881.155000,18852.467102,-13318.376341,-382.930086,-13834.098140,-3974.341330,1384.802328,-559.866495,11455.693716,15756.303460,-1500.070274,2582.364092,-17792.927360,16209.082748,2474.896905,487.290381,0.008000,-0.014000,1.006500,192.000000,0.000000,0.000000,0.000000,0.000000,0.000000,0.000000,0.000000,0.000000,0.000000,1775739313.933266,0.000000
24.000000,16855.383439,18837.893765,-13332.189719,-390.842604,-13845.653992,-3984.958408,1377.560363,-566.393204,11426.032952,15756.862254,-1468.867239,2592.377674,-17750.727266,16221.622076,2308.532871,191.666209,0.008000,-0.014000,1.006500,192.000000,0.000000,0.000000,0.000000,0.000000,0.000000,0.000000,0.000000,0.000000,0.000000,1775739313.933278,0.000000
26.000000,16849.504930,18841.939430,-13351.523978,-393.636572,-13862.641318,-3984.913705,1376.576886,-573.545763,11444.853120,15743.182986,-1505.904079,2583.191107,-17808.014787,16210.133280,2507.172824,557.273693,0.008000,-0.014000,1.006500,192.000000,0.000000,0.000000,0.000000,0.000000,0.000000,0.000000,0.000000,0.000000,0.000000,1775739313.933290,0.000000
28.000000,16867.721601,18850.231928,-13316.856422,-366.546257,-13840.669553,-3972.486135,1391.440796,-545.002585,11430.190376,15764.864178,-1479.819593,2597.898555,-17770.240339,16226.606515,2349.928302,290.885602,0.008000,-0.014000,1.006500,192.000000,0.000000,0.000000,0.000000,0.000000,0.000000,0.000000,0.000000,0.000000,0.000000,1775739313.933303,0.000000
30.000000,16838.060837,18834.943334,-13357.424838,-395.648229,-13872.587844,-3991.306304,1371.838316,-573.970446,11411.034931,15751.810760,-1487.061559,2593.964648,-17795.475459,16218.828108,2392.933058,374.056443,0.007000,-0.015000,1.005250,192.000000,0.000000,24.000000,127.500000,64.000000,15.500000,48.000000,0.000000,0.000000,0.000000,1775739313.933316,0.000000
32.000000,16857.618613,18848.309678,-13321.013847,-372.603580,-13846.995097,-3978.476403,1388.356255,-553.920931,11450.463408,15764.640661,-1495.890498,2593.428206,-17803.946770,16219.632771,2464.838620,495.940506,0.007000,-0.015000,1.005250,192.000000,0.000000,0.000000,0.000000,0.000000,0.000000,0.000000,0.000000,0.000000,0.000000,1775739313.933327,0.000000
34.000000,16834.149281,18816.927828,-13331.519166,-386.439310,-13853.253585,-3990.456938,1377.381549,-566.035577,11405.357588,15755.409390,-1472.018835,2594.501089,-17765.568824,16224.058416,2297.736978,197.790587,0.007000,-0.015000,1.005250,192.000000,0.000000,0.000000,0.000000,0.000000,0.000000,0.000000,0.000000,0.000000,0.000000,1775739313.933338,0.000000
36.000000,16822.302857,18811.406948,-13345.645469,-395.827043,-13862.529559,-3995.664894,1375.168726,-578.083167,11433.900766,15733.884660,-1512.430789,2582.207630,-17794.871961,16208.345140,2508.603335,562.481649,0.007000,-0.015000,1.005250,192.000000,0.000000,0.000000,0.000000,0.000000,0.000000,0.000000,0.000000,0.000000,0.000000,1775739313.933350,0.000000
38.000000,16823.800424,18801.527476,-13314.174213,-374.414071,-13835.081617,-3977.358815,1386.434005,-560.000606,11412.420739,15742.579489,-1494.884669,2584.174583,-17781.706784,16218.716349,2357.863171,299.312210,0.007000,-0.015000,1.005250,192.000000,0.000000,0.000000,0.000000,0.000000,0.000000,0.000000,0.000000,0.000000,0.000000,1775739313.933362,0.000000
40.000000,16793.893790,18789.613997,-13358.855350,-401.996124,-13860.137923,-3988.266467,1367.613836,-589.639019,11399.032044,15725.525108,-1503.490091,2577.469060,-17785.640691,16215.251829,2402.030218,378.616199,0.008500,-0.015500,1.003625,192.000000,0.000000,40.000000,127.500000,64.000000,15.500000,40.000000,0.000000,0.000000,0.000000,1775739313.933373,0.000000
42.000000,16806.902505,18780.606244,-13322.086730,-376.738653,-13825.291553,-3972.620246,1385.785804,-563.710995,11429.095141,15735.046951,-1515.582385,2582.140575,-17789.440488,16222.650256,2475.679216,500.813186,0.008500,-0.015500,1.003625,192.000000,0.000000,0.000000,0.000000,0.000000,0.000000,0.000000,0.000000,0.000000,0.000000,1775739313.933384,0.000000
44.000000,16783.030842,18768.044563,-13330.692152,-384.986446,-13832.444111,-3974.766013,1377.269790,-569.343635,11397.333312,15738.667934,-1477.092681,2591.282438,-17723.346379,16230.920402,2310.522176,200.025761,0.008500,-0.015500,1.003625,192.000000,0.000000,0.000000,0.000000,0.000000,0.000000,0.000000,0.000000,0.000000,0.000000,1775739313.933396,0.000000
46.000000,16790.384566,18780.762706,-13341.152768,-386.953400,-13835.975687,-3964.886542,1376.375720,-575.825641,11430.883280,15724.452224,-1509.301544,2581.224153,-17799.185848,16218.425777,2513.923051,563.845106,0.008500,-0.015500,1.003625,192.000000,0.000000,0.000000,0.000000,0.000000,0.000000,0.000000,0.000000,0.000000,0.000000,1775739313.933407,0.000000
48.000000,16794.407880,18780.449781,-13306.507564,-366.590961,-13814.719178,-3957.644577,1387.752758,-557.117231,11424.311867,15744.859367,-1487.441538,2588.779043,-17766.395839,16238.519995,2362.668796,302.463806,0.008500,-0.015500,1.003625,192.000000,0.000000,0.000000,0.000000,0.000000,0.000000,0.000000,0.000000,0.000000,0.000000,1775739313.933419,0.000000
50.000000,16764.769466,18746.877461,-13355.904920,-400.029171,-13856.181664,-3983.974932,1364.462240,-595.606935,11396.573352,15722.284105,-1500.182033,2574.138650,-17776.074144,16224.170175,2413.787235,373.944685,0.007250,-0.017750,1.003812,192.000000,0.000000,24.000000,127.500000,48.000000,15.500000,48.000000,0.000000,0.000000,0.000000,1775739313.933430,0.000000
52.000000,16782.226179,18762.657793,-13324.590126,-378.996179,-13832.332353,-3971.837934,1379.907296,-574.350426,11412.376036,15723.200527,-1517.147007,2571.568200,-17791.340386,16221.376207,2479.858992,511.005582,0.007250,-0.017750,1.003812,192.000000,0.000000,0.000000,0.000000,0.000000,0.000000,0.000000,0.000000,0.000000,0.000000,1775739313.933441,0.000000
54.000000,16763.048382,18745.826929,-13338.023524,-395.178842,-13841.563623,-3979.571638,1369.178458,-586.241554,11371.606454,15723.133471,-1490.950762,2572.328159,-17756.762237,16224.416044,2306.700028,206.127787,0.007250,-0.017750,1.003812,192.000000,0.000000,0.000000,0.000000,0.000000,0.000000,0.000000,0.000000,0.000000,0.000000,1775739313.933452,0.000000
56.000000,16758.198054,18744.105845,-13353.982670,-402.353752,-13850.303155,-3980.108080,1367.815002,-596.210432,11392.281817,15702.145183,-1533.217911,2557.799525,-17778.666947,16208.725120,2510.145606,565.543838,0.007250,-0.017750,1.003812,192.000000,0.000000,0.000000,0.000000,0.000000,0.000000,0.000000,0.000000,0.000000,0.000000,1775739313.933464,0.000000
58.000000,16781.130943,18764.244767,-13318.398692,-380.046711,-13820.173004,-3965.534743,1380.667255,-574.015149,11392.527687,15725.793329,-1506.999315,2573.512801,-17790.200447,16222.873774,2364.501639,302.195585,0.007250,-0.017750,1.003812,192.000000,0.000000,0.000000,0.000000,0.000000,0.000000,0.000000,0.000000,0.000000,0.000000,1775739313.933476,0.000000
60.000000,16760.813208,18753.404171,-13366.901978,-407.338191,-13850.169045,-3980.152783,1360.215409,-605.508757,11383.832858,15720.853593,-1518.868091,2559.788830,-17765.837045,16215.609457,2401.784349,367.775603,0.006625,-0.017875,1.000906,192.000000,0.000000,24.000000,127.500000,56.000000,15.500000,24.000000,0.000000,0.000000,0.000000,1775739313.933488,0.000000
62.000000,16788.350557,18768.201026,-13333.083789,-382.527755,-13827.079693,-3969.334539,1378.543839,-579.558382,11427.374056,15729.056684,-1526.557091,2564.840325,-17804.907895,16216.503527,2475.545105,498.935640,0.006625,-0.017875,1.000906,192.000000,0.000000,0.000000,0.000000,0.000000,0.000000,0.000000,0.000000,0.000000,0.000000,1775739313.933499,0.000000
64.000000,16761.260243,18754.767627,-13342.516225,-388.652133,-13837.227385,-3973.268446,1372.218296,-581.860612,11376.166210,15727.760282,-1490.883707,2577.200839,-17758.483321,16226.472405,2299.480414,196.695351,0.006625,-0.017875,1.000906,192.000000,0.000000,0.000000,0.000000,0.000000,0.000000,0.000000,0.000000,0.000000,0.000000,1775739313.933510,0.000000
66.000000,16780.974481,18766.792866,-13354.385001,-393.323647,-13850.750190,-3978.454051,1370.586618,-588.543783,11399.344969,15713.499870,-1522.801998,2570.137688,-17813.088633,16211.608495,2501.540184,555.776126,0.006625,-0.017875,1.000906,192.000000,0.000000,0.000000,0.000000,0.000000,0.000000,0.000000,0.000000,0.000000,0.000000,1775739313.933521,0.000000
68.000000,16822.436967,18801.169849,-13312.609591,-366.076871,-13816.753187,-3963.903065,1386.881040,-556.759603,11409.112681,15742.959469,-1493.945896,2583.548735,-17782.220874,16228.662876,2356.365604,293.567812,0.006625,-0.017875,1.000906,192.000000,0.000000,0.000000,0.000000,0.000000,0.000000,0.000000,0.000000,0.000000,0.000000,1775739313.933540,0.000000
70.000000,16827.957848,18803.270913,-13347.746533,-391.244935,-13839.663725,-3963.612493,1373.715862,-576.183269,11410.096158,15750.447303,-1486.189841,2587.929677,-17755.756409,16232.865004,2389.133261,347.659033,0.008313,-0.018938,1.002453,192.000000,0.000000,40.000000,127.500000,48.000000,15.500000,48.000000,0.000000,0.000000,0.000000,1775739313.933551,0.000000
72.000000,16836.496214,18810.669340,-13331.474463,-375.352845,-13843.619984,-3973.491964,1381.315456,-569.611856,11455.850179,15762.137265,-1499.846756,2587.035607,-17785.260711,16223.767844,2468.727823,487.759768,0.008313,-0.018938,1.002453,192.000000,0.000000,0.000000,0.000000,0.000000,0.000000,0.000000,0.000000,0.000000,0.000000,1775739313.933562,0.000000
74.000000,16812.848069,18809.216477,-13347.679478,-385.500537,-13857.254548,-3979.705749,1369.558438,-580.944190,11397.534477,15736.321001,-1489.453195,2578.318426,-17771.000298,16223.387864,2289.109205,214.174415,0.008313,-0.018938,1.002453,192.000000,0.000000,0.000000,0.000000,0.000000,0.000000,0.000000,0.000000,0.000000,0.000000,1775739313.933573,0.000000
76.000000,16817.854860,18808.925904,-13368.310138,-398.129272,-13874.823019,-3979.146955,1362.472935,-595.562231,11429.497472,15730.800120,-1526.668850,2568.215438,-17817.335465,16211.273219,2483.859954,574.864516,0.008313,-0.018938,1.002453,192.000000,0.000000,0.000000,0.000000,0.000000,0.000000,0.000000,0.000000,0.000000,0.000000,1775739314.413498,0.000000
78.000000,16837.367932,18819.744148,-13329.328695,-372.178897,-13836.690943,-3960.639711,1378.320322,-565.901466,11420.176795,15751.788408,-1505.010009,2578.430185,-17775.627109,16226.003018,2345.882636,310.935117,0.008313,-0.018938,1.002453,192.000000,0.000000,0.000000,0.000000,0.000000,0.000000,0.000000,0.000000,0.000000,0.000000,1775739314.413609,0.000000
80.000000,16831.154148,18827.567259,-13369.740649,-401.794958,-13868.184551,-3976.621208,1361.601217,-591.650676,11407.056321,15751.855463,-1501.120806,2582.431147,-17786.423002,16227.768806,2381.131337,373.095318,0.007156,-0.017469,1.003227,192.000000,0.000000,24.000000,127.500000,64.000000,15.500000,48.000000,0.000000,0.000000,0.000000,1775739314.413688,0.000000
82.000000,16852.388305,18840.754788,-13342.225652,-385.254667,-13846.324545,-3975.145993,1373.849973,-573.188135,11435.018353,15757.666917,-1517.281117,2577.111432,-17813.021578,16220.750358,2475.858030,504.478872,0.007156,-0.017469,1.003227,192.000000,0.000000,0.000000,0.000000,0.000000,0.000000,0.000000,0.000000,0.000000,0.000000,1775739314.413759,0.000000
84.000000,16858.020944,18836.709122,-13346.584242,-385.232316,-13853.521806,-3978.968141,1370.765432,-566.259094,11409.671475,15767.032297,-1481.719492,2591.215383,-17768.541606,16230.652181,2307.147063,199.735188,0.007156,-0.017469,1.003227,192.000000,0.000000,0.000000,0.000000,0.000000,0.000000,0.000000,0.000000,0.000000,0.000000,1775739314.413846,0.000000
86.000000,16863.877101,18862.145407,-13359.548254,-391.066121,-13859.802647,-3980.868039,1372.195944,-568.136641,11441.187434,15759.723277,-1511.357905,2593.808185,-17811.524011,16221.599724,2501.629591,556.960768,0.007156,-0.017469,1.003227,192.000000,0.000000,0.000000,0.000000,0.000000,0.000000,0.000000,0.000000,0.000000,0.000000,1775739314.413917,0.000000
88.000000,16896.085965,18877.702222,-13317.526974,-364.176972,-13825.068036,-3965.959426,1389.831470,-538.855855,11447.311812,15788.758193,-1476.019797,2611.600174,-17768.675717,16233.423797,2360.657139,308.856405,0.007156,-0.017469,1.003227,192.000000,0.000000,0.000000,0.000000,0.000000,0.000000,0.000000,0.000000,0.000000,0.000000,1775739314.413987,0.000000
90.000000,16862.692459,18864.693506,-13359.257681,-392.317819,-13854.795856,-3982.767938,1370.363101,-568.941303,11431.330315,15774.095449,-1480.959532,2604.492319,-17759.600909,16228.662876,2394.877660,365.607484,0.007156,-0.017469,1.003227,192.000000,0.000000,0.000000,0.000000,0.000000,0.000000,0.000000,0.000000,0.000000,0.000000,1775739314.414058,0.000000
92.000000,16889.223980,18876.227006,-13328.859309,-372.089490,-13832.533518,-3966.853495,1384.623514,-547.885960,11463.583882,15781.896208,-1494.996428,2603.553546,-17811.434604,16228.618172,2472.259399,509.060980,0.010000,-0.022000,1.000000,192.000000,0.000000,40.000000,127.500000,40.000000,15.500000,32.000000,0.000000,0.000000,0.000000,1775739314.414073,0.000000
94.000000,16885.759459,18884.228931,-13329.753379,-376.492784,-13845.341068,-3970.765051,1382.567153,-546.053117,11430.078617,15783.483181,-1459.121878,2618.305697,-17769.033345,16234.876661,2297.401702,207.021857,0.010000,-0.022000,1.000000,192.000000,0.000000,0.000000,0.000000,0.000000,0.000000,0.000000,0.000000,0.000000,0.000000,1775739314.414085,0.000000
96.000000,16885.088907,18879.624472,-13344.371419,-386.752234,-13856.449885,-3975.660083,1379.035578,-555.351443,11459.717030,15775.593016,-1487.374483,2606.213403,-17799.655235,16230.339257,2497.069835,560.939379,0.010000,-0.022000,1.000000,192.000000,0.000000,0.000000,0.000000,0.000000,0.000000,0.000000,0.000000,0.000000,0.000000,1775739314.414097,0.000000
98.000000,16908.290018,18890.018033,-13309.055663,-365.607484,-13827.504376,-3963.299568,1391.105520,-534.966652,11462.108667,15782.924388,-1462.273474,2613.321258,-17765.635880,16237.357704,2355.896217,308.252908,0.010000,-0.022000,1.000000,192.000000,0.000000,0.000000,0.000000,0.000000,0.000000,0.000000,0.000000,0.000000,0.000000,1775739314.414109,0.000000
100.000000,16886.139439,18866.816922,-13351.658088,-395.447063,-13863.781257,-3980.555115,1371.793612,-563.643940,11438.639335,15771.189722,-1470.498916,2607.107473,-17768.429848,16228.193489,2383.724139,358.879609,0.010000,-0.022000,1.000000,192.000000,0.000000,0.000000,0.000000,0.000000,0.000000,0.000000,0.000000,0.000000,0.000000,1775739314.414121,0.000000
102.000000,16911.419262,18891.605007,-13322.623172,-374.078795,-13836.176853,-3964.618321,1388.266848,-543.639129,11472.055193,15775.347146,-1480.065463,2607.643915,-17781.036232,16228.685227,2462.290521,495.068788,0.004000,-0.014000,1.002000,192.000000,0.000000,16.000000,127.500000,72.000000,15.500000,40.000000,0.000000,0.000000,0.000000,1775739314.414133,0.000000
104.000000,16897.516477,18867.934509,-13338.582318,-382.840679,-13852.001888,-3977.068243,1377.001569,-559.844143,11433.789007,15777.381155,-1463.391061,2609.655572,-17761.098476,16233.647315,2288.639818,191.442691,0.004000,-0.014000,1.002000,192.000000,0.000000,0.000000,0.000000,0.000000,0.000000,0.000000,0.000000,0.000000,0.000000,1775739314.414145,0.000000
106.000000,16871.811971,18874.237701,-13356.284899,-388.875650,-13867.402240,-3974.989530,1373.447642,-570.036539,11449.256414,15756.214053,-1503.266573,2591.796528,-17799.409366,16214.648332,2486.698626,559.799440,0.004000,-0.014000,1.002000,192.000000,0.000000,0.000000,0.000000,0.000000,0.000000,0.000000,0.000000,0.000000,0.000000,1775739314.414157,0.000000
108.000000,16901.606846,18886.039422,-13317.929306,-363.305254,-13834.411065,-3960.840876,1387.976275,-541.448658,11449.725801,15784.667824,-1468.956646,2614.215328,-17768.273386,16239.548175,2343.446296,304.900146,0.004000,-0.014000,1.002000,192.000000,0.000000,0.000000,0.000000,0.000000,0.000000,0.000000,0.000000,0.000000,0.000000,1775739314.414170,0.000000
110.000000,16854.154093,18851.953012,-13367.393716,-398.442197,-13874.934778,-3990.367531,1363.523467,-580.184231,11415.617039,15760.349126,-1486.391006,2597.138595,-17793.888485,16221.286800,2378.739700,359.416051,0.004000,-0.014000,1.002000,192.000000,0.000000,0.000000,0.000000,0.000000,0.000000,0.000000,0.000000,0.000000,0.000000,1775739314.414182,0.000000
112.000000,16878.226921,18864.715858,-13338.716428,-380.426691,-13856.136961,-3980.510411,1379.572020,-558.011300,11448.138827,15766.495856,-1502.283097,2593.539964,-17806.181944,16218.425777,2462.178762,506.624640,0.002000,-0.008000,1.004000,192.000000,0.000000,8.000000,127.500000,96.000000,15.500000,48.000000,0.000000,0.000000,0.000000,1775739314.414195,0.000000
114.000000,16879.255102,18867.442771,-13340.057533,-385.858165,-13856.807513,-3986.187754,1376.286313,-557.050175,11414.164175,15777.112934,-1471.527096,2602.413607,-17777.169380,16226.382998,2293.624257,195.175433,0.002000,-0.008000,1.004000,192.000000,0.000000,0.000000,0.000000,0.000000,0.000000,0.000000,0.000000,0.000000,0.000000,1775739314.414207,0.000000
116.000000,16887.189971,18879.669175,-13355.949623,-395.067083,-13873.906597,-3979.191658,1374.028787,-564.806231,11442.439132,15770.116838,-1500.986695,2597.451520,-17813.490965,16219.610419,2491.638361,551.551646,0.002000,-0.008000,1.004000,192.000000,0.000000,0.000000,0.000000,0.000000,0.000000,0.000000,0.000000,0.000000,0.000000,1775739314.414220,0.000000
118.000000,16909.049977,18897.461164,-13319.382169,-370.949551,-13839.842539,-3964.953597,1387.193964,-537.537102,11440.539234,15795.351958,-1475.617465,2614.058866,-17765.837045,16235.770730,2351.179999,305.146015,0.002000,-0.008000,1.004000,192.000000,0.000000,0.000000,0.000000,0.000000,0.000000,0.000000,0.000000,0.000000,0.000000,1775739314.414232,0.000000
120.000000,16879.053936,18874.662384,-13363.392754,-402.130234,-13876.946435,-3985.673664,1368.843182,-567.063757,11424.848309,15781.963263,-1478.679654,2607.688619,-17786.981796,16227.701751,2377.689168,353.470487,0.002000,-0.008000,1.004000,192.000000,0.000000,0.000000,0.000000,0.000000,0.000000,0.000000,0.000000,0.000000,0.000000,1775739314.414244,0.000000
122.000000,16897.292959,18885.480629,-13336.168329,-381.656037,-13853.722972,-3977.269408,1382.835374,-546.567207,11459.202940,15779.504571,-1493.007123,2606.861604,-17796.123659,16222.896126,2459.407146,499.025047,0.006000,-0.010000,1.002000,192.000000,0.000000,24.000000,127.500000,88.000000,15.500000,40.000000,0.000000,0.000000,0.000000,1775739314.414256,0.000000
124.000000,16904.043186,18886.240588,-13342.762094,-386.886345,-13862.306042,-3983.349083,1376.286313,-551.931626,11423.104873,15786.724184,-1462.765212,2615.064694,-17774.062487,16230.205146,2283.007179,189.967476,0.006000,-0.010000,1.002000,192.000000,0.000000,0.000000,0.000000,0.000000,0.000000,0.000000,0.000000,0.000000,0.000000,1775739314.414268,0.000000
126.000000,16878.808067,18882.552550,-13359.861178,-396.698761,-13871.224388,-3985.159574,1371.480688,-567.153164,11459.135885,15770.228597,-1499.846756,2599.820805,-17810.138203,16219.230440,2483.502326,545.851951,0.006000,-0.010000,1.002000,192.000000,0.000000,0.000000,0.000000,0.000000,0.000000,0.000000,0.000000,0.000000,0.000000,1775739314.414280,0.000000
128.000000,16905.987788,18898.802268,-13320.343294,-371.553048,-13839.797835,-3971.167382,1386.232839,-538.364117,11447.535330,15787.171219,-1476.980922,2610.192014,-17778.398726,16227.634695,2349.101287,300.854480,0.006000,-0.010000,1.002000,192.000000,0.000000,0.000000,0.000000,0.000000,0.000000,0.000000,0.000000,0.000000,0.000000,1775739314.414303,0.000000
130.000000,16879.657433,18881.390259,-13364.823266,-401.347923,-13877.594635,-3990.345179,1366.339787,-570.550629,11432.805530,15775.905940,-1477.629122,2606.258107,-17778.935168,16222.136166,2371.900066,343.836885,0.006000,-0.010000,1.002000,192.000000,0.000000,0.000000,0.000000,0.000000,0.000000,0.000000,0.000000,0.000000,0.000000,1775739314.414315,0.000000
132.000000,16902.031529,18897.014129,-13332.547347,-377.811537,-13849.967879,-3970.228609,1383.930610,-545.449620,11465.908464,15783.393774,-1491.777777,2603.888822,-17800.191677,16221.689131,2449.773544,496.789872,0.006000,-0.012000,1.010000,192.000000,0.000000,24.000000,127.500000,80.000000,15.500000,72.000000,0.000000,0.000000,0.000000,1775739314.414328,0.000000
134.000000,16888.486372,18873.164817,-13342.225652,-390.641438,-13855.622870,-3985.114871,1372.866496,-558.637149,11435.465388,15783.594940,-1463.189896,2610.102607,-17757.455141,16229.020504,2280.257914,189.185165,0.006000,-0.012000,1.010000,192.000000,0.000000,0.000000,0.000000,0.000000,0.000000,0.000000,0.000000,0.000000,0.000000,1775739314.414340,0.000000
136.000000,16896.309483,18882.396088,-13359.123571,-402.264345,-13869.078621,-3991.641580,1368.351444,-570.237705,11452.273900,15764.730068,-1504.026533,2589.561354,-17807.254828,16208.948637,2490.118443,547.461277,0.006000,-0.012000,1.010000,192.000000,0.000000,0.000000,0.000000,0.000000,0.000000,0.000000,0.000000,0.000000,0.000000,1775739314.414352,0.000000
138.000000,16901.696253,18889.213370,-13319.538631,-374.324664,-13841.362457,-3970.206257,1387.439834,-539.168780,11455.291385,15780.532751,-1479.931352,2599.351418,-17782.153819,16221.376207,2356.723232,305.973030,0.006000,-0.012000,1.010000,192.000000,0.000000,0.000000,0.000000,0.000000,0.000000,0.000000,0.000000,0.000000,0.000000,1775739314.414365,0.000000
140.000000,16874.158904,18872.762486,-13363.213940,-405.147720,-13883.048461,-3986.299513,1368.776127,-567.197867,11435.040705,15771.279129,-1475.773928,2598.256182,-17784.299586,16220.258620,2362.780555,352.688176,0.006000,-0.012000,1.010000,192.000000,0.000000,0.000000,0.000000,0.000000,0.000000,0.000000,0.000000,0.000000,0.000000,1775739314.414377,0.000000
142.000000,16889.983939,18882.574902,-13328.032294,-386.662827,-13853.320641,-3979.929266,1384.601162,-548.690623,11460.521693,15772.754344,-1490.950762,2597.026837,-17802.560962,16213.866021,2474.002835,493.571221,0.006000,-0.020000,1.012000,192.000000,0.000000,24.000000,127.500000,48.000000,15.500000,80.000000,0.000000,0.000000,0.000000,1775739314.414389,0.000000
144.000000,16884.820686,18878.953919,-13335.520129,-390.797900,-13860.272033,-3990.367531,1377.985046,-554.032690,11422.769597,15778.811667,-1464.151021,2605.229927,-17746.458083,16224.863079,2301.626182,186.905287,0.006000,-0.020000,1.012000,192.000000,0.000000,0.000000,0.000000,0.000000,0.000000,0.000000,0.000000,0.000000,0.000000,1775739314.414401,0.000000
146.000000,16888.262855,18877.076373,-13352.574510,-398.710418,-13868.497475,-3994.614362,1374.565229,-566.683777,11443.802588,15768.328699,-1501.701951,2593.405854,-17804.639674,16210.088576,2501.920164,542.052155,0.006000,-0.020000,1.012000,192.000000,0.000000,0.000000,0.000000,0.000000,0.000000,0.000000,0.000000,0.000000,0.000000,1775739314.414413,0.000000
148.000000,16896.711814,18891.716765,-13316.141166,-373.408243,-13840.781312,-3983.438490,1389.272677,-540.778105,11443.042629,15784.824286,-1475.840983,2605.319334,-17798.381185,16224.304286,2367.250904,301.994419,0.006000,-0.020000,1.012000,192.000000,0.000000,0.000000,0.000000,0.000000,0.000000,0.000000,0.000000,0.000000,0.000000,1775739314.414426,0.000000
150.000000,16868.436857,18868.895634,-13361.626966,-402.443159,-13874.979481,-3989.406406,1368.820830,-570.237705,11418.433358,15767.345222,-1479.998407,2595.819842,-17792.636787,16217.777576,2383.344160,336.818437,0.006000,-0.020000,1.012000,192.000000,0.000000,0.000000,0.000000,0.000000,0.000000,0.000000,0.000000,0.000000,0.000000,1775739314.414437,0.000000
152.000000,16895.258951,18884.273634,-13332.279126,-378.012702,-13852.650088,-3973.134336,1386.344598,-548.131829,11457.235987,15779.459867,-1496.069312,2599.463177,-17800.415194,16220.817413,2468.884286,498.510957,0.002000,-0.018000,1.008000,192.000000,0.000000,8.000000,127.500000,56.000000,15.500000,64.000000,0.000000,0.000000,0.000000,1775739314.414449,0.000000
154.000000,16889.894532,18877.858684,-13335.587184,-383.734749,-13852.895958,-3976.397690,1379.549668,-552.691585,11424.982420,15786.657129,-1464.262779,2607.912136,-17771.290871,16230.428664,2290.584420,188.469909,0.002000,-0.018000,1.008000,192.000000,0.000000,0.000000,0.000000,0.000000,0.000000,0.000000,0.000000,0.000000,0.000000,1775739314.414461,0.000000
156.000000,16881.780849,18882.418440,-13351.792199,-394.016551,-13861.903711,-3976.241228,1375.101671,-564.135678,11453.056211,15770.586225,-1499.019742,2592.355322,-17807.657159,16219.811585,2493.024170,541.649823,0.002000,-0.018000,1.008000,192.000000,0.000000,0.000000,0.000000,0.000000,0.000000,0.000000,0.000000,0.000000,0.000000,1775739314.414473,0.000000
158.000000,16903.462041,18889.794515,-13314.598896,-370.703682,-13835.662763,-3965.780612,1388.266848,-539.146428,11451.178664,15791.820382,-1472.644683,2603.821767,-17777.884636,16229.378132,2362.311168,304.430759,0.002000,-0.018000,1.008000,192.000000,0.000000,0.000000,0.000000,0.000000,0.000000,0.000000,0.000000,0.000000,0.000000,1775739314.414486,0.000000
160.000000,16882.809029,18883.066640,-13354.116780,-395.827043,-13866.999908,-3979.057548,1372.777089,-563.733347,11427.821091,15772.664937,-1475.863335,2598.725569,-17779.359851,16222.337332,2379.566715,340.908806,0.002000,-0.018000,1.008000,192.000000,0.000000,0.000000,0.000000,0.000000,0.000000,0.000000,0.000000,0.000000,0.000000,1775739314.414497,0.000000
162.000000,16906.457175,18895.069527,-13323.986629,-372.335359,-13843.865853,-3962.360795,1390.390264,-542.096858,11470.468220,15788.020586,-1485.519288,2604.313505,-17783.271406,16230.674533,2475.656864,505.395294,0.003000,-0.015000,1.003000,192.000000,0.000000,16.000000,127.500000,80.000000,15.500000,24.000000,0.000000,0.000000,0.000000,1775739314.414509,0.000000
164.000000,16890.028642,18886.754678,-13332.077960,-381.924258,-13845.005792,-3970.876809,1380.622552,-552.535123,11435.152463,15790.658091,-1458.741898,2610.147311,-17761.791380,16238.005905,2299.145138,192.090892,0.003000,-0.015000,1.003000,192.000000,0.000000,0.000000,0.000000,0.000000,0.000000,0.000000,0.000000,0.000000,0.000000,1775739314.414521,0.000000
166.000000,16889.805125,18885.212408,-13351.769847,-390.462624,-13861.993118,-3974.050757,1377.269790,-562.772222,11453.883225,15775.436553,-1497.678637,2596.780967,-17802.963293,16222.516146,2497.405111,549.696451,0.003000,-0.015000,1.003000,192.000000,0.000000,0.000000,0.000000,0.000000,0.000000,0.000000,0.000000,0.000000,0.000000,1775739314.414533,0.000000
168.000000,16905.585457,18893.102574,-13316.699960,-367.641493,-13833.315829,-3962.852533,1390.613781,-540.420477,11450.217539,15796.335434,-1473.248181,2609.901441,-17772.900197,16233.535556,2365.820392,314.287879,0.003000,-0.015000,1.003000,192.000000,0.000000,0.000000,0.000000,0.000000,0.000000,0.000000,0.000000,0.000000,0.000000,1775739314.414545,0.000000
170.000000,16888.598131,18878.730402,-13359.168274,-398.531604,-13864.809437,-3976.800022,1370.206639,-572.539934,11432.827882,15781.225655,-1481.853602,2597.920906,-17783.338461,16227.321771,2378.270314,342.562836,0.003000,-0.015000,1.003000,192.000000,0.000000,0.000000,0.000000,0.000000,0.000000,0.000000,0.000000,0.000000,0.000000,1775739314.414557,0.000000
172.000000,16896.734166,18894.868361,-13331.809739,-378.705606,-13837.696771,-3965.512391,1383.528278,-556.603140,11464.410897,15786.813591,-1499.399722,2595.015180,-17801.577485,16226.897088,2475.209829,509.418608,0.002500,-0.016500,1.004500,192.000000,0.000000,8.000000,127.500000,56.000000,15.500000,56.000000,0.000000,0.000000,0.000000,1775739314.414575,0.000000
174.000000,16896.667111,18891.605007,-13334.447245,-382.170127,-13846.436303,-3967.233475,1378.230915,-557.944245,11429.117492,15792.714452,-1468.643721,2601.251316,-17765.479418,16239.056437,2299.614525,198.036456,0.002500,-0.016500,1.004500,192.000000,0.000000,0.000000,0.000000,0.000000,0.000000,0.000000,0.000000,0.000000,0.000000,1775739314.414587,0.000000
176.000000,16892.241465,18893.728422,-13354.429704,-390.306162,-13855.600519,-3964.953597,1373.648807,-568.918952,11457.034821,15780.063365,-1502.081931,2592.087101,-17805.511392,16229.042855,2494.298219,551.283425,0.002500,-0.016500,1.004500,192.000000,0.000000,0.000000,0.000000,0.000000,0.000000,0.000000,0.000000,0.000000,0.000000,1775739314.414599,0.000000
178.000000,16904.110241,18895.896542,-13318.063416,-366.725071,-13832.578222,-3963.254865,1387.193964,-545.740193,11457.437153,15799.755251,-1475.416300,2608.202709,-17768.988641,16243.616193,2364.322825,317.260661,0.002500,-0.016500,1.004500,192.000000,0.000000,0.000000,0.000000,0.000000,0.000000,0.000000,0.000000,0.000000,0.000000,1775739314.414612,0.000000
180.000000,16873.778924,18871.577844,-13365.158542,-399.604487,-13872.297272,-3981.963275,1366.406842,-582.218240,11419.260373,15776.420030,-1486.055730,2593.629371,-17769.994470,16226.271239,2375.275180,350.944740,0.002500,-0.016500,1.004500,192.000000,0.000000,0.000000,0.000000,0.000000,0.000000,0.000000,0.000000,0.000000,0.000000,1775739314.414625,0.000000
182.000000,16900.176334,18889.570998,-13335.922460,-378.683255,-13849.364382,-3967.389937,1380.846069,-561.319359,11453.615004,15781.762097,-1505.188823,2592.310618,-17800.370491,16223.007884,2476.394472,516.794684,0.007250,-0.018250,1.006250,192.000000,0.000000,48.000000,127.500000,48.000000,15.500000,64.000000,0.000000,0.000000,0.000000,1775739314.414637,0.000000
184.000000,16885.647701,18885.078297,-13337.040047,-382.661865,-13845.698696,-3965.892370,1377.046272,-561.542876,11422.836652,15793.452059,-1471.683558,2602.368903,-17771.357926,16237.849443,2301.626182,204.540814,0.007250,-0.018250,1.006250,192.000000,0.000000,0.000000,0.000000,0.000000,0.000000,0.000000,0.000000,0.000000,0.000000,1775739314.414649,0.000000
186.000000,16883.367823,18877.255187,-13359.570606,-396.117615,-13864.071830,-3974.363682,1370.094880,-576.652655,11446.596556,15772.396716,-1508.742751,2587.795566,-17814.452090,16223.991361,2498.679161,550.948149,0.007250,-0.018250,1.006250,192.000000,0.000000,0.000000,0.000000,0.000000,0.000000,0.000000,0.000000,0.000000,0.000000,1775739314.414661,0.000000
188.000000,16911.776890,18890.018033,-13320.008018,-370.569571,-13833.338181,-3958.829219,1385.472880,-548.556512,11448.630565,15789.674615,-1483.328817,2602.860642,-17776.677641,16236.262469,2369.866058,326.380173,0.007250,-0.018250,1.006250,192.000000,0.000000,0.000000,0.000000,0.000000,0.000000,0.000000,0.000000,0.000000,0.000000,1775739314.414674,0.000000
190.000000,16882.876084,18877.434001,-13362.275167,-399.693894,-13863.758905,-3976.598856,1366.786822,-577.502021,11431.285612,15774.721298,-1486.078082,2597.473871,-17775.627109,16229.579297,2380.304322,346.876722,0.007250,-0.018250,1.006250,192.000000,0.000000,0.000000,0.000000,0.000000,0.000000,0.000000,0.000000,0.000000,0.000000,1775739314.414686,0.000000
192.000000,16895.393061,18892.677890,-13334.648411,-378.616199,-13844.067019,-3962.651368,1382.835374,-557.385451,11464.813228,15781.046841,-1499.042094,2596.803319,-17793.061470,16229.065207,2477.310893,515.565338,0.007625,-0.017125,1.003125,192.000000,0.000000,32.000000,127.500000,64.000000,15.500000,32.000000,0.000000,0.000000,0.000000,1775739314.414697,0.000000
194.000000,16878.092811,18874.260053,-13341.778617,-386.305199,-13853.454751,-3971.882638,1375.347540,-564.046271,11415.885260,15783.617292,-1473.315236,2600.513709,-17777.951691,16234.116701,2297.178185,198.572898,0.007625,-0.017125,1.003125,192.000000,0.000000,0.000000,0.000000,0.000000,0.000000,0.000000,0.000000,0.000000,0.000000,1775739314.414709,0.000000
196.000000,16867.431029,18873.455390,-13364.666803,-400.230336,-13873.616025,-3979.884562,1367.189153,-581.368873,11432.939641,15763.925405,-1512.609603,2583.638142,-17823.728064,16214.693035,2487.257419,544.510847,0.007625,-0.017125,1.003125,192.000000,0.000000,0.000000,0.000000,0.000000,0.000000,0.000000,0.000000,0.000000,0.000000,1775739314.893931,0.000000
198.000000,16878.539846,18870.393201,-13328.591088,-378.750310,-13846.548062,-3969.938036,1380.756662,-559.955902,11426.658800,15778.051708,-1491.308390,2592.422377,-17794.670796,16225.958315,2363.160534,319.764056,0.007625,-0.017125,1.003125,192.000000,0.000000,0.000000,0.000000,0.000000,0.000000,0.000000,0.000000,0.000000,0.000000,1775739314.893994,0.000000
200.000000,16859.786732,18859.664364,-13367.863103,-404.276002,-13875.337109,-3982.991455,1364.685758,-583.715806,11402.742434,15760.751457,-1495.130538,2584.621618,-17794.156706,16219.632771,2371.855363,336.237292,0.007625,-0.017125,1.003125,192.000000,0.000000,0.000000,0.000000,0.000000,0.000000,0.000000,0.000000,0.000000,0.000000,1775739314.894041,0.000000
202.000000,16871.901378,18867.442771,-13344.170254,-384.025321,-13857.835693,-3969.468650,1377.806232,-564.895638,11439.443998,15769.267472,-1510.419132,2588.175546,-17820.040026,16222.225573,2469.443079,508.524538,0.006812,-0.016563,1.003563,192.000000,0.000000,24.000000,127.500000,64.000000,15.500000,48.000000,0.000000,0.000000,0.000000,1775739314.894084,0.000000
204.000000,16859.272642,18855.462236,-13344.147902,-386.305199,-13855.555815,-3969.781574,1375.794575,-564.202734,11400.060225,15775.525960,-1481.630085,2596.713912,-17773.347232,16232.552079,2291.120862,200.539851,0.006812,-0.016563,1.003563,192.000000,0.000000,0.000000,0.000000,0.000000,0.000000,0.000000,0.000000,0.000000,0.000000,1775739314.894128,0.000000
206.000000,16850.086075,18855.596346,-13359.168274,-394.061255,-13862.976594,-3962.696071,1373.358235,-572.919914,11426.032952,15763.031335,-1512.967230,2589.114319,-17814.541497,16225.935963,2488.598524,541.381602,0.006812,-0.016563,1.003563,192.000000,0.000000,0.000000,0.000000,0.000000,0.000000,0.000000,0.000000,0.000000,0.000000,1775739314.894171,0.000000
208.000000,16858.557386,18850.567204,-13327.182928,-372.245952,-13842.457693,-3958.449240,1382.656560,-554.390318,11424.825957,15779.772792,-1490.950762,2600.558412,-17789.172267,16238.251774,2362.892313,323.519149,0.006812,-0.016563,1.003563,192.000000,0.000000,0.000000,0.000000,0.000000,0.000000,0.000000,0.000000,0.000000,0.000000,1775739314.894197,0.000000
210.000000,16819.106557,18829.981247,-13368.466600,-399.850357,-13871.604368,-3975.436565,1364.015205,-585.548649,11395.589876,15759.097428,-1496.516347,2591.751825,-17790.982758,16231.769768,2368.256732,343.836885,0.006812,-0.016563,1.003563,192.000000,0.000000,0.000000,0.000000,0.000000,0.000000,0.000000,0.000000,0.000000,0.000000,1775739314.894210,0.000000
212.000000,16829.477767,18819.140651,-13341.510396,-382.192478,-13852.068943,-3967.166420,1377.180383,-570.505925,11424.021295,15762.092562,-1516.096475,2586.454461,-17811.747529,16229.646352,2465.777393,519.789817,0.006406,-0.017281,1.003781,192.000000,0.000000,24.000000,127.500000,56.000000,15.500000,48.000000,0.000000,0.000000,0.000000,1775739314.894232,0.000000
214.000000,16809.919990,18800.991035,-13343.678515,-387.936877,-13852.337164,-3973.402557,1372.866496,-571.399995,11382.178829,15760.483236,-1485.876916,2592.869412,-17772.050830,16239.481120,2296.418225,203.177357,0.006406,-0.017281,1.003781,192.000000,0.000000,0.000000,0.000000,0.000000,0.000000,0.000000,0.000000,0.000000,0.000000,1775739314.894244,0.000000
216.000000,16776.548836,18782.528494,-13365.784391,-401.549089,-13866.642280,-3963.277216,1366.183325,-590.823661,11399.434376,15735.851614,-1526.959422,2576.574990,-17805.109060,16223.387864,2487.145661,545.337861,0.006406,-0.017281,1.003781,192.000000,0.000000,0.000000,0.000000,0.000000,0.000000,0.000000,0.000000,0.000000,0.000000,1775739314.894257,0.000000
218.000000,16802.476859,18787.356471,-13328.524033,-376.582191,-13835.349838,-3951.028460,1379.393206,-572.674045,11396.372187,15749.709696,-1509.301544,2582.542906,-17774.643633,16238.028257,2367.206200,327.743629,0.006406,-0.017281,1.003781,192.000000,0.000000,0.000000,0.000000,0.000000,0.000000,0.000000,0.000000,0.000000,0.000000,1775739314.894278,0.000000
220.000000,16748.631507,18750.431389,-13371.238216,-408.142854,-13868.206903,-3973.402557,1357.689662,-608.794464,11369.907721,15728.855518,-1517.415228,2567.656644,-17797.755336,16226.673570,2373.285875,341.489952,0.006406,-0.017281,1.003781,192.000000,0.000000,0.000000,0.000000,0.000000,0.000000,0.000000,0.000000,0.000000,0.000000,1775739314.894291,0.000000
222.000000,16760.701449,18762.098999,-13341.577451,-385.679351,-13842.703562,-3957.890446,1373.917028,-586.777995,11403.323579,15728.810814,-1531.787399,2565.779098,-17822.319904,16227.813509,2475.746271,518.426361,0.007203,-0.013641,1.002891,192.000000,0.000000,32.000000,127.500000,88.000000,15.500000,40.000000,0.000000,0.000000,0.000000,1775739314.894305,0.000000
224.000000,16757.572205,18750.811368,-13345.064324,-393.055426,-13842.457693,-3966.764088,1368.709072,-589.124929,11370.310053,15728.967277,-1499.757349,2575.300941,-17776.387069,16236.217765,2299.636877,203.266764,0.007203,-0.013641,1.002891,192.000000,0.000000,0.000000,0.000000,0.000000,0.000000,0.000000,0.000000,0.000000,0.000000,1775739314.894317,0.000000
226.000000,16745.994001,18739.903717,-13365.627928,-403.337229,-13856.338126,-3970.340368,1366.652711,-600.189042,11389.957236,15708.828355,-1534.447257,2560.973473,-17812.060453,16220.348027,2491.616010,540.465181,0.007203,-0.013641,1.002891,192.000000,0.000000,0.000000,0.000000,0.000000,0.000000,0.000000,0.000000,0.000000,0.000000,1775739314.894329,0.000000
228.000000,16758.063943,18750.699610,-13331.049780,-376.001045,-13825.827995,-3950.290853,1380.510793,-578.709016,11379.228399,15724.273410,-1519.046905,2570.338854,-17773.615452,16232.261507,2369.351967,328.615347,0.007203,-0.013641,1.002891,192.000000,0.000000,0.000000,0.000000,0.000000,0.000000,0.000000,0.000000,0.000000,0.000000,1775739314.894341,0.000000
230.000000,16732.918231,18722.312894,-13370.746478,-404.499519,-13856.449885,-3961.198504,1361.712976,-610.783769,11358.575387,15713.656332,-1521.751466,2563.968606,-17788.613473,16227.835861,2372.950598,338.651280,0.007203,-0.013641,1.002891,192.000000,0.000000,0.000000,0.000000,0.000000,0.000000,0.000000,0.000000,0.000000,0.000000,1775739314.894353,0.000000
232.000000,16741.523652,18730.873612,-13345.198434,-388.272153,-13837.048571,-3952.838952,1374.095842,-594.981086,11393.064129,15715.802099,-1540.571635,2560.057051,-17808.819450,16232.328562,2475.276884,521.086218,0.007203,-0.013641,1.002891,192.000000,0.000000,0.000000,0.000000,0.000000,0.000000,0.000000,0.000000,0.000000,0.000000,1775739314.894366,0.000000
234.000000,16724.536326,18725.084510,-13343.991440,-394.105958,-13837.562661,-3963.880713,1370.586618,-592.723559,11353.590948,15720.205393,-1508.049847,2563.029833,-17778.577540,16235.815434,2297.200536,208.362962,0.008000,-0.014000,0.998000,192.000000,0.000000,32.000000,127.500000,72.000000,15.500000,24.000000,0.000000,0.000000,0.000000,1775739314.894378,0.000000
236.000000,16711.035873,18711.740519,-13366.611405,-404.611278,-13851.197225,-3963.791306,1365.333958,-606.671048,11373.238131,15699.932361,-1538.716440,2552.412755,-17819.905915,16219.766881,2490.744292,543.639129,0.008000,-0.014000,0.998000,192.000000,0.000000,0.000000,0.000000,0.000000,0.000000,0.000000,0.000000,0.000000,0.000000,1775739314.894391,0.000000
238.000000,16746.865719,18729.510156,-13334.223727,-377.520964,-13827.951411,-3945.306414,1377.560363,-586.576830,11382.648216,15714.282181,-1522.220853,2563.745089,-17788.591121,16231.970934,2370.581313,328.123609,0.008000,-0.014000,0.998000,192.000000,0.000000,0.000000,0.000000,0.000000,0.000000,0.000000,0.000000,0.000000,0.000000,1775739314.894403,0.000000
240.000000,16691.813373,18704.610313,-13380.670652,-408.992220,-13860.473199,-3968.194600,1355.432136,-621.378496,11347.757143,15699.977064,-1537.375335,2551.764554,-17779.471610,16225.354818,2367.340310,342.473429,0.008000,-0.014000,0.998000,192.000000,0.000000,0.000000,0.000000,0.000000,0.000000,0.000000,0.000000,0.000000,0.000000,1775739314.894415,0.000000
242.000000,16718.814280,18710.019435,-13353.021545,-388.272153,-13836.646239,-3951.944882,1370.564267,-602.200699,11372.992262,15703.955675,-1552.954501,2550.177580,-17820.799985,16224.974838,2475.008664,522.404971,0.008000,-0.014000,0.998000,192.000000,0.000000,0.000000,0.000000,0.000000,0.000000,0.000000,0.000000,0.000000,0.000000,1775739314.894428,0.000000
244.000000,16705.962027,18715.652074,-13353.535635,-396.631705,-13840.110760,-3960.863228,1364.194019,-605.776978,11342.951517,15715.422120,-1518.935146,2558.201856,-17772.028479,16239.525824,2297.133481,209.324087,0.012000,-0.010000,1.002000,192.000000,0.000000,48.000000,127.500000,88.000000,15.500000,40.000000,0.000000,0.000000,0.000000,1775739314.894442,0.000000
246.000000,16705.246771,18694.529676,-13374.926254,-411.093284,-13861.344917,-3966.540571,1358.069641,-620.596185,11371.204122,15693.651520,-1556.217856,2542.645042,-17831.886450,16218.671646,2486.139832,542.074507,0.012000,-0.010000,1.002000,192.000000,0.000000,0.000000,0.000000,0.000000,0.000000,0.000000,0.000000,0.000000,0.000000,1775739314.894454,0.000000
248.000000,16721.429434,18709.572400,-13337.263565,-382.907734,-13829.560736,-3954.470629,1374.811098,-597.819757,11370.354756,15711.667026,-1533.732001,2553.932673,-17793.128525,16231.926230,2370.380148,333.890359,0.012000,-0.010000,1.002000,192.000000,0.000000,0.000000,0.000000,0.000000,0.000000,0.000000,0.000000,0.000000,0.000000,1775739314.894467,0.000000
250.000000,16698.496544,18700.430536,-13377.206132,-408.656944,-13857.120437,-3963.277216,1356.348557,-623.703077,11340.135198,15705.743814,-1535.274271,2551.161057,-17790.178095,16233.066169,2371.676549,334.136228,0.012000,-0.010000,1.002000,192.000000,0.000000,0.000000,0.000000,0.000000,0.000000,0.000000,0.000000,0.000000,0.000000,1775739314.894480,0.000000
252.000000,16726.279763,18728.459624,-13350.182873,-389.032112,-13835.215728,-3951.475495,1372.933551,-600.144339,11384.816335,15717.791404,-1550.428754,2553.105659,-17808.819450,16235.882489,2478.920219,520.192149,0.012000,-0.010000,1.002000,192.000000,0.000000,0.000000,0.000000,0.000000,0.000000,0.000000,0.000000,0.000000,0.000000,1775739314.894492,0.000000
254.000000,16707.169021,18693.546199,-13352.574510,-395.156490,-13839.440207,-3964.305397,1369.111403,-601.977182,11344.896119,15721.792367,-1520.477417,2561.018176,-17770.016822,16247.393638,2299.838042,203.803206,0.004000,-0.012000,1.000000,192.000000,0.000000,16.000000,127.500000,80.000000,15.500000,32.000000,0.000000,0.000000,0.000000,1775739314.894504,0.000000
0.000000,16688.929998,18693.903827,-13374.367461,-409.461607,-13857.455713,-3960.997338,1362.651749,-617.981031,11355.937881,15699.127698,-1556.955464,2547.003632,-17827.661971,16222.851422,2491.392492,538.498227,0.004000,-0.012000,1.000000,192.000000,0.000000,0.000000,0.000000,0.000000,0.000000,0.000000,0.000000,0.000000,0.000000,1775739314.894516,0.000000
2.000000,16715.081539,18699.938798,-13337.107103,-384.405301,-13830.790082,-3951.743716,1378.543839,-592.544746,11360.832913,15718.529012,-1531.295661,2556.972510,-17783.181999,16235.681323,2377.063319,336.103181,0.004000,-0.012000,1.000000,192.000000,0.000000,0.000000,0.000000,0.000000,0.000000,0.000000,0.000000,0.000000,0.000000,1775739314.894529,0.000000
4.000000,16688.393556,18678.145847,-13382.190571,-414.222528,-13866.195246,-3975.682435,1358.047290,-629.000441,11331.149796,15697.741890,-1537.867074,2546.087211,-17804.282046,16221.867945,2366.714462,328.950623,0.004000,-0.012000,1.000000,192.000000,0.000000,0.000000,0.000000,0.000000,0.000000,0.000000,0.000000,0.000000,0.000000,1775739314.894542,0.000000
6.000000,16700.910533,18696.384871,-13358.073039,-396.810519,-13848.447960,-3965.870019,1371.212467,-611.566080,11368.432506,15701.564038,-1555.703766,2543.919092,-17827.058473,16222.940829,2469.465431,515.945317,0.004000,-0.012000,1.000000,192.000000,0.000000,0.000000,0.000000,0.000000,0.000000,0.000000,0.000000,0.000000,0.000000,1775739314.894554,0.000000
8.000000,16703.570390,18694.864952,-13355.748457,-401.280868,-13844.402295,-3968.753394,1365.535124,-610.403789,11331.775645,15712.047006,-1526.020649,2551.742202,-17782.623205,16230.451015,2292.238449,199.042284,0.002000,-0.014000,0.998000,192.000000,0.000000,8.000000,127.500000,72.000000,15.500000,24.000000,0.000000,0.000000,0.000000,1775739314.894567,0.000000
10.000000,16694.182658,18703.000987,-13374.121591,-410.869767,-13854.952318,-3966.473516,1361.422403,-617.064609,11360.162361,15695.372605,-1555.323786,2544.656699,-17825.717369,16220.683303,2489.649056,535.324280,0.002000,-0.014000,0.998000,192.000000,0.000000,0.000000,0.000000,0.000000,0.000000,0.000000,0.000000,0.000000,0.000000,1775739314.894580,0.000000
12.000000,16723.508146,18721.441176,-13331.921498,-384.025321,-13822.564640,-3941.774838,1377.470956,-589.214336,11362.151666,15722.328809,-1530.490998,2557.955987,-17803.946770,16239.011733,2376.571581,334.538559,0.002000,-0.014000,0.998000,192.000000,0.000000,0.000000,0.000000,0.000000,0.000000,0.000000,0.000000,0.000000,0.000000,1775739314.894592,0.000000
14.000000,16696.753108,18693.926179,-13373.004004,-411.249746,-13853.387696,-3964.931245,1359.343691,-618.785694,11345.521968,15704.492117,-1525.953594,2551.295167,-17789.887522,16232.261507,2372.347101,337.466638,0.002000,-0.014000,0.998000,192.000000,0.000000,0.000000,0.000000,0.000000,0.000000,0.000000,0.000000,0.000000,0.000000,1775739314.894605,0.000000
16.000000,16707.303131,18692.048632,-13350.607556,-395.223545,-13842.077713,-3960.907931,1372.195944,-605.799330,11372.545227,15702.011073,-1548.059469,2547.540074,-17817.447223,16226.986495,2479.814289,523.030820,0.002000,-0.014000,0.998000,192.000000,0.000000,0.000000,0.000000,0.000000,0.000000,0.000000,0.000000,0.000000,0.000000,1775739314.894617,0.000000
18.000000,16695.993149,18682.012699,-13351.926309,-400.699723,-13844.514053,-3977.962312,1366.987987,-608.392132,11332.893232,15702.189887,-1520.477417,2550.758725,-17779.605720,16233.647315,2295.971190,195.644819,0.006000,-0.014000,1.002000,192.000000,0.000000,24.000000,127.500000,72.000000,15.500000,40.000000,0.000000,0.000000,0.000000,1775739314.894630,0.000000
20.000000,16685.264311,18677.385888,-13374.680385,-413.999011,-13862.551911,-3977.805850,1359.522505,-625.625327,11352.182788,15684.487305,-1555.681414,2539.202874,-17823.102215,16216.123547,2488.620876,534.966652,0.006000,-0.014000,1.002000,192.000000,0.000000,0.000000,0.000000,0.000000,0.000000,0.000000,0.000000,0.000000,0.000000,1775739314.894644,0.000000
22.000000,16706.274951,18684.873722,-13344.684344,-390.574383,-13841.407161,-3966.205295,1372.039482,-604.614688,11353.926224,15699.708843,-1539.431696,2550.334042,-17799.610531,16228.931097,2377.353892,337.243120,0.006000,-0.014000,1.002000,192.000000,0.000000,0.000000,0.000000,0.000000,0.000000,0.000000,0.000000,0.000000,0.000000,1775739314.894657,0.000000
24.000000,16655.447084,18661.158521,-13389.074908,-419.721057,-13875.560626,-3987.282990,1351.744098,-637.516455,11309.021569,15677.267692,-1550.138181,2536.766533,-17824.510375,16213.418986,2363.898142,323.429742,0.006000,-0.014000,1.002000,192.000000,0.000000,0.000000,0.000000,0.000000,0.000000,0.000000,0.000000,0.000000,0.000000,1775739314.894669,0.000000
26.000000,16690.829896,18680.068097,-13361.291690,-400.006819,-13851.733667,-3972.664949,1365.780993,-619.098618,11351.601643,15688.242398,-1568.533667,2535.246615,-17832.869927,16216.436472,2475.858030,519.409838,0.006000,-0.014000,1.002000,192.000000,0.000000,0.000000,0.000000,0.000000,0.000000,0.000000,0.000000,0.000000,0.000000,1775739314.894682,0.000000
28.000000,16685.756050,18676.000080,-13360.196455,-400.520909,-13848.917347,-3972.039100,1362.249418,-616.416409,11326.657096,15696.847820,-1534.693126,2545.930749,-17792.927360,16228.953448,2296.686446,198.148215,0.012000,-0.016000,0.996000,192.000000,0.000000,48.000000,127.500000,64.000000,15.500000,16.000000,0.000000,0.000000,0.000000,1775739314.894694,0.000000
30.000000,16684.705518,18681.319795,-13381.184743,-414.311935,-13863.244815,-3974.944827,1355.029804,-630.855636,11342.526834,15688.711785,-1565.382071,2536.811237,-17832.288782,16216.727044,2480.328379,537.917082,0.012000,-0.016000,0.996000,192.000000,0.000000,0.000000,0.000000,0.000000,0.000000,0.000000,0.000000,0.000000,0.000000,1775739314.894707,0.000000
32.000000,16694.137954,18702.419842,-13341.175120,-388.987409,-13830.432454,-3964.730080,1369.178458,-604.391170,11347.019535,15707.442547,-1541.175132,2548.724717,-17802.404499,16233.334390,2379.924343,338.651280,0.012000,-0.016000,0.996000,192.000000,0.000000,0.000000,0.000000,0.000000,0.000000,0.000000,0.000000,0.000000,0.000000,1775739314.894719,0.000000
34.000000,16678.782306,18685.030184,-13380.447135,-414.267232,-13858.595652,-3973.201391,1351.989967,-630.766229,11326.858261,15699.932361,-1538.671737,2547.160095,-17793.173229,16230.138091,2374.045834,326.804856,0.012000,-0.016000,0.996000,192.000000,0.000000,0.000000,0.000000,0.000000,0.000000,0.000000,0.000000,0.000000,0.000000,1775739314.894732,0.000000
36.000000,16688.192390,18685.924254,-13359.838827,-392.764854,-13842.368286,-3965.043004,1368.127926,-613.801254,11362.978680,15698.323035,-1562.185772,2546.601301,-17803.969121,16227.210012,2484.016417,520.393314,0.012000,-0.016000,0.996000,192.000000,0.000000,0.000000,0.000000,0.000000,0.000000,0.000000,0.000000,0.000000,0.000000,1775739314.894744,0.000000
38.000000,16685.554884,18673.295519,-13365.180894,-397.011685,-13851.398391,-3975.771841,1362.763508,-620.350316,11331.172148,15706.168497,-1534.916643,2549.775249,-17783.204351,16230.585126,2296.664095,203.534985,0.008000,-0.014000,0.996000,192.000000,0.000000,32.000000,127.500000,72.000000,15.500000,16.000000,0.000000,0.000000,0.000000,1775739314.894757,0.000000
40.000000,16663.851340,18659.817417,-13387.040900,-410.378028,-13877.326414,-3987.350045,1357.220275,-634.007231,11336.178939,15673.847875,-1575.820336,2527.445856,-17848.717314,16215.676512,2481.893001,538.475876,0.008000,-0.014000,0.996000,192.000000,0.000000,0.000000,0.000000,0.000000,0.000000,0.000000,0.000000,0.000000,0.000000,1775739314.894769,0.000000
42.000000,16693.601512,18681.185684,-13343.298536,-387.668656,-13840.647202,-3972.575542,1375.168726,-601.105464,11341.252785,15695.037329,-1546.338385,2544.947272,-17809.333540,16225.891259,2372.883543,338.539522,0.008000,-0.014000,0.996000,192.000000,0.000000,0.000000,0.000000,0.000000,0.000000,0.000000,0.000000,0.000000,0.000000,1775739314.894782,0.000000
44.000000,16666.242977,18668.802818,-13382.436440,-419.318726,-13864.943548,-3978.588161,1353.822810,-630.207435,11324.287811,15685.180209,-1543.142085,2539.851074,-17801.957464,16220.370379,2363.965197,323.452094,0.008000,-0.014000,0.996000,192.000000,0.000000,0.000000,0.000000,0.000000,0.000000,0.000000,0.000000,0.000000,0.000000,1775739314.894795,0.000000
46.000000,16686.091326,18682.683251,-13364.510341,-402.778435,-13850.861949,-3967.769917,1364.194019,-617.131664,11358.106000,15686.990701,-1563.459821,2536.922996,-17842.995267,16217.688169,2483.099995,523.433152,0.008000,-0.014000,0.996000,192.000000,0.000000,0.000000,0.000000,0.000000,0.000000,0.000000,0.000000,0.000000,0.000000,1775739314.894808,0.000000
48.000000,16683.856152,18681.945644,-13363.392754,-397.682237,-13847.822112,-3967.881676,1364.350482,-615.365877,11326.165357,15698.278332,-1536.101286,2544.030850,-17802.896238,16229.802815,2301.425016,205.770159,0.006000,-0.014000,0.996000,192.000000,0.000000,16.000000,127.500000,72.000000,15.500000,16.000000,0.000000,0.000000,0.000000,1775739314.894820,0.000000
50.000000,16669.528683,18681.900940,-13388.493763,-406.891156,-13869.480952,-3975.950655,1359.366043,-629.626290,11339.755218,15679.100535,-1572.020539,2534.106676,-17842.436474,16216.525878,2485.893963,540.532236,0.006000,-0.014000,0.996000,192.000000,0.000000,0.000000,0.000000,0.000000,0.000000,0.000000,0.000000,0.000000,0.000000,1775739314.894832,0.000000
52.000000,16699.100041,18697.413051,-13345.444303,-377.655074,-13837.853234,-3959.164495,1377.180383,-593.908202,11338.592927,15697.920704,-1546.494847,2552.144534,-17816.083767,16233.759073,2379.790232,349.067193,0.006000,-0.014000,0.996000,192.000000,0.000000,0.000000,0.000000,0.000000,0.000000,0.000000,0.000000,0.000000,0.000000,1775739314.894845,0.000000
54.000000,16690.539323,18688.293539,-13377.653167,-403.806615,-13863.893016,-3976.263580,1361.042423,-611.163749,11326.701799,15698.188925,-1531.429771,2558.537133,-17809.847630,16233.490853,2364.166363,328.414181,0.006000,-0.014000,0.996000,192.000000,0.000000,0.000000,0.000000,0.000000,0.000000,0.000000,0.000000,0.000000,0.000000,1775739314.894859,0.000000
56.000000,16707.236076,18707.113708,-13351.926309,-387.758063,-13843.798798,-3971.413251,1375.280485,-595.830452,11366.309090,15706.771994,-1546.226626,2561.107583,-17825.940886,16235.368399,2480.082510,528.216425,0.006000,-0.014000,0.996000,192.000000,0.000000,0.000000,0.000000,0.000000,0.000000,0.000000,0.000000,0.000000,0.000000,1775739314.894872,0.000000
58.000000,16698.965931,18695.535504,-13352.552158,-392.764854,-13841.742437,-3979.191658,1369.804307,-601.016057,11335.664849,15710.996474,-1519.315126,2567.030795,-17785.573636,16241.313963,2305.649496,202.417398,0.008000,-0.014000,0.997000,192.000000,0.000000,40.000000,127.500000,72.000000,15.500000,24.000000,0.000000,0.000000,0.000000,1775739314.894884,0.000000
60.000000,16674.401364,18679.576359,-13380.402432,-404.007781,-13862.820132,-3981.069205,1363.143487,-622.451380,11348.986488,15693.003320,-1559.034176,2550.624615,-17829.025427,16221.666780,2493.270039,532.172684,0.008000,-0.014000,0.997000,192.000000,0.000000,0.000000,0.000000,0.000000,0.000000,0.000000,0.000000,0.000000,0.000000,1775739315.374829,0.000000
62.000000,16694.316768,18686.281882,-13348.104161,-378.303275,-13833.047609,-3961.086745,1375.593409,-602.737141,11337.654154,15701.273465,-1547.321862,2554.737336,-17795.587217,16235.256640,2385.042892,344.395679,0.008000,-0.014000,0.997000,192.000000,0.000000,0.000000,0.000000,0.000000,0.000000,0.000000,0.000000,0.000000,0.000000,1775739315.374897,0.000000
64.000000,16665.661832,18671.663841,-13387.398528,-408.992220,-13860.093219,-3976.688263,1354.985101,-633.135513,11313.916601,15689.762317,-1551.211065,2542.890911,-17807.210124,16226.360646,2365.485116,323.586204,0.008000,-0.014000,0.997000,192.000000,0.000000,0.000000,0.000000,0.000000,0.000000,0.000000,0.000000,0.000000,0.000000,1775739315.374943,0.000000
66.000000,16689.712309,18697.882437,-13359.123571,-389.747368,-13834.321658,-3961.556132,1369.379624,-610.627307,11352.875692,15695.439660,-1567.214914,2541.147475,-17826.387921,16226.360646,2491.437196,532.440905,0.008000,-0.014000,0.997000,192.000000,0.000000,0.000000,0.000000,0.000000,0.000000,0.000000,0.000000,0.000000,0.000000,1775739315.374984,0.000000
68.000000,16694.987320,18681.185684,-13353.267414,-392.630743,-13824.799815,-3956.147010,1367.591484,-605.978144,11328.758160,15707.286085,-1530.043963,2551.608092,-17786.713575,16236.374228,2310.589231,216.208424,0.009000,-0.015000,1.000500,192.000000,0.000000,40.000000,127.500000,64.000000,15.500000,48.000000,0.000000,0.000000,0.000000,1775739315.375032,0.000000
70.000000,16668.075820,18671.440324,-13382.324682,-406.265307,-13852.985365,-3967.881676,1359.276636,-629.201606,11341.900985,15686.722480,-1564.175077,2543.002670,-17837.720256,16223.030236,2496.220469,547.841257,0.009000,-0.015000,1.000500,192.000000,0.000000,0.000000,0.000000,0.000000,0.000000,0.000000,0.000000,0.000000,0.000000,1775739315.375072,0.000000
72.000000,16675.273082,18683.733783,-13350.652260,-380.091414,-13834.075789,-3963.858362,1372.061833,-609.017981,11345.231395,15700.558209,-1554.049737,2548.501199,-17814.250924,16228.886393,2379.969046,364.579304,0.009000,-0.015000,1.000500,192.000000,0.000000,0.000000,0.000000,0.000000,0.000000,0.000000,0.000000,0.000000,0.000000,1775739315.375119,0.000000
74.000000,16661.727925,18663.818379,-13389.700757,-406.667639,-13865.882321,-3982.946751,1354.962749,-636.778848,11315.190651,15684.643767,-1555.480248,2539.940481,-17812.351026,16219.833937,2360.455973,334.091524,0.009000,-0.015000,1.000500,192.000000,0.000000,0.000000,0.000000,0.000000,0.000000,0.000000,0.000000,0.000000,0.000000,1775739315.375140,0.000000
76.000000,16688.952349,18686.058365,-13361.626966,-387.467490,-13844.022315,-3970.876809,1370.787784,-615.254118,11354.932052,15694.545590,-1571.238228,2541.147475,-17824.979761,16225.600687,2476.707396,534.452562,0.009000,-0.015000,1.000500,192.000000,0.000000,0.000000,0.000000,0.000000,0.000000,0.000000,0.000000,0.000000,0.000000,1775739315.375152,0.000000
78.000000,16678.044698,18672.334394,-13359.414143,-393.301295,-13841.340106,-3978.141126,1364.216371,-621.020868,11328.132311,15693.584465,-1536.727135,2545.707231,-17788.233493,16233.267335,2296.842908,210.329915,0.008500,-0.014500,1.002250,192.000000,0.000000,32.000000,127.500000,72.000000,15.500000,48.000000,0.000000,0.000000,0.000000,1775739315.375165,0.000000
80.000000,16660.967965,18668.199321,-13384.649263,-406.220604,-13861.143751,-3980.555115,1358.449621,-638.008194,11341.230433,15675.501904,-1574.367472,2531.782094,-17835.507433,16217.062320,2488.240896,537.648861,0.008500,-0.014500,1.002250,192.000000,0.000000,0.000000,0.000000,0.000000,0.000000,0.000000,0.000000,0.000000,0.000000,1775739315.375178,0.000000
82.000000,16692.618035,18685.521923,-13345.779579,-377.051577,-13831.348876,-3963.657196,1375.995740,-610.537900,11348.204177,15699.507677,-1554.764993,2546.847170,-17806.204296,16233.669666,2385.065244,353.179914,0.008500,-0.014500,1.002250,192.000000,0.000000,0.000000,0.000000,0.000000,0.000000,0.000000,0.000000,0.000000,0.000000,1775739315.375190,0.000000
84.000000,16652.921337,18665.964146,-13388.247894,-402.644325,-13866.776391,-3978.811679,1356.125040,-641.562121,11315.302410,15686.968349,-1555.390841,2542.645042,-17809.512354,16232.172100,2367.183848,324.994364,0.008500,-0.014500,1.002250,192.000000,0.000000,0.000000,0.000000,0.000000,0.000000,0.000000,0.000000,0.000000,0.000000,1775739315.375210,0.000000
86.000000,16664.186616,18671.932062,-13367.661937,-388.003932,-13849.878472,-3966.473516,1366.451546,-627.704040,11353.635651,15689.136468,-1576.848516,2537.437086,-17834.456901,16229.400483,2484.910486,541.247492,0.008500,-0.014500,1.002250,192.000000,0.000000,0.000000,0.000000,0.000000,0.000000,0.000000,0.000000,0.000000,0.000000,1775739315.375223,0.000000
88.000000,16668.835779,18673.831960,-13361.895187,-391.222583,-13839.417856,-3963.321920,1363.210543,-623.390153,11315.771796,15690.410518,-1546.852475,2540.052240,-17782.913778,16233.468501,2303.771949,221.170511,0.009250,-0.015250,1.004125,192.000000,0.000000,40.000000,127.500000,64.000000,15.500000,56.000000,0.000000,0.000000,0.000000,1775739315.375235,0.000000
90.000000,16664.834817,18656.218786,-13385.811554,-410.176862,-13853.767676,-3965.914722,1354.158086,-635.013060,11342.884462,15674.585482,-1573.473403,2529.524568,-17829.606572,16222.024408,2492.286562,551.708108,0.009250,-0.015250,1.004125,192.000000,0.000000,0.000000,0.000000,0.000000,0.000000,0.000000,0.000000,0.000000,0.000000,1775739315.375246,0.000000
92.000000,16696.283721,18670.054516,-13344.550233,-385.433481,-13820.575335,-3953.509504,1371.905371,-606.939269,11350.417000,15690.678738,-1548.864132,2537.727658,-17792.860304,16226.137129,2390.452014,370.748385,0.009250,-0.015250,1.004125,192.000000,0.000000,0.000000,0.000000,0.000000,0.000000,0.000000,0.000000,0.000000,0.000000,1775739315.375259,0.000000
94.000000,16681.397460,18671.395620,-13381.274150,-410.042752,-13848.515016,-3968.239304,1355.163915,-631.369726,11328.154663,15680.799267,-1545.824295,2537.146513,-17788.389956,16224.192527,2368.860229,337.041955,0.009250,-0.015250,1.004125,192.000000,0.000000,0.000000,0.000000,0.000000,0.000000,0.000000,0.000000,0.000000,0.000000,1775739315.375271,0.000000
96.000000,16676.457724,18677.184722,-13358.207149,-393.860089,-13830.320696,-3957.644577,1368.753775,-614.918842,11366.309090,15687.169515,-1563.638635,2537.280624,-17828.623096,16222.806719,2490.498422,545.069640,0.009250,-0.015250,1.004125,192.000000,0.000000,0.000000,0.000000,0.000000,0.000000,0.000000,0.000000,0.000000,0.000000,1775739315.375283,0.000000
98.000000,16681.173942,18677.117667,-13355.994327,-394.485938,-13829.381922,-3963.567789,1365.110441,-613.197757,11334.659020,15700.938189,-1530.178074,2550.669319,-17781.103287,16237.514167,2307.683505,207.334782,0.007625,-0.014625,1.007062,192.000000,0.000000,24.000000,127.500000,72.000000,15.500000,72.000000,0.000000,0.000000,0.000000,1775739315.375295,0.000000
100.000000,16662.286718,18666.031202,-13388.069080,-407.315839,-13863.334222,-3982.522068,1356.236798,-637.583511,11345.589023,15684.353195,-1572.534629,2533.883158,-17826.454976,16217.934038,2483.435271,536.285405,0.007625,-0.014625,1.007062,192.000000,0.000000,0.000000,0.000000,0.000000,0.000000,0.000000,0.000000,0.000000,0.000000,1775739315.375307,0.000000
102.000000,16687.208913,18678.794048,-13347.120684,-380.918429,-13827.772597,-3969.468650,1373.134717,-607.855690,11349.366468,15704.939151,-1554.295606,2545.014327,-17806.293703,16235.636620,2380.237267,356.152696,0.007625,-0.014625,1.007062,192.000000,0.000000,0.000000,0.000000,0.000000,0.000000,0.000000,0.000000,0.000000,0.000000,1775739315.375319,0.000000
104.000000,16671.629747,18674.435458,-13384.895132,-408.455778,-13858.103914,-3984.064339,1355.812115,-631.772057,11319.906869,15695.372605,-1547.970062,2540.029888,-17805.913723,16230.093387,2365.619226,315.494873,0.007625,-0.014625,1.007062,192.000000,0.000000,0.000000,0.000000,0.000000,0.000000,0.000000,0.000000,0.000000,0.000000,1775739315.375330,0.000000
106.000000,16682.157419,18679.576359,-13366.745516,-395.849394,-13845.832806,-3975.749490,1364.573999,-621.602013,11362.822218,15701.720500,-1565.896161,2538.174693,-17822.252848,16231.836823,2485.290466,534.296099,0.007625,-0.014625,1.007062,192.000000,0.000000,0.000000,0.000000,0.000000,0.000000,0.000000,0.000000,0.000000,0.000000,1775739315.375342,0.000000
108.000000,16673.976681,18663.438399,-13365.784391,-395.871746,-13840.848367,-3979.526935,1359.500153,-624.395981,11329.473416,15696.467840,-1542.426830,2540.611034,-17792.256807,16234.742550,2301.603830,211.648668,0.007812,-0.012313,1.009531,192.000000,0.000000,32.000000,127.500000,88.000000,15.500000,80.000000,0.000000,0.000000,0.000000,1775739315.375354,0.000000
110.000000,16658.375163,18659.549196,-13392.450022,-408.992220,-13860.517902,-3983.438490,1351.230008,-642.478543,11340.358715,15682.274483,-1578.636656,2530.262176,-17834.009866,16221.666780,2486.318646,540.643995,0.007812,-0.012313,1.009531,192.000000,0.000000,0.000000,0.000000,0.000000,0.000000,0.000000,0.000000,0.000000,0.000000,1775739315.375374,0.000000
112.000000,16690.829896,18678.391716,-13351.836902,-381.298409,-13824.933925,-3963.008995,1367.993816,-614.784731,11347.377163,15699.150050,-1557.983644,2539.225225,-17808.752395,16235.837786,2387.054549,368.982597,0.007812,-0.012313,1.009531,192.000000,0.000000,0.000000,0.000000,0.000000,0.000000,0.000000,0.000000,0.000000,0.000000,1775739315.375386,0.000000
114.000000,16662.197311,18666.232367,-13386.392699,-407.651115,-13851.823074,-3974.207219,1352.101726,-636.555330,11330.322782,15691.304587,-1553.960330,2533.436124,-17796.369528,16229.221669,2363.384052,331.632832,0.007812,-0.012313,1.009531,192.000000,0.000000,0.000000,0.000000,0.000000,0.000000,0.000000,0.000000,0.000000,0.000000,1775739315.375398,0.000000
116.000000,16677.530608,18674.860141,-13361.850484,-395.648229,-13836.869757,-3958.270426,1363.210543,-622.451380,11365.839704,15686.275445,-1566.767879,2532.363240,-17817.782500,16226.874736,2490.654885,550.568169,0.007812,-0.012313,1.009531,192.000000,0.000000,0.000000,0.000000,0.000000,0.000000,0.000000,0.000000,0.000000,0.000000,1775739315.375414,0.000000
118.000000,16689.064108,18670.278033,-13353.468579,-395.715284,-13826.409140,-3962.114926,1362.294121,-617.310478,11336.245994,15694.277369,-1535.631899,2537.526493,-17770.486208,16233.714370,2306.811787,224.210349,0.007812,-0.012313,1.009531,192.000000,0.000000,0.000000,0.000000,0.000000,0.000000,0.000000,0.000000,0.000000,0.000000,1775739315.375426,0.000000
120.000000,16672.769686,18669.361612,-13381.430612,-415.071895,-13849.409085,-3974.833068,1354.158086,-638.164656,11359.737678,15685.135506,-1563.884504,2531.402115,-17808.238305,16231.903879,2491.414844,538.677041,0.008000,-0.010000,1.012000,192.000000,0.000000,32.000000,127.500000,88.000000,15.500000,80.000000,0.000000,0.000000,0.000000,1775739315.375438,0.000000
122.000000,16682.671509,18681.498609,-13350.764018,-389.054464,-13829.761902,-3966.361757,1368.329092,-617.623403,11353.568596,15697.026634,-1551.859266,2535.492484,-17806.785441,16235.614268,2389.490889,359.661920,0.008000,-0.010000,1.012000,192.000000,0.000000,0.000000,0.000000,0.000000,0.000000,0.000000,0.000000,0.000000,0.000000,1775739315.375450,0.000000
124.000000,16654.888291,18651.189643,-13391.310083,-411.450912,-13864.451809,-3983.729063,1352.884037,-643.394964,11313.648380,15682.900331,-1556.799001,2527.289394,-17817.849555,16227.142957,2356.656177,320.255795,0.008000,-0.010000,1.012000,192.000000,0.000000,0.000000,0.000000,0.000000,0.000000,0.000000,0.000000,0.000000,0.000000,1775739315.375462,0.000000
126.000000,16673.686108,18667.595824,-13372.445211,-393.882441,-13849.230271,-3976.375339,1362.025900,-633.224920,11353.255672,15689.851724,-1577.787289,2531.111542,-17833.898107,16227.679399,2484.686969,537.604158,0.008000,-0.010000,1.012000,192.000000,0.000000,0.000000,0.000000,0.000000,0.000000,0.000000,0.000000,0.000000,0.000000,1775739315.375473,0.000000
128.000000,16663.001974,18658.342202,-13368.354841,-393.770682,-13844.424646,-3984.377263,1358.024938,-632.375554,11316.107072,15688.443564,-1552.641577,2534.710173,-17802.739776,16229.288725,2300.687409,221.662250,0.008000,-0.010000,1.012000,192.000000,0.000000,0.000000,0.000000,0.000000,0.000000,0.000000,0.000000,0.000000,0.000000,1775739315.375485,0.000000
130.000000,16667.941710,18655.861158,-13390.639530,-408.411075,-13855.958147,-3986.344217,1351.051194,-648.178237,11337.922375,15679.078183,-1579.687188,2524.271908,-17838.167290,16221.264448,2485.402225,539.101725,0.014000,-0.012000,1.008000,192.000000,0.000000,56.000000,127.500000,80.000000,15.500000,64.000000,0.000000,0.000000,0.000000,1775739315.375498,0.000000
132.000000,16692.483925,18687.600635,-13346.226614,-382.371292,-13818.451919,-3968.909856,1369.647845,-616.081132,11351.489884,15698.591256,-1558.721251,2536.654775,-17799.699938,16232.037989,2389.043854,367.462679,0.014000,-0.012000,1.008000,192.000000,0.000000,0.000000,0.000000,0.000000,0.000000,0.000000,0.000000,0.000000,0.000000,1775739315.375510,0.000000
134.000000,16662.532587,18668.311080,-13381.072984,-408.053447,-13847.509187,-3985.159574,1354.672176,-635.080115,11331.619183,15692.042195,-1546.293681,2538.800542,-17795.944845,16231.076864,2364.792212,318.802931,0.014000,-0.012000,1.008000,192.000000,0.000000,0.000000,0.000000,0.000000,0.000000,0.000000,0.000000,0.000000,0.000000,1775739315.375522,0.000000
136.000000,16670.936843,18673.630795,-13362.319870,-391.960191,-13838.076751,-3971.279141,1366.049214,-622.361973,11365.124448,15698.278332,-1563.616283,2538.442914,-17810.808755,16230.182794,2490.744292,547.997719,0.014000,-0.012000,1.008000,192.000000,0.000000,0.000000,0.000000,0.000000,0.000000,0.000000,0.000000,0.000000,0.000000,1775739315.375534,0.000000
138.000000,16678.089401,18669.294556,-13358.654184,-389.948534,-13836.914460,-3977.269408,1364.261075,-624.306574,11328.154663,15700.714672,-1537.420039,2542.399173,-17795.251941,16235.860137,2299.122786,219.695296,0.014000,-0.012000,1.008000,192.000000,0.000000,0.000000,0.000000,0.000000,0.000000,0.000000,0.000000,0.000000,0.000000,1775739315.375546,0.000000
140.000000,16660.006840,18665.986498,-13386.772679,-409.886290,-13863.982423,-3984.936057,1355.365080,-643.014984,11345.834892,15683.660291,-1571.707615,2527.691725,-17830.008904,16220.392730,2477.109728,533.200864,0.010000,-0.010000,1.000000,192.000000,0.000000,40.000000,127.500000,88.000000,15.500000,32.000000,0.000000,0.000000,0.000000,1775739315.375558,0.000000
142.000000,16688.348852,18669.272205,-13349.311155,-387.847470,-13835.595707,-3978.275237,1370.519563,-614.807083,11343.532663,15692.533933,-1560.040004,2531.133894,-17813.803889,16226.003018,2385.936962,360.734804,0.010000,-0.010000,1.000000,192.000000,0.000000,0.000000,0.000000,0.000000,0.000000,0.000000,0.000000,0.000000,0.000000,1775739315.375569,0.000000
144.000000,16654.351849,18655.592937,-13390.706586,-416.524758,-13866.128190,-3992.915629,1351.162952,-641.182141,11320.242145,15683.325015,-1549.221760,2533.726696,-17805.243171,16223.521975,2357.505543,309.370495,0.010000,-0.010000,1.000000,192.000000,0.000000,0.000000,0.000000,0.000000,0.000000,0.000000,0.000000,0.000000,0.000000,1775739315.375581,0.000000
146.000000,16673.909625,18679.643414,-13371.886417,-400.096226,-13853.499455,-3979.124603,1362.092955,-627.189949,11349.791151,15683.794401,-1575.820336,2527.624670,-17833.920459,16215.430643,2487.503289,538.118248,0.010000,-0.010000,1.000000,192.000000,0.000000,0.000000,0.000000,0.000000,0.000000,0.000000,0.000000,0.000000,0.000000,1775739315.375593,0.000000
148.000000,16670.534512,18660.130341,-13368.734821,-398.978639,-13842.882376,-3979.661045,1357.868476,-626.765266,11314.475395,15694.903218,-1546.651309,2537.794714,-17781.684432,16234.362571,2303.123749,209.994639,0.010000,-0.010000,1.000000,192.000000,0.000000,0.000000,0.000000,0.000000,0.000000,0.000000,0.000000,0.000000,0.000000,1775739315.375607,0.000000
150.000000,16657.995183,18663.952489,-13393.768775,-412.479092,-13858.059211,-3986.679493,1348.100763,-645.317214,11335.709552,15677.133581,-1578.457842,2524.227205,-17851.868910,16215.430643,2485.290466,532.865588,0.006000,-0.006000,1.000000,192.000000,0.000000,24.000000,127.500000,104.000000,15.500000,32.000000,0.000000,0.000000,0.000000,1775739315.375619,0.000000
152.000000,16682.805620,18677.296481,-13351.971013,-379.800842,-13818.518975,-3964.372452,1367.166801,-617.645755,11344.002049,15698.188925,-1557.715423,2536.900644,-17815.815546,16224.304286,2392.798947,375.196382,0.006000,-0.006000,1.000000,192.000000,0.000000,0.000000,0.000000,0.000000,0.000000,0.000000,0.000000,0.000000,0.000000,1775739315.375632,0.000000
154.000000,16664.387782,18668.869873,-13389.678405,-401.437330,-13845.072847,-3973.715481,1349.330109,-640.779810,11326.679447,15698.770070,-1549.735850,2535.403077,-17791.452145,16239.905803,2361.282988,322.915652,0.006000,-0.006000,1.000000,192.000000,0.000000,0.000000,0.000000,0.000000,0.000000,0.000000,0.000000,0.000000,0.000000,1775739315.375644,0.000000
156.000000,16688.550018,18690.528714,-13364.309176,-383.734749,-13831.237117,-3963.768955,1364.931627,-621.043220,11367.091401,15706.682587,-1569.271275,2536.699478,-17817.067244,16238.609402,2488.285600,553.317434,0.006000,-0.006000,1.000000,192.000000,0.000000,0.000000,0.000000,0.000000,0.000000,0.000000,0.000000,0.000000,0.000000,1775739315.375657,0.000000
158.000000,16687.901817,18681.632719,-13354.273242,-387.378083,-13825.224498,-3962.539609,1364.104612,-615.455284,11342.728000,15719.177213,-1527.473513,2551.339871,-17768.809827,16252.668649,2304.107225,221.505788,0.006000,-0.006000,1.000000,192.000000,0.000000,0.000000,0.000000,0.000000,0.000000,0.000000,0.000000,0.000000,0.000000,1775739315.375670,0.000000
160.000000,16666.153570,18668.400487,-13384.470449,-411.897947,-13854.214710,-3981.538592,1352.526409,-642.456191,11352.719230,15688.957654,-1564.555057,2529.412810,-17821.694055,16229.176966,2482.116518,531.546835,0.004000,-0.004000,0.998000,192.000000,0.000000,16.000000,127.500000,112.000000,15.500000,24.000000,0.000000,0.000000,0.000000,1775739315.375682,0.000000
162.000000,16678.536436,18673.161408,-13347.232443,-391.535508,-13829.001943,-3980.443356,1366.406842,-619.322135,11351.668698,15697.451317,-1553.379184,2532.072667,-17810.898162,16230.003980,2389.490889,366.747423,0.004000,-0.004000,0.998000,192.000000,0.000000,0.000000,0.000000,0.000000,0.000000,0.000000,0.000000,0.000000,0.000000,1775739315.375695,0.000000
164.000000,16651.401419,18652.933079,-13387.264417,-420.056334,-13862.238987,-3999.397635,1348.279577,-645.093697,11322.231450,15681.179247,-1549.758202,2524.696591,-17803.231514,16220.169213,2354.845685,301.010943,0.004000,-0.004000,0.998000,192.000000,0.000000,0.000000,0.000000,0.000000,0.000000,0.000000,0.000000,0.000000,0.000000,1775739315.375707,0.000000
166.000000,16650.730866,18652.418989,-13377.049670,-409.662772,-13859.780295,-3995.284914,1356.728537,-641.360955,11344.627898,15674.630186,-1581.363568,2520.427408,-17845.364552,16210.312094,2480.618951,527.992908,0.004000,-0.004000,0.998000,192.000000,0.000000,0.000000,0.000000,0.000000,0.000000,0.000000,0.000000,0.000000,0.000000,1775739315.375720,0.000000
168.000000,16640.806692,18644.640582,-13375.283882,-406.108845,-13862.417801,-3997.162461,1353.778106,-644.445496,11297.353959,15676.261863,-1561.269350,2522.707286,-17818.430700,16214.693035,2298.340475,199.399912,0.004000,-0.004000,0.998000,192.000000,0.000000,0.000000,0.000000,0.000000,0.000000,0.000000,0.000000,0.000000,0.000000,1775739315.375731,0.000000
170.000000,16632.514195,18646.004039,-13404.810536,-420.101037,-13883.674310,-4000.224650,1344.390374,-659.957607,11310.139157,15661.487360,-1594.484042,2510.302068,-17854.886395,16203.137184,2475.165126,519.700410,0.002000,-0.010000,1.002000,192.000000,0.000000,8.000000,127.500000,88.000000,15.500000,40.000000,0.000000,0.000000,0.000000,1775739315.375743,0.000000
172.000000,16663.001974,18664.243062,-13365.225597,-391.401397,-13846.905690,-3979.392824,1360.997720,-630.430952,11322.387913,15683.570884,-1575.395653,2524.361315,-17820.017674,16220.236268,2385.087596,365.853353,0.002000,-0.010000,1.002000,192.000000,0.000000,0.000000,0.000000,0.000000,0.000000,0.000000,0.000000,0.000000,0.000000,1775739315.375755,0.000000
174.000000,16650.909680,18669.920405,-13397.456813,-413.261403,-13861.300213,-3987.417100,1344.613891,-651.285130,11306.138194,15681.022785,-1564.867981,2527.982298,-17814.988531,16223.767844,2351.939959,311.024524,0.002000,-0.010000,1.002000,192.000000,0.000000,0.000000,0.000000,0.000000,0.000000,0.000000,0.000000,0.000000,0.000000,1775739315.375767,0.000000
176.000000,16662.733753,18673.809609,-13374.523923,-395.625877,-13841.161292,-3980.085728,1357.577903,-630.050973,11351.176959,15690.432869,-1581.140051,2529.211644,-17843.531709,16218.626942,2487.279771,552.445716,0.002000,-0.010000,1.002000,192.000000,0.000000,0.000000,0.000000,0.000000,0.000000,0.000000,0.000000,0.000000,0.000000,1775739315.375779,0.000000
178.000000,16667.561730,18667.484065,-13364.219769,-393.189537,-13834.031085,-3970.720347,1357.846124,-623.188987,11322.767892,15704.939151,-1540.504580,2543.784981,-17788.881694,16229.288725,2300.508595,223.763314,0.002000,-0.010000,1.002000,192.000000,0.000000,0.000000,0.000000,0.000000,0.000000,0.000000,0.000000,0.000000,0.000000,1775739315.375791,0.000000
180.000000,16653.100151,18668.422838,-13392.785298,-409.148682,-13854.773504,-3983.751414,1349.441868,-643.909054,11334.368448,15686.923645,-1574.590990,2531.089190,-17835.954468,16215.922381,2474.159297,537.894730,0.002000,-0.016000,1.002000,192.000000,0.000000,8.000000,127.500000,64.000000,15.500000,40.000000,0.000000,0.000000,0.000000,1775739315.855693,0.000000
182.000000,16678.156457,18676.290652,-13354.988498,-385.344074,-13830.007771,-3977.023539,1365.959807,-616.550519,11340.112846,15706.861401,-1561.224647,2537.057106,-17813.781537,16228.551117,2384.551154,371.620103,0.002000,-0.016000,1.002000,192.000000,0.000000,0.000000,0.000000,0.000000,0.000000,0.000000,0.000000,0.000000,0.000000,1775739315.855762,0.000000
184.000000,16653.189558,18658.833940,-13391.064214,-413.462569,-13862.015469,-3995.039045,1348.905426,-641.159790,11315.660037,15694.232666,-1552.149838,2533.681993,-17802.940941,16214.380111,2350.062412,301.703847,0.002000,-0.016000,1.002000,192.000000,0.000000,0.000000,0.000000,0.000000,0.000000,0.000000,0.000000,0.000000,0.000000,1775739315.855811,0.000000
186.000000,16665.035983,18674.413106,-13371.595844,-401.258516,-13850.973708,-3991.552173,1360.327168,-628.173426,11355.468494,15687.705956,-1574.076900,2530.955080,-17825.516203,16213.575448,2489.716111,531.546835,0.002000,-0.016000,1.002000,192.000000,0.000000,0.000000,0.000000,0.000000,0.000000,0.000000,0.000000,0.000000,0.000000,1775739315.855855,0.000000
188.000000,16665.415962,18672.781428,-13368.131324,-404.141891,-13852.918309,-4000.448167,1356.594426,-625.312403,11314.542450,15695.439660,-1544.796115,2536.028926,-17804.147935,16222.829070,2302.497900,203.825558,0.002000,-0.016000,1.002000,192.000000,0.000000,0.000000,0.000000,0.000000,0.000000,0.000000,0.000000,0.000000,0.000000,1775739315.855902,0.000000
190.000000,16653.167206,18665.539463,-13392.517077,-419.989278,-13874.979481,-4007.511319,1351.945263,-640.600996,11332.535605,15679.033480,-1574.233362,2524.584833,-17841.743570,16205.551172,2475.701568,509.195090,0.007000,-0.017000,1.001000,192.000000,0.000000,48.000000,127.500000,56.000000,15.500000,32.000000,0.000000,0.000000,0.000000,1775739315.855963,0.000000
192.000000,16672.970852,18670.680364,-13355.614347,-392.898964,-13844.849330,-3991.082786,1367.099746,-619.389191,11343.487959,15691.952788,-1555.323786,2534.665469,-17819.280066,16216.235306,2391.211974,355.258626,0.007000,-0.017000,1.001000,192.000000,0.000000,0.000000,0.000000,0.000000,0.000000,0.000000,0.000000,0.000000,0.000000,1775739315.856011,0.000000
194.000000,16647.243994,18652.597803,-13397.479164,-415.898909,-13874.197170,-4003.979743,1346.580845,-651.262778,11302.897191,15680.218122,-1561.917551,2528.138760,-17813.602723,16212.659027,2352.208179,294.394826,0.007000,-0.017000,1.001000,192.000000,0.000000,0.000000,0.000000,0.000000,0.000000,0.000000,0.000000,0.000000,0.000000,1775739315.856023,0.000000
196.000000,16652.519006,18666.098257,-13378.457830,-398.062217,-13857.075734,-3973.268446,1355.409784,-638.119952,11339.196424,15682.520352,-1586.906801,2525.188330,-17846.705657,16212.077881,2488.822042,541.828637,0.007000,-0.017000,1.001000,192.000000,0.000000,0.000000,0.000000,0.000000,0.000000,0.000000,0.000000,0.000000,0.000000,1775739315.856035,0.000000
198.000000,16668.411096,18672.513207,-13370.858237,-394.061255,-13843.709391,-3969.870981,1353.576941,-635.013060,11314.497747,15701.407576,-1554.094440,2535.939519,-17800.906932,16230.182794,2300.061560,228.568939,0.007000,-0.017000,1.001000,192.000000,0.000000,0.000000,0.000000,0.000000,0.000000,0.000000,0.000000,0.000000,0.000000,1775739315.856047,0.000000
200.000000,16655.268270,18673.563739,-13400.407243,-411.048581,-13860.853179,-3975.391862,1343.205731,-651.642758,11336.380105,15684.911988,-1582.257638,2520.628574,-17819.771805,16221.443262,2474.472222,542.141562,0.007500,-0.013500,1.001500,192.000000,0.000000,32.000000,127.500000,88.000000,15.500000,40.000000,0.000000,0.000000,0.000000,1775739315.856059,0.000000
202.000000,16662.733753,18668.288728,-13363.996251,-385.858165,-13831.125358,-3961.757298,1357.980234,-628.016964,11340.314012,15697.741890,-1567.729004,2535.961871,-17814.139165,16234.273164,2385.266410,391.043769,0.007500,-0.013500,1.001500,192.000000,0.000000,0.000000,0.000000,0.000000,0.000000,0.000000,0.000000,0.000000,0.000000,1775739315.856072,0.000000
204.000000,16644.740599,18652.016658,-13399.669635,-415.183653,-13858.126266,-3983.349083,1338.467161,-658.594150,11309.669770,15688.309454,-1562.655158,2527.065876,-17803.633845,16221.823242,2345.055621,320.367553,0.007500,-0.013500,1.001500,192.000000,0.000000,0.000000,0.000000,0.000000,0.000000,0.000000,0.000000,0.000000,0.000000,1775739315.856085,0.000000
206.000000,16658.777494,18669.696888,-13374.345109,-398.151624,-13838.277917,-3973.156687,1356.259150,-638.008194,11346.997183,15689.941131,-1585.275124,2523.042562,-17824.689189,16222.717312,2483.547030,555.552608,0.007500,-0.013500,1.001500,192.000000,0.000000,0.000000,0.000000,0.000000,0.000000,0.000000,0.000000,0.000000,0.000000,1775739315.856097,0.000000
208.000000,16669.819256,18672.356745,-13361.425800,-396.922278,-13830.387751,-3980.398653,1359.366043,-624.619499,11325.628916,15702.122832,-1543.812638,2537.392382,-17792.614435,16230.965105,2305.291868,218.331840,0.007500,-0.013500,1.001500,192.000000,0.000000,0.000000,0.000000,0.000000,0.000000,0.000000,0.000000,0.000000,0.000000,1775739315.856109,0.000000
210.000000,16663.560768,18681.118629,-13389.141964,-414.669563,-13856.494588,-3996.313095,1351.162952,-640.332775,11345.879596,15685.962520,-1569.874772,2528.697554,-17826.186755,16213.217820,2477.199134,519.052210,0.007750,-0.012750,1.002750,192.000000,0.000000,32.000000,127.500000,80.000000,15.500000,48.000000,0.000000,0.000000,0.000000,1775739315.856120,0.000000
212.000000,16684.213779,18679.978690,-13347.992402,-390.015589,-13832.578222,-3992.915629,1367.479726,-614.672973,11351.400477,15701.340521,-1553.222722,2537.682955,-17808.417119,16219.923344,2396.218764,364.266379,0.007750,-0.012750,1.002750,192.000000,0.000000,0.000000,0.000000,0.000000,0.000000,0.000000,0.000000,0.000000,0.000000,1775739315.856138,0.000000
214.000000,16652.451951,18660.622079,-13385.588036,-415.563633,-13867.290481,-4002.862156,1348.391336,-640.288072,11315.458872,15686.387204,-1550.272292,2532.519702,-17800.281084,16210.580314,2354.443354,288.561021,0.007750,-0.012750,1.002750,192.000000,0.000000,0.000000,0.000000,0.000000,0.000000,0.000000,0.000000,0.000000,0.000000,1775739315.856150,0.000000
216.000000,16667.338212,18686.013661,-13367.974862,-393.793034,-13847.799760,-3985.316036,1362.383528,-624.977127,11352.875692,15696.087861,-1573.473403,2530.306879,-17829.986552,16221.823242,2492.644190,537.157123,0.007750,-0.012750,1.002750,192.000000,0.000000,0.000000,0.000000,0.000000,0.000000,0.000000,0.000000,0.000000,0.000000,1775739315.856162,0.000000
218.000000,16674.870750,18677.922330,-13362.141056,-390.954362,-13842.658859,-3984.287856,1361.511810,-618.271603,11328.244070,15710.169460,-1537.308280,2545.260196,-17800.303435,16239.816396,2308.085836,213.928546,0.007750,-0.012750,1.002750,192.000000,0.000000,0.000000,0.000000,0.000000,0.000000,0.000000,0.000000,0.000000,0.000000,1775739315.856173,0.000000
220.000000,16663.918396,18676.648280,-13396.205115,-407.271136,-13866.351708,-3988.914667,1351.207656,-640.712755,11341.431599,15688.421212,-1571.081766,2533.480827,-17828.041950,16226.941791,2479.747233,523.902538,0.005875,-0.013375,1.005375,192.000000,0.000000,16.000000,127.500000,72.000000,15.500000,64.000000,0.000000,0.000000,0.000000,1775739315.856185,0.000000
222.000000,16673.753163,18677.698812,-13356.620175,-381.745444,-13834.679286,-3971.301493,1366.831525,-617.712810,11346.863073,15700.804079,-1560.934074,2537.504141,-17807.813621,16228.819338,2392.910706,385.589944,0.005875,-0.013375,1.005375,192.000000,0.000000,0.000000,0.000000,0.000000,0.000000,0.000000,0.000000,0.000000,0.000000,1775739315.856197,0.000000
224.000000,16651.468474,18666.969975,-13390.952455,-403.493691,-13857.522769,-3986.992417,1349.598330,-643.462019,11322.320857,15691.326939,-1551.076955,2538.241749,-17811.993398,16231.590954,2348.631900,312.767960,0.005875,-0.013375,1.005375,192.000000,0.000000,0.000000,0.000000,0.000000,0.000000,0.000000,0.000000,0.000000,0.000000,1775739315.856208,0.000000
226.000000,16669.327518,18679.352841,-13371.193513,-389.412092,-13843.240004,-3976.397690,1360.818906,-628.486351,11358.307166,15692.243361,-1573.674568,2534.911339,-17832.422892,16226.785329,2487.927972,561.297007,0.005875,-0.013375,1.005375,192.000000,0.000000,0.000000,0.000000,0.000000,0.000000,0.000000,0.000000,0.000000,0.000000,1775739315.856220,0.000000
228.000000,16674.200198,18678.682289,-13361.090524,-389.345037,-13834.075789,-3977.001187,1360.126002,-621.534958,11335.150759,15703.530991,-1537.777667,2545.684880,-17789.820467,16237.983553,2300.620353,234.134523,0.005875,-0.013375,1.005375,192.000000,0.000000,0.000000,0.000000,0.000000,0.000000,0.000000,0.000000,0.000000,0.000000,1775739315.856232,0.000000
230.000000,16660.006840,18671.261510,-13391.310083,-410.109807,-13859.847350,-3985.159574,1350.939435,-641.092734,11342.593890,15679.704032,-1570.791193,2529.077533,-17825.538555,16221.935001,2471.164163,538.967614,0.004938,-0.013688,1.004687,192.000000,0.000000,16.000000,127.500000,72.000000,15.500000,48.000000,0.000000,0.000000,0.000000,1775739315.856243,0.000000
232.000000,16691.589855,18687.645338,-13348.215920,-387.311028,-13826.051512,-3976.241228,1369.290217,-612.571909,11356.809599,15695.506715,-1554.027385,2538.554673,-17807.500697,16230.719236,2392.217802,384.584115,0.004938,-0.013688,1.004687,192.000000,0.000000,0.000000,0.000000,0.000000,0.000000,0.000000,0.000000,0.000000,0.000000,1775739315.856254,0.000000
234.000000,16663.538416,18672.803780,-13381.452964,-412.076761,-13852.784199,-3989.764034,1353.487534,-635.460095,11326.433578,15686.029576,-1546.651309,2535.783057,-17801.935113,16228.014675,2351.828200,294.953620,0.004938,-0.013688,1.004687,192.000000,0.000000,0.000000,0.000000,0.000000,0.000000,0.000000,0.000000,0.000000,0.000000,1775739315.856266,0.000000
236.000000,16691.612207,18690.327548,-13360.397620,-394.843566,-13831.103007,-3975.391862,1366.071566,-621.937289,11368.924245,15697.697186,-1565.963217,2535.112504,-17822.297552,16230.853347,2500.132024,542.029803,0.004938,-0.013688,1.004687,192.000000,0.000000,0.000000,0.000000,0.000000,0.000000,0.000000,0.000000,0.000000,0.000000,1775739315.856277,0.000000
238.000000,16678.961120,18681.453905,-13354.295594,-389.099167,-13826.342085,-3980.845687,1364.641054,-616.215243,11339.419942,15711.532916,-1533.732001,2546.042507,-17779.493961,16242.073922,2317.898252,212.922718,0.004938,-0.013688,1.004687,192.000000,0.000000,0.000000,0.000000,0.000000,0.000000,0.000000,0.000000,0.000000,0.000000,1775739315.856289,0.000000
240.000000,16674.736640,18686.706565,-13381.117687,-404.410112,-13848.447960,-3987.953542,1356.437964,-630.185083,11348.740619,15691.908084,-1562.163420,2538.666432,-17816.977837,16227.522937,2488.442062,516.571166,0.005469,-0.014844,1.005344,192.000000,0.000000,24.000000,127.500000,64.000000,15.500000,56.000000,0.000000,0.000000,0.000000,1775739315.856301,0.000000
242.000000,16694.853210,18690.171086,-13344.125550,-374.369368,-13817.244925,-3970.206257,1374.140546,-604.972315,11364.029212,15712.516393,-1545.310205,2554.893798,-17783.427868,16244.934946,2405.539442,377.342150,0.005469,-0.014844,1.005344,192.000000,0.000000,0.000000,0.000000,0.000000,0.000000,0.000000,0.000000,0.000000,0.000000,1775739315.856314,0.000000
244.000000,16665.348907,18676.223597,-13388.650225,-401.482034,-13851.912481,-3986.545382,1352.749926,-637.628214,11318.833985,15697.719538,-1545.801943,2547.607130,-17804.617322,16238.788216,2355.940921,294.685399,0.005469,-0.014844,1.005344,192.000000,0.000000,0.000000,0.000000,0.000000,0.000000,0.000000,0.000000,0.000000,0.000000,1775739315.856328,0.000000
246.000000,16663.426657,18678.056440,-13379.061327,-390.261458,-13851.353687,-3987.014769,1361.869438,-631.034449,11351.378125,15688.175343,-1579.597781,2538.107638,-17842.280011,16226.338294,2491.124271,553.920931,0.005469,-0.014844,1.005344,192.000000,0.000000,0.000000,0.000000,0.000000,0.000000,0.000000,0.000000,0.000000,0.000000,1775739315.856339,0.000000
248.000000,16662.487884,18665.070077,-13372.512266,-386.618124,-13848.582071,-3979.258714,1360.796554,-628.978089,11308.239258,15693.450355,-1552.149838,2540.566330,-17806.405462,16232.417969,2296.239411,226.467875,0.005469,-0.014844,1.005344,192.000000,0.000000,0.000000,0.000000,0.000000,0.000000,0.000000,0.000000,0.000000,0.000000,1775739315.856351,0.000000
250.000000,16650.753218,18663.840731,-13399.937856,-406.287659,-13870.464429,-3985.248981,1348.860723,-649.586397,11322.186747,15675.524256,-1582.995246,2526.797655,-17830.254773,16222.583201,2464.346881,533.513788,0.005734,-0.014422,1.004672,192.000000,0.000000,24.000000,127.500000,72.000000,15.500000,48.000000,0.000000,0.000000,0.000000,1775739315.856363,0.000000
252.000000,16681.822143,18683.152638,-13351.725143,-381.387816,-13829.471329,-3965.802963,1367.926761,-617.176368,11343.219738,15699.150050,-1561.448164,2538.711135,-17819.011845,16240.129321,2389.535593,393.725979,0.005734,-0.014422,1.004672,192.000000,0.000000,0.000000,0.000000,0.000000,0.000000,0.000000,0.000000,0.000000,0.000000,1775739315.856375,0.000000
254.000000,16653.770704,18668.065210,-13387.085603,-408.209909,-13851.800722,-3980.979798,1352.369947,-644.736069,11316.397645,15688.488267,-1554.183847,2532.720868,-17803.075052,16235.413103,2344.742697,304.095483,0.005734,-0.014422,1.004672,192.000000,0.000000,0.000000,0.000000,0.000000,0.000000,0.000000,0.000000,0.000000,0.000000,1775739315.856386,0.000000
0.000000,16665.192445,18679.062269,-13373.071059,-394.955325,-13842.792969,-3982.052682,1363.702281,-633.448438,11356.451971,15689.672910,-1578.748414,2530.932728,-17833.741645,16231.568603,2491.548954,557.765431,0.005734,-0.014422,1.004672,192.000000,0.000000,0.000000,0.000000,0.000000,0.000000,0.000000,0.000000,0.000000,0.000000,1775739315.856397,0.000000
2.000000,16676.748297,18683.420859,-13356.463713,-386.416958,-13830.857138,-3983.371435,1368.597313,-617.556348,11327.998200,15702.882791,-1542.270367,2542.019193,-17792.055642,16244.398504,2303.727246,221.617546,0.005734,-0.014422,1.004672,192.000000,0.000000,0.000000,0.000000,0.000000,0.000000,0.000000,0.000000,0.000000,0.000000,1775739315.856409,0.000000
4.000000,16668.656965,18680.470429,-13386.325644,-407.002915,-13858.550949,-3996.760130,1357.332034,-635.214226,11347.913605,15687.124811,-1564.935036,2534.687821,-17824.108043,16234.519033,2474.181649,511.989058,0.005734,-0.014422,1.004672,192.000000,0.000000,0.000000,0.000000,0.000000,0.000000,0.000000,0.000000,0.000000,0.000000,1775739315.856420,0.000000
6.000000,16699.256503,18700.609350,-13340.750437,-377.096281,-13824.419835,-3978.498754,1375.593409,-603.720618,11356.340212,15704.715634,-1547.031289,2547.987109,-17809.020616,16240.062265,2398.900974,369.027301,0.006000,-0.018000,1.000000,192.000000,0.000000,24.000000,127.500000,56.000000,15.500000,32.000000,0.000000,0.000000,0.000000,1775739315.856431,0.000000
8.000000,16675.898931,18689.902865,-13375.105068,-403.426636,-13851.756019,-3988.579391,1355.767412,-625.960603,11333.876709,15704.939151,-1535.073106,2550.110525,-17779.628072,16242.386847,2347.223740,281.721387,0.006000,-0.018000,1.000000,192.000000,0.000000,0.000000,0.000000,0.000000,0.000000,0.000000,0.000000,0.000000,0.000000,1775739315.856443,0.000000
10.000000,16686.806582,18698.642397,-13363.124533,-390.842604,-13842.502396,-3980.175135,1366.898580,-614.002420,11375.518009,15706.257904,-1559.011824,2547.897702,-17812.507488,16238.922326,2497.069835,544.421440,0.006000,-0.018000,1.000000,192.000000,0.000000,0.000000,0.000000,0.000000,0.000000,0.000000,0.000000,0.000000,0.000000,1775739315.856455,0.000000
12.000000,16675.675413,18679.889283,-13361.068173,-388.339208,-13841.742437,-3988.914667,1365.646883,-614.672973,11338.212948,15699.127698,-1533.106152,2551.831609,-17797.777688,16250.656992,2306.252993,213.436808,0.006000,-0.018000,1.000000,192.000000,0.000000,0.000000,0.000000,0.000000,0.000000,0.000000,0.000000,0.000000,0.000000,1775739315.856466,0.000000
14.000000,16654.150683,18664.779504,-13397.881496,-405.862976,-13871.000871,-4000.135243,1352.995795,-642.031508,11331.395666,15669.556340,-1575.462708,2529.770437,-17831.797043,16219.588067,2467.654940,516.280593,0.006000,-0.018000,1.000000,192.000000,0.000000,0.000000,0.000000,0.000000,0.000000,0.000000,0.000000,0.000000,0.000000,1775739315.856478,0.000000
16.000000,16680.548093,18682.057402,-13358.050687,-378.839717,-13834.880452,-3974.766013,1368.329092,-617.332830,11345.007878,15689.538799,-1560.352929,2536.788885,-17817.871907,16235.435454,2393.067168,389.881479,0.002000,-0.016000,0.998000,192.000000,0.000000,8.000000,127.500000,64.000000,15.500000,24.000000,0.000000,0.000000,0.000000,1775739315.856490,0.000000
18.000000,16657.726962,18670.099219,-13387.867914,-403.650153,-13848.492664,-3974.833068,1350.246531,-644.087868,11318.766930,15686.409555,-1552.999205,2531.871501,-17807.880677,16242.252736,2339.601796,300.116873,0.002000,-0.016000,0.998000,192.000000,0.000000,0.000000,0.000000,0.000000,0.000000,0.000000,0.000000,0.000000,0.000000,1775739315.856502,0.000000
20.000000,16667.226454,18672.468504,-13370.232388,-394.530641,-13836.668591,-3972.352025,1355.968577,-638.142304,11363.492771,15692.064547,-1575.172135,2530.038658,-17829.293648,16242.520957,2490.990161,569.567152,0.002000,-0.016000,0.998000,192.000000,0.000000,0.000000,0.000000,0.000000,0.000000,0.000000,0.000000,0.000000,0.000000,1775739315.856514,0.000000
22.000000,16679.944596,18675.620100,-13355.815513,-389.702665,-13820.798853,-3974.073109,1358.740194,-622.473731,11334.211985,15694.992625,-1541.979795,2538.465266,-17781.058583,16245.314925,2306.275345,244.013994,0.002000,-0.016000,0.998000,192.000000,0.000000,0.000000,0.000000,0.000000,0.000000,0.000000,0.000000,0.000000,0.000000,1775739315.856526,0.000000
24.000000,16667.584082,18671.037992,-13387.487935,-406.444121,-13842.770617,-3986.858307,1353.398127,-636.667089,11350.081724,15683.660291,-1566.186734,2531.536225,-17819.481232,16234.429626,2474.159297,524.215463,0.002000,-0.016000,0.998000,192.000000,0.000000,0.000000,0.000000,0.000000,0.000000,0.000000,0.000000,0.000000,0.000000,1775739315.856538,0.000000
26.000000,16687.678300,18684.761963,-13346.450132,-379.711435,-13816.350855,-3971.927341,1370.318397,-610.314382,11358.418925,15701.027596,-1552.306301,2543.784981,-17801.108098,16247.572452,2407.528747,390.507327,0.010000,-0.016000,0.998000,192.000000,0.000000,40.000000,127.500000,64.000000,15.500000,24.000000,0.000000,0.000000,0.000000,1775739315.856549,0.000000
28.000000,16662.219663,18675.709507,-13380.737708,-403.471339,-13842.211824,-3990.613400,1353.308720,-636.667089,11325.114825,15693.919741,-1546.092516,2541.125124,-17782.265578,16246.633678,2355.538589,287.555192,0.010000,-0.016000,0.998000,192.000000,0.000000,0.000000,0.000000,0.000000,0.000000,0.000000,0.000000,0.000000,0.000000,1775739315.856560,0.000000
30.000000,16681.978605,18688.472353,-13367.371365,-390.864955,-13835.551004,-3984.287856,1361.422403,-626.877025,11365.795000,15702.681625,-1569.427737,2541.013365,-17820.889392,16242.990344,2503.976524,546.991890,0.010000,-0.016000,0.998000,192.000000,0.000000,0.000000,0.000000,0.000000,0.000000,0.000000,0.000000,0.000000,0.000000,1775739315.856572,0.000000
32.000000,16675.876579,18691.445135,-13356.106085,-385.232316,-13829.873661,-3989.741682,1363.322301,-617.668106,11330.322782,15712.516393,-1539.655213,2552.815086,-17784.701918,16259.798856,2318.233528,213.414456,0.010000,-0.016000,0.998000,192.000000,0.000000,0.000000,0.000000,0.000000,0.000000,0.000000,0.000000,0.000000,0.000000,1775739315.856584,0.000000
34.000000,16667.002936,18675.441286,-13386.213885,-405.058313,-13859.936757,-3996.916592,1355.074508,-632.934348,11346.013706,15694.769108,-1563.348062,2543.539112,-17822.565773,16239.548175,2475.835678,506.982268,0.010000,-0.016000,0.998000,192.000000,0.000000,0.000000,0.000000,0.000000,0.000000,0.000000,0.000000,0.000000,0.000000,1775739315.856595,0.000000
36.000000,16683.230303,18684.851370,-13349.378210,-379.622028,-13835.551004,-3985.964237,1373.559400,-606.671048,11355.759067,15702.346349,-1550.048774,2549.484676,-17803.343273,16244.331449,2401.270259,380.605505,0.004000,-0.016000,1.002000,192.000000,0.000000,16.000000,127.500000,64.000000,15.500000,40.000000,0.000000,0.000000,0.000000,1775739315.856607,0.000000
38.000000,16644.830006,18652.955431,-13391.466545,-402.376104,-13865.837618,-4002.884508,1357.399089,-633.448438,11317.671694,15682.542703,-1547.545379,2540.029888,-17804.907895,16235.927193,2337.858360,281.989608,0.004000,-0.016000,1.002000,192.000000,0.000000,0.000000,0.000000,0.000000,0.000000,0.000000,0.000000,0.000000,0.000000,1775739315.856627,0.000000
40.000000,16656.184692,18667.081734,-13379.731879,-389.769720,-13850.906652,-3991.395711,1364.126964,-628.553406,11346.773666,15677.468857,-1581.072996,2532.139722,-17847.063285,16227.455882,2482.876478,555.105574,0.004000,-0.016000,1.002000,192.000000,0.000000,0.000000,0.000000,0.000000,0.000000,0.000000,0.000000,0.000000,0.000000,1775739315.856638,0.000000
42.000000,16657.704611,18659.035106,-13368.935987,-388.674484,-13839.149635,-3982.656179,1361.355348,-629.134551,11315.190651,15687.258922,-1551.076955,2539.381688,-17808.998264,16239.704637,2296.306467,229.798285,0.004000,-0.016000,1.002000,192.000000,0.000000,0.000000,0.000000,0.000000,0.000000,0.000000,0.000000,0.000000,0.000000,1775739315.856650,0.000000
44.000000,16641.566651,18655.816454,-13398.976731,-414.222528,-13859.534426,-3984.779595,1345.776182,-656.873066,11324.891308,15666.516503,-1583.777557,2522.215548,-17828.980723,16225.891259,2462.916370,523.187282,0.004000,-0.016000,1.002000,192.000000,0.000000,0.000000,0.000000,0.000000,0.000000,0.000000,0.000000,0.000000,0.000000,1775739316.335883,0.000000
46.000000,16670.288643,18675.687155,-13356.307251,-389.948534,-13821.558812,-3963.165458,1359.790726,-629.581586,11343.286794,15678.452334,-1568.086632,2529.479865,-17808.104194,16228.729931,2399.996209,405.035961,0.008000,-0.014000,1.010000,192.000000,0.000000,32.000000,127.500000,72.000000,15.500000,72.000000,0.000000,0.000000,0.000000,1775739316.335982,0.000000
48.000000,16656.139988,18669.607481,-13386.839734,-414.110770,-13839.239042,-3967.881676,1343.004566,-647.239464,11325.204232,15675.501904,-1551.456934,2529.211644,-17799.722290,16231.434492,2346.128505,300.787425,0.008000,-0.014000,1.010000,192.000000,0.000000,0.000000,0.000000,0.000000,0.000000,0.000000,0.000000,0.000000,0.000000,1775739316.336062,0.000000
50.000000,16680.995128,18685.387812,-13368.220731,-394.262420,-13824.352780,-3954.671795,1359.991891,-623.300746,11367.538436,15686.141334,-1571.595856,2534.218435,-17820.084729,16238.698809,2501.786053,569.433042,0.008000,-0.014000,1.010000,192.000000,0.000000,0.000000,0.000000,0.000000,0.000000,0.000000,0.000000,0.000000,0.000000,1775739316.336126,0.000000
52.000000,16674.535474,18681.118629,-13358.967109,-384.360598,-13817.311980,-3962.874885,1362.919970,-613.264813,11343.197387,15708.113099,-1534.559016,2553.731508,-17781.952653,16259.016545,2314.769008,232.100514,0.008000,-0.014000,1.010000,192.000000,0.000000,0.000000,0.000000,0.000000,0.000000,0.000000,0.000000,0.000000,0.000000,1775739316.336203,0.000000
54.000000,16659.224529,18675.731859,-13395.333397,-402.577269,-13848.336202,-3981.985626,1351.341766,-638.164656,11341.833930,15682.945035,-1570.679435,2538.174693,-17823.526898,16243.392675,2470.381852,523.835483,0.008000,-0.014000,1.010000,192.000000,0.000000,0.000000,0.000000,0.000000,0.000000,0.000000,0.000000,0.000000,0.000000,1775739316.336268,0.000000
56.000000,16680.659852,18687.533580,-13354.675574,-374.101147,-13817.557850,-3973.201391,1369.089051,-609.710885,11353.725058,15703.285122,-1558.475382,2553.977377,-17809.087671,16256.557853,2407.372285,399.805653,0.004000,-0.010000,1.010000,192.000000,0.000000,16.000000,127.500000,88.000000,15.500000,72.000000,0.000000,0.000000,0.000000,1775739316.336313,0.000000
58.000000,16661.079724,18675.217769,-13388.203190,-399.828005,-13846.838635,-3987.171231,1351.788801,-634.029583,11325.874785,15699.664140,-1545.556074,2555.385537,-17788.635825,16255.216748,2345.055621,284.671817,0.004000,-0.010000,1.010000,192.000000,0.000000,0.000000,0.000000,0.000000,0.000000,0.000000,0.000000,0.000000,0.000000,1775739316.336392,0.000000
60.000000,16681.397460,18687.444173,-13371.461734,-392.630743,-13837.450902,-3978.498754,1361.109479,-621.534958,11368.320747,15698.948884,-1568.421908,2548.747068,-17818.855383,16245.940774,2499.550879,554.367966,0.004000,-0.010000,1.010000,192.000000,0.000000,0.000000,0.000000,0.000000,0.000000,0.000000,0.000000,0.000000,0.000000,1775739316.336440,0.000000
62.000000,16680.123410,18682.526789,-13362.275167,-387.109862,-13837.160329,-3985.740720,1362.294121,-614.360048,11341.744523,15711.264695,-1534.626071,2556.391365,-17768.005165,16256.960184,2304.844833,217.460122,0.004000,-0.010000,1.010000,192.000000,0.000000,0.000000,0.000000,0.000000,0.000000,0.000000,0.000000,0.000000,0.000000,1775739316.336486,0.000000
64.000000,16644.517081,18664.220710,-13403.000045,-412.792017,-13877.125249,-4006.617249,1347.586673,-642.255025,11336.625974,15684.688471,-1570.858249,2538.845246,-17853.478235,16232.350914,2456.054384,504.098893,0.004000,-0.010000,1.010000,192.000000,0.000000,0.000000,0.000000,0.000000,0.000000,0.000000,0.000000,0.000000,0.000000,1775739316.336532,0.000000
66.000000,16661.929090,18665.360649,-13366.074963,-389.412092,-13846.860987,-3995.888412,1364.708109,-622.540787,11337.117712,15688.108288,-1569.405385,2538.800542,-17839.262526,16231.210975,2385.780500,389.501499,0.004000,-0.016000,1.008000,192.000000,0.000000,16.000000,127.500000,64.000000,15.500000,64.000000,0.000000,0.000000,0.000000,1775739316.336560,0.000000
68.000000,16632.827119,18647.725123,-13397.590923,-417.977621,-13863.803609,-4007.980705,1347.497266,-653.095621,11305.668808,15677.737078,-1562.856324,2526.484731,-17817.983665,16226.047722,2323.285022,276.356968,0.004000,-0.016000,1.008000,192.000000,0.000000,0.000000,0.000000,0.000000,0.000000,0.000000,0.000000,0.000000,0.000000,1775739316.336572,0.000000
70.000000,16654.865939,18658.878643,-13378.189609,-406.868804,-13836.847405,-3989.920496,1356.192095,-642.299729,11351.892215,15678.944073,-1587.175022,2519.846263,-17840.938907,16223.052588,2489.067911,553.429193,0.004000,-0.016000,1.008000,192.000000,0.000000,0.000000,0.000000,0.000000,0.000000,0.000000,0.000000,0.000000,0.000000,1775739316.336584,0.000000
72.000000,16673.999032,18674.278995,-13356.664879,-394.329476,-13817.468443,-3978.677568,1358.919008,-626.988784,11332.625012,15697.361910,-1547.500676,2538.107638,-17782.913778,16242.632716,2311.639763,226.043192,0.004000,-0.016000,1.008000,192.000000,0.000000,0.000000,0.000000,0.000000,0.000000,0.000000,0.000000,0.000000,0.000000,1775739316.336596,0.000000
74.000000,16662.107904,18680.403373,-13385.118650,-406.466473,-13837.428550,-3975.928304,1349.419516,-641.584473,11348.003012,15691.103422,-1568.421908,2534.754876,-17816.441395,16241.246908,2473.935780,511.810245,0.004000,-0.016000,1.008000,192.000000,0.000000,0.000000,0.000000,0.000000,0.000000,0.000000,0.000000,0.000000,0.000000,1775739316.336608,0.000000
76.000000,16686.068974,18688.114725,-13346.897167,-373.788223,-13810.405291,-3959.186847,1366.943284,-613.354220,11374.333367,15716.562059,-1552.216894,2553.351528,-17796.503639,16263.531597,2412.312020,404.745389,0.003000,-0.015000,1.003000,192.000000,0.000000,8.000000,127.500000,72.000000,15.500000,24.000000,0.000000,0.000000,0.000000,1775739316.336620,0.000000
78.000000,16659.559805,18672.401449,-13386.057423,-394.351827,-13842.904728,-3980.264542,1350.648862,-635.370688,11334.971945,15705.319131,-1547.880655,2551.518685,-17784.925435,16253.629774,2340.115886,288.628076,0.003000,-0.015000,1.003000,192.000000,0.000000,0.000000,0.000000,0.000000,0.000000,0.000000,0.000000,0.000000,0.000000,1775739316.336632,0.000000
80.000000,16659.917433,18662.298460,-13379.486010,-385.679351,-13844.491702,-3975.190696,1360.573037,-629.469827,11354.887349,15694.478535,-1578.703711,2540.566330,-17837.161462,16241.850405,2491.705417,563.934513,0.003000,-0.015000,1.003000,192.000000,0.000000,0.000000,0.000000,0.000000,0.000000,0.000000,0.000000,0.000000,0.000000,1775739316.336644,0.000000
82.000000,16669.975718,18674.256644,-13362.789257,-382.840679,-13829.873661,-3969.401594,1363.769336,-619.590356,11323.527852,15699.150050,-1548.059469,2546.310728,-17785.864208,16250.969917,2299.927449,230.692355,0.003000,-0.015000,1.003000,192.000000,0.000000,0.000000,0.000000,0.000000,0.000000,0.000000,0.000000,0.000000,0.000000,1775739316.336655,0.000000
84.000000,16652.049619,18666.902920,-13394.640493,-407.204080,-13855.086429,-3985.584257,1348.927778,-649.519342,11337.810616,15684.353195,-1574.702749,2534.352545,-17822.766939,16236.910669,2460.100050,507.764579,0.003000,-0.015000,1.003000,192.000000,0.000000,0.000000,0.000000,0.000000,0.000000,0.000000,0.000000,0.000000,0.000000,1775739316.336676,0.000000
86.000000,16671.897968,18682.906769,-13355.010850,-387.825118,-13823.235193,-3975.682435,1362.316473,-629.358069,11344.806712,15698.859477,-1565.538533,2537.817065,-17816.664912,16247.572452,2403.974820,395.625877,0.004500,-0.014500,1.003500,192.000000,0.000000,24.000000,127.500000,72.000000,15.500000,48.000000,0.000000,0.000000,0.000000,1775739316.336687,0.000000
88.000000,16645.433503,18651.659030,-13394.148754,-415.295412,-13853.678269,-4001.699865,1342.088144,-656.493086,11311.793186,15682.073317,-1563.236304,2526.194158,-17815.860250,16233.982591,2333.298604,276.289913,0.004500,-0.014500,1.003500,192.000000,0.000000,0.000000,0.000000,0.000000,0.000000,0.000000,0.000000,0.000000,0.000000,1775739316.336699,0.000000
90.000000,16655.536491,18657.872815,-13386.236237,-406.108845,-13846.704524,-4000.090539,1349.933606,-651.285130,11343.532663,15679.659328,-1593.277048,2517.655792,-17849.544328,16225.690094,2491.705417,560.022957,0.004500,-0.014500,1.003500,192.000000,0.000000,0.000000,0.000000,0.000000,0.000000,0.000000,0.000000,0.000000,0.000000,1775739316.336711,0.000000
92.000000,16644.226509,18650.206167,-13373.406336,-401.213813,-13832.354704,-4001.856327,1351.565284,-646.770078,11312.039055,15677.692375,-1565.784403,2518.013420,-17812.306322,16229.691056,2308.085836,234.358041,0.004500,-0.014500,1.003500,192.000000,0.000000,0.000000,0.000000,0.000000,0.000000,0.000000,0.000000,0.000000,0.000000,1775739316.336723,0.000000
94.000000,16623.484090,18633.241192,-13403.648246,-421.151569,-13850.169045,-4001.208127,1341.037612,-667.870124,11317.314067,15651.764351,-1593.522917,2504.490614,-17841.698866,16216.123547,2467.923161,512.011410,0.004500,-0.014500,1.003500,192.000000,0.000000,0.000000,0.000000,0.000000,0.000000,0.000000,0.000000,0.000000,0.000000,1775739316.336734,0.000000
96.000000,16657.145817,18662.365516,-13361.246987,-393.591868,-13816.976704,-3973.737833,1358.293159,-636.510627,11332.312087,15673.065564,-1576.714406,2520.002725,-17824.219802,16233.021466,2415.418913,409.662772,0.004250,-0.014250,1.003750,192.000000,0.000000,16.000000,127.500000,72.000000,15.500000,48.000000,0.000000,0.000000,0.000000,1775739316.336746,0.000000
98.000000,16648.920375,18658.498664,-13389.074908,-415.071895,-13841.921251,-3989.562868,1343.876284,-652.536828,11309.848584,15677.178285,-1557.268388,2524.897757,-17801.041043,16236.150710,2343.915682,288.359855,0.004250,-0.014250,1.003750,192.000000,0.000000,0.000000,0.000000,0.000000,0.000000,0.000000,0.000000,0.000000,0.000000,1775739316.336758,0.000000
100.000000,16668.478151,18676.000080,-13374.434516,-395.089435,-13834.567527,-3979.772804,1355.946226,-639.170484,11351.623994,15687.683605,-1580.178926,2525.456551,-17832.467596,16243.102103,2500.668466,567.466088,0.004250,-0.014250,1.003750,192.000000,0.000000,0.000000,0.000000,0.000000,0.000000,0.000000,0.000000,0.000000,0.000000,1775739316.336770,0.000000
