Sample_index,EXG Channel 0,EXG Channel 1,EXG Channel 2,EXG Channel 3,EXG Channel 4,EXG Channel 5,EXG Channel 6,EXG Channel 7,EXG Channel 8,EXG Channel 9,EXG Channel 10,EXG Channel 11,EXG Channel 12,EXG Channel 13,EXG Channel 14,EXG Channel 15,Accel Channel 0,Accel Channel 1,Accel Channel 2,Not Used,Digital Channel 0 (D11),Digital Channel 1 (D12),Digital Channel 2 (D13),Digital Channel 3 (D17),Not Used,Digital Channel 4 (D18),Analog Channel 0,Analog Channel 1,Analog Channel 2,Timestamp,Marker Channel
90.000000,10060.229607,12721.115377,2009.019495,3031.321231,-16669.439276,-11121.378675,4194.215440,-1510.910870,-14994.041919,6214.030828,864.543124,3482.982931,10413.700093,-10032.848720,-3784.709130,763.513239,-0.003000,-0.012000,1.015000,192.000000,0.000000,0.000000,0.000000,0.000000,0.000000,0.000000,0.000000,0.000000,0.000000,1770297564.191570,101.000000
92.000000,10074.825296,12733.341781,2036.310975,3057.003386,-16650.641459,-11101.396215,4218.154158,-1490.660189,-15047.417885,6168.857952,820.666649,3441.095762,10363.028689,-10073.283025,-3827.378610,733.047811,-0.003000,-0.012000,1.015000,192.000000,0.000000,0.000000,0.000000,0.000000,0.000000,0.000000,0.000000,0.000000,0.000000,1770297564.191634,0.000000
94.000000,10091.946732,12751.066715,2043.418830,3062.747784,-16639.286773,-11089.594494,4223.965612,-1482.144175,-14984.967111,6219.864633,877.484784,3492.124795,10428.452245,-10022.432807,-3762.133868,778.623018,-0.000500,-0.012000,1.012500,192.000000,0.000000,8.000000,127.500000,80.000000,15.500000,72.000000,0.000000,0.000000,0.000000,1770297564.191688,0.000000
96.000000,10049.724287,12711.347665,2005.174995,3024.123970,-16679.408154,-11130.721704,4185.028873,-1524.858358,-15038.231318,6179.497383,827.998022,3447.689527,10372.014090,-10065.303453,-3812.760569,730.812637,-0.000500,-0.012000,1.012500,192.000000,0.000000,0.000000,0.000000,0.000000,0.000000,0.000000,0.000000,0.000000,0.000000,1770297564.191736,0.000000
98.000000,10102.094424,12766.779991,2059.556789,3085.121880,-16627.842680,-11074.171790,4242.070525,-1464.575704,-15009.844602,6201.424444,853.411955,3473.975178,10400.020826,-10039.218967,-3782.339845,762.932093,-0.000500,-0.012000,1.012500,192.000000,0.000000,0.000000,0.000000,0.000000,0.000000,0.000000,0.000000,0.000000,0.000000,1770297564.191794,0.000000
100.000000,10054.529912,12720.087197,2010.695876,3036.395077,-16670.221587,-11112.795605,4196.048283,-1508.765102,-15003.854335,6213.002648,863.134964,3486.268638,10396.980989,-10035.754446,-3777.869496,767.067166,-0.000500,-0.012000,1.012500,192.000000,0.000000,0.000000,0.000000,0.000000,0.000000,0.000000,0.000000,0.000000,0.000000,1770297564.191835,0.000000
102.000000,10080.815563,12745.501130,2034.813408,3063.552447,-16638.996200,-11087.158154,4219.025876,-1486.882745,-15049.720114,6173.440060,821.895995,3446.996623,10351.539892,-10064.722307,-3812.894680,731.349079,-0.000500,-0.012000,1.012500,192.000000,0.000000,0.000000,0.000000,0.000000,0.000000,0.000000,0.000000,0.000000,0.000000,1770297564.191853,0.000000
104.000000,10090.136241,12756.006450,2041.340118,3069.609770,-16635.174052,-11076.988110,4223.317411,-1483.842907,-14979.915617,6233.990936,878.334150,3500.037313,10419.399788,-10010.295810,-3761.575074,785.239134,-0.001250,-0.011000,1.007250,192.000000,127.500000,120.000000,127.500000,88.000000,15.500000,40.000000,0.000000,0.000000,0.000000,1770297564.191882,0.000000
106.000000,10049.254900,12715.147461,2001.621068,3026.537958,-16673.596701,-11110.739244,4181.609056,-1527.473513,-15046.970850,6180.994949,819.817283,3446.482533,10364.012166,-10063.805886,-3808.312572,741.362660,-0.001250,-0.011000,1.007250,192.000000,0.000000,0.000000,0.000000,0.000000,0.000000,0.000000,0.000000,0.000000,0.000000,1770297564.191900,0.000000
108.000000,10092.684340,12759.046287,2049.118525,3075.912961,-16625.763968,-11070.617863,4231.989888,-1479.685483,-15010.045768,6206.453586,846.617025,3471.360024,10411.062588,-10037.475531,-3778.428290,769.481155,-0.001250,-0.011000,1.007250,192.000000,0.000000,0.000000,0.000000,0.000000,0.000000,0.000000,0.000000,0.000000,0.000000,1770297564.191919,0.000000
110.000000,10051.065391,12717.136767,2008.147777,3031.522397,-16680.704556,-11114.561393,4190.482699,-1516.230585,-15018.561783,6206.744159,849.813324,3479.183135,10417.522242,-10035.150949,-3782.049272,776.141974,-0.001250,-0.011000,1.007250,192.000000,0.000000,0.000000,0.000000,0.000000,0.000000,0.000000,0.000000,0.000000,0.000000,1770297564.191936,0.000000
112.000000,10077.641616,12743.824749,2034.411077,3058.277435,-16659.738619,-11097.194087,4216.969516,-1486.189841,-15054.212815,6176.815173,820.487835,3449.343556,10342.979174,-10074.132392,-3823.154130,734.031288,-0.001250,-0.011000,1.007250,192.000000,0.000000,0.000000,0.000000,0.000000,0.000000,0.000000,0.000000,0.000000,0.000000,1770297564.191955,0.000000
114.000000,10087.454031,12752.407819,2041.965966,3066.905208,-16648.965078,-11083.738337,4224.814978,-1477.673826,-14993.036090,6229.609994,876.434252,3501.065493,10396.489250,-10015.369656,-3774.516734,779.002998,-0.001625,-0.012500,1.005625,192.000000,127.500000,120.000000,127.500000,72.000000,15.500000,48.000000,0.000000,0.000000,0.000000,1770297564.191972,0.000000
116.000000,10058.732040,12723.171738,2010.539414,3033.042316,-16673.283776,-11107.699407,4189.342760,-1510.441483,-15048.379010,6186.761700,828.288594,3457.881922,10351.964575,-10054.038173,-3826.171616,731.460837,-0.001625,-0.012500,1.005625,192.000000,0.000000,0.000000,0.000000,0.000000,0.000000,0.000000,0.000000,0.000000,0.000000,1770297564.192031,0.000000
118.000000,10106.542421,12770.602139,2062.440164,3089.413415,-16625.316933,-11057.676203,4241.377621,-1458.965416,-15003.295541,6214.880194,865.191324,3490.403711,10396.086919,-10023.170414,-3790.073549,764.429660,-0.001625,-0.012500,1.005625,192.000000,0.000000,0.000000,0.000000,0.000000,0.000000,0.000000,0.000000,0.000000,0.000000,1770297564.192058,0.000000
120.000000,10060.251958,12723.484662,2012.819292,3037.222092,-16677.798829,-11114.293172,4192.807280,-1508.139254,-15012.035073,6214.299049,864.386662,3490.157841,10397.696244,-10029.227737,-3782.295141,765.413137,-0.001625,-0.012500,1.005625,192.000000,0.000000,0.000000,0.000000,0.000000,0.000000,0.000000,0.000000,0.000000,0.000000,1770297564.192077,0.000000
122.000000,10088.884543,12749.703258,2041.407173,3068.916865,-16648.272174,-11086.621712,4222.356286,-1476.779756,-15045.674449,6186.426423,833.474199,3459.647710,10359.877093,-10063.224740,-3817.253270,731.147913,-0.001625,-0.012500,1.005625,192.000000,0.000000,0.000000,0.000000,0.000000,0.000000,0.000000,0.000000,0.000000,0.000000,1770297564.192096,0.000000
124.000000,10086.738776,12746.752828,2039.820199,3067.598113,-16652.228433,-11087.269913,4222.892728,-1477.763233,-14986.487029,6229.766456,884.011493,3504.172385,10411.531974,-10017.962458,-3760.457487,779.047701,0.002188,-0.012250,1.005812,192.000000,0.000000,24.000000,127.500000,80.000000,15.500000,56.000000,0.000000,0.000000,0.000000,1770297564.192114,0.000000
126.000000,10055.803961,12715.594496,2006.873728,3032.550577,-16679.564617,-11113.823785,4186.191164,-1513.257803,-15048.289603,6178.692720,828.199187,3451.802248,10361.620529,-10065.303453,-3814.101674,736.065297,0.002188,-0.012250,1.005812,192.000000,0.000000,0.000000,0.000000,0.000000,0.000000,0.000000,0.000000,0.000000,0.000000,1770297564.192133,0.000000
128.000000,10106.698883,12767.495247,2057.411022,3087.558220,-16626.233354,-11060.112543,4238.226025,-1463.011082,-15009.263457,6209.851052,859.804554,3481.753586,10430.530957,-10029.406551,-3785.625551,768.318864,0.002188,-0.012250,1.005812,192.000000,0.000000,0.000000,0.000000,0.000000,0.000000,0.000000,0.000000,0.000000,0.000000,1770297564.192152,0.000000
130.000000,10058.642633,12724.043456,2009.444178,3032.818798,-16671.160361,-11107.945276,4186.079405,-1514.956536,-15009.285809,6216.131892,863.313778,3488.034426,10402.054835,-10027.484301,-3775.991950,776.141974,0.002188,-0.012250,1.005812,192.000000,0.000000,0.000000,0.000000,0.000000,0.000000,0.000000,0.000000,0.000000,0.000000,1770297564.192170,0.000000
132.000000,10091.678511,12756.766409,2038.590853,3066.346415,-16636.403398,-11073.076555,4214.153196,-1485.072253,-15049.965984,6185.286484,823.304155,3451.735193,10355.630261,-10062.822409,-3817.253270,739.730983,0.002188,-0.012250,1.005812,192.000000,0.000000,0.000000,0.000000,0.000000,0.000000,0.000000,0.000000,0.000000,0.000000,1770297564.192189,0.000000
134.000000,10097.914648,12760.119171,2042.927091,3070.012101,-16636.738674,-11066.102811,4219.405856,-1479.238448,-14976.495800,6239.601223,882.312761,3507.323981,10426.708809,-10005.065501,-3767.855915,784.747396,0.002094,-0.010125,1.004906,192.000000,0.000000,8.000000,127.500000,96.000000,15.500000,48.000000,0.000000,0.000000,0.000000,1770297564.192207,0.000000
136.000000,10047.623223,12711.615886,2001.151681,3024.638060,-16680.302224,-11116.997733,4177.250466,-1521.505597,-15051.687068,6181.531391,823.348859,3454.037422,10363.811000,-10066.801020,-3813.297011,730.410305,0.002094,-0.010125,1.004906,192.000000,0.000000,0.000000,0.000000,0.000000,0.000000,0.000000,0.000000,0.000000,0.000000,1770297564.192225,0.000000
138.000000,10095.299494,12759.962709,2045.586949,3078.237543,-16642.259555,-11078.217456,4223.675039,-1476.735053,-15025.244954,6201.290333,844.538312,3471.091803,10378.853724,-10039.375429,-3783.412729,760.831030,0.002094,-0.010125,1.004906,192.000000,0.000000,0.000000,0.000000,0.000000,0.000000,0.000000,0.000000,0.000000,0.000000,1770297564.192244,0.000000
140.000000,10063.314147,12725.004581,2007.320763,3032.952909,-16676.770649,-11115.209593,4181.251428,-1516.521158,-15007.631780,6214.410807,855.535371,3483.497022,10396.980989,-10031.261746,-3786.497269,763.088556,0.002094,-0.010125,1.004906,192.000000,0.000000,0.000000,0.000000,0.000000,0.000000,0.000000,0.000000,0.000000,0.000000,1770297564.192263,0.000000
142.000000,10085.151802,12746.037572,2038.076763,3058.724470,-16643.757122,-11085.772346,4206.464196,-1493.632971,-15044.288641,6177.418670,822.275975,3449.254149,10364.950939,-10071.293720,-3818.706133,729.270366,0.002094,-0.010125,1.004906,192.000000,0.000000,0.000000,0.000000,0.000000,0.000000,0.000000,0.000000,0.000000,0.000000,1770297564.192281,0.000000
144.000000,10100.350988,12760.588558,2051.107830,3067.955740,-16635.218756,-11077.412793,4217.349496,-1482.613561,-14980.407355,6231.733409,876.836583,3500.506699,10423.579565,-9998.650551,-3764.726670,778.734777,-0.000953,-0.009063,1.007453,192.000000,127.500000,112.000000,127.500000,96.000000,15.500000,72.000000,0.000000,0.000000,0.000000,1770297564.192299,0.000000
146.000000,10064.655252,12722.054150,2009.488882,3027.633193,-16674.334308,-11116.953029,4177.809260,-1518.644574,-15032.576326,6190.270923,830.434362,3458.016033,10377.512619,-10057.010955,-3807.619668,736.154704,-0.000953,-0.009063,1.007453,192.000000,0.000000,0.000000,0.000000,0.000000,0.000000,0.000000,0.000000,0.000000,0.000000,1770297564.192317,0.000000
148.000000,10113.069131,12769.261035,2057.478077,3083.020816,-16628.803805,-11064.582892,4231.721667,-1460.619445,-15002.066195,6210.119272,857.725842,3482.714711,10415.398826,-10046.796208,-3788.061892,756.159515,-0.000953,-0.009063,1.007453,192.000000,0.000000,0.000000,0.000000,0.000000,0.000000,0.000000,0.000000,0.000000,0.000000,1770297564.192335,0.000000
150.000000,10067.806848,12724.937525,2010.718228,3034.785752,-16676.837704,-11107.922925,4186.794661,-1505.769969,-15001.999140,6218.456473,867.158278,3494.359969,10410.481442,-10030.837063,-3785.312627,764.027329,-0.000953,-0.009063,1.007453,192.000000,0.000000,0.000000,0.000000,0.000000,0.000000,0.000000,0.000000,0.000000,0.000000,1770297564.192353,0.000000
152.000000,10089.711558,12745.121151,2038.523798,3056.824572,-16651.066142,-11087.158154,4211.761559,-1486.323951,-15044.512158,6179.497383,827.193359,3454.305643,10363.408668,-10069.460877,-3816.336848,731.013802,-0.000953,-0.009063,1.007453,192.000000,0.000000,0.000000,0.000000,0.000000,0.000000,0.000000,0.000000,0.000000,0.000000,1770297564.192372,0.000000
154.000000,10091.611456,12747.669249,2047.330385,3061.294921,-16644.204157,-11080.095003,4218.377676,-1485.675750,-14981.793163,6226.100770,880.859897,3501.423121,10419.824471,-10022.812786,-3760.591598,776.879582,-0.000953,-0.009063,1.007453,192.000000,0.000000,0.000000,0.000000,0.000000,0.000000,0.000000,0.000000,0.000000,0.000000,1770297564.192390,0.000000
156.000000,10061.458953,12719.237831,2010.293545,3025.576833,-16681.263349,-11111.588611,4182.145498,-1519.113960,-15044.154530,6177.932760,824.689963,3452.852780,10365.643843,-10063.671775,-3816.202738,741.049736,-0.006000,-0.004000,1.004000,192.000000,127.500000,104.000000,127.500000,112.000000,15.500000,48.000000,0.000000,0.000000,0.000000,1770297564.192409,0.000000
158.000000,10112.286819,12766.265901,2062.909551,3081.031511,-16628.245011,-11065.164037,4237.600176,-1458.451326,-15001.730919,6203.458453,859.983368,3483.251152,10405.474652,-10039.710705,-3793.895697,764.027329,-0.006000,-0.004000,1.004000,192.000000,0.000000,0.000000,0.000000,0.000000,0.000000,0.000000,0.000000,0.000000,0.000000,1770297564.192427,0.000000
160.000000,10073.350081,12729.139653,2017.691972,3031.745914,-16672.859093,-11103.966666,4191.868507,-1498.997390,-14999.629855,6211.348618,872.969731,3494.047045,10400.803137,-10033.720438,-3788.732444,765.591951,-0.006000,-0.004000,1.004000,192.000000,0.000000,0.000000,0.000000,0.000000,0.000000,0.000000,0.000000,0.000000,0.000000,1770297564.192445,0.000000
162.000000,10087.968122,12744.629412,2035.774533,3054.544694,-16654.240090,-11080.095003,4212.968554,-1482.792375,-15040.913527,6176.435194,833.273033,3456.227893,10365.777953,-10068.231531,-3822.595337,727.683392,-0.006000,-0.004000,1.004000,192.000000,0.000000,0.000000,0.000000,0.000000,0.000000,0.000000,0.000000,0.000000,0.000000,1770297564.192464,0.000000
164.000000,10095.321845,12754.240662,2048.671490,3064.670034,-16643.310087,-11079.491506,4222.490397,-1477.986750,-14981.547294,6223.038581,880.479918,3504.574717,10434.397809,-10023.639801,-3767.252417,786.066149,-0.006000,-0.004000,1.004000,192.000000,0.000000,0.000000,0.000000,0.000000,0.000000,0.000000,0.000000,0.000000,0.000000,1770297564.192482,0.000000
166.000000,10063.850589,12720.824804,2015.389742,3024.928632,-16671.696803,-11115.231945,4184.403024,-1517.638745,-15036.152606,6179.855010,832.222501,3458.887751,10378.049061,-10063.291796,-3804.915107,734.523026,-0.002000,-0.010000,1.000000,192.000000,127.500000,120.000000,127.500000,88.000000,15.500000,32.000000,0.000000,0.000000,0.000000,1770297564.192500,0.000000
168.000000,10114.343180,12770.289215,2064.340063,3080.852697,-16625.607506,-11061.096020,4237.689583,-1463.703986,-15000.188649,6204.687799,860.765679,3482.960580,10400.043178,-10035.195653,-3784.910296,757.880599,-0.002000,-0.010000,1.000000,192.000000,0.000000,0.000000,0.000000,0.000000,0.000000,0.000000,0.000000,0.000000,0.000000,1770297564.192518,0.000000
170.000000,10077.909837,12731.039552,2022.251728,3035.433952,-16670.802733,-11102.267933,4195.914173,-1497.700989,-14987.492858,6220.244613,878.155336,3500.439644,10407.843936,-10023.617449,-3779.456470,769.011768,-0.002000,-0.010000,1.000000,192.000000,0.000000,0.000000,0.000000,0.000000,0.000000,0.000000,0.000000,0.000000,0.000000,1770297564.192536,0.000000
172.000000,10095.210087,12747.356325,2045.698708,3062.077232,-16644.740599,-11071.824857,4219.517615,-1476.176259,-15036.376123,6170.422574,836.223464,3458.753641,10375.255093,-10072.947749,-3817.119159,735.931186,-0.002000,-0.010000,1.000000,192.000000,0.000000,0.000000,0.000000,0.000000,0.000000,0.000000,0.000000,0.000000,0.000000,1770297564.192554,0.000000
174.000000,10100.753319,12753.100723,2052.515990,3069.408604,-16635.442273,-11069.343814,4227.385429,-1472.398814,-14967.599805,6224.245575,893.108653,3509.849728,10424.205413,-10015.995504,-3755.718917,779.517088,-0.002000,-0.010000,1.000000,192.000000,0.000000,0.000000,0.000000,0.000000,0.000000,0.000000,0.000000,0.000000,0.000000,1770297564.192572,0.000000
176.000000,10062.062450,12718.813147,2014.965059,3027.789656,-16672.389707,-11110.359265,4184.648893,-1516.342344,-15034.878556,6178.580961,834.748248,3460.295911,10364.615663,-10068.678566,-3808.178462,740.468590,-0.002000,-0.010000,1.000000,192.000000,0.000000,0.000000,127.500000,64.000000,15.500000,32.000000,0.000000,0.000000,0.000000,1770297564.192590,0.000000
178.000000,10105.313075,12760.812075,2065.211781,3077.343473,-16620.712473,-11057.251520,4231.855778,-1472.130593,-14996.165335,6201.089168,857.591731,3481.127737,10403.373588,-10041.945880,-3789.157127,770.978721,-0.002000,-0.010000,1.000000,192.000000,0.000000,0.000000,0.000000,0.000000,0.000000,0.000000,0.000000,0.000000,0.000000,1770297564.192608,0.000000
180.000000,10060.475476,12713.962819,2016.037943,3026.023868,-16675.809524,-11113.957896,4183.754824,-1517.683449,-14999.763966,6199.502194,861.145659,3484.368740,10426.194719,-10040.202444,-3770.895752,778.555963,-0.002000,-0.010000,1.000000,192.000000,0.000000,0.000000,0.000000,0.000000,0.000000,0.000000,0.000000,0.000000,0.000000,1770297564.192638,0.000000
182.000000,10094.517183,12746.395200,2045.944577,3059.149153,-16646.506387,-11085.124145,4215.628411,-1476.533887,-15040.734713,6166.287502,827.774504,3451.936358,10356.479628,-10077.596912,-3815.331020,731.527893,-0.002000,-0.010000,1.000000,192.000000,0.000000,0.000000,0.000000,0.000000,0.000000,0.000000,0.000000,0.000000,0.000000,1770297564.192657,0.000000
184.000000,10098.741662,12752.385468,2051.130182,3064.468868,-16642.170148,-11078.932712,4222.937432,-1470.208343,-14976.473448,6218.925860,889.733540,3506.698132,10426.418236,-10028.668943,-3760.211618,786.133204,-0.002000,-0.010000,1.000000,192.000000,0.000000,0.000000,0.000000,0.000000,0.000000,0.000000,0.000000,0.000000,0.000000,1770297564.192675,0.000000
186.000000,10069.907912,12723.752883,2015.859129,3028.013173,-16673.462590,-11108.258201,4186.749957,-1504.182995,-15033.112768,6175.183496,839.866798,3460.474725,10377.847895,-10071.919569,-3806.569136,739.552169,-0.002000,-0.018000,1.000000,192.000000,127.500000,120.000000,127.500000,56.000000,15.500000,32.000000,0.000000,0.000000,0.000000,1770297564.192694,0.000000
188.000000,10115.103139,12768.702241,2067.961045,3080.450366,-16622.835889,-11062.638290,4238.829522,-1459.032471,-14990.286826,6207.191194,871.673330,3491.431891,10414.951791,-10039.218967,-3785.223220,759.244056,-0.002000,-0.018000,1.000000,192.000000,0.000000,0.000000,0.000000,0.000000,0.000000,0.000000,0.000000,0.000000,0.000000,1770297564.192712,0.000000
190.000000,10069.773802,12722.769406,2020.664754,3028.035525,-16672.434410,-11108.615829,4189.298056,-1511.871995,-14994.734823,6203.167880,867.381795,3486.894487,10416.672875,-10042.996412,-3768.593522,771.090480,-0.002000,-0.018000,1.000000,192.000000,0.000000,0.000000,0.000000,0.000000,0.000000,0.000000,0.000000,0.000000,0.000000,1770297564.192730,0.000000
192.000000,10096.260619,12747.557491,2047.017461,3059.350319,-16640.046732,-11070.371994,4216.187205,-1483.373521,-15034.699742,6168.701490,830.836693,3451.556379,10389.314340,-10073.819467,-3807.932592,738.255768,-0.002000,-0.018000,1.000000,192.000000,0.000000,0.000000,0.000000,0.000000,0.000000,0.000000,0.000000,0.000000,0.000000,1770297564.192748,0.000000
194.000000,10107.302380,12759.001584,2054.997033,3068.536886,-16630.793110,-11068.002709,4224.010315,-1471.437689,-14963.107105,6223.284450,894.673275,3507.815720,10431.402675,-10017.873051,-3753.170818,786.937867,-0.002000,-0.018000,1.000000,192.000000,0.000000,0.000000,0.000000,0.000000,0.000000,0.000000,0.000000,0.000000,0.000000,1770297564.192766,0.000000
196.000000,10067.382165,12718.835499,2012.104036,3027.543786,-16669.036945,-11105.687750,4184.715949,-1509.279193,-15030.117635,6173.775336,840.179722,3457.747812,10388.464974,-10074.981758,-3804.199851,738.792209,-0.006000,-0.016000,1.006000,192.000000,127.500000,104.000000,127.500000,64.000000,15.500000,56.000000,0.000000,0.000000,0.000000,1770297564.192784,0.000000
198.000000,10110.386921,12762.287290,2062.976606,3080.182145,-16624.869898,-11055.977470,4236.862568,-1463.324006,-14996.791184,6196.372950,866.621836,3482.401786,10397.338617,-10045.656269,-3783.613894,771.738681,-0.006000,-0.016000,1.006000,192.000000,0.000000,0.000000,0.000000,0.000000,0.000000,0.000000,0.000000,0.000000,0.000000,1770297564.192802,0.000000
200.000000,10067.292758,12722.478833,2017.244937,3027.163807,-16671.428582,-11105.844212,4187.845193,-1513.526024,-14997.417032,6197.267019,865.951284,3483.564077,10417.879870,-10040.671830,-3770.962807,777.036044,-0.006000,-0.016000,1.006000,192.000000,0.000000,0.000000,0.000000,0.000000,0.000000,0.000000,0.000000,0.000000,0.000000,1770297564.192820,0.000000
202.000000,10084.280084,12735.532252,2038.747315,3049.806124,-16652.116674,-11095.093023,4209.191109,-1496.046960,-15038.812463,6162.219484,823.952356,3446.080201,10366.381450,-10084.257732,-3812.514700,736.221759,-0.006000,-0.016000,1.006000,192.000000,0.000000,0.000000,0.000000,0.000000,0.000000,0.000000,0.000000,0.000000,0.000000,1770297564.192839,0.000000
204.000000,10100.619209,12751.536101,2045.452839,3059.909112,-16644.293564,-11082.352529,4217.461254,-1483.015893,-14973.858294,6208.018209,877.775357,3495.634019,10432.274393,-10033.273403,-3768.012377,784.434472,-0.006000,-0.016000,1.006000,192.000000,0.000000,0.000000,0.000000,0.000000,0.000000,0.000000,0.000000,0.000000,0.000000,1770297564.192856,0.000000
206.000000,10065.348156,12717.002656,2007.544280,3021.173539,-16675.295433,-11120.350494,4180.714986,-1514.665963,-15032.017533,6168.813249,831.127266,3453.188056,10401.853669,-10082.938979,-3816.649773,733.003108,-0.002000,-0.010000,1.008000,192.000000,127.500000,120.000000,127.500000,88.000000,15.500000,64.000000,0.000000,0.000000,0.000000,1770297564.192874,0.000000
208.000000,10110.319866,12764.634224,2059.422679,3077.075252,-16630.279020,-11057.139761,4233.442752,-1465.715643,-15000.993312,6196.350598,860.206885,3478.311417,10411.241402,-10050.663060,-3782.518659,757.478268,-0.002000,-0.010000,1.008000,192.000000,0.000000,0.000000,0.000000,0.000000,0.000000,0.000000,0.000000,0.000000,0.000000,1770297564.192892,0.000000
210.000000,10068.432697,12719.550755,2017.334344,3025.353316,-16673.775515,-11103.139651,4186.213516,-1514.040114,-14996.165335,6199.502194,864.990159,3482.178269,10400.803137,-10047.667926,-3773.265037,772.230419,-0.002000,-0.010000,1.008000,192.000000,0.000000,0.000000,0.000000,0.000000,0.000000,0.000000,0.000000,0.000000,0.000000,1770297564.671536,0.000000
212.000000,10080.837915,12731.799511,2034.880463,3047.705060,-16651.334363,-11086.800526,4205.324257,-1499.042094,-15039.505367,6154.619891,820.532539,3438.547664,10370.985910,-10089.063357,-3811.553575,730.544416,-0.002000,-0.010000,1.008000,192.000000,0.000000,0.000000,0.000000,0.000000,0.000000,0.000000,0.000000,0.000000,0.000000,1770297564.671593,0.000000
214.000000,10091.320883,12742.461293,2044.156437,3062.993653,-16639.867918,-11069.433221,4217.729475,-1484.960495,-14983.737765,6199.748063,871.606275,3488.570868,10437.728219,-10039.397781,-3762.089165,783.361588,-0.002000,-0.010000,1.008000,192.000000,0.000000,0.000000,0.000000,0.000000,0.000000,0.000000,0.000000,0.000000,0.000000,1770297564.671642,0.000000
216.000000,10060.453124,12715.594496,2006.225527,3021.285298,-16677.307090,-11106.112433,4178.032777,-1519.851568,-15039.483015,6165.594598,826.142827,3449.030632,10372.438773,-10077.954540,-3812.849976,740.870922,-0.004000,-0.004000,1.004000,192.000000,127.500000,112.000000,127.500000,112.000000,15.500000,48.000000,0.000000,0.000000,0.000000,1770297564.671685,0.000000
218.000000,10102.072072,12757.660479,2054.773516,3070.839115,-16629.831985,-11061.833627,4228.413609,-1472.801146,-15006.625951,6185.286484,851.467353,3468.521353,10399.864364,-10063.045926,-3786.139642,759.445221,-0.004000,-0.004000,1.004000,192.000000,0.000000,0.000000,0.000000,0.000000,0.000000,0.000000,0.000000,0.000000,0.000000,1770297564.671743,0.000000
220.000000,10063.381203,12717.919078,2013.802768,3027.633193,-16673.887274,-11103.452576,4187.822841,-1511.246146,-15001.999140,6190.829717,860.050423,3476.813850,10424.898317,-10041.990583,-3775.857839,768.296512,-0.004000,-0.004000,1.004000,192.000000,0.000000,0.000000,0.000000,0.000000,0.000000,0.000000,0.000000,0.000000,0.000000,1770297564.671790,0.000000
222.000000,10086.448203,12740.919023,2034.522836,3054.075307,-16646.506387,-11080.810258,4211.761559,-1489.989637,-15044.936841,6158.911426,822.477141,3443.979137,10369.935378,-10089.376281,-3814.258136,729.493884,-0.004000,-0.004000,1.004000,192.000000,0.000000,0.000000,0.000000,0.000000,0.000000,0.000000,0.000000,0.000000,0.000000,1770297564.671806,0.000000
224.000000,10093.511354,12750.507921,2042.792981,3064.491220,-16638.258593,-11075.378785,4222.065714,-1482.725320,-14979.647396,6207.124139,878.267095,3494.538783,10430.419198,-10035.083894,-3762.960883,777.214858,-0.004000,-0.004000,1.004000,192.000000,0.000000,0.000000,0.000000,0.000000,0.000000,0.000000,0.000000,0.000000,0.000000,1770297564.671822,0.000000
226.000000,10056.876845,12713.918115,2000.771701,3027.610842,-16678.111753,-11114.047302,4180.782042,-1521.527949,-15045.875614,6159.917254,824.667612,3445.879036,10375.635073,-10080.167363,-3812.179424,742.547303,-0.003000,-0.008000,1.007000,192.000000,127.500000,120.000000,127.500000,80.000000,15.500000,72.000000,0.000000,0.000000,0.000000,1770297564.671838,0.000000
228.000000,10109.068168,12767.808171,2057.276911,3079.824517,-16625.272229,-11055.821008,4235.007374,-1466.296788,-15008.414091,6191.924952,856.429441,3476.970312,10436.744742,-10051.490075,-3784.150336,763.446184,-0.003000,-0.008000,1.007000,192.000000,0.000000,0.000000,0.000000,0.000000,0.000000,0.000000,0.000000,0.000000,0.000000,1770297564.671850,0.000000
230.000000,10061.816581,12722.098854,2009.935917,3028.281394,-16670.378050,-11105.464233,4187.264048,-1513.481321,-15006.156564,6200.396264,862.084432,3487.319170,10426.015905,-10044.091647,-3765.643092,767.111870,-0.003000,-0.008000,1.007000,192.000000,0.000000,0.000000,0.000000,0.000000,0.000000,0.000000,0.000000,0.000000,0.000000,1770297564.671862,0.000000
232.000000,10090.873848,12746.417552,2039.529626,3056.109316,-16646.014648,-11079.245636,4212.476815,-1486.905096,-15049.764818,6161.437173,819.034972,3448.293024,10352.389258,-10084.704767,-3818.326154,730.320898,-0.003000,-0.008000,1.007000,192.000000,0.000000,0.000000,0.000000,0.000000,0.000000,0.000000,0.000000,0.000000,0.000000,1770297564.671874,0.000000
234.000000,10093.399595,12748.295098,2044.447010,3059.842057,-16642.326610,-11079.022119,4218.578842,-1484.871088,-14978.596864,6206.520642,876.858935,3495.276391,10428.385190,-10038.771932,-3760.323377,783.830975,-0.003000,-0.008000,1.007000,192.000000,0.000000,0.000000,0.000000,0.000000,0.000000,0.000000,0.000000,0.000000,0.000000,1770297564.671885,0.000000
236.000000,10056.228644,12712.711121,2003.990353,3026.247385,-16681.039832,-11110.873355,4182.167850,-1522.310260,-15046.926146,6162.934740,822.454789,3448.628300,10374.718651,-10078.312168,-3809.497214,743.709593,-0.000500,-0.011000,1.009500,192.000000,0.000000,8.000000,127.500000,72.000000,15.500000,80.000000,0.000000,0.000000,0.000000,1770297564.671898,0.000000
238.000000,10107.458843,12765.528293,2055.846400,3089.771043,-16627.887383,-11052.021212,4238.606005,-1466.542657,-15013.353826,6190.941476,850.595635,3475.696263,10400.378454,-10051.668889,-3791.839336,765.167268,-0.000500,-0.011000,1.009500,192.000000,0.000000,0.000000,0.000000,0.000000,0.000000,0.000000,0.000000,0.000000,0.000000,1770297564.671910,0.000000
240.000000,10070.936092,12726.390389,2012.863995,3038.764362,-16673.127314,-11101.843250,4192.427301,-1506.552280,-14998.869896,6205.559517,865.347787,3489.397882,10430.843881,-10038.391952,-3777.623627,774.242076,-0.000500,-0.011000,1.009500,192.000000,0.000000,0.000000,0.000000,0.000000,0.000000,0.000000,0.000000,0.000000,0.000000,1770297564.671921,0.000000
242.000000,10089.465688,12745.724648,2035.260443,3059.551485,-16652.206081,-11081.123183,4215.159025,-1482.702968,-15042.634611,6164.544066,828.422705,3452.025765,10377.199695,-10083.721290,-3816.314497,736.869959,-0.000500,-0.011000,1.009500,192.000000,0.000000,0.000000,0.000000,0.000000,0.000000,0.000000,0.000000,0.000000,0.000000,1770297564.671934,0.000000
244.000000,10102.161479,12757.749886,2048.403269,3068.000444,-16643.533605,-11070.059069,4224.546757,-1473.874029,-14985.682367,6212.130929,879.027054,3501.937211,10434.241347,-10026.232603,-3766.000720,784.836803,-0.000500,-0.011000,1.009500,192.000000,0.000000,0.000000,0.000000,0.000000,0.000000,0.000000,0.000000,0.000000,0.000000,1770297564.671946,0.000000
246.000000,10060.877807,12719.036665,2009.019495,3028.683725,-16677.374146,-11107.274724,4182.905457,-1516.901137,-15042.165225,6169.416746,828.355650,3456.764335,10386.989759,-10076.211104,-3806.792653,741.340308,0.000750,-0.012500,1.011750,192.000000,0.000000,8.000000,127.500000,72.000000,15.500000,88.000000,0.000000,0.000000,0.000000,1770297564.671958,0.000000
248.000000,10115.885450,12771.920892,2063.311882,3094.822537,-16625.451043,-11043.773418,4241.534083,-1462.340529,-15008.078815,6195.769453,854.775411,3481.105385,10396.913933,-10051.847702,-3784.105633,764.340253,0.000750,-0.012500,1.011750,192.000000,0.000000,0.000000,0.000000,0.000000,0.000000,0.000000,0.000000,0.000000,0.000000,1770297564.671970,0.000000
250.000000,10064.051755,12717.069711,2012.327553,3045.536941,-16675.317785,-11094.668340,4192.293190,-1515.984716,-14998.199343,6204.374874,864.207848,3489.755510,10417.589297,-10033.228699,-3773.823830,783.383940,0.000750,-0.012500,1.011750,192.000000,0.000000,0.000000,0.000000,0.000000,0.000000,0.000000,0.000000,0.000000,0.000000,1770297564.671985,0.000000
252.000000,10082.067261,12731.240717,2035.551016,3065.318235,-16653.390724,-11072.897741,4212.052132,-1494.147062,-15048.110789,6155.804533,824.131170,3443.889730,10382.474706,-10069.237360,-3823.087075,736.244111,0.000750,-0.012500,1.011750,192.000000,0.000000,0.000000,0.000000,0.000000,0.000000,0.000000,0.000000,0.000000,0.000000,1770297564.671997,0.000000
254.000000,10099.591029,12749.613851,2051.130182,3074.236581,-16641.253727,-11062.794752,4225.753751,-1477.316198,-14983.849524,6209.202851,884.257362,3495.499908,10433.861367,-10037.006144,-3757.305891,782.065187,0.000750,-0.012500,1.011750,192.000000,0.000000,0.000000,0.000000,0.000000,0.000000,0.000000,0.000000,0.000000,0.000000,1770297564.672009,0.000000
0.000000,10061.034269,12711.682941,2011.969925,3029.287223,-16681.509218,-11105.799509,4184.715949,-1515.604736,-15038.119559,6164.722879,837.743382,3455.445582,10378.294930,-10076.725194,-3812.693514,747.263521,-0.000625,-0.012250,1.010875,192.000000,127.500000,120.000000,127.500000,80.000000,15.500000,72.000000,0.000000,0.000000,0.000000,1770297564.672021,0.000000
2.000000,10105.983628,12753.547758,2058.752127,3077.410528,-16634.682314,-11062.548883,4233.152179,-1468.822535,-15010.761024,6183.878324,857.122345,3476.612684,10413.789500,-10055.848665,-3788.821851,765.390785,-0.000625,-0.012250,1.010875,192.000000,0.000000,0.000000,0.000000,0.000000,0.000000,0.000000,0.000000,0.000000,0.000000,1770297564.672036,0.000000
4.000000,10073.081860,12720.333066,2015.657963,3034.204606,-16671.383878,-11098.579895,4192.583763,-1506.507576,-14996.232390,6195.188307,868.521734,3488.682626,10434.017829,-10039.956574,-3780.819926,772.141012,-0.000625,-0.012250,1.010875,192.000000,0.000000,0.000000,0.000000,0.000000,0.000000,0.000000,0.000000,0.000000,0.000000,1770297564.672054,0.000000
6.000000,10082.581351,12732.000677,2030.343059,3052.778906,-16654.776532,-11086.442898,4208.833481,-1492.850660,-15045.003896,6152.407068,826.746324,3449.298853,10361.933453,-10085.263560,-3829.345564,735.730020,-0.000625,-0.012250,1.010875,192.000000,0.000000,0.000000,0.000000,0.000000,0.000000,0.000000,0.000000,0.000000,0.000000,1770297564.672066,0.000000
8.000000,10091.320883,12739.779084,2042.860036,3064.222999,-16640.024381,-11080.542038,4220.814016,-1483.887611,-14985.883532,6198.608124,878.982351,3494.784653,10432.855538,-10041.320031,-3770.292255,777.527783,-0.000625,-0.012250,1.010875,192.000000,0.000000,0.000000,0.000000,0.000000,0.000000,0.000000,0.000000,0.000000,0.000000,1770297564.672078,0.000000
10.000000,10053.546435,12701.043511,2005.130292,3026.627365,-16675.429544,-11113.622619,4182.033739,-1522.064390,-15045.138007,6154.396374,829.629699,3450.997585,10375.925645,-10080.592046,-3807.194985,741.764991,-0.001313,-0.013125,1.007437,192.000000,127.500000,120.000000,127.500000,72.000000,15.500000,48.000000,0.000000,0.000000,0.000000,1770297564.672094,0.000000
12.000000,10104.419005,12751.737267,2059.355624,3085.501860,-16624.869898,-11056.424505,4237.711935,-1467.928465,-15007.900001,6176.390490,856.652958,3476.679740,10399.797308,-10057.435639,-3788.151299,758.506448,-0.001313,-0.013125,1.007437,192.000000,0.000000,0.000000,0.000000,0.000000,0.000000,0.000000,0.000000,0.000000,0.000000,1770297564.672109,0.000000
14.000000,10065.124639,12715.683903,2014.428617,3038.071458,-16666.242977,-11104.905439,4193.656646,-1511.603774,-14998.109936,6190.695607,866.241856,3489.599048,10435.023658,-10047.019726,-3769.644054,765.860172,-0.001313,-0.013125,1.007437,192.000000,0.000000,0.000000,0.000000,0.000000,0.000000,0.000000,0.000000,0.000000,0.000000,1770297564.672127,0.000000
16.000000,10092.192601,12740.673153,2036.199216,3059.864409,-16655.558843,-11080.273817,4213.974382,-1486.167489,-15037.516062,6157.659728,829.450885,3455.222065,10373.399898,-10082.871924,-3811.665334,728.778628,-0.001313,-0.013125,1.007437,192.000000,0.000000,0.000000,0.000000,0.000000,0.000000,0.000000,0.000000,0.000000,0.000000,1770297564.672145,0.000000
18.000000,10101.133299,12751.737267,2043.776458,3071.509668,-16646.573442,-11073.300072,4223.049190,-1474.656340,-14976.093468,6205.291296,883.340941,3504.775882,10446.601861,-10030.457083,-3773.354444,776.298437,-0.001313,-0.013125,1.007437,192.000000,0.000000,0.000000,0.000000,0.000000,0.000000,0.000000,0.000000,0.000000,0.000000,1770297564.672162,0.000000
20.000000,10060.542531,12712.040569,2006.270231,3029.667202,-16685.264311,-11114.986076,4183.419547,-1516.811730,-15035.660867,6165.259321,834.345917,3462.575789,10379.747794,-10073.931226,-3818.348505,738.993375,-0.001313,-0.013125,1.007437,192.000000,0.000000,0.000000,127.500000,64.000000,15.500000,48.000000,0.000000,0.000000,0.000000,1770297564.672179,0.000000
22.000000,10109.112872,12758.331032,2057.969815,3085.859488,-16631.530718,-11058.167941,4237.108438,-1466.810878,-15002.267361,6185.889981,856.362385,3481.127737,10410.168518,-10053.412325,-3796.443796,759.020538,-0.001313,-0.013125,1.007437,192.000000,0.000000,0.000000,0.000000,0.000000,0.000000,0.000000,0.000000,0.000000,0.000000,1770297564.672196,0.000000
24.000000,10056.250996,12704.150403,2012.171091,3031.231824,-16674.446067,-11101.597381,4189.253353,-1518.219890,-14998.065233,6187.566362,865.548952,3490.582525,10417.097559,-10043.018763,-3779.903505,769.816431,-0.001313,-0.013125,1.007437,192.000000,0.000000,0.000000,0.000000,0.000000,0.000000,0.000000,0.000000,0.000000,0.000000,1770297564.672214,0.000000
26.000000,10078.178057,12726.323334,2036.378030,3056.913979,-16646.595794,-11076.026985,4213.929679,-1493.409454,-15055.442161,6139.577167,818.900862,3444.403821,10380.798326,-10084.660063,-3815.956869,733.807770,-0.001313,-0.013125,1.007437,192.000000,0.000000,0.000000,0.000000,0.000000,0.000000,0.000000,0.000000,0.000000,0.000000,1770297564.672234,0.000000
28.000000,10085.598837,12735.778121,2043.709403,3064.915903,-16637.789206,-11074.082383,4220.925775,-1488.201498,-14984.408317,6198.406958,876.993045,3501.110196,10440.186911,-10038.794284,-3758.825810,787.630771,-0.001313,-0.013125,1.007437,192.000000,0.000000,0.000000,0.000000,0.000000,0.000000,0.000000,0.000000,0.000000,0.000000,1770297564.672252,0.000000
30.000000,10049.433714,12699.411833,2001.710475,3020.078304,-16675.787172,-11107.475890,4177.608094,-1528.904024,-15046.367353,6151.647109,822.678306,3449.477667,10385.335730,-10076.881656,-3806.904412,744.491904,-0.001313,-0.013125,1.007437,192.000000,0.000000,0.000000,127.500000,72.000000,15.500000,72.000000,0.000000,0.000000,0.000000,1770297564.672270,0.000000
32.000000,10104.106081,12750.932604,2058.036871,3074.549505,-16624.601677,-11048.400229,4235.074429,-1473.359939,-15005.083681,6175.138792,850.506228,3470.622417,10406.994570,-10063.761182,-3785.536144,764.362605,-0.001313,-0.013125,1.007437,192.000000,0.000000,0.000000,0.000000,0.000000,0.000000,0.000000,0.000000,0.000000,0.000000,1770297564.672286,0.000000
34.000000,10066.733964,12713.672246,2012.729885,3025.777999,-16669.461628,-11095.785927,4190.080367,-1513.526024,-14996.590018,6184.750043,862.866743,3484.391091,10437.594108,-10048.360830,-3777.377758,770.755204,-0.001313,-0.013125,1.007437,192.000000,0.000000,0.000000,0.000000,0.000000,0.000000,0.000000,0.000000,0.000000,0.000000,1770297564.672304,0.000000
36.000000,10083.631883,12731.844214,2035.528664,3049.157923,-16659.224529,-11092.366110,4214.399065,-1489.788471,-15036.644344,6149.769562,827.930966,3451.824600,10368.326052,-10093.556058,-3821.790674,713.825311,-0.001313,-0.013125,1.007437,192.000000,0.000000,0.000000,0.000000,0.000000,0.000000,0.000000,0.000000,0.000000,0.000000,1770297564.672319,0.000000
38.000000,10089.175116,12735.442845,2042.994147,3062.546618,-16651.781398,-11087.895761,4225.530234,-1480.020759,-14983.313082,6191.477918,879.764662,3500.640810,10425.211242,-10047.690278,-3775.567266,771.470460,-0.001313,-0.013125,1.007437,192.000000,0.000000,0.000000,0.000000,0.000000,0.000000,0.000000,0.000000,0.000000,0.000000,1770297564.672338,0.000000
40.000000,10045.388048,12692.751013,1996.815443,3019.743028,-16701.134050,-11131.839291,4179.932675,-1525.037172,-15049.407190,6142.058211,825.606385,3451.914007,10365.710898,-10095.657122,-3832.206587,725.939956,-0.001313,-0.013125,1.007437,192.000000,0.000000,0.000000,0.000000,0.000000,0.000000,0.000000,0.000000,0.000000,0.000000,1770297564.672354,0.000000
42.000000,10097.445261,12745.322316,2044.782286,3085.367749,-16644.651192,-11075.825819,4235.007374,-1469.940122,-15021.422806,6171.204885,848.651033,3480.188963,10410.101463,-10073.953578,-3799.528336,749.431640,-0.004000,-0.008000,1.012000,192.000000,127.500000,112.000000,127.500000,96.000000,15.500000,80.000000,0.000000,0.000000,0.000000,1770297564.672372,0.000000
44.000000,10057.167418,12703.122223,1999.564707,3042.050069,-16690.226399,-11108.548773,4189.722739,-1513.906004,-15008.525849,6189.265095,857.278807,3497.735083,10412.895431,-10055.446333,-3790.073549,768.430623,-0.004000,-0.008000,1.012000,192.000000,0.000000,0.000000,0.000000,0.000000,0.000000,0.000000,0.000000,0.000000,0.000000,1770297564.672389,0.000000
46.000000,10080.033252,12725.272802,2025.604490,3064.178296,-16661.817332,-11084.028910,4210.152234,-1492.537736,-15053.721077,6149.747211,814.966955,3455.780858,10365.509732,-10087.297569,-3833.659450,734.232454,-0.004000,-0.008000,1.012000,192.000000,0.000000,0.000000,0.000000,0.000000,0.000000,0.000000,0.000000,0.000000,0.000000,1770297564.672408,0.000000
48.000000,10091.030311,12738.035648,2041.407173,3070.034453,-16649.479169,-11072.316596,4218.422379,-1480.311332,-14985.458849,6202.094996,875.271961,3504.932345,10426.150015,-10028.378371,-3778.070662,785.976742,-0.004000,-0.008000,1.012000,192.000000,0.000000,0.000000,0.000000,0.000000,0.000000,0.000000,0.000000,0.000000,0.000000,1770297564.672424,0.000000
50.000000,10058.396764,12703.971589,2007.991315,3019.497158,-16684.213779,-11110.001637,4176.445803,-1521.080914,-15035.392646,6156.855065,834.010641,3456.496114,10377.914951,-10072.590121,-3821.455398,742.502599,-0.004000,-0.008000,1.012000,192.000000,0.000000,0.000000,0.000000,0.000000,0.000000,0.000000,0.000000,0.000000,0.000000,1770297564.672436,0.000000
52.000000,10103.256715,12745.344668,2064.854153,3069.296845,-16628.312067,-11060.067840,4229.955879,-1473.024663,-15003.675521,6171.808382,859.379871,3471.985873,10409.475614,-10067.426868,-3787.883078,756.695957,-0.006000,-0.006000,1.006000,192.000000,127.500000,104.000000,127.500000,104.000000,15.500000,56.000000,0.000000,0.000000,0.000000,1770297564.672447,0.000000
54.000000,10066.443392,12709.470118,2018.563690,3023.565176,-16671.853265,-11098.177564,4185.073577,-1514.285983,-14992.119669,6183.766566,869.885191,3482.580600,10427.826396,-10039.710705,-3776.193115,769.503506,-0.006000,-0.006000,1.006000,192.000000,0.000000,0.000000,0.000000,0.000000,0.000000,0.000000,0.000000,0.000000,0.000000,1770297564.672459,0.000000
56.000000,10085.062395,12728.469101,2032.265309,3051.370746,-16649.881500,-11084.051261,4208.900536,-1489.877878,-15042.031114,6153.055269,826.366344,3452.249283,10382.340596,-10091.969084,-3821.075418,730.857340,-0.006000,-0.006000,1.006000,192.000000,0.000000,0.000000,0.000000,0.000000,0.000000,0.000000,0.000000,0.000000,0.000000,1770297564.672471,0.000000
58.000000,10105.134261,12751.334936,2044.290548,3066.413470,-16635.039942,-11067.086287,4225.664345,-1470.387157,-14976.093468,6205.671275,881.306932,3508.888603,10426.328829,-10039.844816,-3764.838429,778.175983,-0.006000,-0.006000,1.006000,192.000000,0.000000,0.000000,0.000000,0.000000,0.000000,0.000000,0.000000,0.000000,0.000000,1770297564.672485,0.000000
60.000000,10054.574615,12703.301037,1992.434501,3023.498121,-16686.426602,-11123.032704,4177.384576,-1518.823387,-15033.246879,6165.236970,833.205978,3471.002396,10379.658387,-10077.127525,-3817.722656,725.157645,-0.006000,-0.006000,1.006000,192.000000,0.000000,0.000000,0.000000,0.000000,0.000000,0.000000,0.000000,0.000000,0.000000,1770297564.672497,0.000000
62.000000,10109.850479,12756.833465,2046.659833,3085.323046,-16632.290677,-11066.773363,4232.883958,-1463.681634,-15011.766852,6178.335092,848.785144,3487.229763,10421.433797,-10063.984700,-3798.768377,750.571579,0.004000,-0.010000,1.006000,192.000000,0.000000,16.000000,127.500000,88.000000,15.500000,56.000000,0.000000,0.000000,0.000000,1770297564.672510,0.000000
64.000000,10061.838932,12707.570220,2001.106978,3035.925691,-16681.084535,-11105.464233,4187.152289,-1512.095512,-14992.343186,6196.060025,868.454679,3504.597068,10430.463902,-10041.185920,-3788.240706,767.268332,0.004000,-0.010000,1.006000,192.000000,0.000000,0.000000,0.000000,0.000000,0.000000,0.000000,0.000000,0.000000,0.000000,1770297564.672522,0.000000
66.000000,10076.009938,12721.674171,2024.241033,3057.159848,-16663.784285,-11086.197029,4208.453501,-1494.996428,-15052.379972,6145.701545,816.620984,3454.775030,10362.492247,-10091.611456,-3824.539939,729.180959,0.004000,-0.010000,1.006000,192.000000,0.000000,0.000000,0.000000,0.000000,0.000000,0.000000,0.000000,0.000000,0.000000,1770297564.672534,0.000000
68.000000,10091.566752,12738.862662,2041.831856,3073.297807,-16650.417942,-11068.203875,4223.272708,-1479.081986,-14980.519114,6202.497328,876.903638,3507.949830,10432.699076,-10034.301583,-3767.766508,780.545268,0.004000,-0.010000,1.006000,192.000000,0.000000,0.000000,0.000000,0.000000,0.000000,0.000000,0.000000,0.000000,0.000000,1770297564.672545,0.000000
70.000000,10056.072182,12704.083348,1999.140024,3033.891682,-16684.169076,-11106.291247,4181.340835,-1518.398704,-15035.236184,6159.336109,832.334260,3463.782783,10397.517430,-10071.025499,-3820.404866,741.697936,0.004000,-0.010000,1.006000,192.000000,0.000000,0.000000,0.000000,0.000000,0.000000,0.000000,0.000000,0.000000,0.000000,1770297564.672561,0.000000
72.000000,10102.966142,12756.051154,2044.022327,3085.345398,-16635.486977,-11052.825874,4229.821769,-1473.002311,-15006.558896,6183.744214,853.546066,3483.966408,10405.139375,-10054.842836,-3800.601220,767.067166,0.006000,-0.006000,1.008000,192.000000,0.000000,24.000000,127.500000,104.000000,15.500000,64.000000,0.000000,0.000000,0.000000,1770297564.672573,0.000000
74.000000,10065.281101,12720.914211,1996.681332,3033.735220,-16678.424678,-11095.987093,4181.452594,-1519.538643,-14998.579323,6198.362255,860.363348,3495.678722,10414.013018,-10043.108170,-3783.323322,781.014655,0.006000,-0.006000,1.008000,192.000000,0.000000,0.000000,0.000000,0.000000,0.000000,0.000000,0.000000,0.000000,0.000000,1770297565.152739,0.000000
76.000000,10087.901066,12741.589575,2016.574385,3049.426144,-16661.571462,-11078.508029,4199.043417,-1500.003219,-15043.841606,6161.750097,818.252661,3454.931492,10371.432945,-10084.056566,-3827.132741,739.820390,0.006000,-0.006000,1.008000,192.000000,0.000000,0.000000,0.000000,0.000000,0.000000,0.000000,0.000000,0.000000,0.000000,1770297565.152795,0.000000
78.000000,10105.804814,12755.492360,2041.250711,3060.847886,-16638.906793,-11068.405040,4218.176510,-1482.032416,-14973.232445,6212.443854,877.283618,3505.759359,10454.648489,-10026.791397,-3771.856877,782.132242,0.006000,-0.006000,1.008000,192.000000,0.000000,0.000000,0.000000,0.000000,0.000000,0.000000,0.000000,0.000000,0.000000,1770297565.152843,0.000000
80.000000,10057.659156,12705.692673,2000.659943,3015.607955,-16683.207951,-11107.811166,4175.149402,-1522.801998,-15035.504405,6164.275845,831.462542,3462.754603,10383.279369,-10083.765994,-3815.085151,730.119733,0.006000,-0.006000,1.008000,192.000000,0.000000,0.000000,0.000000,0.000000,0.000000,0.000000,0.000000,0.000000,0.000000,1770297565.152887,0.000000
82.000000,10112.845613,12758.263976,2056.360490,3076.292941,-16622.254744,-11056.603319,4229.620603,-1469.537791,-15007.072986,6184.995912,854.998929,3482.491193,10423.646620,-10060.475476,-3796.756720,748.604625,0.002000,-0.010000,1.006000,192.000000,0.000000,8.000000,127.500000,88.000000,15.500000,56.000000,0.000000,0.000000,0.000000,1770297565.152930,0.000000
84.000000,10075.361738,12720.131900,2014.585080,3038.742010,-16668.120523,-11101.217401,4188.024007,-1511.581422,-14990.242122,6204.710150,870.108708,3500.774920,10411.643733,-10036.737923,-3774.986121,757.321806,0.002000,-0.010000,1.006000,192.000000,0.000000,0.000000,0.000000,0.000000,0.000000,0.000000,0.000000,0.000000,0.000000,1770297565.152980,0.000000
86.000000,10090.404462,12735.934584,2032.444123,3060.803182,-16650.015610,-11075.155267,4206.866527,-1492.269515,-15037.672524,6161.817153,827.506283,3461.189981,10365.800305,-10078.043947,-3819.443741,726.431695,0.002000,-0.010000,1.006000,192.000000,0.000000,0.000000,0.000000,0.000000,0.000000,0.000000,0.000000,0.000000,0.000000,1770297565.153009,0.000000
88.000000,10107.034160,12754.620642,2043.955272,3078.326950,-16638.906793,-11062.504180,4222.423342,-1476.846811,-14971.243140,6217.048313,885.330246,3515.571775,10437.661164,-10017.761292,-3774.181458,776.566658,0.002000,-0.010000,1.006000,192.000000,0.000000,0.000000,0.000000,0.000000,0.000000,0.000000,0.000000,0.000000,0.000000,1770297565.153025,0.000000
90.000000,10061.771877,12708.553697,1997.106015,3027.812007,-16680.793963,-11105.106605,4174.769422,-1523.852530,-15034.543280,6167.986234,830.881397,3467.202600,10418.505719,-10064.185865,-3816.426255,738.367526,0.002000,-0.010000,1.006000,192.000000,0.000000,0.000000,0.000000,0.000000,0.000000,0.000000,0.000000,0.000000,0.000000,1770297565.153052,0.000000
92.000000,10111.705674,12755.805284,2051.264292,3085.971246,-16625.786319,-11049.607223,4228.033629,-1471.862372,-15005.798937,6185.599409,849.433345,3485.083995,10405.184079,-10052.518255,-3794.856822,758.752317,-0.002000,-0.010000,1.008000,192.000000,127.500000,120.000000,127.500000,88.000000,15.500000,64.000000,0.000000,0.000000,0.000000,1770297565.153069,0.000000
94.000000,10070.578464,12715.348627,2005.599678,3035.903339,-16670.132180,-11093.662512,4181.318484,-1519.695106,-14991.963207,6199.859822,862.307949,3498.897374,10408.290971,-10038.302545,-3779.478822,763.937922,-0.002000,-0.010000,1.008000,192.000000,0.000000,0.000000,0.000000,0.000000,0.000000,0.000000,0.000000,0.000000,0.000000,1770297565.153082,0.000000
96.000000,10080.435584,12727.284459,2018.317821,3055.416412,-16657.995183,-11080.542038,4197.076463,-1510.597946,-15041.829949,6155.670423,813.983478,3453.053946,10370.583578,-10084.190677,-3830.619613,735.797076,-0.002000,-0.010000,1.008000,192.000000,0.000000,0.000000,0.000000,0.000000,0.000000,0.000000,0.000000,0.000000,0.000000,1770297565.153100,0.000000
98.000000,10096.998226,12748.228043,2035.416905,3068.715700,-16639.398532,-11064.761706,4211.426283,-1496.136367,-14981.703756,6202.519679,863.559647,3500.774920,10435.448341,-10030.099455,-3769.465240,780.433509,-0.002000,-0.010000,1.008000,192.000000,0.000000,0.000000,0.000000,0.000000,0.000000,0.000000,0.000000,0.000000,0.000000,1770297565.153114,0.000000
100.000000,10050.372487,12705.290342,1993.261515,3021.017077,-16679.519913,-11102.625561,4167.885085,-1536.123638,-15032.956306,6167.472144,818.856158,3464.319225,10394.790518,-10078.267464,-3814.593412,738.523989,-0.002000,-0.010000,1.008000,192.000000,0.000000,0.000000,0.000000,0.000000,0.000000,0.000000,0.000000,0.000000,0.000000,1770297565.153130,0.000000
102.000000,10102.183831,12757.504017,2048.604435,3073.588380,-16626.590982,-11057.631499,4223.339763,-1478.210268,-15017.667713,6174.624702,835.776429,3477.819679,10389.224933,-10061.078973,-3791.951095,747.956425,-0.002000,-0.010000,1.010000,192.000000,127.500000,120.000000,127.500000,88.000000,15.500000,72.000000,0.000000,0.000000,0.000000,1770297565.153143,0.000000
104.000000,10076.278159,12733.677057,2008.639515,3032.572929,-16662.152608,-11100.032759,4183.643065,-1514.934184,-14990.935027,6204.307819,861.503287,3502.652467,10424.428931,-10036.760275,-3778.674159,759.378166,-0.002000,-0.010000,1.010000,192.000000,0.000000,0.000000,0.000000,0.000000,0.000000,0.000000,0.000000,0.000000,0.000000,1770297565.153160,0.000000
106.000000,10087.968122,12744.204729,2025.358620,3050.633138,-16653.234262,-11083.224247,4199.401045,-1500.226736,-15037.717228,6163.225313,818.364420,3463.872190,10386.676834,-10077.574560,-3822.438875,724.934128,-0.002000,-0.010000,1.010000,192.000000,0.000000,0.000000,0.000000,0.000000,0.000000,0.000000,0.000000,0.000000,0.000000,1770297565.153176,0.000000
108.000000,10097.512316,12755.715877,2038.456743,3071.330854,-16641.924279,-11065.298148,4215.047266,-1487.843870,-14981.077907,6208.867575,868.611141,3513.046028,10433.928422,-10025.070313,-3776.796612,776.030216,-0.002000,-0.010000,1.010000,192.000000,0.000000,0.000000,0.000000,0.000000,0.000000,0.000000,0.000000,0.000000,0.000000,1770297565.153190,0.000000
110.000000,10058.530874,12716.421511,1998.804748,3030.382458,-16682.336233,-11105.218363,4173.741242,-1529.731039,-15039.818292,6169.684967,820.018449,3470.644769,10385.648654,-10071.338424,-3821.790674,733.986584,-0.002000,-0.010000,1.010000,192.000000,0.000000,0.000000,0.000000,0.000000,0.000000,0.000000,0.000000,0.000000,0.000000,1770297565.153204,0.000000
112.000000,10103.346122,12760.990889,2048.224455,3088.541697,-16632.670657,-11046.477979,4227.005449,-1478.970227,-15010.761024,6189.980351,843.063097,3489.800214,10412.694265,-10043.778723,-3802.121139,757.299454,-0.004000,-0.008000,1.008000,192.000000,127.500000,104.000000,127.500000,104.000000,15.500000,56.000000,0.000000,0.000000,0.000000,1770297565.153220,0.000000
114.000000,10063.627072,12719.684865,2006.627858,3040.127819,-16669.059297,-11089.728605,4183.151327,-1520.611527,-15003.139079,6198.138737,855.222446,3502.585411,10424.428931,-10036.313240,-3784.083281,772.878620,-0.004000,-0.008000,1.008000,192.000000,0.000000,0.000000,0.000000,0.000000,0.000000,0.000000,0.000000,0.000000,0.000000,1770297565.153237,0.000000
116.000000,10083.341310,12739.689677,2026.766780,3059.909112,-16651.401419,-11069.142648,4201.770330,-1499.444425,-15045.719152,6157.615025,814.452864,3463.514562,10364.034517,-10076.993415,-3826.775113,736.713497,-0.004000,-0.008000,1.008000,192.000000,0.000000,0.000000,0.000000,0.000000,0.000000,0.000000,0.000000,0.000000,0.000000,1770297565.153250,0.000000
118.000000,10101.356816,12759.493322,2037.853245,3071.107336,-16638.012724,-11052.334136,4214.667286,-1485.541640,-14980.206189,6206.207717,868.119403,3511.816682,10429.256908,-10018.521252,-3772.639188,785.529707,-0.004000,-0.008000,1.008000,192.000000,0.000000,0.000000,0.000000,0.000000,0.000000,0.000000,0.000000,0.000000,0.000000,1770297565.153266,0.000000
120.000000,10069.192656,12727.217403,2003.208042,3034.316365,-16668.813428,-11092.053186,4177.429280,-1520.209196,-15032.218699,6170.869609,826.343993,3475.405690,10420.383265,-10071.204313,-3814.191081,747.330576,-0.004000,-0.008000,1.008000,192.000000,0.000000,0.000000,0.000000,0.000000,0.000000,0.000000,0.000000,0.000000,0.000000,1770297565.153280,0.000000
122.000000,10119.819357,12777.173552,2057.545132,3087.468813,-16620.220735,-11048.266119,4229.642955,-1467.190858,-15000.590980,6188.147508,853.143734,3494.583487,10410.436739,-10050.260729,-3791.258191,761.211009,-0.003000,-0.009000,1.009000,192.000000,127.500000,120.000000,127.500000,88.000000,15.500000,72.000000,0.000000,0.000000,0.000000,1770297565.153300,0.000000
124.000000,10079.720328,12739.354401,2014.518024,3046.565121,-16663.270195,-11085.593532,4188.851021,-1506.775797,-14981.703756,6208.979334,873.707339,3514.074208,10428.698114,-10031.552319,-3778.316531,765.703710,-0.003000,-0.009000,1.009000,192.000000,0.000000,0.000000,0.000000,0.000000,0.000000,0.000000,0.000000,0.000000,0.000000,1770297565.153314,0.000000
126.000000,10092.661988,12753.838331,2030.767742,3064.535924,-16649.367410,-11072.115430,4205.883051,-1491.844832,-15042.679315,6165.438135,822.946527,3470.644769,10377.266750,-10071.852514,-3821.768322,727.102247,-0.003000,-0.009000,1.009000,192.000000,0.000000,0.000000,0.000000,0.000000,0.000000,0.000000,0.000000,0.000000,0.000000,1770297565.153333,0.000000
128.000000,10111.862136,12770.311567,2045.944577,3080.897400,-16638.012724,-11056.044526,4221.708086,-1476.355073,-14974.953529,6213.784959,877.328322,3520.444455,10442.779713,-10020.622315,-3768.705281,777.438376,-0.003000,-0.009000,1.009000,192.000000,0.000000,0.000000,0.000000,0.000000,0.000000,0.000000,0.000000,0.000000,0.000000,1770297565.153347,0.000000
130.000000,10070.533761,12729.810206,1998.067140,3034.271662,-16677.374146,-11093.036663,4175.372919,-1520.298603,-15035.593812,6170.288464,828.556815,3478.803155,10404.893506,-10063.895293,-3820.002534,745.900064,-0.003000,-0.009000,1.009000,192.000000,0.000000,0.000000,0.000000,0.000000,0.000000,0.000000,0.000000,0.000000,0.000000,1770297565.153358,0.000000
132.000000,10122.613325,12780.727480,2052.672452,3088.340531,-16622.634724,-11043.795770,4227.743057,-1466.319140,-15004.301370,6186.962865,849.321586,3494.427025,10414.303591,-10049.478418,-3797.851956,757.455916,-0.002500,-0.009500,1.009500,192.000000,127.500000,120.000000,127.500000,88.000000,15.500000,72.000000,0.000000,0.000000,0.000000,1770297565.153370,0.000000
134.000000,10072.031328,12729.273764,2011.545242,3039.121990,-16671.696803,-11089.326273,4184.894763,-1513.235451,-14995.740652,6198.161089,863.783164,3509.313286,10428.720466,-10030.121807,-3779.635284,767.044814,-0.002500,-0.009500,1.009500,192.000000,0.000000,0.000000,0.000000,0.000000,0.000000,0.000000,0.000000,0.000000,0.000000,1770297565.153384,0.000000
136.000000,10090.650331,12749.435037,2033.360545,3058.500953,-16650.775570,-11074.819991,4204.430187,-1494.772910,-15046.568518,6155.558664,819.929042,3464.922722,10369.935378,-10076.211104,-3819.644906,735.193579,-0.002500,-0.009500,1.009500,192.000000,0.000000,0.000000,0.000000,0.000000,0.000000,0.000000,0.000000,0.000000,0.000000,1770297565.153401,0.000000
138.000000,10099.591029,12758.420439,2042.256539,3068.983921,-16642.237203,-11069.679090,4216.522481,-1488.983809,-14985.123573,6206.073607,870.891019,3510.475577,10435.381286,-10027.774874,-3771.789822,779.897068,-0.002500,-0.009500,1.009500,192.000000,0.000000,0.000000,0.000000,0.000000,0.000000,0.000000,0.000000,0.000000,0.000000,1770297565.153415,0.000000
140.000000,10054.753429,12716.287400,1997.307181,3023.364010,-16680.369279,-11100.457442,4171.975454,-1533.329670,-15042.522853,6160.565455,818.945565,3466.397937,10404.334713,-10074.914703,-3817.767360,737.495808,-0.002500,-0.009500,1.009500,192.000000,0.000000,0.000000,0.000000,0.000000,0.000000,0.000000,0.000000,0.000000,0.000000,1770297565.153432,0.000000
142.000000,10102.474404,12761.549683,2046.481019,3079.399834,-16635.598735,-11051.127142,4226.357249,-1479.327855,-15018.651190,6174.602351,835.731725,3482.021806,10410.213221,-10056.340403,-3803.216374,750.772745,-0.002250,-0.012750,1.008750,192.000000,127.500000,120.000000,127.500000,64.000000,15.500000,64.000000,0.000000,0.000000,0.000000,1770297565.153444,0.000000
144.000000,10068.052717,12724.378732,2003.431559,3036.350374,-16672.255596,-11086.711119,4183.464251,-1517.616393,-15000.255704,6192.014359,854.596598,3499.903202,10423.847785,-10048.159665,-3789.917086,773.660931,-0.002250,-0.012750,1.008750,192.000000,0.000000,0.000000,0.000000,0.000000,0.000000,0.000000,0.000000,0.000000,0.000000,1770297565.153462,0.000000
146.000000,10089.577447,12748.093933,2028.353754,3057.539828,-16651.736695,-11064.560540,4204.810167,-1494.191765,-15047.663754,6153.949339,813.983478,3458.306606,10382.586465,-10080.994377,-3832.720677,735.372393,-0.002250,-0.012750,1.008750,192.000000,0.000000,0.000000,0.000000,0.000000,0.000000,0.000000,0.000000,0.000000,0.000000,1770297565.153476,0.000000
148.000000,10104.933096,12765.818866,2049.297339,3073.566028,-16632.000104,-11058.413811,4222.244528,-1477.763233,-14975.601730,6212.309743,878.378854,3520.600917,10463.768001,-10024.667981,-3776.081357,782.378111,-0.002250,-0.012750,1.008750,192.000000,0.000000,0.000000,0.000000,0.000000,0.000000,0.000000,0.000000,0.000000,0.000000,1770297565.153492,0.000000
150.000000,10060.766049,12721.473005,2004.415036,3027.700249,-16677.240035,-11099.093985,4176.222286,-1525.663021,-15041.069989,6163.247664,822.477141,3470.644769,10408.447434,-10079.116831,-3810.704209,731.550244,-0.002250,-0.012750,1.008750,192.000000,0.000000,0.000000,0.000000,0.000000,0.000000,0.000000,0.000000,0.000000,0.000000,1770297565.153505,0.000000
152.000000,10111.258639,12771.764430,2055.287606,3084.876011,-16624.132290,-11037.760799,4229.575900,-1471.638855,-15012.571515,6183.051310,842.817228,3488.570868,10434.576623,-10043.801074,-3790.140604,752.694995,-0.002125,-0.014375,1.005375,192.000000,127.500000,120.000000,127.500000,64.000000,15.500000,40.000000,0.000000,0.000000,0.000000,1770297565.153522,0.000000
154.000000,10075.585255,12734.593479,2009.824158,3039.189045,-16673.172018,-11091.717910,4183.397196,-1512.788416,-14990.465640,6201.200926,860.117478,3506.206394,10426.574698,-10039.062505,-3789.626514,779.360626,-0.002125,-0.014375,1.005375,192.000000,0.000000,0.000000,0.000000,0.000000,0.000000,0.000000,0.000000,0.000000,0.000000,1770297565.153542,0.000000
156.000000,10094.561886,12753.413648,2031.527702,3058.970339,-16654.597718,-11075.624654,4204.050208,-1490.526079,-15043.551033,6159.134943,817.805626,3464.632149,10376.752660,-10083.967159,-3829.390267,729.449180,-0.002125,-0.014375,1.005375,192.000000,0.000000,0.000000,0.000000,0.000000,0.000000,0.000000,0.000000,0.000000,0.000000,1770297565.153558,0.000000
158.000000,10112.331523,12773.954901,2051.353699,3077.879915,-16634.302334,-11057.184465,4222.155121,-1472.532925,-14977.993366,6211.370970,878.065929,3520.109179,10443.830245,-10025.629106,-3767.542990,775.851402,-0.002125,-0.014375,1.005375,192.000000,0.000000,0.000000,0.000000,0.000000,0.000000,0.000000,0.000000,0.000000,0.000000,1770297565.153575,0.000000
160.000000,10068.544456,12728.402046,2004.303277,3031.701211,-16684.526704,-11100.211573,4176.401100,-1518.108132,-15039.035981,6166.980406,828.780333,3476.433870,10400.758433,-10076.971063,-3815.822758,739.485114,-0.002125,-0.014375,1.005375,192.000000,0.000000,0.000000,0.000000,0.000000,0.000000,0.000000,0.000000,0.000000,0.000000,1770297565.153593,0.000000
162.000000,10117.204203,12774.737212,2055.712289,3085.345398,-16628.200308,-11051.685935,4229.531196,-1464.396890,-15009.978713,6181.509040,848.405164,3496.930420,10427.155844,-10057.636804,-3800.198889,762.797983,-0.002063,-0.015187,1.005688,192.000000,127.500000,120.000000,127.500000,64.000000,15.500000,56.000000,0.000000,0.000000,0.000000,1770297565.153610,0.000000
164.000000,10078.043947,12735.599307,2014.070989,3040.060763,-16666.064163,-11094.914209,4187.375806,-1507.245184,-14996.992349,6194.942438,862.084432,3510.743798,10432.408504,-10039.129560,-3781.244610,768.430623,-0.002063,-0.015187,1.005688,192.000000,0.000000,0.000000,0.000000,0.000000,0.000000,0.000000,0.000000,0.000000,0.000000,1770297565.153628,0.000000
166.000000,10092.147898,12747.132808,2030.387763,3058.277435,-16652.988392,-11078.150401,4203.759635,-1493.163585,-15046.233242,6154.284615,816.330411,3467.560228,10392.957675,-10079.630921,-3821.656563,733.763067,-0.002063,-0.015187,1.005688,192.000000,0.000000,0.000000,0.000000,0.000000,0.000000,0.000000,0.000000,0.000000,0.000000,1770297565.153646,0.000000
168.000000,10112.376226,12767.607006,2049.789077,3079.332778,-16635.531680,-11051.954156,4223.384467,-1475.416300,-14985.503553,6200.597429,869.080528,3513.828339,10444.791370,-10031.485263,-3774.606141,785.574411,-0.002063,-0.015187,1.005688,192.000000,0.000000,0.000000,0.000000,0.000000,0.000000,0.000000,0.000000,0.000000,0.000000,1770297565.153662,0.000000
170.000000,10073.372432,12727.843252,2006.158472,3033.914034,-16679.810486,-11091.606151,4179.262123,-1519.404533,-15030.877594,6167.650958,831.864873,3479.272542,10411.286105,-10066.175171,-3813.028790,747.621149,-0.002063,-0.015187,1.005688,192.000000,0.000000,0.000000,0.000000,0.000000,0.000000,0.000000,0.000000,0.000000,0.000000,1770297565.153675,0.000000
172.000000,10120.378151,12775.944206,2055.377013,3089.212249,-16625.361636,-11039.414828,4232.034592,-1468.442555,-15009.732844,6179.273865,845.320624,3490.470766,10423.579565,-10048.494941,-3800.869441,760.786326,-0.002063,-0.015187,1.005688,192.000000,0.000000,0.000000,0.000000,0.000000,0.000000,0.000000,0.000000,0.000000,0.000000,1770297565.153690,0.000000
174.000000,10087.029348,12742.908328,2014.920356,3046.989804,-16667.628785,-11081.324349,4189.633332,-1505.233527,-14992.924332,6199.837470,863.202019,3512.978973,10440.969222,-10029.630068,-3786.229049,775.985512,-0.002063,-0.015187,1.005688,192.000000,0.000000,0.000000,127.500000,72.000000,15.500000,80.000000,0.000000,0.000000,0.000000,1770297565.153705,0.000000
176.000000,10095.880639,12752.273709,2025.135103,3060.132630,-16656.497616,-11067.108639,4200.585687,-1496.203422,-15044.288641,6157.637377,815.078713,3471.069452,10381.535933,-10081.195543,-3832.966546,734.612433,-0.002063,-0.015187,1.005688,192.000000,0.000000,0.000000,0.000000,0.000000,0.000000,0.000000,0.000000,0.000000,0.000000,1770297565.153720,0.000000
178.000000,10106.609476,12762.644918,2042.435353,3073.163697,-16641.186671,-11058.369107,4217.371847,-1483.172355,-14985.369442,6202.229107,866.554781,3517.561080,10445.908957,-10038.481359,-3773.667368,780.880544,-0.002063,-0.015187,1.005688,192.000000,0.000000,0.000000,0.000000,0.000000,0.000000,0.000000,0.000000,0.000000,0.000000,1770297565.153735,0.000000
180.000000,10073.461839,12729.385523,2005.599678,3027.029696,-16678.245864,-11098.870468,4176.110527,-1521.952632,-15043.975716,6154.463429,820.063152,3471.672949,10385.179268,-10085.040043,-3812.693514,736.400573,-0.002063,-0.015187,1.005688,192.000000,0.000000,0.000000,0.000000,0.000000,0.000000,0.000000,0.000000,0.000000,0.000000,1770297565.153754,0.000000
182.000000,10126.055494,12782.895599,2056.047565,3085.725377,-16628.915564,-11043.035810,4229.240624,-1468.867239,-15007.587076,6179.273865,850.640339,3496.326923,10432.073227,-10053.255862,-3796.108520,755.064279,-0.002063,-0.015187,1.005688,192.000000,0.000000,0.000000,0.000000,0.000000,0.000000,0.000000,0.000000,0.000000,0.000000,1770297565.153770,0.000000
184.000000,10083.050738,12739.510863,2009.533585,3038.652603,-16674.580178,-11093.751919,4184.425376,-1515.738847,-14996.969998,6193.824851,860.363348,3508.598031,10444.277280,-10044.628089,-3789.335941,779.517088,-0.004000,-0.010000,1.012000,192.000000,127.500000,112.000000,127.500000,88.000000,15.500000,80.000000,0.000000,0.000000,0.000000,1770297565.153786,0.000000
186.000000,10101.423872,12756.431133,2028.554920,3057.584531,-16649.054485,-11068.941482,4203.916097,-1494.951724,-15046.993202,6146.461504,812.128283,3461.480553,10391.348349,-10087.141107,-3823.444703,733.785419,-0.004000,-0.010000,1.012000,192.000000,0.000000,0.000000,0.000000,0.000000,0.000000,0.000000,0.000000,0.000000,0.000000,1770297565.153807,0.000000
188.000000,10118.232384,12774.021956,2045.028155,3078.371653,-16643.533605,-11064.493485,4222.333935,-1476.355073,-14978.149829,6204.129005,872.969731,3519.013944,10439.605765,-10033.698086,-3773.175630,782.445166,-0.004000,-0.010000,1.012000,192.000000,0.000000,0.000000,0.000000,0.000000,0.000000,0.000000,0.000000,0.000000,0.000000,1770297565.153827,0.000000
190.000000,10076.188752,12734.012334,2003.431559,3031.589452,-16681.844495,-11103.318465,4178.055129,-1517.281117,-15031.995181,6158.710260,826.254586,3477.372644,10398.411500,-10076.032290,-3814.436950,744.715422,-0.004000,-0.010000,1.012000,192.000000,0.000000,0.000000,0.000000,0.000000,0.000000,0.000000,0.000000,0.000000,0.000000,1770297565.153845,0.000000
192.000000,10119.662895,12774.178418,2055.578179,3081.590305,-16633.363561,-11056.960947,4228.480664,-1471.571800,-15010.023416,6172.769507,845.320624,3490.336655,10415.063550,-10057.770915,-3794.163918,758.528800,-0.004000,-0.010000,1.012000,192.000000,0.000000,0.000000,0.000000,0.000000,0.000000,0.000000,0.000000,0.000000,0.000000,1770297565.153862,0.000000
194.000000,10076.300511,12727.396217,2013.109864,3030.918900,-16676.614186,-11096.702349,4181.184373,-1520.544472,-14994.108974,6180.883191,858.619912,3497.265696,10438.421123,-10054.865188,-3780.842278,768.922361,-0.004000,-0.002000,1.012000,192.000000,127.500000,112.000000,127.500000,120.000000,15.500000,80.000000,0.000000,0.000000,0.000000,1770297565.633158,0.000000
196.000000,10087.409328,12741.120188,2025.246862,3050.208455,-16660.297413,-11081.190238,4198.283458,-1504.540623,-15051.955289,6134.436266,808.484949,3451.332861,10367.007299,-10104.128433,-3829.502026,722.989526,-0.004000,-0.002000,1.012000,192.000000,0.000000,0.000000,0.000000,0.000000,0.000000,0.000000,0.000000,0.000000,0.000000,1770297565.633226,0.000000
198.000000,10104.240191,12758.912177,2042.547112,3070.280322,-16643.578308,-11063.487657,4218.087103,-1484.535811,-14988.722204,6187.499307,863.649054,3505.468786,10434.286050,-10039.956574,-3779.411766,769.279989,-0.004000,-0.002000,1.012000,192.000000,0.000000,0.000000,0.000000,0.000000,0.000000,0.000000,0.000000,0.000000,0.000000,1770297565.633279,0.000000
200.000000,10066.935130,12719.349589,1998.357713,3026.180330,-16685.510181,-11109.755768,4176.177582,-1523.919585,-15042.478149,6147.422629,818.252661,3465.682681,10400.579619,-10083.654235,-3821.947136,736.199407,-0.004000,-0.002000,1.012000,192.000000,0.000000,0.000000,0.000000,0.000000,0.000000,0.000000,0.000000,0.000000,0.000000,1770297565.633332,0.000000
202.000000,10124.401465,12776.659462,2056.516952,3086.753558,-16630.793110,-11045.963889,4233.532159,-1465.983864,-15015.074911,6165.125211,841.297310,3485.575734,10406.726349,-10070.422002,-3807.150281,755.131335,-0.004000,-0.002000,1.012000,192.000000,0.000000,0.000000,0.000000,0.000000,0.000000,0.000000,0.000000,0.000000,0.000000,1770297565.633391,0.000000
204.000000,10081.575523,12737.990944,2013.445141,3037.758534,-16675.384840,-11089.460384,4186.101757,-1512.944879,-14993.773698,6188.683950,862.486763,3508.329810,10426.932326,-10048.271423,-3791.816985,771.313998,-0.004000,-0.008000,1.002000,192.000000,127.500000,112.000000,127.500000,96.000000,15.500000,40.000000,0.000000,0.000000,0.000000,1770297565.633445,0.000000
206.000000,10091.544401,12746.864587,2027.146760,3054.388232,-16659.179826,-11080.609093,4201.300943,-1500.696123,-15052.961117,6138.861911,809.446074,3459.044213,10387.637959,-10099.009883,-3824.137607,719.636764,-0.004000,-0.008000,1.002000,192.000000,0.000000,0.000000,0.000000,0.000000,0.000000,0.000000,0.000000,0.000000,0.000000,1770297565.633464,0.000000
208.000000,10111.482157,12763.248415,2046.793943,3076.628217,-16640.314953,-11061.543055,4222.333935,-1484.312294,-14982.329605,6195.612990,867.627665,3513.761284,10430.553309,-10033.318106,-3775.299045,773.571524,-0.004000,-0.008000,1.002000,192.000000,0.000000,0.000000,0.000000,0.000000,0.000000,0.000000,0.000000,0.000000,0.000000,1770297565.633481,0.000000
210.000000,10061.034269,12715.885069,1993.797957,3024.481597,-16688.348852,-11104.637218,4171.975454,-1535.140161,-15046.367353,6151.557702,813.514091,3466.777917,10384.732233,-10082.670758,-3817.297973,739.261596,-0.004000,-0.008000,1.002000,192.000000,0.000000,0.000000,0.000000,0.000000,0.000000,0.000000,0.000000,0.000000,0.000000,1770297565.633494,0.000000
212.000000,10106.363607,12760.610910,2043.418830,3073.163697,-16643.019514,-11054.926938,4221.506920,-1487.352131,-15032.442216,6158.062060,827.215711,3476.657388,10389.113175,-10074.087688,-3806.211508,749.319881,-0.004000,-0.008000,1.002000,192.000000,0.000000,0.000000,0.000000,0.000000,0.000000,0.000000,0.000000,0.000000,0.000000,1770297565.633507,0.000000
214.000000,10078.513334,12732.604174,2009.645344,3038.093810,-16676.435372,-11100.166869,4185.274742,-1519.113960,-15005.217791,6179.609141,850.997967,3498.182118,10430.106274,-10051.624185,-3786.765490,770.129355,-0.004000,-0.008000,1.002000,192.000000,127.500000,112.000000,127.500000,96.000000,15.500000,40.000000,0.000000,0.000000,0.000000,1770297565.633519,0.000000
216.000000,10082.603703,12734.481720,2017.401399,3046.185141,-16666.153570,-11090.108584,4193.366074,-1514.420094,-15058.392591,6135.218577,803.768731,3454.372699,10380.910084,-10102.183831,-3839.716773,725.671735,-0.004000,-0.008000,1.002000,192.000000,0.000000,0.000000,0.000000,0.000000,0.000000,0.000000,0.000000,0.000000,0.000000,1770297565.633530,0.000000
218.000000,10094.405424,12746.305793,2033.941690,3063.999482,-16655.223567,-11072.718927,4212.476815,-1499.198556,-15002.356768,6174.602351,852.115554,3497.623324,10419.220974,-10054.976947,-3782.138679,776.633713,-0.004000,-0.008000,1.002000,192.000000,0.000000,0.000000,0.000000,0.000000,0.000000,0.000000,0.000000,0.000000,0.000000,1770297565.633554,0.000000
220.000000,10057.368583,12710.028912,1991.987466,3022.157016,-16693.445050,-11111.923887,4171.930751,-1540.214007,-15058.750219,6138.996022,806.719161,3460.117097,10393.985855,-10089.264523,-3820.069590,738.076954,-0.004000,-0.008000,1.002000,192.000000,0.000000,0.000000,0.000000,0.000000,0.000000,0.000000,0.000000,0.000000,0.000000,1770297565.633566,0.000000
222.000000,10103.279066,12754.888863,2041.496580,3074.482450,-16646.975773,-11064.694651,4221.842196,-1490.526079,-15031.391684,6155.513961,824.220577,3476.009187,10396.131622,-10080.077956,-3802.679932,748.448163,-0.004000,-0.008000,1.002000,192.000000,0.000000,0.000000,0.000000,0.000000,0.000000,0.000000,0.000000,0.000000,0.000000,1770297565.633578,0.000000
224.000000,10074.758241,12727.597383,2006.560803,3037.758534,-16679.274044,-11094.936561,4185.185335,-1521.952632,-15017.220678,6173.104784,844.448906,3496.349275,10412.917782,-10063.425906,-3787.011360,767.111870,0.002000,-0.012000,1.004000,192.000000,0.000000,8.000000,127.500000,80.000000,15.500000,48.000000,0.000000,0.000000,0.000000,1770297565.633590,0.000000
226.000000,10096.931171,12748.742133,2023.995164,3055.952854,-16661.504407,-11078.172753,4200.988019,-1502.216041,-15057.163245,6145.790952,808.663763,3461.972292,10380.753622,-10087.275217,-3835.313479,727.012840,0.002000,-0.012000,1.004000,192.000000,0.000000,0.000000,0.000000,0.000000,0.000000,0.000000,0.000000,0.000000,0.000000,1770297565.633602,0.000000
228.000000,10113.873793,12765.371831,2043.754106,3075.197706,-16644.673544,-11061.364241,4221.931603,-1483.015893,-14985.414146,6194.070720,867.001816,3513.828339,10449.239367,-10038.324897,-3782.049272,780.120585,0.002000,-0.012000,1.004000,192.000000,0.000000,0.000000,0.000000,0.000000,0.000000,0.000000,0.000000,0.000000,0.000000,1770297565.633614,0.000000
230.000000,10066.599854,12720.377770,2000.525832,3027.655545,-16686.516009,-11109.107567,4178.591571,-1525.774780,-15047.730809,6150.127190,819.638469,3473.371681,10397.875058,-10088.079880,-3820.941308,737.764029,0.002000,-0.012000,1.004000,192.000000,0.000000,0.000000,0.000000,0.000000,0.000000,0.000000,0.000000,0.000000,0.000000,1770297565.633626,0.000000
232.000000,10110.275162,12764.455410,2050.794906,3079.399834,-16637.677448,-11054.390497,4229.911176,-1477.383253,-15029.558841,6160.207827,834.971766,3483.027635,10411.263753,-10068.633863,-3796.644961,757.612378,0.002000,-0.012000,1.004000,192.000000,0.000000,0.000000,0.000000,0.000000,0.000000,0.000000,0.000000,0.000000,0.000000,1770297565.633638,0.000000
234.000000,10077.082822,12732.984153,2008.952440,3039.032583,-16678.849361,-11104.212535,4188.135766,-1516.878786,-15012.795033,6179.966769,851.847333,3501.356065,10424.920669,-10054.954595,-3782.496307,770.196410,0.002000,-0.012000,1.004000,192.000000,0.000000,0.000000,127.500000,72.000000,15.500000,56.000000,0.000000,0.000000,0.000000,1770297565.633651,0.000000
236.000000,10092.393767,12745.031744,2025.023344,3053.740031,-16665.013631,-11086.487602,4203.044379,-1502.976001,-15054.458684,6142.706411,811.413027,3463.581617,10390.789555,-10095.433604,-3829.904357,718.295660,0.002000,-0.012000,1.004000,192.000000,0.000000,0.000000,0.000000,0.000000,0.000000,0.000000,0.000000,0.000000,0.000000,1770297565.633665,0.000000
238.000000,10095.880639,12747.870415,2038.233225,3069.252142,-16655.670602,-11077.479849,4219.428208,-1495.622277,-15001.127422,6180.525563,858.977539,3507.480443,10428.720466,-10050.327784,-3780.864630,765.703710,0.002000,-0.012000,1.004000,192.000000,0.000000,0.000000,0.000000,0.000000,0.000000,0.000000,0.000000,0.000000,0.000000,1770297565.633677,0.000000
240.000000,10057.301528,12704.686845,1993.976771,3023.386362,-16693.556809,-11117.780044,4173.987111,-1539.454048,-15054.324574,6136.313812,810.273088,3460.094745,10391.437756,-10084.257732,-3828.160921,730.700878,0.002000,-0.012000,1.004000,192.000000,0.000000,0.000000,0.000000,0.000000,0.000000,0.000000,0.000000,0.000000,0.000000,1770297565.633689,0.000000
242.000000,10093.958389,12744.987040,2041.474228,3073.610732,-16647.758084,-11073.478886,4222.915080,-1492.604791,-15040.220623,6145.120400,822.499492,3469.504830,10393.292951,-10087.319921,-3814.839281,735.104172,0.002000,-0.012000,1.004000,192.000000,0.000000,0.000000,0.000000,0.000000,0.000000,0.000000,0.000000,0.000000,0.000000,1770297565.633701,0.000000
244.000000,10057.994432,12705.178583,1998.402417,3028.974298,-16692.260407,-11110.180451,4176.490507,-1538.202350,-15017.935934,6165.080507,839.375060,3486.827432,10410.816718,-10067.315110,-3799.394226,758.148820,0.000000,-0.011000,1.002000,192.000000,127.500000,120.000000,127.500000,88.000000,15.500000,32.000000,0.000000,0.000000,0.000000,1770297565.633712,0.000000
246.000000,10074.937055,12722.188261,2012.573423,3045.000499,-16679.251692,-11087.873410,4189.543925,-1522.511425,-15070.037850,6121.069923,792.235230,3440.961652,10361.732288,-10113.694979,-3831.759552,719.435599,0.000000,-0.011000,1.002000,192.000000,0.000000,0.000000,0.000000,0.000000,0.000000,0.000000,0.000000,0.000000,0.000000,1770297565.633724,0.000000
248.000000,10092.416119,12742.505997,2029.069010,3066.145249,-16654.307145,-11088.611017,4209.034647,-1504.026533,-15006.737710,6173.305949,845.633548,3494.851708,10431.469730,-10057.100362,-3779.903505,768.184753,0.000000,-0.011000,1.002000,192.000000,0.000000,0.000000,0.000000,0.000000,0.000000,0.000000,0.000000,0.000000,0.000000,1770297565.633736,0.000000
250.000000,10045.276290,12697.131955,1984.633742,3024.928632,-16698.071861,-11125.916079,4166.879257,-1549.557036,-15059.063144,6132.022277,800.550079,3455.959672,10400.579619,-10099.613380,-3824.562290,734.254805,0.000000,-0.011000,1.002000,192.000000,0.000000,0.000000,0.000000,0.000000,0.000000,0.000000,0.000000,0.000000,0.000000,1770297565.633749,0.000000
252.000000,10085.017691,12734.951107,2029.873673,3074.929485,-16653.837759,-11077.345738,4216.008391,-1504.473568,-15045.830911,6137.744324,810.608364,3463.916893,10389.783727,-10082.223723,-3813.095845,748.448163,0.000000,-0.011000,1.002000,192.000000,0.000000,0.000000,0.000000,0.000000,0.000000,0.000000,0.000000,0.000000,0.000000,1770297565.633762,0.000000
254.000000,10053.971118,12700.909400,1992.121576,3030.941252,-16693.243884,-11115.835442,4175.864658,-1543.566769,-15028.977696,6156.206865,826.612213,3479.429004,10402.188945,-10076.658139,-3793.940400,759.512277,0.000000,-0.011000,1.002000,192.000000,0.000000,0.000000,127.500000,96.000000,15.500000,72.000000,0.000000,0.000000,0.000000,1770297565.633773,0.000000
0.000000,10067.024537,12715.393331,2009.086550,3047.101563,-16677.642367,-11096.948218,4191.644989,-1527.562920,-15079.112658,6112.240984,783.115719,3435.507826,10346.220177,-10118.187680,-3838.666241,719.860282,0.000000,-0.011000,1.002000,192.000000,0.000000,0.000000,0.000000,0.000000,0.000000,0.000000,0.000000,0.000000,0.000000,1770297565.633785,0.000000
2.000000,10085.084746,12734.392313,2027.683202,3066.681691,-16660.230358,-11084.006558,4210.576917,-1508.698047,-15016.505422,6162.755926,839.710336,3489.375530,10414.907088,-10049.746639,-3785.066758,768.095346,0.000000,-0.011000,1.002000,192.000000,0.000000,0.000000,0.000000,0.000000,0.000000,0.000000,0.000000,0.000000,0.000000,1770297565.633797,0.000000
4.000000,10049.210197,12700.976455,1984.678445,3022.402885,-16707.347835,-11125.916079,4163.906475,-1548.730022,-15069.791981,6125.674382,796.236193,3451.511675,10379.010186,-10111.191584,-3826.685706,721.447256,0.000000,-0.011000,1.002000,192.000000,0.000000,0.000000,0.000000,0.000000,0.000000,0.000000,0.000000,0.000000,0.000000,1770297565.633809,0.000000
6.000000,10104.441357,12756.677003,2037.026231,3076.672921,-16655.648250,-11075.647006,4216.276612,-1495.130538,-15039.550071,6148.070830,816.889205,3470.622417,10393.583523,-10082.246075,-3816.269793,732.757238,0.000000,-0.011000,1.002000,192.000000,0.000000,0.000000,0.000000,0.000000,0.000000,0.000000,0.000000,0.000000,0.000000,1770297565.633821,0.000000
8.000000,10063.314147,12715.773310,1998.089492,3038.742010,-16693.534457,-11111.186279,4179.642103,-1534.380202,-15017.511251,6165.304025,837.944548,3493.376493,10424.764207,-10067.985662,-3795.013284,751.756221,-0.001000,-0.009500,1.002000,192.000000,127.500000,120.000000,127.500000,96.000000,15.500000,40.000000,0.000000,0.000000,0.000000,1770297565.633832,0.000000
10.000000,10068.097421,12719.371941,2006.806672,3050.208455,-16677.463553,-11100.815070,4190.840327,-1527.473513,-15078.263292,6117.381885,786.021446,3444.470876,10377.423212,-10108.710540,-3842.846017,710.561956,-0.001000,-0.009500,1.002000,192.000000,0.000000,0.000000,0.000000,0.000000,0.000000,0.000000,0.000000,0.000000,0.000000,1770297565.633844,0.000000
12.000000,10091.611456,12740.449636,2031.482998,3071.152040,-16658.397515,-11085.437070,4214.354362,-1505.680562,-15013.107957,6165.616949,841.587882,3492.571830,10432.676725,-10056.653328,-3785.290275,766.955407,-0.001000,-0.009500,1.002000,192.000000,0.000000,0.000000,0.000000,0.000000,0.000000,0.000000,0.000000,0.000000,0.000000,1770297565.633856,0.000000
14.000000,10045.119827,12696.394348,1988.612352,3024.146321,-16700.217629,-11134.409742,4169.382652,-1550.205237,-15060.784228,6127.060190,802.941716,3455.512638,10386.654483,-10100.038064,-3828.630308,730.298547,-0.001000,-0.009500,1.002000,192.000000,0.000000,0.000000,0.000000,0.000000,0.000000,0.000000,0.000000,0.000000,0.000000,1770297565.633868,0.000000
16.000000,10088.638674,12738.281517,2035.439257,3074.348339,-16657.145817,-11083.380709,4217.573013,-1503.624201,-15050.278908,6134.615080,813.447036,3462.307568,10381.155954,-10092.572581,-3821.924784,740.423887,-0.001000,-0.009500,1.002000,192.000000,0.000000,0.000000,0.000000,0.000000,0.000000,0.000000,0.000000,0.000000,0.000000,1770297565.633879,0.000000
18.000000,10060.676642,12712.129976,2000.861108,3039.636080,-16689.667605,-11121.468082,4182.257257,-1533.933167,-15027.100149,6154.239911,835.776429,3485.262809,10413.074245,-10073.975929,-3793.426310,756.740660,-0.001500,-0.009750,1.002000,192.000000,127.500000,120.000000,127.500000,88.000000,15.500000,40.000000,0.000000,0.000000,0.000000,1770297565.633891,0.000000
20.000000,10074.713537,12726.837424,2011.455835,3056.064612,-16673.619053,-11106.782986,4193.343722,-1520.343306,-15075.446972,6121.986344,794.828033,3451.601082,10364.056869,-10103.614343,-3842.533093,718.206253,-0.001500,-0.009750,1.002000,192.000000,0.000000,0.000000,0.000000,0.000000,0.000000,0.000000,0.000000,0.000000,0.000000,1770297565.633903,0.000000
22.000000,10095.411252,12742.885976,2029.538397,3073.811897,-16664.700707,-11085.995863,4212.812091,-1503.400684,-15011.498631,6169.617912,849.746269,3496.952772,10424.116006,-10055.356926,-3790.587639,761.009843,-0.001500,-0.009750,1.002000,192.000000,0.000000,0.000000,0.000000,0.000000,0.000000,0.000000,0.000000,0.000000,0.000000,1770297565.633915,0.000000
24.000000,10051.847702,12699.031854,1985.751329,3023.833397,-16702.296341,-11125.424340,4166.320463,-1548.595911,-15066.729792,6121.852234,803.947545,3451.466972,10403.954733,-10104.329598,-3824.405828,728.666869,-0.001500,-0.009750,1.002000,192.000000,0.000000,0.000000,0.000000,0.000000,0.000000,0.000000,0.000000,0.000000,0.000000,1770297565.633926,0.000000
26.000000,10101.803851,12747.199863,2037.696783,3076.807031,-16656.095285,-11086.956988,4218.467083,-1494.437634,-15039.974754,6137.699620,822.655955,3465.347405,10414.683570,-10091.030311,-3816.806235,739.641576,-0.001500,-0.009750,1.002000,192.000000,0.000000,0.000000,0.000000,0.000000,0.000000,0.000000,0.000000,0.000000,0.000000,1770297565.633940,0.000000
28.000000,10071.450182,12718.477871,1998.357713,3030.918900,-16691.858076,-11124.440864,4177.094004,-1530.692164,-15017.041864,6161.303063,845.901769,3489.062606,10411.509623,-10066.421040,-3791.973447,753.991396,-0.002750,-0.008875,1.001000,192.000000,127.500000,112.000000,127.500000,96.000000,15.500000,32.000000,0.000000,0.000000,0.000000,1770297565.633952,0.000000
30.000000,10077.753374,12722.747054,2010.785283,3045.872217,-16682.425640,-11111.454500,4191.108548,-1518.175187,-15069.881388,6115.973725,797.286725,3445.253187,10351.405782,-10115.214898,-3841.706078,709.176148,-0.002750,-0.008875,1.001000,192.000000,0.000000,0.000000,0.000000,0.000000,0.000000,0.000000,0.000000,0.000000,0.000000,1770297565.633964,0.000000
32.000000,10093.109023,12740.919023,2028.264347,3063.284226,-16666.354736,-11098.691654,4208.609963,-1502.059579,-15018.695893,6158.419688,846.549970,3493.577658,10414.795329,-10063.984700,-3787.883078,758.975835,-0.002750,-0.008875,1.001000,192.000000,0.000000,0.000000,0.000000,0.000000,0.000000,0.000000,0.000000,0.000000,0.000000,1770297565.633976,0.000000
34.000000,10044.270461,12698.115432,1979.604599,3019.765379,-16712.488736,-11141.808169,4161.313672,-1551.591045,-15079.582045,6121.002867,797.264373,3454.238588,10365.330918,-10108.934058,-3832.295994,719.212081,-0.002750,-0.008875,1.001000,192.000000,0.000000,0.000000,0.000000,0.000000,0.000000,0.000000,0.000000,0.000000,0.000000,1770297565.633987,0.000000
36.000000,10093.041968,12745.322316,2030.231301,3081.567953,-16660.990317,-11086.308788,4216.902461,-1501.389027,-15057.006783,6139.979498,810.407199,3467.113193,10396.489250,-10094.494831,-3819.711962,736.691146,-0.002750,-0.008875,1.001000,192.000000,0.000000,0.000000,0.000000,0.000000,0.000000,0.000000,0.000000,0.000000,0.000000,1770297565.634011,0.000000
38.000000,10060.475476,12710.967685,1992.367446,3040.172522,-16699.480021,-11129.134730,4179.530344,-1539.454048,-15034.208004,6153.681118,830.903748,3484.212277,10402.881849,-10074.557075,-3798.746025,755.131335,-0.002375,-0.012438,1.001500,192.000000,127.500000,120.000000,127.500000,64.000000,15.500000,40.000000,0.000000,0.000000,0.000000,1770297565.634023,0.000000
40.000000,10068.566807,12719.528403,2001.978696,3047.749763,-16689.578198,-11123.367980,4192.002617,-1526.087704,-15085.147629,6110.788120,786.334370,3442.258053,10363.319261,-10119.238212,-3847.159904,705.421055,-0.002375,-0.012438,1.001500,192.000000,0.000000,0.000000,0.000000,0.000000,0.000000,0.000000,0.000000,0.000000,0.000000,1770297565.634036,0.000000
42.000000,10085.621188,12734.414665,2023.101094,3067.128726,-16669.863960,-11095.808279,4214.309658,-1505.747617,-15023.926201,6157.592673,839.755039,3491.878926,10422.663143,-10070.801982,-3797.047293,754.013747,-0.002375,-0.012438,1.001500,192.000000,0.000000,0.000000,0.000000,0.000000,0.000000,0.000000,0.000000,0.000000,0.000000,1770297565.634053,0.000000
44.000000,10042.817598,12692.080461,1975.156602,3018.379571,-16711.169983,-11135.102646,4164.755841,-1555.502600,-15073.368260,6122.299269,794.448053,3451.757544,10364.705070,-10110.319866,-3840.454381,716.686334,-0.002375,-0.012438,1.001500,192.000000,0.000000,0.000000,0.000000,0.000000,0.000000,0.000000,0.000000,0.000000,0.000000,1770297565.634068,0.000000
46.000000,10097.735834,12747.378677,2028.577272,3077.477584,-16658.039887,-11075.423488,4217.438903,-1499.824405,-15051.307088,6139.554815,808.864928,3462.709899,10385.447488,-10090.583276,-3828.295032,734.031288,-0.002375,-0.012438,1.001500,192.000000,0.000000,0.000000,0.000000,0.000000,0.000000,0.000000,0.000000,0.000000,0.000000,1770297565.634086,0.000000
48.000000,10069.952615,12722.344723,1992.546259,3036.573891,-16695.523762,-11120.194032,4177.563390,-1532.055620,-15022.339227,6172.031900,838.302176,3494.270562,10419.600954,-10052.250034,-3810.503043,751.957387,-0.000187,-0.012219,1.001750,192.000000,0.000000,8.000000,127.500000,80.000000,15.500000,40.000000,0.000000,0.000000,0.000000,1770297565.634103,0.000000
50.000000,10086.403499,12740.181415,2008.505405,3051.817781,-16679.989300,-11102.044416,4193.813109,-1512.341382,-15073.994109,6128.736571,796.236193,3454.752678,10357.396049,-10099.523973,-3844.947081,711.612488,-0.000187,-0.012219,1.001750,192.000000,0.000000,0.000000,0.000000,0.000000,0.000000,0.000000,0.000000,0.000000,0.000000,1770297565.634121,0.000000
52.000000,10099.680436,12753.368944,2026.163283,3071.755537,-16663.426657,-11082.173715,4213.326182,-1494.012951,-15007.497669,6177.619836,853.411955,3505.133510,10432.654373,-10047.153836,-3795.214450,755.600721,-0.000187,-0.012219,1.001750,192.000000,0.000000,0.000000,0.000000,0.000000,0.000000,0.000000,0.000000,0.000000,0.000000,1770297565.634135,0.000000
54.000000,10054.038173,12710.699464,1976.676521,3023.743990,-16710.611190,-11132.979230,4162.475963,-1545.243149,-15068.383821,6133.452789,801.958239,3461.771126,10392.063605,-10108.263505,-3834.777037,718.586232,-0.000187,-0.012219,1.001750,192.000000,0.000000,0.000000,0.000000,0.000000,0.000000,0.000000,0.000000,0.000000,0.000000,1770297565.634147,0.000000
56.000000,10108.911706,12762.019069,2032.868806,3079.600999,-16656.698782,-11081.234942,4217.416551,-1492.068349,-15044.467454,6146.372097,814.899899,3473.550495,10392.309474,-10089.152764,-3816.493311,732.623128,-0.000187,-0.012219,1.001750,192.000000,0.000000,0.000000,0.000000,0.000000,0.000000,0.000000,0.000000,0.000000,0.000000,1770297565.634159,0.000000
58.000000,10069.974967,12718.455519,1996.323704,3031.477693,-16695.099079,-11129.134730,4177.518687,-1532.234434,-15009.218753,6168.992063,844.203036,3497.802138,10437.638812,-10069.259711,-3792.018150,755.466611,-0.000187,-0.012219,1.001750,192.000000,0.000000,0.000000,0.000000,0.000000,0.000000,0.000000,0.000000,0.000000,0.000000,1770297566.114447,0.000000
60.000000,10073.394784,12723.574069,2008.237184,3041.357165,-16689.734660,-11124.619678,4188.001655,-1522.645536,-15076.117525,6110.408140,790.581201,3441.386335,10363.878055,-10119.506433,-3835.246424,710.092570,0.002000,-0.016000,1.004000,192.000000,0.000000,8.000000,127.500000,64.000000,15.500000,48.000000,0.000000,0.000000,0.000000,1770297566.114521,0.000000
62.000000,10100.149822,12753.033668,2033.338193,3065.966435,-16669.551035,-11096.590590,4213.773216,-1491.710721,-15005.061329,6170.534333,851.802629,3502.138376,10433.995477,-10061.078973,-3789.045368,751.532704,0.002000,-0.016000,1.004000,192.000000,0.000000,0.000000,0.000000,0.000000,0.000000,0.000000,0.000000,0.000000,0.000000,1770297566.114576,0.000000
64.000000,10058.307357,12712.956990,1984.365521,3018.714847,-16710.521783,-11133.985059,4166.700443,-1538.179998,-15058.705516,6135.598556,809.490777,3465.280350,10391.035425,-10100.306284,-3833.324174,712.752427,0.002000,-0.016000,1.004000,192.000000,0.000000,0.000000,0.000000,0.000000,0.000000,0.000000,0.000000,0.000000,0.000000,1770297566.114631,0.000000
66.000000,10108.039988,12758.711011,2033.092324,3067.687520,-16656.609375,-11081.771383,4216.678943,-1493.230640,-15032.911603,6148.540217,820.912519,3472.768184,10431.179158,-10087.610494,-3822.796502,724.956480,0.002000,-0.016000,1.004000,192.000000,0.000000,0.000000,0.000000,0.000000,0.000000,0.000000,0.000000,0.000000,0.000000,1770297566.114687,0.000000
68.000000,10067.650386,12719.416645,1992.188632,3024.682763,-16697.490716,-11118.718817,4176.602265,-1534.022574,-15014.024379,6159.313757,839.017432,3485.978065,10426.150015,-10075.004110,-3800.847089,752.136201,0.002000,-0.016000,1.004000,192.000000,0.000000,0.000000,0.000000,0.000000,0.000000,0.000000,0.000000,0.000000,0.000000,1770297566.114743,0.000000
70.000000,10092.192601,12743.198901,2008.527757,3044.776981,-16680.950425,-11107.610000,4192.695521,-1512.520196,-15066.886254,6120.153501,793.732797,3445.275539,10387.213276,-10110.029293,-3851.384384,701.285982,-0.002000,-0.016000,1.004000,192.000000,127.500000,120.000000,127.500000,64.000000,15.500000,48.000000,0.000000,0.000000,0.000000,1770297566.114779,0.000000
72.000000,10110.006942,12760.365040,2029.225472,3063.351281,-16665.393611,-11095.450651,4211.873318,-1491.911887,-14994.578361,6174.401185,856.138868,3503.211260,10437.169425,-10055.245168,-3796.488499,752.516181,-0.002000,-0.016000,1.004000,192.000000,0.000000,0.000000,0.000000,0.000000,0.000000,0.000000,0.000000,0.000000,0.000000,1770297566.114799,0.000000
74.000000,10064.588197,12715.706255,1985.013722,3021.218243,-16709.940637,-11128.330067,4169.449707,-1534.223739,-15050.591832,6131.664649,810.965992,3465.660330,10402.725387,-10101.312113,-3834.911148,711.366619,-0.002000,-0.016000,1.004000,192.000000,0.000000,0.000000,0.000000,0.000000,0.000000,0.000000,0.000000,0.000000,0.000000,1770297566.114815,0.000000
76.000000,10108.129395,12759.426267,2034.254615,3074.817726,-16658.598680,-11078.396270,4221.573975,-1484.379349,-15035.459701,6139.420705,821.851292,3478.713748,10418.282201,-10084.615360,-3828.160921,721.782532,-0.002000,-0.016000,1.004000,192.000000,0.000000,0.000000,0.000000,0.000000,0.000000,0.000000,0.000000,0.000000,0.000000,1770297566.114830,0.000000
78.000000,10077.194581,12728.111473,1996.882498,3033.377592,-16693.981492,-11116.371884,4181.139670,-1523.181978,-15011.766852,6161.101897,843.711298,3500.596106,10428.876928,-10070.176133,-3806.636191,739.708631,-0.002000,-0.016000,1.004000,192.000000,0.000000,0.000000,0.000000,0.000000,0.000000,0.000000,0.000000,0.000000,0.000000,1770297566.114846,0.000000
80.000000,10092.170249,12743.623584,2009.712399,3043.704098,-16674.580178,-11103.385520,4191.913210,-1512.028457,-15062.482961,6124.601498,797.689056,3458.887751,10396.332788,-10098.741662,-3849.037450,705.823386,0.002000,-0.014000,1.000000,192.000000,0.000000,8.000000,127.500000,72.000000,15.500000,32.000000,0.000000,0.000000,0.000000,1770297566.114862,0.000000
82.000000,10118.344142,12767.651709,2032.064144,3062.591322,-16652.362544,-11080.810258,4210.018123,-1492.358922,-14991.091489,6176.926932,857.859952,3509.380342,10436.208300,-10055.021650,-3785.849069,747.151762,0.002000,-0.014000,1.000000,192.000000,0.000000,0.000000,0.000000,0.000000,0.000000,0.000000,0.000000,0.000000,0.000000,1770297566.114878,0.000000
84.000000,10074.981758,12725.786892,1984.857259,3010.243536,-16702.095175,-11131.302849,4160.956044,-1538.247053,-15041.293507,6137.878434,814.698734,3467.649635,10401.697207,-10098.227572,-3832.899491,721.469608,0.002000,-0.014000,1.000000,192.000000,0.000000,0.000000,0.000000,0.000000,0.000000,0.000000,0.000000,0.000000,0.000000,1770297566.114895,0.000000
86.000000,10117.137148,12770.490381,2035.707478,3068.939217,-16654.955346,-11073.344776,4218.489435,-1483.641742,-15023.412111,6145.098048,829.339126,3478.222010,10430.530957,-10084.324787,-3821.947136,732.801942,0.002000,-0.014000,1.000000,192.000000,0.000000,0.000000,0.000000,0.000000,0.000000,0.000000,0.000000,0.000000,0.000000,1770297566.114913,0.000000
88.000000,10073.618302,12724.088159,1993.328571,3025.599185,-16694.607341,-11107.610000,4177.362225,-1532.189731,-15010.537506,6163.538237,843.219560,3498.897374,10427.915803,-10070.109078,-3795.348560,750.169247,0.002000,-0.014000,1.000000,192.000000,0.000000,0.000000,0.000000,0.000000,0.000000,0.000000,0.000000,0.000000,0.000000,1770297566.114930,0.000000
90.000000,10076.546380,12726.815072,1999.922335,3041.960662,-16687.208913,-11103.765500,4187.733434,-1527.697030,-15069.054373,6112.598611,787.519012,3448.963576,10377.959654,-10106.073035,-3842.175465,708.304430,0.002000,-0.014000,1.000000,192.000000,0.000000,0.000000,127.500000,88.000000,15.500000,32.000000,0.000000,0.000000,0.000000,1770297566.114959,0.000000
92.000000,10098.384034,12748.026877,2019.167187,3063.328929,-16668.813428,-11081.749032,4210.733379,-1508.027495,-15006.335378,6160.140772,838.279824,3495.477557,10445.998364,-10068.566807,-3793.359255,754.483134,0.002000,-0.014000,1.000000,192.000000,0.000000,0.000000,0.000000,0.000000,0.000000,0.000000,0.000000,0.000000,0.000000,1770297566.114976,0.000000
94.000000,10063.112982,12711.995865,1976.900038,3015.831472,-16707.884277,-11124.239698,4166.141649,-1550.294644,-15055.419809,6128.021315,799.186623,3456.876094,10391.884791,-10093.556058,-3838.487427,719.234433,0.002000,-0.014000,1.000000,192.000000,0.000000,0.000000,0.000000,0.000000,0.000000,0.000000,0.000000,0.000000,0.000000,1770297566.114994,0.000000
96.000000,10123.350933,12772.658500,2036.288623,3070.436784,-16646.819311,-11067.667433,4219.472911,-1490.570782,-15027.703646,6148.786086,819.370248,3471.941170,10427.558175,-10080.592046,-3825.501064,729.270366,0.002000,-0.014000,1.000000,192.000000,0.000000,0.000000,0.000000,0.000000,0.000000,0.000000,0.000000,0.000000,0.000000,1770297566.115010,0.000000
98.000000,10091.767918,12740.941374,2002.515137,3029.354278,-16678.402326,-11093.237828,4183.643065,-1520.298603,-14998.333454,6178.804479,851.824981,3502.473653,10455.073172,-10045.209234,-3794.566249,749.230474,0.002000,-0.014000,1.000000,192.000000,0.000000,0.000000,0.000000,0.000000,0.000000,0.000000,0.000000,0.000000,0.000000,1770297566.115028,0.000000
100.000000,10091.902029,12740.941374,2004.906774,3032.282356,-16675.965986,-11099.250448,4186.079405,-1520.097437,-15059.443123,6125.719085,799.834824,3450.036460,10388.621436,-10100.842726,-3839.225035,712.730075,0.002000,-0.014000,1.000000,192.000000,0.000000,0.000000,127.500000,104.000000,15.500000,64.000000,0.000000,0.000000,0.000000,1770297566.115045,0.000000
102.000000,10106.855346,12755.894691,2028.241995,3058.277435,-16660.006840,-11076.585779,4211.627449,-1503.892422,-15003.653169,6169.282635,845.834714,3495.388150,10430.039219,-10063.582368,-3787.704264,750.929207,0.002000,-0.014000,1.000000,192.000000,0.000000,0.000000,0.000000,0.000000,0.000000,0.000000,0.000000,0.000000,0.000000,1770297566.115062,0.000000
104.000000,10068.544456,12718.768444,1980.945704,3018.625440,-16703.928018,-11117.131843,4168.198010,-1547.411269,-15054.548091,6133.385734,802.204109,3458.261902,10391.616570,-10094.964218,-3827.557424,724.822369,0.002000,-0.014000,1.000000,192.000000,0.000000,0.000000,0.000000,0.000000,0.000000,0.000000,0.000000,0.000000,0.000000,1770297566.115108,0.000000
106.000000,10113.851442,12765.930625,2027.191463,3078.841040,-16656.430561,-11072.316596,4220.724609,-1496.046960,-15033.380989,6150.909501,817.358591,3478.445527,10433.436684,-10062.487133,-3823.467055,723.838892,0.002000,-0.014000,1.000000,192.000000,0.000000,0.000000,0.000000,0.000000,0.000000,0.000000,0.000000,0.000000,0.000000,1770297566.115130,0.000000
108.000000,10082.201371,12735.129921,1988.813518,3037.892644,-16699.681187,-11104.614866,4180.938504,-1531.899158,-15014.404358,6170.087298,834.949414,3501.914859,10413.722445,-10061.011918,-3797.561383,757.388861,0.002000,-0.014000,1.000000,192.000000,0.000000,0.000000,0.000000,0.000000,0.000000,0.000000,0.000000,0.000000,0.000000,1770297566.115148,0.000000
110.000000,10098.272276,12750.083238,2001.889289,3047.593301,-16682.269178,-11090.332102,4190.437995,-1517.594042,-15062.304147,6129.652992,792.078768,3457.680757,10388.509677,-10104.083729,-3850.579721,716.395762,-0.004000,-0.006000,1.006000,192.000000,127.500000,112.000000,127.500000,104.000000,15.500000,56.000000,0.000000,0.000000,0.000000,1770297566.115164,0.000000
112.000000,10117.561831,12767.048212,2030.208949,3066.569932,-16652.988392,-11062.146552,4213.527347,-1496.672809,-14992.678463,6177.843353,852.830810,3507.368685,10444.970184,-10046.930319,-3793.761586,757.545323,-0.004000,-0.006000,1.006000,192.000000,0.000000,0.000000,0.000000,0.000000,0.000000,0.000000,0.000000,0.000000,0.000000,1770297566.115180,0.000000
114.000000,10062.688299,12713.068749,1978.487012,3008.991839,-16706.319655,-11114.114358,4162.498315,-1549.244112,-15050.860053,6128.736571,804.953373,3460.675891,10403.753567,-10100.328636,-3833.033601,729.516236,-0.004000,-0.006000,1.006000,192.000000,0.000000,0.000000,0.000000,0.000000,0.000000,0.000000,0.000000,0.000000,0.000000,1770297566.115195,0.000000
116.000000,10111.079825,12760.834427,2030.946556,3063.127764,-16657.257576,-11072.674224,4215.494301,-1497.455120,-15040.779417,6131.351725,810.943641,3464.274521,10419.533899,-10081.620226,-3817.007401,736.579387,-0.004000,-0.006000,1.006000,192.000000,0.000000,0.000000,0.000000,0.000000,0.000000,0.000000,0.000000,0.000000,0.000000,1770297566.115211,0.000000
118.000000,10070.690223,12722.925868,1987.092434,3025.621536,-16697.803640,-11112.035645,4175.395271,-1537.330632,-15017.600658,6154.016394,834.368269,3490.224897,10410.213221,-10074.378261,-3803.037560,753.432602,-0.004000,-0.006000,1.006000,192.000000,0.000000,0.000000,0.000000,0.000000,0.000000,0.000000,0.000000,0.000000,0.000000,1770297566.115228,0.000000
120.000000,10083.520124,12732.112435,1996.010780,3039.859598,-16694.137954,-11097.507012,4185.386501,-1526.400629,-15076.363394,6108.128263,785.708521,3447.242492,10379.703090,-10119.126453,-3851.160866,709.846700,-0.004000,-0.008000,1.010000,192.000000,127.500000,112.000000,127.500000,96.000000,15.500000,72.000000,0.000000,0.000000,0.000000,1770297566.115245,0.000000
122.000000,10114.142014,12760.722668,2019.770684,3066.726395,-16670.400401,-11077.837476,4209.414626,-1499.690294,-15005.888344,6163.784106,843.063097,3499.098539,10448.948794,-10061.324842,-3799.930668,748.805791,-0.004000,-0.008000,1.010000,192.000000,0.000000,0.000000,0.000000,0.000000,0.000000,0.000000,0.000000,0.000000,0.000000,1770297566.115270,0.000000
124.000000,10063.247092,12710.297133,1973.323759,3020.368877,-16716.824975,-11120.439901,4162.654777,-1544.706708,-15059.443123,6126.635507,805.623925,3465.503867,10401.384282,-10103.949619,-3843.605977,708.751465,-0.004000,-0.008000,1.010000,192.000000,0.000000,0.000000,0.000000,0.000000,0.000000,0.000000,0.000000,0.000000,0.000000,1770297566.115287,0.000000
126.000000,10114.857270,12761.527331,2029.046658,3076.315293,-16662.867864,-11070.662567,4217.260089,-1493.521213,-15046.389705,6135.129170,817.447998,3474.690434,10392.644750,-10091.231476,-3832.921843,730.477361,-0.004000,-0.008000,1.010000,192.000000,0.000000,0.000000,0.000000,0.000000,0.000000,0.000000,0.000000,0.000000,0.000000,1770297566.115304,0.000000
128.000000,10074.445316,12720.131900,1992.456852,3028.147284,-16703.928018,-11116.371884,4177.697501,-1534.000222,-15013.085605,6156.564493,845.611196,3497.578621,10423.490158,-10069.147953,-3805.608011,754.013747,-0.004000,-0.008000,1.010000,192.000000,0.000000,0.000000,0.000000,0.000000,0.000000,0.000000,0.000000,0.000000,0.000000,1770297566.115321,0.000000
130.000000,10074.333557,12720.981267,2001.643419,3031.678859,-16688.527666,-11113.734378,4185.207687,-1529.015783,-15082.376013,6095.991265,788.100158,3440.134637,10363.006337,-10117.785349,-3843.628328,706.583346,-0.004000,-0.009000,1.008000,192.000000,127.500000,112.000000,127.500000,88.000000,15.500000,56.000000,0.000000,0.000000,0.000000,1770297566.115339,0.000000
132.000000,10100.574505,12749.166816,2027.258519,3062.703080,-16663.538416,-11074.797639,4211.895670,-1501.500786,-15020.752254,6143.466371,839.866798,3487.989722,10423.400751,-10084.280084,-3788.598333,755.824239,-0.004000,-0.009000,1.008000,192.000000,0.000000,0.000000,0.000000,0.000000,0.000000,0.000000,0.000000,0.000000,0.000000,1770297566.115356,0.000000
134.000000,10054.909891,12704.865659,1977.101204,3015.339734,-16709.113623,-11124.574974,4165.582855,-1549.780554,-15060.136027,6118.186548,804.975725,3460.072393,10394.097614,-10108.934058,-3831.021944,716.373410,-0.004000,-0.009000,1.008000,192.000000,0.000000,0.000000,0.000000,0.000000,0.000000,0.000000,0.000000,0.000000,0.000000,1770297566.115373,0.000000
136.000000,10096.975875,12745.501130,2019.502463,3066.882857,-16666.824122,-11077.211628,4215.114321,-1504.630030,-15049.988335,6117.314830,807.792045,3459.647710,10433.369629,-10097.489965,-3826.261023,733.092515,-0.004000,-0.009000,1.008000,192.000000,0.000000,0.000000,0.000000,0.000000,0.000000,0.000000,0.000000,0.000000,0.000000,1770297566.115390,0.000000
138.000000,10063.627072,12711.213554,1985.304294,3025.509778,-16702.765727,-11112.683846,4179.396233,-1540.124600,-15028.620068,6135.844426,830.993155,3481.127737,10399.819660,-10068.589159,-3802.881098,767.357739,-0.004000,-0.009000,1.008000,192.000000,0.000000,0.000000,0.000000,0.000000,0.000000,0.000000,0.000000,0.000000,0.000000,1770297566.115408,0.000000
140.000000,10073.148915,12719.237831,1995.630800,3036.372726,-16694.607341,-11110.336913,4188.024007,-1529.887501,-15081.794868,6090.380977,784.143899,3436.960690,10357.731325,-10141.612308,-3848.702174,710.293735,-0.004000,-0.010500,1.008000,192.000000,127.500000,112.000000,127.500000,80.000000,15.500000,64.000000,0.000000,0.000000,0.000000,1770297566.115425,0.000000
142.000000,10100.283933,12748.295098,2028.577272,3062.703080,-16669.193407,-11089.616846,4215.181376,-1502.663076,-15014.404358,6144.941586,841.789048,3491.320132,10434.442512,-10076.479325,-3798.321342,752.963215,-0.004000,-0.010500,1.008000,192.000000,0.000000,0.000000,0.000000,0.000000,0.000000,0.000000,0.000000,0.000000,0.000000,1770297566.115442,0.000000
144.000000,10068.589159,12721.294191,1992.367446,3017.865481,-16705.470288,-11120.104625,4171.707233,-1537.777667,-15057.207949,6120.488777,810.317792,3463.738080,10390.990721,-10105.067206,-3836.229901,720.016744,-0.004000,-0.010500,1.008000,192.000000,0.000000,0.000000,0.000000,0.000000,0.000000,0.000000,0.000000,0.000000,0.000000,1770297566.115459,0.000000
146.000000,10118.791177,12767.495247,2041.809504,3070.034453,-16650.775570,-11075.110564,4220.858719,-1487.441538,-15031.190518,6135.844426,827.260414,3477.462051,10422.171405,-10092.773747,-3820.516625,728.778628,-0.004000,-0.010500,1.008000,192.000000,0.000000,0.000000,0.000000,0.000000,0.000000,0.000000,0.000000,0.000000,0.000000,1770297566.115476,0.000000
148.000000,10085.978816,12733.542947,2000.838757,3029.488388,-16688.415907,-11109.331084,4182.436071,-1524.992469,-15004.211963,6153.725821,850.707394,3499.880850,10451.854521,-10070.019671,-3791.615819,751.175076,-0.004000,-0.010500,1.008000,192.000000,0.000000,0.000000,0.000000,0.000000,0.000000,0.000000,0.000000,0.000000,0.000000,1770297566.115493,0.000000
150.000000,10087.923418,12734.973459,2001.330495,3037.177388,-16681.889198,-11104.927791,4188.024007,-1521.215024,-15058.929033,6107.882393,797.242021,3450.081164,10403.686512,-10115.930154,-3845.148247,705.443407,-0.004000,-0.012250,1.011000,192.000000,127.500000,112.000000,127.500000,72.000000,15.500000,88.000000,0.000000,0.000000,0.000000,1770297566.115510,0.000000
152.000000,10114.432587,12761.326165,2026.900891,3066.145249,-16652.116674,-11075.714061,4216.947164,-1494.236469,-14997.931123,6157.279749,853.054327,3502.116025,10444.590204,-10063.939996,-3792.129909,757.455916,-0.004000,-0.012250,1.011000,192.000000,0.000000,0.000000,0.000000,0.000000,0.000000,0.000000,0.000000,0.000000,0.000000,1770297566.115527,0.000000
154.000000,10056.049830,12702.205801,1971.759137,3010.936440,-16713.494565,-11126.899556,4163.906475,-1554.183847,-15054.458684,6114.654972,805.087484,3456.809039,10396.958637,-10098.406386,-3838.710944,724.285927,-0.004000,-0.012250,1.011000,192.000000,0.000000,0.000000,0.000000,0.000000,0.000000,0.000000,0.000000,0.000000,0.000000,1770297566.115560,0.000000
156.000000,10099.702787,12747.468084,2024.866882,3065.340586,-16662.778457,-11078.351567,4216.969516,-1507.580460,-15049.116617,6120.466425,808.596707,3461.726423,10410.213221,-10098.451090,-3823.601165,731.706706,-0.004000,-0.012250,1.011000,192.000000,0.000000,0.000000,0.000000,0.000000,0.000000,0.000000,0.000000,0.000000,0.000000,1770297566.115577,0.000000
158.000000,10062.844761,12711.906458,1987.427710,3027.700249,-16701.983416,-11117.109491,4179.083309,-1545.220798,-15022.450986,6140.404182,830.613176,3485.419272,10416.069378,-10075.451145,-3800.042427,753.097326,-0.004000,-0.012250,1.011000,192.000000,0.000000,0.000000,0.000000,0.000000,0.000000,0.000000,0.000000,0.000000,0.000000,1770297566.115594,0.000000
160.000000,10066.331633,12716.287400,1995.027303,3035.456304,-16693.199181,-11107.207669,4187.375806,-1535.833065,-15085.594664,6088.950466,777.907762,3439.397030,10363.386317,-10138.527767,-3846.310538,709.824349,-0.005000,-0.010125,1.008500,192.000000,127.500000,104.000000,127.500000,96.000000,15.500000,56.000000,0.000000,0.000000,0.000000,1770297566.115611,0.000000
162.000000,10097.244095,12748.093933,2025.693896,3064.804144,-16661.549111,-11072.584817,4216.991868,-1505.188823,-15019.053521,6142.527597,836.782257,3495.052873,10425.613573,-10077.351043,-3794.342732,754.863114,-0.005000,-0.010125,1.008500,192.000000,0.000000,0.000000,0.000000,0.000000,0.000000,0.000000,0.000000,0.000000,0.000000,1770297566.115628,0.000000
164.000000,10057.212121,12707.972551,1978.911695,3018.044295,-16706.096137,-11128.575936,4169.628521,-1549.869961,-15064.896949,6111.637486,799.454844,3462.575789,10402.323056,-10114.589049,-3835.447590,715.389933,-0.005000,-0.010125,1.008500,192.000000,0.000000,0.000000,0.000000,0.000000,0.000000,0.000000,0.000000,0.000000,0.000000,1770297566.115645,0.000000
166.000000,10096.953523,12750.083238,2025.336269,3067.598113,-16662.040849,-11078.217456,4218.668248,-1504.719437,-15049.027210,6123.059228,809.311963,3470.465955,10421.344390,-10100.775671,-3823.757627,726.632860,-0.005000,-0.010125,1.008500,192.000000,0.000000,0.000000,0.000000,0.000000,0.000000,0.000000,0.000000,0.000000,0.000000,1770297566.115662,0.000000
168.000000,10061.995394,12715.393331,1989.774643,3028.817836,-16696.708405,-11114.695503,4181.899629,-1540.996318,-15029.447082,6135.844426,829.674402,3489.152013,10404.200602,-10089.599799,-3801.562345,754.974872,-0.005000,-0.010125,1.008500,192.000000,0.000000,0.000000,0.000000,0.000000,0.000000,0.000000,0.000000,0.000000,0.000000,1770297566.115679,0.000000
170.000000,10077.865133,12729.810206,2000.704646,3040.217226,-16680.771611,-11098.266971,4190.370940,-1527.317050,-15077.503333,6098.002922,787.384902,3448.740059,10367.096706,-10122.903898,-3850.356203,707.455064,-0.004500,-0.007063,1.008250,192.000000,127.500000,112.000000,127.500000,112.000000,15.500000,64.000000,0.000000,0.000000,0.000000,1770297566.115696,0.000000
172.000000,10096.439433,12746.574014,2021.759989,3064.401813,-16663.806637,-11081.056128,4213.683809,-1508.496882,-15012.884440,6148.562568,842.303138,3498.204469,10423.266640,-10073.372432,-3799.237764,769.570562,-0.004500,-0.007063,1.008250,192.000000,0.000000,0.000000,0.000000,0.000000,0.000000,0.000000,0.000000,0.000000,0.000000,1770297566.115713,0.000000
174.000000,10055.222816,12703.457499,1981.728015,3017.731371,-16705.202068,-11122.540965,4170.030853,-1552.440411,-15068.674394,6106.340123,797.666704,3457.993681,10382.295893,-10108.330561,-3829.300860,724.442390,-0.004500,-0.007063,1.008250,192.000000,0.000000,0.000000,0.000000,0.000000,0.000000,0.000000,0.000000,0.000000,0.000000,1770297566.115730,0.000000
176.000000,10109.381093,12758.934529,2037.137990,3077.879915,-16656.139988,-11062.303014,4225.351420,-1495.041131,-15041.762893,6119.706466,816.777446,3473.751661,10422.864309,-10097.400558,-3817.789712,737.249939,-0.004500,-0.007063,1.008250,192.000000,0.000000,0.000000,0.000000,0.000000,0.000000,0.000000,0.000000,0.000000,0.000000,1770297566.115748,0.000000
178.000000,10077.283988,12729.363171,1996.524870,3038.898473,-16697.580123,-11110.448672,4186.302923,-1531.563882,-15016.617181,6151.110667,841.967862,3503.770054,10430.866233,-10068.589159,-3798.388398,755.533666,-0.004500,-0.007063,1.008250,192.000000,0.000000,0.000000,0.000000,0.000000,0.000000,0.000000,0.000000,0.000000,0.000000,1770297566.594893,0.000000
180.000000,10085.442374,12730.056075,2004.370332,3046.185141,-16690.919303,-11104.167831,4193.164908,-1523.807826,-15070.753106,6103.657914,792.034065,3459.044213,10368.706032,-10119.238212,-3850.825590,712.663020,-0.003250,-0.007531,1.007125,192.000000,127.500000,120.000000,127.500000,96.000000,15.500000,56.000000,0.000000,0.000000,0.000000,1770297566.594958,0.000000
182.000000,10101.513279,12747.244566,2027.996126,3069.296845,-16670.378050,-11069.075593,4217.617717,-1501.053751,-15011.051597,6142.482894,844.515961,3502.808929,10435.515396,-10073.685357,-3802.188194,759.624035,-0.003250,-0.007531,1.007125,192.000000,0.000000,0.000000,0.000000,0.000000,0.000000,0.000000,0.000000,0.000000,0.000000,1770297566.595006,0.000000
184.000000,10065.303453,12715.013351,1983.158527,3020.123007,-16711.080576,-11114.650800,4169.360300,-1545.354908,-15059.778399,6117.024257,806.003905,3470.130678,10396.712768,-10101.021540,-3839.448552,722.564843,-0.003250,-0.007531,1.007125,192.000000,0.000000,0.000000,0.000000,0.000000,0.000000,0.000000,0.000000,0.000000,0.000000,1770297566.595050,0.000000
186.000000,10103.614343,12754.151255,2028.934899,3070.436784,-16663.225491,-11070.953139,4218.891766,-1501.299620,-15045.473283,6120.242908,811.681248,3472.544667,10395.461070,-10092.997264,-3819.957831,724.889424,-0.003250,-0.007531,1.007125,192.000000,0.000000,0.000000,0.000000,0.000000,0.000000,0.000000,0.000000,0.000000,0.000000,1770297566.595102,0.000000
188.000000,10073.215970,12723.663476,1993.283867,3034.249310,-16696.283721,-11109.353436,4183.732472,-1535.788362,-15021.802786,6144.405144,834.457676,3497.064530,10429.458073,-10074.199447,-3798.991895,757.679434,-0.003250,-0.007531,1.007125,192.000000,0.000000,0.000000,0.000000,0.000000,0.000000,0.000000,0.000000,0.000000,0.000000,1770297566.595146,0.000000
190.000000,10081.620226,12732.939450,1998.715341,3043.815856,-16685.733698,-11094.556581,4189.186298,-1526.422981,-15073.815295,6097.868812,787.943696,3452.763373,10369.086012,-10123.507395,-3849.238616,709.801997,-0.003625,-0.008766,1.004563,192.000000,127.500000,112.000000,127.500000,88.000000,15.500000,40.000000,0.000000,0.000000,0.000000,1770297566.595192,0.000000
192.000000,10099.591029,12752.698392,2022.184673,3068.000444,-16667.874654,-11079.066822,4214.108493,-1504.853547,-15014.292599,6147.892016,840.872626,3501.803100,10440.276318,-10073.528895,-3802.992857,755.444259,-0.003625,-0.008766,1.004563,192.000000,0.000000,0.000000,0.000000,0.000000,0.000000,0.000000,0.000000,0.000000,0.000000,1770297566.595208,0.000000
194.000000,10057.703860,12709.783043,1971.759137,3015.004458,-16714.813318,-11123.859718,4162.766536,-1553.021556,-15066.215702,6110.139920,798.225498,3461.055870,10389.224933,-10110.878660,-3834.777037,723.391858,-0.003625,-0.008766,1.004563,192.000000,0.000000,0.000000,0.000000,0.000000,0.000000,0.000000,0.000000,0.000000,0.000000,1770297566.595224,0.000000
196.000000,10099.591029,12750.016183,2020.888271,3064.826496,-16667.651137,-11076.250503,4213.281478,-1506.172300,-15048.446065,6115.683152,808.373190,3467.403766,10397.495079,-10094.673645,-3831.513683,730.544416,-0.003625,-0.008766,1.004563,192.000000,0.000000,0.000000,0.000000,0.000000,0.000000,0.000000,0.000000,0.000000,0.000000,1770297566.595240,0.000000
198.000000,10069.192656,12719.014313,1985.773681,3028.080228,-16702.944541,-11116.550698,4177.853963,-1539.521103,-15024.686161,6134.704487,833.071868,3489.420234,10426.954678,-10075.831124,-3807.597316,751.152724,-0.003625,-0.008766,1.004563,192.000000,0.000000,0.000000,0.000000,0.000000,0.000000,0.000000,0.000000,0.000000,0.000000,1770297566.595259,0.000000
200.000000,10077.395746,12722.367075,1992.948591,3034.584586,-16693.713271,-11106.358302,4184.805356,-1532.368545,-15079.380879,6091.029178,784.456823,3443.040364,10369.354232,-10121.741607,-3855.810029,705.868090,-0.003625,-0.008766,1.004563,192.000000,0.000000,0.000000,0.000000,0.000000,0.000000,0.000000,0.000000,0.000000,0.000000,1770297566.595275,0.000000
202.000000,10105.290723,12750.552625,2022.117617,3066.547581,-16667.494675,-11081.100831,4215.986039,-1501.232565,-15015.298428,6142.438190,840.470295,3493.443548,10427.736989,-10081.821392,-3805.205680,749.409288,-0.004000,-0.012000,1.004000,192.000000,127.500000,112.000000,127.500000,80.000000,15.500000,48.000000,0.000000,0.000000,0.000000,1770297566.595292,0.000000
204.000000,10060.475476,12706.989075,1975.156602,3016.144397,-16716.869678,-11120.752826,4167.125126,-1547.053641,-15060.895987,6113.827957,806.115664,3464.319225,10387.392090,-10108.710540,-3849.015099,720.664945,-0.004000,-0.012000,1.004000,192.000000,0.000000,0.000000,0.000000,0.000000,0.000000,0.000000,0.000000,0.000000,0.000000,1770297566.595308,0.000000
206.000000,10099.926305,12745.143502,2023.883405,3066.994615,-16668.746372,-11081.436107,4215.941336,-1502.394855,-15050.994164,6111.905707,811.077751,3466.532048,10403.462995,-10111.728026,-3836.699287,730.857340,-0.004000,-0.012000,1.004000,192.000000,0.000000,0.000000,0.000000,0.000000,0.000000,0.000000,0.000000,0.000000,0.000000,1770297566.595325,0.000000
208.000000,10077.328691,12724.445787,1995.809614,3034.651641,-16705.336178,-11124.083236,4186.884068,-1532.972042,-15022.674504,6136.962013,837.653975,3492.705940,10414.281239,-10088.146935,-3801.249421,745.810657,-0.004000,-0.012000,1.004000,192.000000,0.000000,0.000000,0.000000,0.000000,0.000000,0.000000,0.000000,0.000000,0.000000,1770297566.595340,0.000000
210.000000,10084.928284,12731.866566,2001.509309,3039.658432,-16697.602474,-11111.275686,4192.740225,-1524.880710,-15071.244844,6102.920306,794.939792,3452.629263,10383.592294,-10119.998171,-3851.831418,697.463834,-0.004000,-0.012000,1.004000,192.000000,0.000000,0.000000,0.000000,0.000000,0.000000,0.000000,0.000000,0.000000,0.000000,1770297566.595357,0.000000
212.000000,10102.586162,12747.445732,2027.079705,3064.759441,-16674.133143,-11091.539096,4217.908289,-1501.187861,-15014.851393,6139.487760,846.929949,3499.277353,10440.589242,-10084.727119,-3806.122101,746.816486,-0.004000,-0.014000,1.008000,192.000000,127.500000,112.000000,127.500000,72.000000,15.500000,64.000000,0.000000,0.000000,0.000000,1770297566.595373,0.000000
214.000000,10058.933205,12703.613961,1977.704701,3012.344600,-16719.171908,-11133.023934,4166.767498,-1550.473458,-15062.862940,6098.271143,804.841614,3458.105440,10388.487326,-10122.456863,-3844.812971,718.072142,-0.004000,-0.014000,1.008000,192.000000,0.000000,0.000000,0.000000,0.000000,0.000000,0.000000,0.000000,0.000000,0.000000,1770297566.595388,0.000000
216.000000,10111.370398,12756.386430,2030.566577,3069.028624,-16663.806637,-11077.211628,4221.216347,-1495.197594,-15046.322649,6107.904745,817.358591,3469.258960,10402.390111,-10108.218802,-3831.893662,719.614413,-0.004000,-0.014000,1.008000,192.000000,0.000000,0.000000,0.000000,0.000000,0.000000,0.000000,0.000000,0.000000,0.000000,1770297566.595404,0.000000
218.000000,10080.279121,12722.344723,1994.781434,3031.656507,-16699.345910,-11118.003561,4186.906420,-1528.814617,-15012.884440,6138.392525,845.164161,3499.009132,10430.039219,-10079.832087,-3803.953982,741.697936,-0.004000,-0.014000,1.008000,192.000000,0.000000,0.000000,0.000000,0.000000,0.000000,0.000000,0.000000,0.000000,0.000000,1770297566.595419,0.000000
220.000000,10073.350081,12715.661551,1996.144890,3035.009269,-16699.636483,-11117.556526,4189.342760,-1530.692164,-15077.302167,6081.239114,789.664780,3445.320242,10373.891637,-10131.866948,-3853.016061,710.070218,-0.004000,-0.014000,1.008000,192.000000,0.000000,0.000000,0.000000,0.000000,0.000000,0.000000,0.000000,0.000000,0.000000,1770297566.595437,0.000000
222.000000,10102.116776,12746.819883,2026.520911,3066.301711,-16663.784285,-11084.945331,4218.757655,-1502.372504,-15015.812518,6131.687001,843.376022,3494.784653,10451.452190,-10083.028386,-3797.516679,757.053585,-0.006000,-0.014000,1.010000,192.000000,127.500000,104.000000,127.500000,72.000000,15.500000,72.000000,0.000000,0.000000,0.000000,1770297566.595455,0.000000
224.000000,10062.263615,12706.184412,1980.141041,3017.507853,-16710.387672,-11129.849986,4170.366129,-1546.405440,-15055.375106,6102.719140,807.367361,3460.966463,10397.897410,-10107.861174,-3836.833398,717.759218,-0.006000,-0.014000,1.010000,192.000000,0.000000,0.000000,0.000000,0.000000,0.000000,0.000000,0.000000,0.000000,0.000000,1770297566.595471,0.000000
226.000000,10105.871869,12749.747962,2028.800789,3069.408604,-16655.022401,-11079.111526,4219.830539,-1498.930335,-15043.305164,6109.894050,817.984440,3468.811926,10401.294875,-10111.325694,-3832.273642,731.594948,-0.006000,-0.014000,1.010000,192.000000,0.000000,0.000000,0.000000,0.000000,0.000000,0.000000,0.000000,0.000000,0.000000,1770297566.595488,0.000000
228.000000,10067.337461,12712.822880,1991.272210,3028.080228,-16691.120469,-11121.110454,4180.737338,-1539.051716,-15016.617181,6129.630641,841.967862,3489.822565,10426.574698,-10090.829145,-3794.342732,750.415117,-0.006000,-0.014000,1.010000,192.000000,0.000000,0.000000,0.000000,0.000000,0.000000,0.000000,0.000000,0.000000,0.000000,1770297566.595504,0.000000
230.000000,10077.529857,12722.121206,1997.463643,3038.853769,-16690.584027,-11104.592515,4189.163946,-1529.082838,-15077.011594,6081.574390,788.055454,3440.984004,10372.327014,-10132.716314,-3851.742012,703.230584,-0.006000,-0.014000,1.010000,192.000000,0.000000,0.000000,0.000000,0.000000,0.000000,0.000000,0.000000,0.000000,0.000000,1770297566.595520,0.000000
232.000000,10109.671665,12752.988965,2028.778437,3068.268665,-16661.415000,-11080.653796,4221.193996,-1499.131501,-15006.178916,6139.800684,848.539275,3498.651504,10440.566890,-10075.920531,-3807.574964,752.851457,-0.002000,-0.012000,1.006000,192.000000,127.500000,120.000000,127.500000,80.000000,15.500000,56.000000,0.000000,0.000000,0.000000,1770297566.595538,0.000000
234.000000,10065.191694,12705.133880,1981.437442,3014.490368,-16707.996036,-11129.492358,4170.164963,-1548.730022,-15050.681239,6098.718178,809.826053,3458.798344,10404.021788,-10122.836843,-3830.865482,714.026477,-0.002000,-0.012000,1.006000,192.000000,0.000000,0.000000,0.000000,0.000000,0.000000,0.000000,0.000000,0.000000,0.000000,1770297566.595555,0.000000
