Sample_index,EXG Channel 0,EXG Channel 1,EXG Channel 2,EXG Channel 3,EXG Channel 4,EXG Channel 5,EXG Channel 6,EXG Channel 7,EXG Channel 8,EXG Channel 9,EXG Channel 10,EXG Channel 11,EXG Channel 12,EXG Channel 13,EXG Channel 14,EXG Channel 15,Accel Channel 0,Accel Channel 1,Accel Channel 2,Not Used,Digital Channel 0 (D11),Digital Channel 1 (D12),Digital Channel 2 (D13),Digital Channel 3 (D17),Not Used,Digital Channel 4 (D18),Analog Channel 0,Analog Channel 1,Analog Channel 2,Timestamp,Marker Channel
90.000000,8204.520727,14256.680221,3331.505159,4564.539142,-18673.876664,-10924.705675,1671.664616,535.905425,-18515.603961,-2397.425759,-885.263191,4571.043500,13130.711094,-18418.575039,-1040.496056,2240.360050,-0.006000,-0.014000,1.007000,192.000000,0.000000,0.000000,0.000000,0.000000,0.000000,0.000000,0.000000,0.000000,0.000000,1770299519.410927,101.000000
92.000000,8174.368223,14223.286715,3295.898830,4520.595613,-18699.648225,-10954.925234,1633.532540,503.204823,-18538.313334,-2404.466558,-896.595525,4565.924950,13120.094016,-18424.095920,-1038.327937,2234.369783,-0.006000,-0.014000,1.007000,192.000000,0.000000,0.000000,0.000000,0.000000,0.000000,0.000000,0.000000,0.000000,0.000000,1770299519.411453,0.000000
94.000000,8207.739378,14257.507236,3322.720924,4555.844314,-18674.278995,-10922.738722,1659.192343,525.578919,-18546.739941,-2408.422817,-910.095979,4550.725764,13103.956056,-18430.801443,-1055.583484,2225.317326,-0.002000,-0.015000,1.009500,192.000000,0.000000,8.000000,127.500000,64.000000,15.500000,80.000000,0.000000,0.000000,0.000000,1770299519.411517,0.000000
96.000000,8193.367206,14243.246823,3315.836586,4538.566415,-18682.035051,-10934.272222,1648.619968,515.341820,-18495.912075,-2384.282933,-872.276827,4580.140660,13150.715906,-18404.515791,-1017.429056,2264.634045,-0.002000,-0.015000,1.009500,192.000000,0.000000,0.000000,0.000000,0.000000,0.000000,0.000000,0.000000,0.000000,0.000000,1770299519.411570,0.000000
98.000000,8184.381805,14230.908660,3303.006685,4522.406104,-18690.104030,-10949.940795,1635.052459,505.864681,-18554.294831,-2417.899956,-911.571194,4540.868645,13102.369082,-18435.942344,-1064.211257,2221.830454,-0.002000,-0.015000,1.009500,192.000000,0.000000,0.000000,0.000000,0.000000,0.000000,0.000000,0.000000,0.000000,0.000000,1770299519.411626,0.000000
100.000000,8224.123207,14276.439163,3339.372973,4566.684910,-18662.209053,-10913.194527,1672.782203,541.202788,-18499.488354,-2384.774671,-872.030958,4577.301988,13143.406885,-18403.286446,-1031.600062,2254.262835,-0.002000,-0.015000,1.009500,192.000000,0.000000,0.000000,0.000000,0.000000,0.000000,0.000000,0.000000,0.000000,0.000000,1770299519.411674,0.000000
102.000000,8192.741357,14235.624878,3300.190365,4522.651973,-18694.261455,-10950.432533,1635.052459,507.094026,-18512.385310,-2389.021503,-882.133947,4573.122212,13142.579871,-18411.578943,-1043.357079,2243.086963,-0.002000,-0.015000,1.009500,192.000000,0.000000,0.000000,0.000000,0.000000,0.000000,0.000000,0.000000,0.000000,0.000000,1770299519.411728,0.000000
104.000000,8204.654837,14251.584023,3324.129084,4558.280654,-18676.313004,-10929.556004,1662.366290,526.361230,-18542.291944,-2415.083637,-906.810273,4550.681061,13109.119309,-18432.164899,-1059.025652,2222.009268,-0.004000,-0.013500,1.010750,192.000000,127.500000,104.000000,127.500000,80.000000,15.500000,80.000000,0.000000,0.000000,0.000000,1770299519.411783,0.000000
106.000000,8198.128128,14245.057314,3319.614031,4548.311776,-18685.030184,-10939.279013,1657.426555,521.577957,-18500.002444,-2387.456881,-874.735519,4582.107613,13147.631365,-18407.130946,-1025.207463,2255.983920,-0.004000,-0.013500,1.010750,192.000000,0.000000,0.000000,0.000000,0.000000,0.000000,0.000000,0.000000,0.000000,0.000000,1770299519.411829,0.000000
108.000000,8175.932846,14216.469433,3297.798729,4523.411932,-18708.477164,-10964.201208,1636.125342,502.422512,-18560.396857,-2425.186625,-913.448741,4545.182531,13095.596504,-18444.145434,-1066.222914,2215.214338,-0.004000,-0.013500,1.010750,192.000000,0.000000,0.000000,0.000000,0.000000,0.000000,0.000000,0.000000,0.000000,0.000000,1770299519.411844,0.000000
110.000000,8215.897765,14265.039774,3334.008555,4569.076546,-18674.234292,-10921.867004,1673.698625,540.889864,-18518.755557,-2402.253735,-881.999836,4573.189267,13123.782053,-18424.498251,-1039.914911,2242.237597,-0.004000,-0.013500,1.010750,192.000000,0.000000,0.000000,0.000000,0.000000,0.000000,0.000000,0.000000,0.000000,0.000000,1770299519.411858,0.000000
112.000000,8183.890067,14227.064160,3294.758891,4515.678229,-18703.850353,-10959.015603,1631.789104,505.730570,-18524.589363,-2398.141014,-883.028016,4572.049328,13125.503138,-18423.358312,-1046.262806,2234.235672,-0.004000,-0.013500,1.010750,192.000000,0.000000,0.000000,0.000000,0.000000,0.000000,0.000000,0.000000,0.000000,0.000000,1770299519.411873,0.000000
114.000000,8201.950276,14250.108808,3321.558633,4548.714107,-18676.402411,-10936.127417,1658.119459,525.489512,-18554.920680,-2424.381962,-910.587717,4544.243758,13094.143640,-18447.408789,-1056.455202,2217.091884,-0.005000,-0.011750,1.011375,192.000000,127.500000,104.000000,127.500000,88.000000,15.500000,80.000000,0.000000,0.000000,0.000000,1770299519.411888,0.000000
116.000000,8189.857982,14240.542262,3314.316668,4535.951261,-18681.252740,-10944.129341,1650.452811,516.548814,-18507.870258,-2393.693017,-873.886153,4578.911314,13141.752856,-18416.630437,-1022.346440,2259.269626,-0.005000,-0.011750,1.011375,192.000000,0.000000,0.000000,0.000000,0.000000,0.000000,0.000000,0.000000,0.000000,0.000000,1770299519.411903,0.000000
118.000000,8175.888142,14218.346979,3298.022246,4517.712238,-18702.263379,-10957.473333,1633.264319,501.997829,-18568.979927,-2427.444151,-919.059029,4538.946395,13092.981350,-18450.426275,-1055.471725,2214.722599,-0.005000,-0.011750,1.011375,192.000000,0.000000,0.000000,0.000000,0.000000,0.000000,0.000000,0.000000,0.000000,0.000000,1770299519.411918,0.000000
120.000000,8214.444901,14267.319652,3335.327308,4566.036709,-18669.629832,-10922.537556,1673.095128,540.152257,-18514.709892,-2393.000113,-880.479918,4574.575075,13140.255289,-18419.782033,-1028.202597,2244.204550,-0.005000,-0.011750,1.011375,192.000000,0.000000,0.000000,0.000000,0.000000,0.000000,0.000000,0.000000,0.000000,0.000000,1770299519.411933,0.000000
122.000000,8181.699596,14227.131215,3299.318647,4522.003772,-18701.995158,-10956.422801,1636.907653,506.825806,-18530.400816,-2398.364532,-885.821985,4572.116384,13122.731521,-18422.106614,-1037.567978,2244.361013,-0.005000,-0.011750,1.011375,192.000000,0.000000,0.000000,0.000000,0.000000,0.000000,0.000000,0.000000,0.000000,0.000000,1770299519.411948,0.000000
124.000000,8212.969686,14260.457666,3327.839473,4560.269959,-18677.497647,-10926.069132,1665.137907,535.324280,-18544.437712,-2408.199299,-901.535261,4556.783087,13105.095995,-18429.415635,-1061.059661,2223.819759,-0.005000,-0.011750,1.011375,192.000000,0.000000,0.000000,127.500000,80.000000,15.500000,72.000000,0.000000,0.000000,0.000000,1770299519.411964,0.000000
126.000000,8202.620828,14251.114637,3319.301107,4547.127133,-18686.930083,-10939.748399,1656.756003,525.936547,-18493.073403,-2375.476345,-863.179667,4591.472994,13147.743124,-18397.787916,-1034.706954,2257.213266,-0.005000,-0.011750,1.011375,192.000000,0.000000,0.000000,0.000000,0.000000,0.000000,0.000000,0.000000,0.000000,0.000000,1770299519.411978,0.000000
128.000000,8180.805526,14224.292543,3295.563554,4525.848273,-18705.727900,-10957.518036,1637.175874,507.250489,-18560.173340,-2419.956317,-909.917165,4547.864741,13088.846277,-18441.351466,-1068.927475,2211.258079,-0.005000,-0.011750,1.011375,192.000000,0.000000,0.000000,0.000000,0.000000,0.000000,0.000000,0.000000,0.000000,0.000000,1770299519.411993,0.000000
130.000000,8206.130052,14258.378954,3330.968717,4570.551761,-18677.832923,-10925.353876,1675.397357,538.386469,-18519.291999,-2396.174061,-879.630551,4574.686834,13121.524527,-18416.541030,-1047.827428,2245.456248,-0.005000,-0.011750,1.011375,192.000000,0.000000,0.000000,0.000000,0.000000,0.000000,0.000000,0.000000,0.000000,0.000000,1770299519.412008,0.000000
132.000000,8164.689918,14210.836793,3288.321589,4515.253546,-18716.501441,-10972.873685,1629.978613,494.822919,-18541.733151,-2412.535538,-894.025075,4559.554703,13112.405016,-18431.896678,-1052.476591,2231.665222,-0.005000,-0.011750,1.011375,192.000000,0.000000,0.000000,0.000000,0.000000,0.000000,0.000000,0.000000,0.000000,0.000000,1770299519.412023,0.000000
134.000000,8195.378863,14244.766741,3323.391476,4555.062003,-18683.800838,-10939.882510,1662.254532,527.590576,-18562.632032,-2429.902843,-912.107636,4539.505188,13088.935684,-18450.918013,-1068.234571,2206.541861,-0.003500,-0.009875,1.008688,192.000000,127.500000,120.000000,127.500000,96.000000,15.500000,56.000000,0.000000,0.000000,0.000000,1770299519.412038,0.000000
136.000000,8194.864773,14243.559747,3319.658735,4543.461447,-18683.599673,-10944.330507,1656.107802,521.935585,-18502.058804,-2390.831994,-867.784127,4580.610046,13146.245557,-18414.641132,-1023.933413,2247.758478,-0.003500,-0.009875,1.008688,192.000000,0.000000,0.000000,0.000000,0.000000,0.000000,0.000000,0.000000,0.000000,0.000000,1770299519.412053,0.000000
138.000000,8178.100965,14225.030151,3299.877441,4520.774427,-18703.671539,-10959.909673,1636.304156,506.088198,-18560.441561,-2427.108875,-911.973526,4540.265148,13097.496402,-18451.722676,-1060.411460,2211.280431,-0.003500,-0.009875,1.008688,192.000000,0.000000,0.000000,0.000000,0.000000,0.000000,0.000000,0.000000,0.000000,0.000000,1770299519.412068,0.000000
140.000000,8213.550832,14267.409059,3334.097962,4559.889979,-18671.149751,-10929.153672,1672.178706,539.057021,-18513.011159,-2399.660933,-878.267095,4571.892866,13134.667353,-18426.219335,-1037.322108,2239.801257,-0.003500,-0.009875,1.008688,192.000000,0.000000,0.000000,0.000000,0.000000,0.000000,0.000000,0.000000,0.000000,0.000000,1770299519.412083,0.000000
142.000000,8179.754994,14227.555898,3296.614086,4512.817206,-18705.191458,-10967.330452,1634.136037,504.590631,-18527.740959,-2404.019523,-885.509060,4565.746136,13128.587679,-18432.388417,-1041.434829,2229.675916,-0.003500,-0.009875,1.008688,192.000000,0.000000,0.000000,0.000000,0.000000,0.000000,0.000000,0.000000,0.000000,0.000000,1770299519.412098,0.000000
144.000000,8204.967762,14255.115599,3325.783113,4546.769505,-18678.726992,-10937.714390,1660.466392,527.434114,-18549.399799,-2420.358648,-902.630496,4545.517808,13110.125138,-18446.492368,-1059.092708,2210.989858,-0.000750,-0.006938,1.004344,192.000000,0.000000,8.000000,127.500000,112.000000,15.500000,32.000000,0.000000,0.000000,0.000000,1770299519.412114,0.000000
146.000000,8194.976532,14246.197253,3318.339982,4537.962918,-18686.505400,-10942.765885,1653.537351,519.543948,-18502.349377,-2391.726064,-865.727766,4579.715977,13151.811141,-18414.819946,-1027.912024,2250.775963,-0.000750,-0.006938,1.004344,192.000000,0.000000,0.000000,0.000000,0.000000,0.000000,0.000000,0.000000,0.000000,0.000000,1770299519.412129,0.000000
148.000000,8180.045567,14225.119558,3301.889098,4519.478025,-18700.698757,-10958.099181,1636.862950,503.137768,-18560.061581,-2424.940756,-907.838453,4541.628604,13102.369082,-18448.548728,-1066.424080,2209.268774,-0.000750,-0.006938,1.004344,192.000000,0.000000,0.000000,0.000000,0.000000,0.000000,0.000000,0.000000,0.000000,0.000000,1770299519.412145,0.000000
150.000000,8204.341913,14254.266233,3335.081438,4561.566360,-18676.380059,-10928.460768,1672.737500,531.368021,-18516.654493,-2406.232346,-877.842412,4565.612026,13135.427312,-18428.789786,-1034.751658,2238.258986,-0.000750,-0.006938,1.004344,192.000000,0.000000,0.000000,0.000000,0.000000,0.000000,0.000000,0.000000,0.000000,0.000000,1770299519.412162,0.000000
152.000000,8164.712270,14208.512212,3294.736540,4515.410008,-18715.205039,-10973.678347,1633.107857,494.062959,-18543.722456,-2417.743494,-892.080473,4555.956072,13126.710132,-18435.763530,-1046.262806,2229.966489,-0.000750,-0.006938,1.004344,192.000000,0.000000,0.000000,0.000000,0.000000,0.000000,0.000000,0.000000,0.000000,0.000000,1770299519.412179,0.000000
154.000000,8190.975570,14240.341096,3319.524624,4550.926930,-18690.662824,-10947.437399,1662.031014,520.505073,-18566.163607,-2434.283785,-913.381685,4537.515883,13100.379777,-18457.400019,-1072.347292,2206.228936,-0.000750,-0.006938,1.004344,192.000000,0.000000,0.000000,0.000000,0.000000,0.000000,0.000000,0.000000,0.000000,0.000000,1770299519.412194,0.000000
156.000000,8190.081500,14238.351791,3311.388589,4542.679136,-18693.881475,-10952.064210,1656.443078,517.599346,-18512.385310,-2397.001075,-870.667502,4579.179535,13133.661524,-18420.899620,-1038.953786,2248.071402,-0.002000,-0.008000,1.008000,192.000000,127.500000,120.000000,127.500000,96.000000,15.500000,64.000000,0.000000,0.000000,0.000000,1770299519.412210,0.000000
158.000000,8172.401270,14216.402378,3289.930915,4519.053342,-18703.582132,-10967.822190,1633.197264,498.488605,-18568.957575,-2432.830922,-914.633383,4539.549892,13089.852105,-18456.014211,-1071.117946,2204.329038,-0.002000,-0.008000,1.008000,192.000000,0.000000,0.000000,0.000000,0.000000,0.000000,0.000000,0.000000,0.000000,0.000000,1770299519.412225,0.000000
160.000000,8202.576125,14250.332326,3324.196139,4558.437116,-18676.044783,-10929.600707,1669.027110,527.858797,-18518.844964,-2408.892203,-884.235011,4567.668386,13127.000705,-18429.639152,-1038.104419,2235.107390,-0.002000,-0.008000,1.008000,192.000000,0.000000,0.000000,0.000000,0.000000,0.000000,0.000000,0.000000,0.000000,0.000000,1770299519.412240,0.000000
162.000000,8174.412927,14215.664770,3289.416825,4512.146653,-18705.705548,-10963.687118,1631.163255,499.203861,-18533.641819,-2416.111817,-892.192232,4561.611064,13122.865632,-18438.624554,-1044.072335,2237.923710,-0.002000,-0.008000,1.008000,192.000000,0.000000,0.000000,0.000000,0.000000,0.000000,0.000000,0.000000,0.000000,0.000000,1770299519.412255,0.000000
164.000000,8203.134919,14247.650116,3320.418694,4547.685927,-18677.452943,-10932.595841,1660.533447,530.250434,-18556.172378,-2431.087486,-908.374895,4545.026069,13100.737405,-18454.047257,-1064.635940,2219.975259,-0.002000,-0.008000,1.008000,192.000000,0.000000,0.000000,0.000000,0.000000,0.000000,0.000000,0.000000,0.000000,0.000000,1770299519.412270,0.000000
166.000000,8204.230154,14251.874596,3323.927918,4542.366212,-18678.369365,-10939.569585,1662.478049,534.832541,-18495.219170,-2389.245020,-859.916313,4590.064834,13154.895682,-18415.177574,-1022.301736,2250.798315,-0.002000,-0.008000,1.008000,192.000000,0.000000,0.000000,127.500000,80.000000,15.500000,56.000000,0.000000,0.000000,0.000000,1770299519.412286,0.000000
168.000000,8189.634465,14236.518948,3305.599487,4521.355572,-18694.797897,-10959.820266,1641.847389,520.527425,-18555.635936,-2422.616175,-900.685895,4553.720898,13101.184440,-18450.694496,-1058.623321,2214.901413,-0.002000,-0.008000,1.008000,192.000000,0.000000,0.000000,0.000000,0.000000,0.000000,0.000000,0.000000,0.000000,0.000000,1770299519.412301,0.000000
170.000000,8224.547890,14277.132067,3342.703383,4566.036709,-18668.512245,-10923.856309,1679.040692,554.189152,-18504.942179,-2393.313038,-864.945455,4584.611009,13140.344696,-18420.519641,-1033.790533,2240.471809,-0.002000,-0.008000,1.008000,192.000000,0.000000,0.000000,0.000000,0.000000,0.000000,0.000000,0.000000,0.000000,0.000000,1770299519.412317,0.000000
172.000000,8188.136898,14233.434407,3304.839528,4520.059171,-18703.537429,-10961.876626,1641.333299,518.918099,-18519.135537,-2399.124491,-873.193249,4577.614913,13135.583775,-18425.794652,-1047.760373,2232.134608,-0.002000,-0.008000,1.008000,192.000000,0.000000,0.000000,0.000000,0.000000,0.000000,0.000000,0.000000,0.000000,0.000000,1770299519.412332,0.000000
174.000000,8213.997866,14264.860960,3328.197101,4557.811267,-18685.924254,-10936.932079,1669.742366,543.594425,-18545.443540,-2417.765846,-894.494461,4557.900674,13103.777242,-18441.977315,-1058.466859,2212.241556,-0.002000,-0.008000,1.008000,192.000000,0.000000,0.000000,0.000000,0.000000,0.000000,0.000000,0.000000,0.000000,0.000000,1770299519.412347,0.000000
176.000000,8205.437148,14255.674393,3319.010534,4545.718973,-18697.927141,-10949.225539,1663.707395,534.005527,-18494.101583,-2384.506450,-857.547028,4592.590581,13146.781998,-18409.790803,-1036.562149,2250.619501,-0.008000,-0.012000,1.006000,192.000000,127.500000,96.000000,127.500000,80.000000,15.500000,56.000000,0.000000,0.000000,0.000000,1770299519.412363,0.000000
178.000000,8184.694729,14227.958230,3297.441101,4519.880357,-18712.835754,-10976.829943,1641.512113,513.106646,-18554.697162,-2429.791085,-901.736427,4548.311776,13097.362291,-18455.522472,-1071.743795,2204.954887,-0.008000,-0.012000,1.006000,192.000000,0.000000,0.000000,0.000000,0.000000,0.000000,0.000000,0.000000,0.000000,0.000000,1770299519.412380,0.000000
180.000000,8209.751035,14261.351736,3331.438104,4559.644110,-18682.035051,-10940.910690,1676.112613,539.682870,-18516.989770,-2410.970916,-872.567400,4571.043500,13126.441911,-18433.506004,-1043.245321,2233.855693,-0.008000,-0.012000,1.006000,192.000000,0.000000,0.000000,0.000000,0.000000,0.000000,0.000000,0.000000,0.000000,0.000000,1770299519.412395,0.000000
182.000000,8173.027119,14220.224526,3294.222450,4511.386694,-18719.697740,-10978.931007,1634.717182,500.232041,-18539.341514,-2420.470407,-888.660656,4557.744212,13111.756815,-18446.022981,-1051.001376,2229.206530,-0.008000,-0.012000,1.006000,192.000000,0.000000,0.000000,0.000000,0.000000,0.000000,0.000000,0.000000,0.000000,0.000000,1770299519.412410,0.000000
184.000000,8203.537250,14254.042715,3325.984278,4548.982328,-18685.499571,-10941.178911,1666.277846,527.210596,-18556.015915,-2433.121494,-904.306877,4540.354555,13098.502230,-18455.857748,-1065.015920,2222.299841,-0.008000,-0.012000,1.006000,192.000000,0.000000,0.000000,0.000000,0.000000,0.000000,0.000000,0.000000,0.000000,0.000000,1770299519.412426,0.000000
186.000000,8193.635427,14242.710381,3318.787017,4533.537273,-18689.522885,-10948.845559,1656.890113,517.889919,-18502.975226,-2401.940811,-867.314740,4573.636302,13148.212510,-18425.347617,-1025.900367,2257.213266,-0.004000,-0.012000,1.010000,192.000000,127.500000,112.000000,127.500000,80.000000,15.500000,72.000000,0.000000,0.000000,0.000000,1770299519.412441,0.000000
188.000000,8183.599494,14232.138006,3302.157319,4516.818168,-18695.513153,-10957.607443,1639.835732,507.317544,-18555.010087,-2434.663765,-907.391418,4537.202959,13108.672274,-18458.204682,-1062.668987,2215.370800,-0.004000,-0.012000,1.010000,192.000000,0.000000,0.000000,0.000000,0.000000,0.000000,0.000000,0.000000,0.000000,0.000000,1770299519.412457,0.000000
190.000000,8215.249564,14276.439163,3337.718944,4561.991043,-18662.969013,-10919.989457,1679.264209,542.610948,-18505.679787,-2402.074921,-873.260304,4571.244666,13147.519606,-18426.465205,-1027.733210,2245.880931,-0.004000,-0.012000,1.010000,192.000000,0.000000,0.000000,0.000000,0.000000,0.000000,0.000000,0.000000,0.000000,0.000000,1770299519.412472,0.000000
192.000000,8179.933808,14234.954326,3296.994066,4513.152482,-18701.436365,-10967.039879,1637.287633,506.848157,-18521.013084,-2407.037009,-881.351636,4568.361290,13134.019152,-18433.997742,-1039.803152,2238.415448,-0.004000,-0.012000,1.010000,192.000000,0.000000,0.000000,0.000000,0.000000,0.000000,0.000000,0.000000,0.000000,0.000000,1770299519.412488,0.000000
194.000000,8213.237907,14272.907588,3329.091171,4555.196113,-18674.122533,-10930.315963,1668.781241,537.112419,-18542.984848,-2418.570509,-898.540127,4551.619834,13105.654789,-18445.553594,-1059.830315,2213.403846,-0.004000,-0.012000,1.010000,192.000000,0.000000,0.000000,0.000000,0.000000,0.000000,0.000000,0.000000,0.000000,0.000000,1770299519.412503,0.000000
196.000000,8192.808413,14255.137951,3320.798674,4538.454656,-18689.835809,-10950.790161,1659.482915,521.309736,-18497.253179,-2386.339293,-861.503287,4586.957942,13150.157112,-18414.507021,-1023.508730,2243.019908,-0.002000,-0.014000,1.004000,192.000000,127.500000,120.000000,127.500000,72.000000,15.500000,48.000000,0.000000,0.000000,0.000000,1770299519.412518,0.000000
198.000000,8178.346834,14235.848395,3304.526604,4522.249642,-18702.777469,-10967.352804,1641.132133,506.289364,-18560.776837,-2423.800817,-906.273831,4545.361345,13096.669387,-18451.365048,-1057.997472,2200.484538,-0.002000,-0.014000,1.004000,192.000000,0.000000,0.000000,0.000000,0.000000,0.000000,0.000000,0.000000,0.000000,0.000000,1770299519.412534,0.000000
200.000000,8213.260259,14276.349756,3341.362279,4566.953131,-18675.843617,-10929.220728,1678.772471,540.040498,-18513.681711,-2404.198337,-876.680121,4571.714052,13130.889908,-18426.286391,-1038.998489,2235.666184,-0.002000,-0.014000,1.004000,192.000000,0.000000,0.000000,0.000000,0.000000,0.000000,0.000000,0.000000,0.000000,0.000000,1770299519.412551,0.000000
202.000000,8175.441107,14229.746369,3298.536336,4517.712238,-18714.914467,-10974.304196,1638.181703,504.590631,-18526.109281,-2405.382980,-880.412862,4570.976445,13127.984181,-18428.722731,-1049.950844,2233.833341,-0.002000,-0.014000,1.004000,192.000000,0.000000,0.000000,0.000000,0.000000,0.000000,0.000000,0.000000,0.000000,0.000000,1770299519.412567,0.000000
204.000000,8193.009578,14252.455741,3323.324421,4546.613043,-18691.579246,-10951.170141,1662.925084,523.656669,-18554.607755,-2429.969898,-905.960906,4545.741325,13099.284542,-18450.001591,-1069.955655,2209.134663,-0.002000,-0.014000,1.004000,192.000000,0.000000,0.000000,0.000000,0.000000,0.000000,0.000000,0.000000,0.000000,0.000000,1770299519.412585,0.000000
206.000000,8181.789003,14243.738561,3313.936688,4534.252528,-18704.990292,-10964.514132,1653.917331,512.681963,-18509.300769,-2406.947602,-875.741348,4574.865648,13141.238766,-18431.002609,-1034.528140,2243.064611,-0.002000,-0.012000,1.008000,192.000000,127.500000,120.000000,127.500000,80.000000,15.500000,64.000000,0.000000,0.000000,0.000000,1770299519.412602,0.000000
208.000000,8161.225398,14220.291581,3288.031016,4514.091255,-18718.155470,-10981.300292,1633.130209,494.577050,-18573.986718,-2445.012622,-923.775247,4533.961956,13095.954132,-18467.614766,-1074.537763,2202.943230,-0.002000,-0.012000,1.008000,192.000000,0.000000,0.000000,0.000000,0.000000,0.000000,0.000000,0.000000,0.000000,0.000000,1770299519.412618,0.000000
210.000000,8201.637352,14267.744335,3322.139778,4562.683947,-18684.024356,-10934.473388,1671.038767,530.853931,-18523.583534,-2412.155558,-888.459490,4567.914256,13124.050274,-18432.254306,-1052.811867,2243.042260,-0.002000,-0.012000,1.008000,192.000000,0.000000,0.000000,0.000000,0.000000,0.000000,0.000000,0.000000,0.000000,0.000000,1770299519.856055,0.000000
212.000000,8164.555808,14222.392645,3282.376025,4510.470272,-18713.483955,-10975.757060,1628.861025,492.386579,-18539.117997,-2419.732799,-901.110578,4558.682985,13122.530356,-18441.820853,-1051.291949,2239.533036,-0.002000,-0.012000,1.008000,192.000000,0.000000,0.000000,0.000000,0.000000,0.000000,0.000000,0.000000,0.000000,0.000000,1770299519.856116,0.000000
214.000000,8188.762747,14252.947480,3311.992086,4547.551816,-18686.281882,-10938.966088,1657.046575,518.806341,-18562.430866,-2438.687079,-918.567290,4539.438133,13090.500306,-18457.377667,-1056.075222,2221.673992,-0.002000,-0.012000,1.008000,192.000000,0.000000,0.000000,0.000000,0.000000,0.000000,0.000000,0.000000,0.000000,0.000000,1770299519.856165,0.000000
216.000000,8193.858945,14258.110733,3310.852147,4540.086334,-18685.454868,-10939.033143,1653.135020,519.253375,-18510.127784,-2400.711465,-876.501307,4579.850087,13140.165882,-18420.229068,-1018.658402,2260.700138,-0.005000,-0.012000,1.007000,192.000000,127.500000,96.000000,127.500000,80.000000,15.500000,56.000000,0.000000,0.000000,0.000000,1770299519.856217,0.000000
218.000000,8184.895895,14245.146721,3294.513022,4523.769560,-18702.822173,-10953.919405,1637.689964,514.067771,-18559.346325,-2425.030163,-908.844281,4549.161142,13095.082414,-18444.301897,-1064.412423,2217.717733,-0.005000,-0.012000,1.007000,192.000000,0.000000,0.000000,0.000000,0.000000,0.000000,0.000000,0.000000,0.000000,0.000000,1770299519.856274,0.000000
220.000000,8223.676172,14290.453707,3333.047430,4564.539142,-18675.307176,-10924.884489,1675.330302,550.568169,-18511.692406,-2395.481157,-871.718034,4581.951151,13129.638210,-18418.038597,-1039.825504,2243.690460,-0.005000,-0.012000,1.007000,192.000000,0.000000,0.000000,0.000000,0.000000,0.000000,0.000000,0.000000,0.000000,0.000000,1770299519.856314,0.000000
222.000000,8196.787023,14260.368259,3300.615048,4521.579089,-18701.078737,-10958.166237,1640.238063,522.226157,-18518.286171,-2391.994285,-874.512002,4582.465241,13130.129949,-18419.491460,-1045.882827,2233.095733,-0.005000,-0.012000,1.007000,192.000000,0.000000,0.000000,0.000000,0.000000,0.000000,0.000000,0.000000,0.000000,0.000000,1770299519.856332,0.000000
224.000000,8217.149462,14279.031966,3328.264156,4553.206808,-18677.318833,-10934.071056,1667.306026,542.432134,-18534.312372,-2407.327581,-889.621781,4564.874418,13112.852050,-18432.321362,-1065.574713,2206.228936,-0.005000,-0.012000,1.007000,192.000000,0.000000,0.000000,0.000000,0.000000,0.000000,0.000000,0.000000,0.000000,0.000000,1770299519.856349,0.000000
226.000000,8207.582916,14270.135971,3323.860863,4543.975537,-18689.321719,-10947.370344,1662.813325,531.993870,-18492.827534,-2389.043854,-859.268112,4588.835488,13157.957871,-18412.674178,-1029.744867,2249.524265,-0.008500,-0.012000,1.004500,192.000000,127.500000,80.000000,127.500000,80.000000,15.500000,40.000000,0.000000,0.000000,0.000000,1770299519.856367,0.000000
228.000000,8182.928942,14243.291526,3300.592697,4517.354610,-18708.343054,-10970.906731,1639.299290,509.709181,-18552.752561,-2419.241061,-902.384627,4551.172799,13112.382664,-18444.011324,-1069.687434,2206.631268,-0.008500,-0.012000,1.004500,192.000000,0.000000,0.000000,0.000000,0.000000,0.000000,0.000000,0.000000,0.000000,0.000000,1770299519.856384,0.000000
230.000000,8209.125186,14277.042660,3335.036735,4555.821962,-18682.213865,-10941.178911,1673.989197,537.671213,-18520.722511,-2405.226517,-881.262229,4572.049328,13127.604202,-18432.857803,-1044.564074,2232.358126,-0.008500,-0.012000,1.004500,192.000000,0.000000,0.000000,0.000000,0.000000,0.000000,0.000000,0.000000,0.000000,0.000000,1770299519.856402,0.000000
232.000000,8182.213686,14246.688991,3303.185499,4512.169005,-18700.654054,-10968.604501,1638.449924,506.468178,-18530.154947,-2409.786273,-887.766586,4565.254398,13132.365123,-18434.467129,-1041.859513,2227.708963,-0.008500,-0.012000,1.004500,192.000000,0.000000,0.000000,0.000000,0.000000,0.000000,0.000000,0.000000,0.000000,0.000000,1770299519.856418,0.000000
234.000000,8201.637352,14269.957157,3327.235976,4547.551816,-18673.317870,-10937.200300,1664.266189,527.545873,-18542.202537,-2418.905785,-901.490557,4550.010508,13118.328228,-18444.570118,-1062.579580,2215.773131,-0.008500,-0.012000,1.004500,192.000000,0.000000,0.000000,0.000000,0.000000,0.000000,0.000000,0.000000,0.000000,0.000000,1770299519.856436,0.000000
236.000000,8187.421642,14255.875558,3312.774397,4533.313755,-18683.264397,-10947.795027,1652.240950,514.090122,-18504.495144,-2402.097273,-874.489650,4575.044462,13152.012307,-18425.280562,-1014.322163,2256.922693,-0.008250,-0.012000,1.006250,192.000000,127.500000,96.000000,127.500000,80.000000,15.500000,64.000000,0.000000,0.000000,0.000000,1770299519.856453,0.000000
238.000000,8178.257427,14240.877538,3295.138871,4515.052380,-18698.262417,-10959.619100,1635.879473,501.573146,-18559.502788,-2434.417896,-917.002668,4535.906558,13103.844297,-18456.371839,-1053.258902,2220.176425,-0.008250,-0.012000,1.006250,192.000000,0.000000,0.000000,0.000000,0.000000,0.000000,0.000000,0.000000,0.000000,0.000000,1770299519.856471,0.000000
240.000000,8215.003695,14280.082498,3330.096999,4557.945378,-18666.008850,-10917.776634,1671.798727,535.614852,-18509.099604,-2405.941773,-882.513926,4565.924950,13136.611955,-18428.208641,-1033.142332,2253.815800,-0.008250,-0.012000,1.006250,192.000000,0.000000,0.000000,0.000000,0.000000,0.000000,0.000000,0.000000,0.000000,0.000000,1770299519.856488,0.000000
242.000000,8185.633503,14246.309012,3295.764720,4516.281726,-18698.038900,-10950.879568,1636.415915,506.982268,-18524.410549,-2407.528747,-886.872516,4564.472087,13127.559498,-18429.393283,-1039.423172,2246.752649,-0.008250,-0.012000,1.006250,192.000000,0.000000,0.000000,0.000000,0.000000,0.000000,0.000000,0.000000,0.000000,0.000000,1770299519.856505,0.000000
244.000000,8213.439073,14276.729736,3326.319555,4553.519732,-18668.445190,-10923.677495,1666.948398,534.676079,-18545.152968,-2418.212881,-901.043522,4551.888055,13104.783071,-18442.849033,-1057.013995,2231.218187,-0.008250,-0.012000,1.006250,192.000000,0.000000,0.000000,0.000000,0.000000,0.000000,0.000000,0.000000,0.000000,0.000000,1770299519.856522,0.000000
246.000000,8205.392445,14272.125277,3322.028020,4546.903616,-18672.110876,-10937.289707,1662.589808,528.574053,-18491.419374,-2391.703712,-860.720975,4586.600314,13155.745048,-18413.680007,-1022.704068,2256.453306,-0.006125,-0.012000,1.006125,192.000000,127.500000,112.000000,127.500000,80.000000,15.500000,56.000000,0.000000,0.000000,0.000000,1770299519.856539,0.000000
248.000000,8178.480944,14240.162282,3299.877441,4523.367229,-18688.941740,-10961.653109,1639.902787,506.669343,-18555.702991,-2426.393619,-905.826796,4547.998851,13102.659655,-18447.252327,-1066.401728,2222.970393,-0.006125,-0.012000,1.006125,192.000000,0.000000,0.000000,0.000000,0.000000,0.000000,0.000000,0.000000,0.000000,0.000000,1770299519.856557,0.000000
250.000000,8216.680076,14285.513972,3337.294261,4563.712128,-18665.405353,-10928.036085,1677.856049,540.375774,-18512.675883,-2401.382017,-876.344845,4573.144564,13138.288336,-18423.157146,-1035.221044,2242.617576,-0.006125,-0.012000,1.006125,192.000000,0.000000,0.000000,0.000000,0.000000,0.000000,0.000000,0.000000,0.000000,0.000000,1770299519.856576,0.000000
252.000000,8179.464421,14243.827968,3296.725845,4514.404179,-18702.241028,-10970.213827,1639.411049,505.305887,-18521.035435,-2402.052570,-882.648037,4568.830677,13135.829644,-18428.141585,-1050.688452,2225.227919,-0.006125,-0.012000,1.006125,192.000000,0.000000,0.000000,0.000000,0.000000,0.000000,0.000000,0.000000,0.000000,0.000000,1770299519.856594,0.000000
254.000000,8210.756863,14275.165114,3329.024116,4550.725764,-18673.139056,-10941.849463,1670.681139,536.039536,-18542.269593,-2425.387791,-898.853052,4550.882226,13113.142623,-18447.475844,-1066.759356,2204.776073,-0.006125,-0.012000,1.006125,192.000000,0.000000,0.000000,0.000000,0.000000,0.000000,0.000000,0.000000,0.000000,0.000000,1770299519.856611,0.000000
0.000000,8206.532384,14268.750163,3319.636383,4537.582938,-18688.964091,-10957.920367,1660.980482,526.696506,-18487.798391,-2394.721197,-858.798725,4584.611009,13161.087115,-18420.139661,-1036.785667,2234.280376,-0.006063,-0.011000,1.004062,192.000000,127.500000,104.000000,127.500000,88.000000,15.500000,40.000000,0.000000,0.000000,0.000000,1770299519.856628,0.000000
2.000000,8181.386671,14238.798826,3299.676275,4514.873566,-18707.091356,-10975.131211,1640.215712,503.763617,-18548.617488,-2432.205073,-902.205813,4543.506151,13108.828736,-18456.237728,-1074.873039,2202.384436,-0.006063,-0.011000,1.004062,192.000000,0.000000,0.000000,0.000000,0.000000,0.000000,0.000000,0.000000,0.000000,0.000000,1770299519.856645,0.000000
4.000000,8210.533346,14275.008652,3336.109619,4557.341880,-18670.255681,-10932.752303,1676.336131,534.966652,-18512.541772,-2415.508320,-877.797708,4564.315625,13147.966641,-18438.289277,-1043.044155,2237.454323,-0.006063,-0.011000,1.004062,192.000000,0.000000,0.000000,0.000000,0.000000,0.000000,0.000000,0.000000,0.000000,0.000000,1770299519.856663,0.000000
6.000000,8170.546075,14229.656962,3297.888136,4507.095159,-18702.889228,-10965.430554,1635.432438,496.946334,-18525.885764,-2419.129302,-884.011493,4560.202904,13131.940440,-18440.636211,-1044.072335,2237.834303,-0.006063,-0.011000,1.004062,192.000000,0.000000,0.000000,0.000000,0.000000,0.000000,0.000000,0.000000,0.000000,0.000000,1770299519.856680,0.000000
8.000000,8199.312770,14263.721021,3323.503235,4545.294290,-18673.049649,-10929.757169,1663.327415,525.355402,-18550.606793,-2433.456771,-904.642153,4540.801590,13104.268981,-18455.209548,-1047.514504,2219.304707,-0.006063,-0.011000,1.004062,192.000000,0.000000,0.000000,0.000000,0.000000,0.000000,0.000000,0.000000,0.000000,0.000000,1770299519.856697,0.000000
10.000000,8194.440090,14261.307032,3313.020267,4533.492569,-18678.481123,-10946.208053,1653.984386,518.895748,-18509.233714,-2400.219727,-871.941551,4573.926875,13141.015248,-18422.553649,-1016.579690,2262.220056,-0.004031,-0.007500,1.005031,192.000000,127.500000,120.000000,127.500000,112.000000,15.500000,56.000000,0.000000,0.000000,0.000000,1770299519.856714,0.000000
12.000000,8181.319616,14243.179768,3296.994066,4512.504281,-18697.077775,-10961.764868,1638.069944,509.306849,-18563.190825,-2428.025297,-909.090150,4541.852122,13095.954132,-18452.214414,-1054.287082,2216.600146,-0.004031,-0.007500,1.005031,192.000000,0.000000,0.000000,0.000000,0.000000,0.000000,0.000000,0.000000,0.000000,0.000000,1770299519.856731,0.000000
14.000000,8212.589706,14278.026137,3333.181540,4555.665500,-18665.561815,-10932.864062,1676.090261,542.230969,-18519.850793,-2404.243041,-877.238915,4569.456526,13124.564365,-18430.265001,-1036.830370,2241.723507,-0.004031,-0.007500,1.005031,192.000000,0.000000,0.000000,0.000000,0.000000,0.000000,0.000000,0.000000,0.000000,0.000000,1770299519.856749,0.000000
16.000000,8185.186468,14244.118541,3299.206889,4515.991153,-18696.854257,-10967.241045,1642.339127,515.498282,-18532.390122,-2410.434474,-881.217525,4566.997834,13121.837452,-18435.562365,-1042.463010,2235.889701,-0.004031,-0.007500,1.005031,192.000000,0.000000,0.000000,0.000000,0.000000,0.000000,0.000000,0.000000,0.000000,0.000000,1770299519.856766,0.000000
18.000000,8212.880279,14277.623806,3328.040639,4554.391450,-18673.407277,-10937.110893,1672.513982,544.734364,-18546.538776,-2417.967012,-891.566383,4557.967729,13103.553725,-18442.200833,-1062.937208,2207.793559,-0.004031,-0.007500,1.005031,192.000000,0.000000,0.000000,0.000000,0.000000,0.000000,0.000000,0.000000,0.000000,0.000000,1770299519.856799,0.000000
20.000000,8213.416721,14274.762782,3321.804502,4546.747154,-18688.651167,-10949.605519,1667.529543,542.230969,-18492.671072,-2383.992360,-851.489705,4594.646942,13150.134760,-18411.511887,-1036.092762,2253.793449,-0.004031,-0.007500,1.005031,192.000000,0.000000,0.000000,127.500000,96.000000,15.500000,88.000000,0.000000,0.000000,0.000000,1770299519.856816,0.000000
22.000000,8198.195183,14256.076724,3305.040694,4524.864796,-18701.011682,-10966.324623,1648.575264,527.076486,-18548.125750,-2417.341163,-891.901659,4556.961901,13107.107652,-18444.815987,-1075.364777,2198.316419,-0.004031,-0.007500,1.005031,192.000000,0.000000,0.000000,0.000000,0.000000,0.000000,0.000000,0.000000,0.000000,0.000000,1770299519.856833,0.000000
24.000000,8224.078503,14289.984320,3336.176674,4563.823886,-18673.966071,-10936.753265,1679.890058,551.976329,-18507.423223,-2391.211974,-864.677234,4583.202849,13141.596394,-18419.647922,-1051.090783,2227.060762,-0.004031,-0.007500,1.005031,192.000000,0.000000,0.000000,0.000000,0.000000,0.000000,0.000000,0.000000,0.000000,0.000000,1770299519.856851,0.000000
26.000000,8193.456613,14252.187521,3303.230203,4519.880357,-18705.459679,-10967.062231,1642.339127,518.605175,-18515.760424,-2396.844613,-872.142717,4577.972541,13139.003591,-18425.258210,-1056.969292,2219.349410,-0.004031,-0.007500,1.005031,192.000000,0.000000,0.000000,0.000000,0.000000,0.000000,0.000000,0.000000,0.000000,0.000000,1770299519.856870,0.000000
28.000000,8192.026102,14255.741448,3325.760761,4543.550854,-18678.637585,-10950.343126,1662.545104,526.875320,-18547.186976,-2424.627832,-901.334095,4548.468238,13110.952152,-18449.532205,-1067.519315,2202.742064,-0.004031,-0.007500,1.005031,192.000000,0.000000,0.000000,0.000000,0.000000,0.000000,0.000000,0.000000,0.000000,0.000000,1770299519.856888,0.000000
30.000000,8192.294323,14257.574291,3321.513930,4536.733572,-18678.637585,-10948.398524,1658.208866,521.197977,-18511.133613,-2403.639543,-875.987217,4573.189267,13147.720772,-18427.761606,-1012.690486,2244.830399,-0.004031,-0.007500,1.005031,192.000000,0.000000,0.000000,0.000000,0.000000,0.000000,0.000000,0.000000,0.000000,0.000000,1770299519.856905,0.000000
32.000000,8176.491639,14238.329439,3299.922144,4515.365304,-18683.353804,-10951.483065,1636.460619,502.646029,-18559.681601,-2428.159407,-913.515796,4539.639299,13107.085300,-18448.884004,-1049.369699,2208.039428,-0.002000,-0.012000,1.014000,192.000000,127.500000,120.000000,127.500000,80.000000,15.500000,88.000000,0.000000,0.000000,0.000000,1770299519.856922,0.000000
34.000000,8203.112567,14271.387669,3326.319555,4557.297177,-18652.307231,-10913.730969,1668.267151,527.747038,-18520.901325,-2407.037009,-890.359389,4560.940511,13138.556557,-18427.403978,-1020.625355,2248.473733,-0.002000,-0.012000,1.014000,192.000000,0.000000,0.000000,0.000000,0.000000,0.000000,0.000000,0.000000,0.000000,0.000000,1770299519.856940,0.000000
36.000000,8174.949369,14236.094265,3290.109729,4513.934793,-18681.632719,-10942.899995,1630.827979,498.019218,-18530.043188,-2410.881509,-896.796691,4555.687851,13127.715960,-18429.415635,-1032.069448,2257.146210,-0.002000,-0.012000,1.014000,192.000000,0.000000,0.000000,0.000000,0.000000,0.000000,0.000000,0.000000,0.000000,0.000000,1770299519.856957,0.000000
38.000000,8198.418701,14264.771553,3322.206834,4551.262206,-18652.530748,-10914.446225,1660.645206,525.467160,-18546.628183,-2423.733762,-910.006572,4542.992061,13106.079472,-18441.552632,-1048.989719,2240.427105,-0.002000,-0.012000,1.014000,192.000000,0.000000,0.000000,0.000000,0.000000,0.000000,0.000000,0.000000,0.000000,0.000000,1770299519.856974,0.000000
40.000000,8194.820070,14262.983413,3320.061066,4543.662613,-18663.728972,-10918.871870,1657.448907,522.427323,-18502.528191,-2393.156575,-871.807441,4578.553686,13151.274699,-18413.568248,-1012.511672,2274.334702,-0.002000,-0.012000,1.014000,192.000000,0.000000,0.000000,0.000000,0.000000,0.000000,0.000000,0.000000,0.000000,0.000000,1770299519.856991,0.000000
42.000000,8187.153421,14249.795884,3306.493557,4523.546043,-18681.677423,-10946.230405,1640.573340,513.128997,-18548.684543,-2416.357686,-904.642153,4548.937625,13112.025036,-18442.022019,-1056.343443,2219.774094,0.002000,-0.012000,1.012000,192.000000,0.000000,8.000000,127.500000,80.000000,15.500000,80.000000,0.000000,0.000000,0.000000,1770299519.857008,0.000000
44.000000,8215.786006,14286.676262,3339.931767,4565.075584,-18662.052591,-10920.816472,1676.582000,544.488495,-18505.612732,-2391.949581,-871.807441,4579.894791,13144.703286,-18415.490498,-1036.249225,2248.429030,0.002000,-0.012000,1.012000,192.000000,0.000000,0.000000,0.000000,0.000000,0.000000,0.000000,0.000000,0.000000,0.000000,1770299519.857025,0.000000
46.000000,8178.190372,14244.722038,3300.547993,4516.795816,-18703.380967,-10965.855237,1638.114648,505.797625,-18526.332799,-2398.543346,-884.816156,4570.954093,13133.281545,-18425.414673,-1048.699146,2234.705059,0.002000,-0.012000,1.012000,192.000000,0.000000,0.000000,0.000000,0.000000,0.000000,0.000000,0.000000,0.000000,0.000000,1770299519.857042,0.000000
48.000000,8193.769538,14264.413925,3328.241805,4550.368136,-18679.017565,-10942.654126,1665.227314,528.708163,-18558.742828,-2422.370305,-909.626592,4547.909444,13098.837507,-18445.754760,-1068.815716,2205.200756,0.002000,-0.012000,1.012000,192.000000,0.000000,0.000000,0.000000,0.000000,0.000000,0.000000,0.000000,0.000000,0.000000,1770299519.857060,0.000000
50.000000,8194.954180,14264.302166,3323.704401,4544.087296,-18683.174990,-10943.861120,1663.550933,527.769390,-18504.539848,-2383.232401,-867.806478,4588.969599,13148.458379,-18408.449699,-1032.561187,2243.086963,0.002000,-0.012000,1.012000,192.000000,0.000000,0.000000,0.000000,0.000000,0.000000,0.000000,0.000000,0.000000,0.000000,1770299519.857077,0.000000
52.000000,8174.345872,14238.709419,3300.369179,4519.120397,-18705.236161,-10969.252702,1642.048555,509.843291,-18563.123770,-2421.565643,-910.341848,4547.261244,13099.843335,-18448.146397,-1067.765184,2198.182308,0.002000,-0.012000,1.014000,192.000000,0.000000,8.000000,127.500000,80.000000,15.500000,88.000000,0.000000,0.000000,0.000000,1770299519.857094,0.000000
54.000000,8205.995942,14276.841495,3336.668412,4565.343805,-18675.240120,-10932.886414,1680.895887,544.376736,-18523.896459,-2400.733817,-877.998874,4574.150392,13126.598373,-18425.504080,-1038.149123,2232.201664,0.002000,-0.012000,1.014000,192.000000,0.000000,0.000000,0.000000,0.000000,0.000000,0.000000,0.000000,0.000000,0.000000,1770299519.857111,0.000000
56.000000,8175.575218,14240.676372,3299.318647,4519.276860,-18699.134135,-10966.972824,1640.886264,510.871471,-18535.295848,-2405.807663,-882.670389,4571.401128,13126.978353,-18429.594449,-1039.289062,2226.054934,0.002000,-0.012000,1.014000,192.000000,0.000000,0.000000,0.000000,0.000000,0.000000,0.000000,0.000000,0.000000,0.000000,1770299519.857128,0.000000
58.000000,8204.341913,14273.846361,3326.341906,4554.972596,-18670.479199,-10932.595841,1666.993101,535.592501,-18553.244299,-2418.257584,-902.183461,4552.849180,13100.849164,-18444.436007,-1055.896408,2215.169634,0.002000,-0.012000,1.014000,192.000000,0.000000,0.000000,0.000000,0.000000,0.000000,0.000000,0.000000,0.000000,0.000000,1770299519.857148,0.000000
60.000000,8197.390520,14266.447933,3319.546976,4542.545026,-18673.429629,-10939.524882,1658.790011,525.735381,-18502.885819,-2388.216840,-867.381795,4587.427329,13147.519606,-18412.495364,-1017.049076,2260.007234,0.002000,-0.012000,1.014000,192.000000,0.000000,0.000000,0.000000,0.000000,0.000000,0.000000,0.000000,0.000000,0.000000,1770299519.857165,0.000000
62.000000,8182.236038,14246.733695,3303.096092,4521.780255,-18682.862065,-10950.231367,1640.573340,512.033762,-18560.039229,-2426.751247,-910.006572,4545.003718,13104.626608,-18448.034638,-1052.253074,2221.204605,0.002000,-0.012000,1.016000,192.000000,0.000000,8.000000,127.500000,80.000000,15.500000,96.000000,0.000000,0.000000,0.000000,1770299519.857182,0.000000
64.000000,8215.026047,14289.224361,3341.451686,4566.237875,-18651.659030,-10916.301419,1677.274904,543.661480,-18507.959665,-2391.971933,-872.790917,4578.196058,13145.396190,-18415.289332,-1026.347402,2250.306577,0.002000,-0.012000,1.016000,192.000000,0.000000,0.000000,0.000000,0.000000,0.000000,0.000000,0.000000,0.000000,0.000000,1770299519.857199,0.000000
66.000000,8177.720985,14246.711343,3302.582002,4519.790950,-18687.243007,-10956.802780,1638.785200,507.719875,-18525.371674,-2402.030218,-884.838508,4568.473049,13135.427312,-18426.018170,-1029.521350,2241.745858,0.002000,-0.012000,1.016000,192.000000,0.000000,0.000000,0.000000,0.000000,0.000000,0.000000,0.000000,0.000000,0.000000,1770299519.857216,0.000000
68.000000,8197.546982,14268.638404,3326.520720,4549.630529,-18671.216806,-10932.819358,1663.014491,527.367059,-18547.969287,-2415.821244,-903.323400,4550.256377,13107.755853,-18440.502100,-1050.017899,2219.349410,0.002000,-0.012000,1.016000,192.000000,0.000000,0.000000,0.000000,0.000000,0.000000,0.000000,0.000000,0.000000,0.000000,1770299519.857233,0.000000
70.000000,8189.813279,14259.496541,3320.329287,4541.092162,-18684.784315,-10938.697867,1659.795840,523.097875,-18500.449479,-2389.535593,-870.041653,4581.370006,13149.866539,-18413.948228,-1025.743905,2251.670033,0.002000,-0.012000,1.016000,192.000000,0.000000,0.000000,0.000000,0.000000,0.000000,0.000000,0.000000,0.000000,0.000000,1770299519.857251,0.000000
72.000000,8178.480944,14244.275003,3303.140796,4520.237985,-18696.541333,-10957.674498,1642.205017,512.525500,-18563.883729,-2422.705582,-911.526491,4543.707316,13107.577039,-18444.436007,-1066.737004,2200.015152,0.004000,-0.010000,1.012000,192.000000,0.000000,16.000000,127.500000,88.000000,15.500000,80.000000,0.000000,0.000000,0.000000,1770299519.857268,0.000000
74.000000,8209.326352,14283.926998,3335.640232,4565.366157,-18674.033126,-10924.124530,1679.286561,543.750887,-18510.775985,-2386.518107,-873.461470,4578.643093,13135.136740,-18410.908390,-1044.876998,2227.597204,0.004000,-0.010000,1.012000,192.000000,0.000000,0.000000,0.000000,0.000000,0.000000,0.000000,0.000000,0.000000,0.000000,1770299520.336915,0.000000
76.000000,8173.004767,14240.855186,3298.357522,4518.628659,-18708.097185,-10962.815400,1641.221540,508.636297,-18531.384293,-2399.280953,-886.760758,4568.137773,13124.765530,-18423.961809,-1063.652463,2234.839169,0.004000,-0.010000,1.012000,192.000000,0.000000,0.000000,0.000000,0.000000,0.000000,0.000000,0.000000,0.000000,0.000000,1770299520.336981,0.000000
78.000000,8188.293360,14259.653003,3322.765627,4545.048421,-18686.550103,-10944.129341,1664.020319,525.735381,-18557.200558,-2423.152616,-907.413770,4543.908482,13097.339940,-18446.939402,-1074.023673,2206.228936,0.004000,-0.010000,1.012000,192.000000,0.000000,0.000000,0.000000,0.000000,0.000000,0.000000,0.000000,0.000000,0.000000,1770299520.337038,0.000000
80.000000,8186.393462,14261.441143,3319.368162,4544.444924,-18684.359632,-10941.715353,1663.126250,524.550739,-18512.988807,-2393.938886,-873.372063,4578.352520,13137.438969,-18418.239763,-1027.979079,2246.730297,0.004000,-0.010000,1.012000,192.000000,0.000000,0.000000,0.000000,0.000000,0.000000,0.000000,0.000000,0.000000,0.000000,1770299520.337077,0.000000
82.000000,8171.104869,14239.558785,3301.553822,4519.947412,-18695.200228,-10960.647280,1640.148656,506.311715,-18562.989660,-2421.856215,-909.693648,4544.757848,13096.021187,-18445.263022,-1071.095594,2206.385399,0.004000,-0.010000,1.012000,192.000000,0.000000,0.000000,127.500000,112.000000,15.500000,48.000000,0.000000,0.000000,0.000000,1770299520.337115,0.000000
84.000000,8194.484793,14272.907588,3336.310784,4560.627587,-18663.594861,-10920.436492,1674.212715,534.899597,-18526.131633,-2403.997171,-883.609162,4565.679081,13124.810234,-18427.493385,-1036.919777,2234.168617,0.004000,-0.010000,1.012000,192.000000,0.000000,0.000000,0.000000,0.000000,0.000000,0.000000,0.000000,0.000000,0.000000,1770299520.337154,0.000000
86.000000,8166.142782,14236.988334,3300.816214,4515.410008,-18692.316853,-10959.820266,1637.868778,503.495396,-18541.241412,-2404.645372,-888.750063,4563.198038,13119.691684,-18430.242649,-1031.175379,2235.934405,0.004000,-0.010000,1.012000,192.000000,0.000000,0.000000,0.000000,0.000000,0.000000,0.000000,0.000000,0.000000,0.000000,1770299520.337193,0.000000
88.000000,8189.589761,14265.911492,3322.676220,4547.462409,-18671.060344,-10929.466597,1661.002834,527.232948,-18562.877901,-2419.598689,-907.078493,4544.556683,13097.295236,-18445.464187,-1053.549475,2224.624422,0.004000,-0.010000,1.012000,192.000000,0.000000,0.000000,0.000000,0.000000,0.000000,0.000000,0.000000,0.000000,0.000000,1770299520.337232,0.000000
90.000000,8191.154384,14265.240939,3322.117427,4538.029973,-18670.970937,-10939.346068,1658.611197,525.556567,-18511.245371,-2390.921401,-871.405109,4575.804421,13144.144493,-18417.010417,-1021.541777,2256.229789,0.004000,-0.010000,1.012000,192.000000,0.000000,0.000000,0.000000,0.000000,0.000000,0.000000,0.000000,0.000000,0.000000,1770299520.337302,0.000000
92.000000,8175.217590,14244.275003,3300.995028,4512.906613,-18687.243007,-10958.188588,1636.795895,509.217442,-18561.559148,-2421.945622,-907.905508,4541.315680,13104.827774,-18448.079341,-1052.565998,2210.721637,-0.002000,-0.006000,1.004000,192.000000,127.500000,120.000000,127.500000,104.000000,15.500000,48.000000,0.000000,0.000000,0.000000,1770299520.337347,0.000000
94.000000,8211.360361,14287.413870,3337.964813,4559.644110,-18659.750361,-10920.347085,1677.431366,544.488495,-18517.302694,-2394.274163,-875.048444,4571.445831,13138.422446,-18421.927800,-1033.879940,2239.600091,-0.002000,-0.006000,1.004000,192.000000,0.000000,0.000000,0.000000,0.000000,0.000000,0.000000,0.000000,0.000000,0.000000,1770299520.337394,0.000000
96.000000,8177.296302,14244.632631,3299.855089,4511.051418,-18695.557856,-10967.241045,1637.399392,509.865643,-18525.461081,-2397.850442,-880.725787,4567.869552,13135.427312,-18427.806309,-1042.463010,2229.206530,-0.002000,-0.006000,1.004000,192.000000,0.000000,0.000000,0.000000,0.000000,0.000000,0.000000,0.000000,0.000000,0.000000,1770299520.337414,0.000000
98.000000,8202.397311,14276.617977,3330.387572,4550.859875,-18672.334394,-10937.580280,1668.200096,538.922911,-18551.009125,-2418.905785,-899.277735,4547.730630,13108.739329,-18449.643964,-1060.299702,2205.916012,-0.002000,-0.006000,1.004000,192.000000,0.000000,0.000000,0.000000,0.000000,0.000000,0.000000,0.000000,0.000000,0.000000,1770299520.337427,0.000000
100.000000,8199.268067,14275.455687,3323.547938,4541.896825,-18683.197341,-10946.543330,1663.707395,534.541969,-18494.325101,-2383.008883,-854.060156,4591.405939,13154.895682,-18412.450661,-1024.894539,2240.874140,-0.002000,-0.006000,1.004000,192.000000,0.000000,0.000000,0.000000,0.000000,0.000000,0.000000,0.000000,0.000000,0.000000,1770299520.337439,0.000000
102.000000,8183.465383,14253.059239,3301.933801,4520.461502,-18707.292522,-10969.520923,1643.300252,515.990021,-18558.452256,-2425.588957,-902.004647,4545.406049,13097.876382,-18454.494292,-1070.380338,2195.075416,-0.002000,-0.006000,1.004000,192.000000,0.000000,0.000000,127.500000,88.000000,15.500000,32.000000,0.000000,0.000000,0.000000,1770299520.337452,0.000000
104.000000,8215.137805,14291.414832,3342.390459,4564.673253,-18667.729934,-10931.992344,1682.952247,549.182361,-18508.876086,-2397.314000,-867.202981,4576.340863,13131.627516,-18425.146452,-1043.066507,2233.766286,-0.002000,-0.006000,1.004000,192.000000,0.000000,0.000000,0.000000,0.000000,0.000000,0.000000,0.000000,0.000000,0.000000,1770299520.337464,0.000000
106.000000,8175.016424,14247.247785,3301.799691,4514.694752,-18705.504382,-10971.554932,1639.589863,509.306849,-18529.797319,-2407.752264,-879.407034,4565.388508,13128.431216,-18436.992876,-1048.229760,2225.674954,-0.002000,-0.006000,1.004000,192.000000,0.000000,0.000000,0.000000,0.000000,0.000000,0.000000,0.000000,0.000000,0.000000,1770299520.337476,0.000000
108.000000,8200.676227,14277.109716,3332.287470,4550.457543,-18679.464600,-10938.608460,1667.171915,534.072582,-18551.679677,-2418.279936,-898.540127,4547.216540,13110.415710,-18448.436969,-1072.503754,2207.257117,-0.002000,-0.006000,1.004000,192.000000,0.000000,0.000000,0.000000,0.000000,0.000000,0.000000,0.000000,0.000000,0.000000,1770299520.337489,0.000000
110.000000,8192.026102,14268.727811,3325.984278,4538.611119,-18681.655071,-10945.135170,1659.728785,522.852006,-18501.745880,-2391.189622,-863.246723,4580.431233,13142.870443,-18421.860745,-1025.945070,2249.188989,-0.002000,-0.006000,1.004000,192.000000,0.000000,0.000000,0.000000,0.000000,0.000000,0.000000,0.000000,0.000000,0.000000,1770299520.337502,0.000000
112.000000,8171.395441,14243.962079,3308.035828,4516.259374,-18692.875647,-10961.139019,1640.461581,505.484701,-18558.943994,-2429.232291,-905.670334,4538.722877,13098.010492,-18455.969507,-1058.310396,2205.267811,-0.002000,-0.007000,1.002000,192.000000,127.500000,120.000000,127.500000,96.000000,15.500000,32.000000,0.000000,0.000000,0.000000,1770299520.337515,0.000000
114.000000,8197.882259,14279.814277,3341.161113,4558.638282,-18661.829074,-10926.918498,1675.598523,533.223216,-18521.214249,-2407.551099,-877.082452,4564.762660,13127.179519,-18430.265001,-1025.498036,2242.930501,-0.002000,-0.007000,1.002000,192.000000,0.000000,0.000000,0.000000,0.000000,0.000000,0.000000,0.000000,0.000000,0.000000,1770299520.337528,0.000000
116.000000,8167.059203,14241.950422,3302.179671,4510.738493,-18693.233275,-10962.681289,1634.583072,497.840404,-18534.692351,-2409.316887,-887.408958,4558.682985,13121.949210,-18434.511833,-1033.008222,2235.777943,-0.002000,-0.007000,1.002000,192.000000,0.000000,0.000000,0.000000,0.000000,0.000000,0.000000,0.000000,0.000000,0.000000,1770299520.337540,0.000000
118.000000,8187.958084,14267.409059,3328.532377,4545.584863,-18668.959280,-10938.206129,1660.801668,523.053172,-18558.295793,-2427.287689,-906.050313,4539.281671,13097.295236,-18451.700324,-1050.911969,2210.878099,-0.002000,-0.007000,1.002000,192.000000,0.000000,0.000000,0.000000,0.000000,0.000000,0.000000,0.000000,0.000000,0.000000,1770299520.337553,0.000000
120.000000,8193.188392,14274.047527,3327.906528,4542.790895,-18670.255681,-10938.429646,1660.756965,524.081352,-18506.573857,-2389.446186,-866.219505,4580.721805,13144.926804,-18412.070681,-1008.980096,2248.183161,-0.002000,-0.007000,1.002000,192.000000,0.000000,0.000000,0.000000,0.000000,0.000000,0.000000,0.000000,0.000000,0.000000,1770299520.337565,0.000000
122.000000,8180.805526,14256.568462,3308.482863,4520.796778,-18689.589940,-10954.053516,1641.266244,509.642125,-18556.820578,-2416.715314,-902.719903,4548.334127,13099.843335,-18443.072551,-1053.258902,2199.635172,-0.002000,-0.009500,1.002000,192.000000,127.500000,120.000000,127.500000,80.000000,15.500000,40.000000,0.000000,0.000000,0.000000,1770299520.337586,0.000000
124.000000,8211.069788,14290.453707,3342.010479,4564.807363,-18666.254719,-10922.246983,1679.979465,540.241663,-18509.479583,-2393.022465,-870.958074,4574.016282,13134.846167,-18420.117309,-1031.287137,2236.917882,-0.002000,-0.009500,1.002000,192.000000,0.000000,0.000000,0.000000,0.000000,0.000000,0.000000,0.000000,0.000000,0.000000,1770299520.337600,0.000000
126.000000,8172.893008,14244.520872,3300.615048,4510.917307,-18705.213810,-10970.549103,1637.578206,503.115416,-18522.018912,-2404.064227,-878.155336,4567.042538,13131.091074,-18428.052178,-1045.569902,2227.396038,-0.002000,-0.009500,1.002000,192.000000,0.000000,0.000000,0.000000,0.000000,0.000000,0.000000,0.000000,0.000000,0.000000,1770299520.337613,0.000000
128.000000,8194.529497,14269.420716,3325.246671,4547.373002,-18690.662824,-10945.582205,1666.009625,528.506998,-18551.746732,-2429.455808,-901.937592,4542.545026,13096.021187,-18453.399057,-1071.900257,2210.788692,-0.002000,-0.009500,1.002000,192.000000,0.000000,0.000000,0.000000,0.000000,0.000000,0.000000,0.000000,0.000000,0.000000,1770299520.337625,0.000000
130.000000,8188.025139,14265.598567,3321.648040,4539.684002,-18699.044728,-10951.885396,1662.008662,524.908367,-18505.188049,-2399.951506,-863.202019,4581.504116,13140.165882,-18424.766472,-1036.249225,2247.087925,-0.002000,-0.009500,1.002000,192.000000,0.000000,0.000000,0.000000,0.000000,0.000000,0.000000,0.000000,0.000000,0.000000,1770299520.337638,0.000000
132.000000,8173.921189,14246.845454,3300.726807,4515.857043,-18721.865859,-10977.858124,1640.841560,508.122207,-18561.939128,-2432.428590,-904.128063,4544.176703,13091.640245,-18457.578833,-1080.706844,2199.545765,0.000000,-0.011750,1.004000,192.000000,0.000000,8.000000,127.500000,72.000000,15.500000,56.000000,0.000000,0.000000,0.000000,1770299520.337650,0.000000
134.000000,8209.169890,14288.330291,3338.523607,4558.884151,-18691.556894,-10943.995231,1677.543125,541.336899,-18515.671017,-2409.830977,-871.494516,4570.305892,13127.403036,-18434.869460,-1050.666100,2224.222091,0.000000,-0.011750,1.004000,192.000000,0.000000,0.000000,0.000000,0.000000,0.000000,0.000000,0.000000,0.000000,0.000000,1770299520.337663,0.000000
136.000000,8175.977549,14250.086457,3301.933801,4515.007676,-18722.402301,-10977.522847,1639.589863,508.435131,-18531.451348,-2414.748360,-878.289447,4566.707261,13130.532280,-18441.507929,-1043.893521,2220.511701,0.000000,-0.011750,1.004000,192.000000,0.000000,0.000000,0.000000,0.000000,0.000000,0.000000,0.000000,0.000000,0.000000,1770299520.337676,0.000000
138.000000,8191.601418,14270.426544,3322.631517,4546.702450,-18699.782336,-10949.247891,1662.478049,527.724687,-18560.396857,-2430.908672,-900.127101,4547.462409,13084.152411,-18454.851920,-1064.926513,2200.305724,0.000000,-0.011750,1.004000,192.000000,0.000000,0.000000,0.000000,0.000000,0.000000,0.000000,0.000000,0.000000,0.000000,1770299520.337690,0.000000
140.000000,8191.713177,14272.751125,3318.854072,4540.332203,-18697.010719,-10951.930100,1659.371157,525.467160,-18516.207459,-2401.314962,-868.097051,4578.888962,13128.162995,-18427.403978,-1027.912024,2247.087925,0.000000,-0.011750,1.004000,192.000000,0.000000,0.000000,0.000000,0.000000,0.000000,0.000000,0.000000,0.000000,0.000000,1770299520.337702,0.000000
142.000000,8168.757936,14246.174901,3297.061121,4512.347819,-18716.121461,-10970.750269,1635.611252,504.456521,-18569.024631,-2429.366401,-907.369066,4543.752020,13088.019262,-18455.209548,-1062.467821,2204.932535,-0.001000,-0.010875,1.005000,192.000000,127.500000,120.000000,127.500000,88.000000,15.500000,56.000000,0.000000,0.000000,0.000000,1770299520.337714,0.000000
144.000000,8211.069788,14294.968759,3340.199988,4561.275788,-18671.261510,-10924.124530,1678.012511,543.907350,-18524.187031,-2406.098235,-877.440080,4569.747099,13123.804405,-18431.382588,-1032.136504,2230.502931,-0.001000,-0.010875,1.005000,192.000000,0.000000,0.000000,0.000000,0.000000,0.000000,0.000000,0.000000,0.000000,0.000000,1770299520.337727,0.000000
146.000000,8168.221494,14249.572366,3295.898830,4511.699618,-18710.220600,-10965.251740,1635.991232,505.216480,-18531.518403,-2403.036046,-879.004702,4570.171782,13126.844242,-18430.555574,-1036.696260,2227.306631,-0.001000,-0.010875,1.005000,192.000000,0.000000,0.000000,0.000000,0.000000,0.000000,0.000000,0.000000,0.000000,0.000000,1770299520.337739,0.000000
148.000000,8195.490622,14282.116506,3324.084380,4550.256377,-18684.471391,-10936.373286,1664.489706,532.753829,-18560.888596,-2421.364477,-902.384627,4547.641223,13097.809326,-18448.012286,-1063.183077,2206.251288,-0.001000,-0.010875,1.005000,192.000000,0.000000,0.000000,0.000000,0.000000,0.000000,0.000000,0.000000,0.000000,0.000000,1770299520.337752,0.000000
150.000000,8195.356512,14281.021271,3321.335116,4548.781162,-18691.087507,-10941.335373,1663.640340,531.323317,-18507.512630,-2385.802851,-863.939627,4587.561439,13145.552653,-18415.043463,-1029.856626,2253.659338,-0.001000,-0.010875,1.005000,192.000000,0.000000,0.000000,0.000000,0.000000,0.000000,0.000000,0.000000,0.000000,0.000000,1770299520.337765,0.000000
152.000000,8182.571314,14264.235111,3305.018342,4529.312793,-18704.990292,-10957.272167,1645.893055,518.247547,-18556.619412,-2417.877605,-899.836528,4554.883189,13105.610085,-18443.027847,-1073.487231,2211.816873,-0.001000,-0.010875,1.005000,192.000000,0.000000,0.000000,127.500000,104.000000,15.500000,56.000000,0.000000,0.000000,0.000000,1770299520.337778,0.000000
154.000000,8207.605267,14296.935713,3337.897758,4571.512886,-18674.636623,-10932.931117,1681.097052,546.433097,-18512.608828,-2394.274163,-869.549915,4583.538125,13143.585699,-18421.503117,-1041.099553,2238.124876,-0.001000,-0.010875,1.005000,192.000000,0.000000,0.000000,0.000000,0.000000,0.000000,0.000000,0.000000,0.000000,0.000000,1770299520.337792,0.000000
156.000000,8171.216628,14256.121428,3297.731673,4519.992115,-18721.083548,-10980.786202,1639.120476,507.876338,-18532.010142,-2405.226517,-882.648037,4573.390433,13133.974449,-18434.914164,-1046.262806,2226.837245,-0.001000,-0.010875,1.005000,192.000000,0.000000,0.000000,0.000000,0.000000,0.000000,0.000000,0.000000,0.000000,0.000000,1770299520.337804,0.000000
158.000000,8204.073692,14290.967797,3330.298165,4556.514866,-18692.361557,-10947.504455,1672.111651,539.995794,-18548.863357,-2416.871776,-899.054217,4554.972596,13106.817079,-18451.588565,-1067.742833,2205.111349,-0.001000,-0.010875,1.005000,192.000000,0.000000,0.000000,0.000000,0.000000,0.000000,0.000000,0.000000,0.000000,0.000000,1770299520.337816,0.000000
160.000000,8188.136898,14272.773477,3319.301107,4536.934738,-18706.376100,-10961.697812,1660.220523,525.467160,-18496.560275,-2390.675532,-858.843429,4588.477861,13157.421429,-18425.258210,-1034.014050,2241.477637,-0.001000,-0.010875,1.005000,192.000000,0.000000,0.000000,0.000000,0.000000,0.000000,0.000000,0.000000,0.000000,0.000000,1770299520.337829,0.000000
162.000000,8160.711308,14241.570442,3298.424578,4507.251621,-18724.235144,-10989.056347,1636.393563,499.963820,-18565.515407,-2438.776486,-911.995877,4535.280709,13100.178611,-18471.839246,-1069.039234,2192.773186,-0.001000,-0.010875,1.005000,192.000000,0.000000,0.000000,127.500000,112.000000,15.500000,64.000000,0.000000,0.000000,0.000000,1770299520.337842,0.000000
164.000000,8193.277799,14280.998919,3336.534302,4550.055212,-18688.226484,-10943.503492,1673.676273,532.597367,-18526.265744,-2417.542329,-885.710226,4560.314662,13131.225184,-18448.548728,-1043.424135,2220.556405,-0.001000,-0.010875,1.005000,192.000000,0.000000,0.000000,0.000000,0.000000,0.000000,0.000000,0.000000,0.000000,0.000000,1770299520.337854,0.000000
166.000000,8163.862904,14247.247785,3298.491633,4505.351723,-18717.328455,-10978.729842,1635.097162,499.203861,-18535.161738,-2418.436398,-891.096996,4558.347709,13132.700399,-18450.850958,-1047.425097,2222.389248,-0.001000,-0.010875,1.005000,192.000000,0.000000,0.000000,0.000000,0.000000,0.000000,0.000000,0.000000,0.000000,0.000000,1770299520.337866,0.000000
168.000000,8181.610189,14268.794867,3323.167959,4539.795761,-18690.484010,-10951.281899,1661.181648,522.181454,-18563.660212,-2437.457733,-913.426389,4537.851159,13110.952152,-18462.719734,-1063.898333,2200.126910,-0.001000,-0.010875,1.005000,192.000000,0.000000,0.000000,0.000000,0.000000,0.000000,0.000000,0.000000,0.000000,0.000000,1770299520.337879,0.000000
170.000000,8182.638369,14273.511085,3315.791883,4534.520749,-18699.894094,-10953.047687,1656.018395,518.985155,-18517.906191,-2400.532651,-875.428423,4575.513849,13141.976373,-18430.577926,-1023.665193,2243.712812,-0.001000,-0.010875,1.005000,192.000000,0.000000,0.000000,0.000000,0.000000,0.000000,0.000000,0.000000,0.000000,0.000000,1770299520.337891,0.000000
172.000000,8171.283683,14257.663698,3297.508156,4516.952278,-18715.652074,-10972.024318,1637.488799,506.669343,-18571.863302,-2428.606442,-913.225223,4543.215578,13095.194172,-18462.026830,-1061.484344,2204.977239,-0.001000,-0.010875,1.005000,192.000000,0.000000,0.000000,0.000000,0.000000,0.000000,0.000000,0.000000,0.000000,0.000000,1770299520.337904,0.000000
174.000000,8207.359398,14300.176716,3334.142665,4562.303968,-18684.493743,-10932.573489,1675.822041,542.901521,-18524.365845,-2401.292610,-878.445909,4575.491497,13125.749007,-18435.584716,-1044.675832,2236.292033,-0.002000,-0.008000,1.016000,192.000000,127.500000,120.000000,127.500000,96.000000,15.500000,96.000000,0.000000,0.000000,0.000000,1770299520.337917,0.000000
176.000000,8169.406136,14254.065067,3293.730711,4516.326429,-18724.771586,-10971.264359,1637.287633,506.602288,-18538.000409,-2403.617192,-881.441043,4576.229105,13119.579925,-18435.383551,-1048.676795,2226.926652,-0.002000,-0.008000,1.016000,192.000000,0.000000,0.000000,0.000000,0.000000,0.000000,0.000000,0.000000,0.000000,0.000000,1770299520.337929,0.000000
178.000000,8192.629599,14280.060146,3317.132988,4547.529465,-18708.991254,-10945.850425,1661.271055,526.875320,-18569.784590,-2428.092352,-909.090150,4549.004680,13090.433251,-18456.103618,-1073.375472,2210.788692,-0.002000,-0.008000,1.016000,192.000000,0.000000,0.000000,0.000000,0.000000,0.000000,0.000000,0.000000,0.000000,0.000000,1770299520.337942,0.000000
180.000000,8190.640293,14279.076669,3314.584889,4542.276805,-18712.075795,-10950.097257,1658.432383,524.818960,-18521.884802,-2394.743549,-872.947380,4584.007512,13135.628478,-18424.855879,-1039.490228,2242.259949,-0.002000,-0.008000,1.016000,192.000000,0.000000,0.000000,0.000000,0.000000,0.000000,0.000000,0.000000,0.000000,0.000000,1770299520.337954,0.000000
182.000000,8173.630616,14256.926090,3297.150528,4519.232156,-18723.922220,-10967.017527,1638.539331,506.848157,-18571.215102,-2425.298384,-908.419598,4549.339956,13096.222353,-18451.789731,-1073.889562,2199.523413,-0.002000,-0.008000,1.016000,192.000000,0.000000,0.000000,0.000000,0.000000,0.000000,0.000000,0.000000,0.000000,0.000000,1770299520.337967,0.000000
184.000000,8200.855041,14293.404137,3331.080476,4565.232046,-18692.987405,-10933.668725,1676.514945,536.240701,-18536.972229,-2405.695904,-884.637342,4570.708224,13123.536184,-18435.294144,-1044.698184,2232.134608,-0.002000,-0.008000,1.012000,192.000000,127.500000,120.000000,127.500000,96.000000,15.500000,80.000000,0.000000,0.000000,0.000000,1770299520.337986,0.000000
186.000000,8174.524686,14261.530550,3291.003798,4517.779293,-18729.823080,-10971.666690,1634.314851,501.908422,-18543.901270,-2404.488910,-888.951229,4569.590636,13122.686818,-18434.869460,-1049.839085,2229.318288,-0.002000,-0.008000,1.012000,192.000000,0.000000,0.000000,0.000000,0.000000,0.000000,0.000000,0.000000,0.000000,0.000000,1770299520.338000,0.000000
188.000000,8196.071767,14282.943521,3315.411903,4543.416744,-18707.739557,-10952.086562,1657.806535,523.701373,-18563.190825,-2422.146788,-908.486653,4551.083392,13098.189306,-18451.320344,-1076.929400,2207.368875,-0.002000,-0.008000,1.012000,192.000000,0.000000,0.000000,0.000000,0.000000,0.000000,0.000000,0.000000,0.000000,0.000000,1770299520.338013,0.000000
190.000000,8195.580029,14282.451783,3317.580023,4538.655822,-18703.805650,-10950.164312,1657.426555,522.561434,-18511.491240,-2398.900974,-869.572266,4583.672235,13143.876272,-18428.163937,-1031.868283,2241.231768,-0.002000,-0.008000,1.012000,192.000000,0.000000,0.000000,0.000000,0.000000,0.000000,0.000000,0.000000,0.000000,0.000000,1770299520.338025,0.000000
192.000000,8170.881351,14256.210835,3298.581040,4512.213708,-18721.508231,-10974.080679,1634.247796,500.142634,-18568.488189,-2430.483989,-909.604241,4544.511979,13099.061024,-18459.456379,-1062.423117,2203.367913,-0.002000,-0.008000,1.012000,192.000000,0.000000,0.000000,0.000000,0.000000,0.000000,0.000000,0.000000,0.000000,0.000000,1770299520.338038,0.000000
194.000000,8203.827823,14297.181582,3334.232072,4557.811267,-18684.672556,-10926.940850,1670.479974,531.882111,-18527.025703,-2403.818357,-883.296237,4569.165953,13135.159091,-18434.333019,-1035.265748,2232.648698,-0.002000,-0.008000,1.012000,192.000000,0.000000,0.000000,127.500000,88.000000,15.500000,56.000000,0.000000,0.000000,0.000000,1770299520.817317,0.000000
196.000000,8173.205933,14260.412962,3294.803595,4512.437226,-18719.608333,-10969.945606,1631.275014,497.885108,-18535.921697,-2401.739645,-891.633438,4566.863724,13140.679972,-18434.243612,-1033.812885,2232.291070,-0.002000,-0.008000,1.012000,192.000000,0.000000,0.000000,0.000000,0.000000,0.000000,0.000000,0.000000,0.000000,0.000000,1770299520.817387,0.000000
198.000000,8191.579067,14283.502315,3316.484787,4550.032860,-18702.129269,-10939.815454,1657.046575,521.063867,-18562.944956,-2419.822206,-913.493444,4545.830732,13096.602332,-18448.504025,-1062.892504,2213.672067,-0.002000,-0.008000,1.012000,192.000000,0.000000,0.000000,0.000000,0.000000,0.000000,0.000000,0.000000,0.000000,0.000000,1770299520.817436,0.000000
200.000000,8193.568372,14288.151477,3312.752046,4547.305947,-18706.331397,-10937.669687,1657.359500,521.667364,-18517.794432,-2383.768843,-875.227258,4586.443852,13140.165882,-18411.198963,-1029.878978,2247.758478,-0.002000,-0.008000,1.012000,192.000000,0.000000,0.000000,0.000000,0.000000,0.000000,0.000000,0.000000,0.000000,0.000000,1770299520.817490,0.000000
202.000000,8177.050433,14268.616053,3292.277848,4523.456636,-18726.202098,-10962.413068,1636.013584,505.752922,-18572.265634,-2411.350895,-913.918127,4551.038689,13092.333149,-18444.368952,-1070.782670,2215.795483,-0.002000,-0.008000,1.012000,192.000000,0.000000,0.000000,0.000000,0.000000,0.000000,0.000000,0.000000,0.000000,0.000000,1770299520.817561,0.000000
204.000000,8208.119358,14306.815184,3331.013421,4564.986177,-18695.826077,-10922.448149,1673.944494,538.967614,-18526.623371,-2388.976799,-879.630551,4579.112480,13127.447740,-18421.167841,-1044.318204,2240.874140,-0.002000,-0.008000,1.006000,192.000000,127.500000,120.000000,127.500000,96.000000,15.500000,56.000000,0.000000,0.000000,0.000000,1770299520.817606,0.000000
206.000000,8167.841514,14261.105867,3290.512060,4515.208842,-18736.819176,-10971.532580,1634.158389,500.589669,-18544.080084,-2398.655104,-891.298162,4571.624645,13111.041559,-18429.683856,-1054.242379,2233.006326,-0.002000,-0.008000,1.006000,192.000000,0.000000,0.000000,0.000000,0.000000,0.000000,0.000000,0.000000,0.000000,0.000000,1770299520.817621,0.000000
208.000000,8191.377901,14290.252541,3318.094113,4551.597482,-18717.328455,-10944.464617,1663.886209,526.160064,-18573.047945,-2418.995192,-914.968659,4549.965805,13080.173800,-18449.956888,-1077.801118,2207.972373,-0.002000,-0.008000,1.006000,192.000000,0.000000,0.000000,0.000000,0.000000,0.000000,0.000000,0.000000,0.000000,0.000000,1770299520.817639,0.000000
210.000000,8198.999846,14295.304036,3320.239880,4550.681061,-18716.143813,-10945.917481,1667.820116,532.753829,-18511.938275,-2381.734834,-868.208810,4593.663465,13135.181443,-18416.116347,-1044.228797,2240.762382,-0.002000,-0.008000,1.006000,192.000000,0.000000,0.000000,0.000000,0.000000,0.000000,0.000000,0.000000,0.000000,0.000000,1770299520.817657,0.000000
212.000000,8172.535380,14261.798771,3295.541202,4520.439150,-18741.356580,-10977.791068,1640.573340,508.010448,-18564.911910,-2417.743494,-904.776264,4557.297177,13091.841411,-18451.700324,-1085.356007,2201.490367,-0.002000,-0.008000,1.006000,192.000000,0.000000,0.000000,0.000000,0.000000,0.000000,0.000000,0.000000,0.000000,0.000000,1770299520.817669,0.000000
214.000000,8209.080483,14300.914323,3331.348697,4561.052270,-18709.728862,-10938.876681,1675.799689,540.733402,-18528.366808,-2401.314962,-879.630551,4574.172744,13118.931725,-18436.277620,-1045.212274,2227.373687,-0.006000,-0.012000,1.002000,192.000000,127.500000,104.000000,127.500000,80.000000,15.500000,40.000000,0.000000,0.000000,0.000000,1770299520.817683,0.000000
216.000000,8180.202029,14266.626747,3297.239935,4512.593688,-18730.158356,-10974.997100,1636.907653,508.569242,-18534.513537,-2403.147805,-883.117423,4573.926875,13123.290315,-18435.830585,-1047.223931,2222.948041,-0.006000,-0.012000,1.002000,192.000000,0.000000,0.000000,0.000000,0.000000,0.000000,0.000000,0.000000,0.000000,0.000000,1770299520.817700,0.000000
218.000000,8211.673285,14294.253504,3327.906528,4544.064944,-18702.352786,-10945.090466,1663.215657,531.189207,-18552.394933,-2417.095294,-900.060046,4552.536255,13098.904562,-18450.403923,-1059.517391,2203.032637,-0.006000,-0.012000,1.002000,192.000000,0.000000,0.000000,0.000000,0.000000,0.000000,0.000000,0.000000,0.000000,0.000000,1770299520.817724,0.000000
220.000000,8199.558639,14286.184524,3329.381744,4537.895863,-18704.833830,-10944.934004,1663.036843,527.590576,-18497.655511,-2386.674569,-858.396394,4587.069701,13149.397153,-18416.138699,-1025.945070,2245.679765,-0.006000,-0.012000,1.002000,192.000000,0.000000,0.000000,0.000000,0.000000,0.000000,0.000000,0.000000,0.000000,0.000000,1770299520.817736,0.000000
222.000000,8178.704462,14263.586910,3300.682104,4510.224403,-18730.247763,-10970.683214,1635.924177,506.334067,-18559.927471,-2425.611308,-905.133892,4545.897787,13098.032844,-18455.544824,-1064.524181,2200.864518,-0.006000,-0.012000,1.002000,192.000000,0.000000,0.000000,0.000000,0.000000,0.000000,0.000000,0.000000,0.000000,0.000000,1770299520.817761,0.000000
224.000000,8216.925945,14311.084367,3338.724773,4564.069756,-18689.634644,-10925.063303,1678.459546,549.160010,-18516.006293,-2396.263468,-872.299179,4578.352520,13129.884080,-18431.226126,-1037.724440,2232.872216,-0.002000,-0.012000,1.004000,192.000000,127.500000,120.000000,127.500000,80.000000,15.500000,48.000000,0.000000,0.000000,0.000000,1770299520.817779,0.000000
226.000000,8188.405119,14275.500390,3297.150528,4521.534386,-18726.962057,-10965.341147,1637.868778,517.331125,-18527.696255,-2395.369398,-873.997912,4580.542991,13130.688742,-18426.822832,-1044.765239,2229.139475,-0.002000,-0.012000,1.004000,192.000000,0.000000,0.000000,0.000000,0.000000,0.000000,0.000000,0.000000,0.000000,0.000000,1770299520.817795,0.000000
228.000000,8220.770445,14307.843364,3324.397305,4557.945378,-18701.190496,-10934.763960,1665.137907,545.181399,-18547.186976,-2404.287744,-889.822947,4566.506096,13101.452661,-18437.596373,-1072.570809,2207.435931,-0.002000,-0.012000,1.004000,192.000000,0.000000,0.000000,0.000000,0.000000,0.000000,0.000000,0.000000,0.000000,0.000000,1770299520.817812,0.000000
230.000000,8212.232079,14297.762727,3319.390514,4547.976500,-18709.818269,-10943.324678,1661.159296,537.157123,-18495.867371,-2378.247962,-854.060156,4599.340808,13144.993859,-18410.349597,-1036.852722,2244.316309,-0.002000,-0.012000,1.004000,192.000000,0.000000,0.000000,0.000000,0.000000,0.000000,0.000000,0.000000,0.000000,0.000000,1770299520.817829,0.000000
232.000000,8194.305980,14274.561617,3299.720979,4523.344877,-18728.079644,-10962.256606,1641.400354,520.795646,-18551.478511,-2415.173044,-893.287467,4560.247607,13102.369082,-18445.933574,-1076.996455,2210.878099,-0.002000,-0.012000,1.004000,192.000000,0.000000,0.000000,0.000000,0.000000,0.000000,0.000000,0.000000,0.000000,0.000000,1770299520.817863,0.000000
234.000000,8219.138768,14306.032873,3335.014383,4561.611064,-18698.530638,-10937.602632,1677.185497,547.617739,-18515.402796,-2398.744511,-866.398319,4581.325302,13133.438007,-18428.588620,-1047.849780,2235.599129,0.000000,-0.012000,1.002000,192.000000,0.000000,8.000000,127.500000,80.000000,15.500000,32.000000,0.000000,0.000000,0.000000,1770299520.817878,0.000000
236.000000,8185.052357,14267.856093,3299.005723,4512.996019,-18731.097130,-10975.220618,1639.433401,511.363210,-18533.731226,-2407.171119,-875.361368,4572.518715,13115.154280,-18434.914164,-1050.844914,2223.663297,0.000000,-0.012000,1.002000,192.000000,0.000000,0.000000,0.000000,0.000000,0.000000,0.000000,0.000000,0.000000,0.000000,1770299520.817895,0.000000
238.000000,8204.252506,14290.856038,3320.351639,4541.628604,-18710.935856,-10953.762943,1662.232180,529.646937,-18559.592195,-2425.074866,-898.741293,4549.317604,13087.102841,-18454.874272,-1065.865286,2197.265887,0.000000,-0.012000,1.002000,192.000000,0.000000,0.000000,0.000000,0.000000,0.000000,0.000000,0.000000,0.000000,0.000000,1770299520.817912,0.000000
240.000000,8202.978456,14289.291416,3316.507139,4535.884206,-18711.896981,-10956.646318,1657.493610,522.896710,-18509.568990,-2398.342180,-866.197153,4579.984198,13131.672219,-18427.940420,-1030.102495,2236.001460,0.000000,-0.012000,1.002000,192.000000,0.000000,0.000000,0.000000,0.000000,0.000000,0.000000,0.000000,0.000000,0.000000,1770299520.817929,0.000000
242.000000,8184.225343,14267.163189,3297.597563,4513.353647,-18727.140871,-10971.823153,1634.560720,502.869547,-18562.833197,-2428.248814,-908.710171,4541.762715,13088.823925,-18460.551615,-1063.048966,2196.617686,0.000000,-0.012000,1.002000,192.000000,0.000000,0.000000,0.000000,0.000000,0.000000,0.000000,0.000000,0.000000,0.000000,1770299520.817945,0.000000
244.000000,8218.870547,14309.340931,3335.215549,4562.952168,-18689.411126,-10921.062341,1672.446927,536.955957,-18517.883839,-2397.582221,-876.389548,4573.658654,13124.206737,-18425.951114,-1037.813847,2233.207492,0.000000,-0.012000,1.002000,192.000000,0.000000,0.000000,127.500000,88.000000,15.500000,56.000000,0.000000,0.000000,0.000000,1770299520.817962,0.000000
246.000000,8184.247695,14269.510122,3298.312819,4511.543156,-18721.575287,-10965.631719,1631.297366,501.662553,-18525.103453,-2398.073959,-880.368159,4568.182477,13128.453568,-18429.728559,-1045.547550,2231.642870,0.000000,-0.012000,1.002000,192.000000,0.000000,0.000000,0.000000,0.000000,0.000000,0.000000,0.000000,0.000000,0.000000,1770299520.817980,0.000000
248.000000,8210.689808,14293.873524,3324.620822,4544.824904,-18697.927141,-10939.055495,1659.102936,526.785913,-18548.170453,-2416.134169,-900.976467,4547.060078,13101.273847,-18444.905394,-1061.797269,2202.742064,0.000000,-0.012000,1.002000,192.000000,0.000000,0.000000,0.000000,0.000000,0.000000,0.000000,0.000000,0.000000,0.000000,1770299520.817995,0.000000
250.000000,8203.067863,14290.498411,3323.883214,4538.320546,-18699.268246,-10940.933042,1657.583017,522.092047,-18494.548618,-2390.943753,-862.643226,4582.308779,13151.900548,-18416.429271,-1027.017954,2248.205513,0.000000,-0.012000,1.002000,192.000000,0.000000,0.000000,0.000000,0.000000,0.000000,0.000000,0.000000,0.000000,0.000000,1770299520.818016,0.000000
252.000000,8184.739433,14270.739468,3301.866746,4520.059171,-18717.127289,-10956.691022,1638.002889,507.026971,-18555.479474,-2420.649221,-906.273831,4546.635395,13103.374911,-18447.721714,-1068.949827,2203.144396,0.000000,-0.012000,1.002000,192.000000,0.000000,0.000000,0.000000,0.000000,0.000000,0.000000,0.000000,0.000000,0.000000,1770299520.818030,0.000000
254.000000,8226.134864,14321.030893,3341.183465,4569.836506,-18684.873722,-10918.558945,1679.040692,546.746021,-18506.707967,-2387.345122,-869.125231,4582.979331,13141.954022,-18417.368045,-1045.301681,2234.190969,0.000000,-0.012000,1.002000,192.000000,0.000000,0.000000,127.500000,88.000000,15.500000,40.000000,0.000000,0.000000,0.000000,1770299520.818043,0.000000
0.000000,8196.228230,14280.820105,3303.274906,4523.456636,-18723.810461,-10962.480123,1643.680232,516.302945,-18513.704063,-2388.283895,-871.494516,4582.107613,13135.248498,-18420.564344,-1053.191847,2233.073382,0.000000,-0.012000,1.002000,192.000000,0.000000,0.000000,0.000000,0.000000,0.000000,0.000000,0.000000,0.000000,0.000000,1770299520.818059,0.000000
2.000000,8213.506128,14301.517821,3324.106732,4551.619834,-18708.588923,-10944.129341,1665.942569,536.084239,-18540.324991,-2408.579279,-891.499328,4561.834581,13108.202888,-18438.579850,-1075.431833,2204.574907,0.000000,-0.012000,1.002000,192.000000,0.000000,0.000000,0.000000,0.000000,0.000000,0.000000,0.000000,0.000000,0.000000,1770299520.818076,0.000000
4.000000,8202.129090,14292.443012,3322.206834,4542.165046,-18713.774528,-10951.304251,1662.031014,526.852969,-18502.483487,-2383.455918,-863.403185,4589.595448,13144.479769,-18415.289332,-1039.892559,2234.928576,0.000000,-0.012000,1.002000,192.000000,0.000000,0.000000,0.000000,0.000000,0.000000,0.000000,0.000000,0.000000,0.000000,1770299520.818091,0.000000
6.000000,8181.409023,14266.045602,3301.375008,4513.644220,-18734.941630,-10976.047632,1637.242930,502.757788,-18558.653421,-2417.519977,-902.719903,4549.809343,13102.100861,-18448.593432,-1068.391033,2185.151241,0.000000,-0.012000,1.002000,192.000000,0.000000,0.000000,0.000000,0.000000,0.000000,0.000000,0.000000,0.000000,0.000000,1770299520.818108,0.000000
8.000000,8210.868622,14305.563486,3335.863749,4556.827790,-18702.933932,-10941.380077,1673.765680,531.882111,-18524.902287,-2400.264430,-882.089243,4567.735442,13122.865632,-18433.215431,-1044.541722,2223.708001,0.000000,-0.012000,1.002000,192.000000,0.000000,0.000000,127.500000,56.000000,15.500000,48.000000,0.000000,0.000000,0.000000,1770299520.818125,0.000000
10.000000,8173.295340,14263.743372,3296.256458,4510.604383,-18730.627743,-10979.065118,1634.247796,495.605230,-18533.440653,-2402.499605,-887.140737,4566.483744,13125.503138,-18434.154205,-1044.072335,2219.461169,0.000000,-0.012000,1.002000,192.000000,0.000000,0.000000,0.000000,0.000000,0.000000,0.000000,0.000000,0.000000,0.000000,1770299520.818142,0.000000
12.000000,8187.399290,14282.116506,3317.311802,4545.584863,-18709.326531,-10949.069077,1659.527619,514.559509,-18566.543587,-2428.204111,-913.672258,4541.449790,13104.090167,-18455.902452,-1063.898333,2203.904355,0.000000,-0.012000,1.002000,192.000000,0.000000,0.000000,0.000000,0.000000,0.000000,0.000000,0.000000,0.000000,0.000000,1770299520.818158,0.000000
14.000000,8187.645160,14288.285588,3310.762740,4544.199055,-18715.137984,-10946.431571,1654.923159,511.407913,-18519.314351,-2388.552116,-879.697607,4578.777203,13145.239728,-18418.128004,-1027.375582,2252.832324,0.000000,-0.012000,1.002000,192.000000,0.000000,0.000000,0.000000,0.000000,0.000000,0.000000,0.000000,0.000000,0.000000,1770299520.818176,0.000000
16.000000,8173.518857,14262.826951,3296.815252,4523.255470,-18726.380912,-10960.155542,1636.080639,497.460425,-18567.594119,-2415.485968,-916.399171,4545.562511,13091.416727,-18445.486539,-1067.318149,2213.023867,0.000000,-0.012000,1.002000,192.000000,0.000000,0.000000,0.000000,0.000000,0.000000,0.000000,0.000000,0.000000,0.000000,1770299520.818193,0.000000
18.000000,8212.857927,14309.117414,3337.920110,4567.131945,-18689.478182,-10919.989457,1674.190363,533.849065,-18520.320180,-2396.509337,-882.178650,4573.725709,13132.700399,-18419.245591,-1042.775934,2237.811951,0.002000,-0.013000,1.002000,192.000000,0.000000,16.000000,127.500000,72.000000,15.500000,40.000000,0.000000,0.000000,0.000000,1770299520.818209,0.000000
20.000000,8183.979474,14272.058221,3299.184537,4516.214671,-18722.536412,-10962.211902,1634.828941,500.343800,-18524.455252,-2393.022465,-883.206830,4571.982273,13135.404961,-18421.883097,-1046.665138,2234.772114,0.002000,-0.013000,1.002000,192.000000,0.000000,0.000000,0.000000,0.000000,0.000000,0.000000,0.000000,0.000000,0.000000,1770299520.818226,0.000000
22.000000,8212.366189,14306.681074,3326.453665,4552.245683,-18702.576304,-10933.668725,1664.132078,531.658594,-18550.338572,-2410.680343,-902.004647,4552.648014,13106.884135,-18441.709094,-1070.648559,2204.172576,0.002000,-0.013000,1.002000,192.000000,0.000000,0.000000,0.000000,0.000000,0.000000,0.000000,0.000000,0.000000,0.000000,1770299520.818242,0.000000
24.000000,8220.457521,14311.687864,3327.683011,4548.267072,-18704.744423,-10939.837806,1664.601465,533.893768,-18490.458249,-2368.189677,-854.395432,4598.312628,13158.941347,-18404.471088,-1037.187998,2241.991728,0.002000,-0.013000,1.002000,192.000000,0.000000,0.000000,0.000000,0.000000,0.000000,0.000000,0.000000,0.000000,0.000000,1770299520.818260,0.000000
26.000000,8200.206840,14282.921169,3304.057217,4520.886185,-18727.543202,-10966.682251,1640.752153,510.804416,-18542.157834,-2400.934982,-893.220412,4561.812229,13113.612010,-18437.462263,-1071.453222,2190.560364,0.002000,-0.013000,1.002000,192.000000,0.000000,0.000000,0.000000,0.000000,0.000000,0.000000,0.000000,0.000000,0.000000,1770299520.818280,0.000000
28.000000,8213.439073,14305.362321,3332.309822,4557.408936,-18708.186592,-10945.179873,1671.843430,526.629451,-18512.027682,-2392.351913,-875.406072,4575.290331,13133.929745,-18427.962771,-1045.167571,2227.753666,0.002000,-0.013000,1.002000,192.000000,0.000000,0.000000,127.500000,48.000000,15.500000,40.000000,0.000000,0.000000,0.000000,1770299520.818299,0.000000
30.000000,8177.922151,14261.195274,3295.898830,4510.649086,-18735.634534,-10977.567551,1634.001927,490.129052,-18532.703046,-2404.958296,-888.839470,4563.399203,13125.234917,-18437.819891,-1044.765239,2225.183216,0.002000,-0.013000,1.002000,192.000000,0.000000,0.000000,0.000000,0.000000,0.000000,0.000000,0.000000,0.000000,0.000000,1770299520.818316,0.000000
32.000000,8203.224326,14291.750108,3321.759799,4544.668441,-18708.119536,-10945.179873,1660.198171,515.878262,-18557.647593,-2424.516073,-909.291316,4542.232101,13098.368120,-18453.711981,-1066.446431,2198.338771,0.002000,-0.013000,1.002000,192.000000,0.000000,0.000000,0.000000,0.000000,0.000000,0.000000,0.000000,0.000000,0.000000,1770299520.818332,0.000000
34.000000,8206.666494,14297.762727,3318.228223,4543.796723,-18705.638493,-10941.938870,1660.086412,516.258242,-18502.483487,-2382.874773,-867.158278,4583.359311,13147.206682,-18415.445795,-1036.048059,2235.889701,0.002000,-0.013000,1.002000,192.000000,0.000000,0.000000,0.000000,0.000000,0.000000,0.000000,0.000000,0.000000,0.000000,1770299520.818350,0.000000
36.000000,8184.404157,14273.041698,3295.071816,4520.975592,-18727.364388,-10959.596748,1637.287633,496.052265,-18560.955651,-2415.530672,-908.777226,4548.848218,13100.066853,-18445.195966,-1067.116984,2203.792596,0.002000,-0.013000,1.002000,192.000000,0.000000,0.000000,0.000000,0.000000,0.000000,0.000000,0.000000,0.000000,0.000000,1770299520.818365,0.000000
38.000000,8215.026047,14316.381731,3327.995935,4567.422517,-18698.262417,-10923.297515,1672.782203,529.915158,-18526.466909,-2392.374264,-885.240839,4573.926875,13136.746065,-18422.441891,-1043.670004,2234.995632,-0.001000,-0.013500,1.005000,192.000000,127.500000,112.000000,127.500000,72.000000,15.500000,64.000000,0.000000,0.000000,0.000000,1770299520.818383,0.000000
40.000000,8190.930866,14280.753050,3294.960057,4525.647107,-18726.157394,-10957.920367,1639.858084,504.523576,-18529.439691,-2384.752319,-884.078548,4579.850087,13122.373894,-18419.938495,-1042.597120,2234.615652,-0.001000,-0.013500,1.005000,192.000000,0.000000,0.000000,0.000000,0.000000,0.000000,0.000000,0.000000,0.000000,0.000000,1770299520.818400,0.000000
42.000000,8203.850174,14293.247675,3319.256403,4551.396316,-18712.902810,-10940.642469,1663.170953,523.164931,-18559.547491,-2414.703657,-904.843319,4557.051308,13091.752004,-18444.301897,-1065.597065,2211.258079,-0.001000,-0.013500,1.005000,192.000000,0.000000,0.000000,0.000000,0.000000,0.000000,0.000000,0.000000,0.000000,0.000000,1770299520.818417,0.000000
44.000000,8208.946372,14299.796736,3319.770493,4544.109648,-18709.840621,-10947.258585,1661.852200,521.376791,-18506.685615,-2384.819375,-866.577133,4591.227125,13144.256251,-18415.892829,-1034.796361,2246.998518,-0.001000,-0.013500,1.005000,192.000000,0.000000,0.000000,0.000000,0.000000,0.000000,0.000000,0.000000,0.000000,0.000000,1770299520.818434,0.000000
46.000000,8180.894933,14267.878445,3293.596601,4513.711275,-18735.790996,-10970.057365,1636.125342,495.649933,-18561.827369,-2418.771674,-905.715037,4553.072697,13090.924989,-18452.773208,-1072.056719,2202.317381,-0.001000,-0.013500,1.005000,192.000000,0.000000,0.000000,0.000000,0.000000,0.000000,0.000000,0.000000,0.000000,0.000000,1770299520.818451,0.000000
48.000000,8213.595535,14310.525574,3329.940537,4557.587750,-18707.136060,-10927.007905,1673.609218,528.171721,-18527.159813,-2399.996209,-882.804499,4573.278674,13115.936591,-18432.746045,-1049.615568,2224.110332,-0.001000,-0.013500,1.005000,192.000000,0.000000,0.000000,0.000000,0.000000,0.000000,0.000000,0.000000,0.000000,0.000000,1770299520.818468,0.000000
50.000000,8183.934770,14271.924111,3293.775415,4512.951316,-18735.075740,-10971.532580,1637.913482,497.371018,-18533.328895,-2398.744511,-889.420615,4571.043500,13117.478862,-18433.215431,-1054.220027,2223.104504,-0.004000,-0.012000,1.006000,192.000000,127.500000,112.000000,127.500000,80.000000,15.500000,56.000000,0.000000,0.000000,0.000000,1770299520.818484,0.000000
52.000000,8202.844346,14293.828820,3317.512967,4543.059116,-18712.478127,-10949.136132,1661.449869,519.767466,-18557.044096,-2417.832901,-908.374895,4552.111572,13097.228181,-18449.018115,-1072.771975,2193.287276,-0.004000,-0.012000,1.006000,192.000000,0.000000,0.000000,0.000000,0.000000,0.000000,0.000000,0.000000,0.000000,0.000000,1770299520.818501,0.000000
54.000000,8198.508107,14291.571294,3313.914336,4536.442999,-18717.686083,-10954.992289,1658.052404,512.704314,-18508.138479,-2386.987494,-872.187420,4584.856878,13143.406885,-18420.363178,-1036.696260,2228.446570,-0.004000,-0.012000,1.006000,192.000000,0.000000,0.000000,0.000000,0.000000,0.000000,0.000000,0.000000,0.000000,0.000000,1770299520.818517,0.000000
56.000000,8171.954235,14256.032021,3293.171918,4510.671438,-18731.946496,-10976.114687,1635.074810,488.676189,-18569.672831,-2424.851349,-916.980316,4541.248624,13093.048405,-18457.556481,-1065.060623,2198.025846,-0.004000,-0.012000,1.006000,192.000000,0.000000,0.000000,0.000000,0.000000,0.000000,0.000000,0.000000,0.000000,0.000000,1770299520.818535,0.000000
58.000000,8206.442977,14294.432318,3328.800598,4556.425459,-18696.518981,-10936.529748,1672.424575,519.409838,-18530.132595,-2408.959259,-891.387569,4561.834581,13123.178556,-18437.417559,-1037.724440,2219.058838,-0.004000,-0.012000,1.006000,192.000000,0.000000,0.000000,0.000000,0.000000,0.000000,0.000000,0.000000,0.000000,0.000000,1770299521.298167,0.000000
60.000000,8169.607302,14250.712305,3286.891077,4512.504281,-18728.280810,-10968.291577,1632.727877,482.194183,-18539.386218,-2409.406294,-897.757816,4560.605235,13128.028885,-18435.718827,-1040.227835,2228.781847,-0.004000,-0.012000,1.006000,192.000000,0.000000,0.000000,127.500000,104.000000,15.500000,56.000000,0.000000,0.000000,0.000000,1770299521.298230,0.000000
62.000000,8192.830764,14275.701556,3310.740389,4546.858912,-18701.279903,-10932.819358,1657.873590,508.278669,-18568.465837,-2432.920329,-920.981279,4537.202959,13092.020225,-18452.661449,-1068.256923,2209.469939,-0.004000,-0.012000,1.006000,192.000000,0.000000,0.000000,0.000000,0.000000,0.000000,0.000000,0.000000,0.000000,0.000000,1770299521.298278,0.000000
64.000000,8191.936695,14278.070841,3309.913374,4541.785066,-18703.872705,-10939.703696,1655.906636,505.104721,-18511.424185,-2397.559869,-876.657769,4576.497325,13144.636231,-18419.960847,-1021.117094,2251.044184,-0.004000,-0.012000,1.006000,192.000000,0.000000,0.000000,0.000000,0.000000,0.000000,0.000000,0.000000,0.000000,0.000000,1770299521.298328,0.000000
66.000000,8176.893971,14257.507236,3289.282714,4517.689886,-18724.190441,-10958.255644,1636.214749,490.061997,-18570.142218,-2431.378058,-916.756799,4539.281671,13097.943437,-18454.091961,-1060.858495,2209.134663,-0.004000,-0.012000,1.006000,192.000000,0.000000,0.000000,0.000000,0.000000,0.000000,0.000000,0.000000,0.000000,0.000000,1770299521.298372,0.000000
68.000000,8217.305925,14305.496431,3331.214587,4563.309796,-18690.439307,-10918.894222,1678.437195,530.138675,-18521.147194,-2397.202241,-881.776319,4571.758756,13135.382609,-18425.504080,-1042.842989,2238.214283,-0.004000,-0.012000,1.006000,192.000000,0.000000,0.000000,0.000000,0.000000,0.000000,0.000000,0.000000,0.000000,0.000000,1770299521.298415,0.000000
70.000000,8175.754032,14254.780323,3289.416825,4506.469310,-18731.790034,-10967.084583,1633.890168,490.956067,-18533.753578,-2406.411160,-887.230144,4566.282578,13147.653717,-18433.684818,-1048.118001,2228.200701,-0.004000,-0.008000,1.008000,192.000000,127.500000,112.000000,127.500000,96.000000,15.500000,64.000000,0.000000,0.000000,0.000000,1770299521.298459,0.000000
72.000000,8205.459500,14286.273931,3315.613069,4539.326374,-18713.841583,-10945.403391,1660.734613,517.867567,-18562.743790,-2425.544253,-909.403075,4542.522674,13089.919161,-18456.528301,-1075.230667,2197.265887,-0.004000,-0.008000,1.008000,192.000000,0.000000,0.000000,0.000000,0.000000,0.000000,0.000000,0.000000,0.000000,0.000000,1770299521.298474,0.000000
74.000000,8203.604305,14284.843419,3313.690819,4536.130075,-18715.003874,-10947.012716,1659.080584,515.654745,-18509.077252,-2394.520032,-869.393452,4580.319474,13137.863652,-18426.375798,-1039.244358,2239.890664,-0.004000,-0.008000,1.008000,192.000000,0.000000,0.000000,0.000000,0.000000,0.000000,0.000000,0.000000,0.000000,0.000000,1770299521.298490,0.000000
76.000000,8183.197163,14258.960099,3291.428482,4510.067941,-18730.068949,-10967.419859,1634.247796,495.292305,-18563.570805,-2427.622965,-909.112502,4543.774372,13096.915257,-18458.629365,-1076.683530,2196.595335,-0.004000,-0.008000,1.008000,192.000000,0.000000,0.000000,0.000000,0.000000,0.000000,0.000000,0.000000,0.000000,0.000000,1770299521.298506,0.000000
78.000000,8218.915250,14302.121318,3330.611090,4557.654805,-18691.623949,-10927.030257,1675.062081,530.496303,-18519.962552,-2401.940811,-880.770490,4568.942436,13133.929745,-18433.684818,-1047.089821,2224.982050,-0.004000,-0.008000,1.008000,192.000000,0.000000,0.000000,0.000000,0.000000,0.000000,0.000000,0.000000,0.000000,0.000000,1770299521.298523,0.000000
80.000000,8177.966854,14255.316765,3291.495537,4510.112644,-18724.950400,-10967.799839,1636.125342,493.459462,-18526.824537,-2403.527785,-883.743272,4568.182477,13133.438007,-18431.695513,-1044.675832,2221.383419,-0.002000,-0.012000,1.008000,192.000000,127.500000,120.000000,127.500000,80.000000,15.500000,64.000000,0.000000,0.000000,0.000000,1770299521.298540,0.000000
82.000000,8198.552811,14281.043623,3315.546014,4543.528502,-18704.945589,-10935.635678,1660.220523,513.754846,-18563.324936,-2432.808570,-911.481787,4540.019279,13101.609123,-18456.952984,-1064.948865,2197.712922,-0.002000,-0.012000,1.008000,192.000000,0.000000,0.000000,0.000000,0.000000,0.000000,0.000000,0.000000,0.000000,0.000000,1770299521.298588,0.000000
84.000000,8193.858945,14277.534399,3310.069836,4538.678174,-18710.421766,-10943.704658,1657.158334,506.289364,-18507.490278,-2393.514203,-870.131060,4578.352520,13154.627461,-18418.306818,-1028.962556,2240.069478,-0.002000,-0.012000,1.008000,192.000000,0.000000,0.000000,0.000000,0.000000,0.000000,0.000000,0.000000,0.000000,0.000000,1770299521.298609,0.000000
86.000000,8167.863866,14247.538358,3286.198173,4513.286592,-18731.342999,-10961.116667,1634.650127,484.250544,-18571.572730,-2431.176893,-918.008497,4537.359421,13095.507097,-18454.024905,-1076.951751,2207.838262,-0.002000,-0.012000,1.008000,192.000000,0.000000,0.000000,0.000000,0.000000,0.000000,0.000000,0.000000,0.000000,0.000000,1770299521.298626,0.000000
88.000000,8192.495488,14279.434297,3318.205871,4551.441020,-18707.091356,-10935.993306,1666.367253,510.871471,-18540.995543,-2416.536500,-898.942459,4556.268997,13115.534260,-18438.557498,-1045.681661,2232.648698,-0.002000,-0.012000,1.008000,192.000000,0.000000,0.000000,0.000000,0.000000,0.000000,0.000000,0.000000,0.000000,0.000000,1770299521.298644,0.000000
90.000000,8158.409078,14239.290564,3280.900810,4508.235098,-18739.769607,-10970.370289,1630.336241,479.735491,-18551.210290,-2422.705582,-905.066836,4552.715069,13117.411806,-18443.720751,-1050.666100,2226.211396,0.002000,-0.006000,1.010000,192.000000,0.000000,8.000000,127.500000,104.000000,15.500000,72.000000,0.000000,0.000000,0.000000,1770299521.298668,0.000000
92.000000,8188.449822,14272.952291,3310.807444,4544.936662,-18712.947513,-10938.161425,1658.901770,509.575070,-18574.053773,-2437.569492,-922.568252,4535.414819,13091.327320,-18459.188158,-1077.063510,2202.160919,0.002000,-0.006000,1.010000,192.000000,0.000000,0.000000,0.000000,0.000000,0.000000,0.000000,0.000000,0.000000,0.000000,1770299521.298685,0.000000
94.000000,8191.869639,14276.685032,3311.880328,4539.393430,-18712.478127,-10944.196396,1657.828886,512.346686,-18517.973246,-2398.073959,-877.127156,4578.844259,13142.021077,-18424.364141,-1039.557283,2244.383364,0.002000,-0.006000,1.010000,192.000000,0.000000,0.000000,0.000000,0.000000,0.000000,0.000000,0.000000,0.000000,0.000000,1770299521.298703,0.000000
96.000000,8177.184543,14256.456704,3292.143737,4516.125264,-18732.549993,-10968.068059,1638.472276,499.069750,-18570.790418,-2427.913538,-910.207738,4547.238892,13104.134870,-18456.103618,-1076.661179,2199.948096,0.002000,-0.006000,1.010000,192.000000,0.000000,0.000000,0.000000,0.000000,0.000000,0.000000,0.000000,0.000000,0.000000,1770299521.298720,0.000000
98.000000,8209.974552,14295.505201,3331.326345,4557.274825,-18698.977673,-10929.779521,1677.409014,531.949166,-18527.986828,-2403.416026,-880.859897,4573.233971,13137.975411,-18433.349542,-1058.444507,2228.670088,0.002000,-0.006000,1.010000,192.000000,0.000000,0.000000,0.000000,0.000000,0.000000,0.000000,0.000000,0.000000,0.000000,1770299521.298737,0.000000
100.000000,8174.100003,14253.662736,3294.244801,4506.916345,-18732.549993,-10979.623911,1637.913482,496.521651,-18539.050941,-2411.105026,-885.866688,4567.824849,13133.147434,-18441.865556,-1046.888655,2215.527262,-0.002000,-0.012000,1.006000,192.000000,127.500000,120.000000,127.500000,80.000000,15.500000,56.000000,0.000000,0.000000,0.000000,1770299521.298753,0.000000
102.000000,8193.367206,14278.584931,3317.222395,4540.488665,-18709.460641,-10953.047687,1663.617988,518.471064,-18566.275366,-2430.506340,-909.246613,4545.048421,13092.511963,-18461.333926,-1070.179173,2194.941306,-0.002000,-0.012000,1.006000,192.000000,0.000000,0.000000,0.000000,0.000000,0.000000,0.000000,0.000000,0.000000,0.000000,1770299521.298771,0.000000
104.000000,8187.958084,14273.935768,3309.935726,4536.197130,-18719.183650,-10954.366440,1658.790011,510.647954,-18520.655456,-2401.426721,-873.394415,4577.637264,13138.891833,-18430.242649,-1034.639899,2233.431009,-0.002000,-0.012000,1.006000,192.000000,0.000000,0.000000,0.000000,0.000000,0.000000,0.000000,0.000000,0.000000,0.000000,1770299521.298787,0.000000
106.000000,8164.622863,14243.559747,3288.053368,4510.805549,-18731.767682,-10971.487876,1635.499494,488.564430,-18580.178151,-2438.195340,-917.203834,4535.057191,13091.550838,-18462.473865,-1072.123775,2198.741102,-0.002000,-0.012000,1.006000,192.000000,0.000000,0.000000,0.000000,0.000000,0.000000,0.000000,0.000000,0.000000,0.000000,1770299521.298804,0.000000
108.000000,8199.804509,14285.871599,3327.683011,4558.727689,-18695.669615,-10929.556004,1675.643227,523.522559,-18535.586421,-2419.218709,-888.593601,4559.018261,13124.676123,-18438.937478,-1044.564074,2228.692440,-0.002000,-0.012000,1.006000,192.000000,0.000000,0.000000,0.000000,0.000000,0.000000,0.000000,0.000000,0.000000,0.000000,1770299521.298821,0.000000
110.000000,8166.120430,14245.169073,3289.126252,4511.274935,-18727.632609,-10965.899940,1635.611252,487.513898,-18541.576688,-2416.961183,-892.527508,4558.146543,13127.403036,-18438.825719,-1047.134524,2225.742009,-0.002000,-0.012000,1.006000,192.000000,0.000000,0.000000,127.500000,72.000000,15.500000,40.000000,0.000000,0.000000,0.000000,1770299521.298838,0.000000
112.000000,8194.507145,14275.209817,3314.920165,4548.490590,-18704.275036,-10936.529748,1664.221485,514.581861,-18569.046982,-2435.647242,-914.991011,4535.705392,13097.876382,-18456.707115,-1069.039234,2203.859652,-0.002000,-0.012000,1.006000,192.000000,0.000000,0.000000,0.000000,0.000000,0.000000,0.000000,0.000000,0.000000,0.000000,1770299521.298855,0.000000
114.000000,8200.117433,14284.329329,3314.651944,4545.204883,-18702.732766,-10938.072018,1663.439174,516.392352,-18509.703101,-2396.777558,-868.231162,4578.084299,13150.313574,-18421.190193,-1031.018916,2250.932425,-0.002000,-0.012000,1.006000,192.000000,0.000000,0.000000,0.000000,0.000000,0.000000,0.000000,0.000000,0.000000,0.000000,1770299521.298872,0.000000
116.000000,8178.726814,14255.473227,3290.445005,4516.326429,-18728.929011,-10968.872722,1637.444095,495.873451,-18566.543587,-2428.695849,-908.576060,4539.371078,13102.659655,-18453.510815,-1066.491135,2202.160919,-0.002000,-0.012000,1.006000,192.000000,0.000000,0.000000,0.000000,0.000000,0.000000,0.000000,0.000000,0.000000,0.000000,1770299521.298889,0.000000
118.000000,8208.029951,14292.241847,3325.269023,4560.024090,-18699.223542,-10940.530710,1674.056253,525.109532,-18525.148156,-2410.434474,-881.083415,4562.996872,13132.499234,-18436.054103,-1039.311414,2231.531111,-0.002000,-0.012000,1.006000,192.000000,0.000000,0.000000,0.000000,0.000000,0.000000,0.000000,0.000000,0.000000,0.000000,1770299521.298906,0.000000
120.000000,8179.754994,14257.842512,3292.009627,4516.102912,-18729.979542,-10972.516057,1638.695793,495.716989,-18535.541717,-2412.066151,-887.118386,4562.974520,13128.498272,-18437.529318,-1049.727327,2232.603995,-0.002000,-0.008000,1.005000,192.000000,127.500000,120.000000,127.500000,112.000000,15.500000,48.000000,0.000000,0.000000,0.000000,1770299521.298933,0.000000
122.000000,8199.715102,14281.892989,3316.618898,4546.836561,-18708.074833,-10946.722143,1663.238008,517.353477,-18560.374506,-2425.633660,-907.927860,4547.127133,13113.790824,-18450.649792,-1068.458088,2201.155090,-0.002000,-0.008000,1.005000,192.000000,0.000000,0.000000,0.000000,0.000000,0.000000,0.000000,0.000000,0.000000,0.000000,1770299521.298956,0.000000
124.000000,8198.083424,14282.697652,3314.830758,4540.846293,-18711.673464,-10950.790161,1661.181648,517.174663,-18514.799299,-2398.968029,-873.528525,4581.727634,13150.581795,-18424.699417,-1031.778876,2240.270643,-0.002000,-0.008000,1.005000,192.000000,0.000000,0.000000,0.000000,0.000000,0.000000,0.000000,0.000000,0.000000,0.000000,1770299521.298973,0.000000
126.000000,8185.298227,14264.905663,3295.205926,4517.689886,-18725.688008,-10966.615196,1640.573340,502.914250,-18558.720476,-2424.940756,-904.575098,4550.323433,13113.701417,-18451.320344,-1069.419213,2200.573945,-0.002000,-0.008000,1.005000,192.000000,0.000000,0.000000,0.000000,0.000000,0.000000,0.000000,0.000000,0.000000,0.000000,1770299521.298990,0.000000
128.000000,8217.350628,14304.222382,3334.433238,4561.298139,-18690.215789,-10927.946678,1679.353616,534.005527,-18518.934371,-2398.677456,-874.646112,4576.050291,13135.427312,-18426.353446,-1044.698184,2223.484483,-0.002000,-0.008000,1.005000,192.000000,0.000000,0.000000,0.000000,0.000000,0.000000,0.000000,0.000000,0.000000,0.000000,1770299521.299008,0.000000
130.000000,8172.669491,14253.103942,3290.221487,4505.955220,-18730.895964,-10982.239065,1632.817284,487.424491,-18537.843947,-2409.719218,-885.643171,4563.890942,13127.939478,-18439.518623,-1034.528140,2218.477692,-0.002000,-0.008000,1.005000,192.000000,0.000000,0.000000,127.500000,88.000000,15.500000,56.000000,0.000000,0.000000,0.000000,1770299521.299025,0.000000
132.000000,8193.076634,14276.863846,3320.105770,4542.410915,-18703.738595,-10943.235271,1659.751136,510.826768,-18568.488189,-2432.607404,-911.526491,4538.164084,13096.043539,-18460.328097,-1065.127679,2197.802329,-0.002000,-0.008000,1.005000,192.000000,0.000000,0.000000,0.000000,0.000000,0.000000,0.000000,0.000000,0.000000,0.000000,1770299521.299043,0.000000
134.000000,8183.465383,14271.320614,3315.791883,4535.034840,-18708.074833,-10951.617176,1655.638415,500.880241,-18520.141366,-2403.527785,-877.194211,4570.574113,13143.451589,-18428.253344,-1015.238585,2238.191931,-0.002000,-0.008000,1.005000,192.000000,0.000000,0.000000,0.000000,0.000000,0.000000,0.000000,0.000000,0.000000,0.000000,1770299521.299060,0.000000
136.000000,8171.753069,14255.115599,3293.328380,4513.957144,-18719.720092,-10963.955338,1635.052459,487.983285,-18579.373488,-2434.887282,-921.674183,4533.269052,13094.478916,-18462.004478,-1054.085917,2199.746931,-0.002000,-0.008000,1.005000,192.000000,0.000000,0.000000,0.000000,0.000000,0.000000,0.000000,0.000000,0.000000,0.000000,1770299521.299077,0.000000
138.000000,8210.443939,14300.020254,3327.884177,4559.666462,-18693.613254,-10926.002076,1673.944494,526.450637,-18529.663209,-2404.958296,-884.927915,4566.461392,13131.314591,-18431.293181,-1036.651556,2230.257062,-0.002000,-0.008000,1.005000,192.000000,0.000000,0.000000,0.000000,0.000000,0.000000,0.000000,0.000000,0.000000,0.000000,1770299521.299094,0.000000
140.000000,8185.901724,14267.610224,3292.501365,4518.203976,-18718.647208,-10961.340184,1638.874607,501.707256,-18532.256011,-2404.958296,-882.223354,4568.741270,13134.667353,-18429.505042,-1045.726364,2233.632175,-0.003000,-0.010000,1.005500,192.000000,127.500000,112.000000,127.500000,80.000000,15.500000,56.000000,0.000000,0.000000,0.000000,1770299521.299111,0.000000
142.000000,8201.056206,14283.681128,3310.963906,4545.070773,-18714.065100,-10947.124475,1657.650072,519.521596,-18562.721439,-2425.454846,-904.284525,4547.037726,13101.273847,-18451.208586,-1074.113080,2210.609878,-0.003000,-0.010000,1.005500,192.000000,0.000000,0.000000,0.000000,0.000000,0.000000,0.000000,0.000000,0.000000,0.000000,1770299521.299128,0.000000
144.000000,8205.571259,14290.274893,3316.753008,4545.540159,-18710.287656,-10943.548196,1661.204000,523.120227,-18512.206496,-2396.330523,-864.923103,4583.493421,13147.385496,-18422.307780,-1040.004318,2248.049050,-0.003000,-0.010000,1.005500,192.000000,0.000000,0.000000,0.000000,0.000000,0.000000,0.000000,0.000000,0.000000,0.000000,1770299521.299145,0.000000
146.000000,8185.186468,14262.782247,3296.882307,4517.466368,-18728.213755,-10965.475257,1638.159351,501.953125,-18563.012011,-2426.952413,-901.602316,4546.724802,13106.213582,-18452.348525,-1075.208315,2202.943230,-0.003000,-0.010000,1.005500,192.000000,0.000000,0.000000,0.000000,0.000000,0.000000,0.000000,0.000000,0.000000,0.000000,1770299521.299162,0.000000
148.000000,8213.394369,14294.789945,3332.265119,4559.286482,-18699.715280,-10933.691076,1674.190363,530.116323,-18526.913944,-2406.813491,-876.322493,4567.400165,13129.682914,-18432.187251,-1048.229760,2229.586509,-0.003000,-0.010000,1.005500,192.000000,0.000000,0.000000,0.000000,0.000000,0.000000,0.000000,0.000000,0.000000,0.000000,1770299521.299179,0.000000
150.000000,8176.782212,14252.232224,3292.009627,4508.123339,-18733.801691,-10975.466487,1632.817284,491.894840,-18540.570860,-2415.016581,-886.403130,4560.024090,13138.020115,-18439.630382,-1040.585463,2222.568062,-0.003500,-0.012000,1.007750,192.000000,127.500000,112.000000,127.500000,72.000000,15.500000,72.000000,0.000000,0.000000,0.000000,1770299521.299243,0.000000
152.000000,8197.859907,14278.137896,3317.088284,4542.254453,-18715.182688,-10946.722143,1658.499439,515.677096,-18569.695183,-2434.730820,-909.984220,4535.057191,13098.166954,-18460.328097,-1063.183077,2199.434006,-0.003500,-0.012000,1.007750,192.000000,0.000000,0.000000,0.000000,0.000000,0.000000,0.000000,0.000000,0.000000,0.000000,1770299521.299262,0.000000
154.000000,8195.021235,14279.747221,3308.438159,4535.414819,-18721.351769,-10954.254681,1652.822095,509.128035,-18518.375578,-2397.939849,-871.561572,4571.691700,13136.075513,-18425.146452,-1033.030573,2242.706983,-0.003500,-0.012000,1.007750,192.000000,0.000000,0.000000,0.000000,0.000000,0.000000,0.000000,0.000000,0.000000,0.000000,1770299521.299283,0.000000
156.000000,8170.702537,14251.382858,3286.511098,4508.033932,-18738.517909,-10976.651129,1629.576281,486.731587,-18574.210235,-2433.859102,-916.220357,4531.145636,13084.375928,-18461.803313,-1067.966350,2195.947134,-0.003500,-0.012000,1.007750,192.000000,0.000000,0.000000,0.000000,0.000000,0.000000,0.000000,0.000000,0.000000,0.000000,1770299521.299300,0.000000
158.000000,8198.351645,14286.430393,3323.413828,4551.843351,-18697.904789,-10941.849463,1666.836639,516.973498,-18535.340552,-2415.575375,-890.493499,4555.129058,13121.949210,-18440.502100,-1037.970309,2215.147282,-0.003500,-0.012000,1.007750,192.000000,0.000000,0.000000,0.000000,0.000000,0.000000,0.000000,0.000000,0.000000,0.000000,1770299521.299317,0.000000
160.000000,8160.040755,14240.855186,3284.387682,4504.077673,-18737.020342,-10987.089394,1628.413991,480.383692,-18552.126712,-2426.706544,-900.708246,4546.098953,13117.612972,-18451.208586,-1040.607815,2227.239576,-0.005750,-0.013000,1.005875,192.000000,127.500000,96.000000,127.500000,72.000000,15.500000,48.000000,0.000000,0.000000,0.000000,1770299521.299336,0.000000
162.000000,8192.853116,14275.790963,3320.910432,4542.030936,-18705.280865,-10949.583167,1659.527619,512.123169,-18575.730154,-2443.336242,-916.354467,4525.691810,13089.427422,-18465.960737,-1062.400766,2207.011248,-0.005750,-0.013000,1.005875,192.000000,0.000000,0.000000,0.000000,0.000000,0.000000,0.000000,0.000000,0.000000,0.000000,1770299521.299354,0.000000
164.000000,8202.799642,14283.904646,3320.016363,4545.227235,-18708.030129,-10944.509321,1661.069889,516.571166,-18513.011159,-2397.649276,-867.828830,4572.853991,13148.279565,-18422.441891,-1028.224948,2242.729335,-0.005750,-0.013000,1.005875,192.000000,0.000000,0.000000,0.000000,0.000000,0.000000,0.000000,0.000000,0.000000,0.000000,1770299521.299372,0.000000
166.000000,8177.095136,14258.580119,3289.908563,4515.253546,-18732.058255,-10971.644339,1633.309023,494.621753,-18572.958538,-2430.305175,-909.872462,4538.879340,13096.647036,-18455.388362,-1072.235533,2209.268774,-0.005750,-0.013000,1.005875,192.000000,0.000000,0.000000,0.000000,0.000000,0.000000,0.000000,0.000000,0.000000,0.000000,1770299521.299390,0.000000
168.000000,8211.472119,14297.136879,3324.509063,4560.091145,-18700.117612,-10936.127417,1672.871610,528.976384,-18532.703046,-2408.780445,-883.407996,4560.381718,13128.140644,-18435.249440,-1049.637920,2226.345506,-0.005750,-0.013000,1.005875,192.000000,0.000000,0.000000,0.000000,0.000000,0.000000,0.000000,0.000000,0.000000,0.000000,1770299521.299408,0.000000
170.000000,8175.374052,14256.635518,3284.141813,4515.074732,-18738.808482,-10978.260455,1633.621947,492.453634,-18540.883784,-2413.831939,-889.174746,4557.297177,13129.571155,-18441.127949,-1042.775934,2226.479617,-0.005875,-0.013500,1.006938,192.000000,127.500000,104.000000,127.500000,72.000000,15.500000,64.000000,0.000000,0.000000,0.000000,1770299521.299426,0.000000
172.000000,8193.613075,14277.132067,3307.298220,4544.646090,-18720.278885,-10955.998117,1654.721994,508.792759,-18572.712669,-2434.395544,-917.829683,4534.029011,13094.277751,-18461.512740,-1070.648559,2202.630306,-0.005875,-0.013500,1.006938,192.000000,0.000000,0.000000,0.000000,0.000000,0.000000,0.000000,0.000000,0.000000,0.000000,1770299521.299443,0.000000
174.000000,8189.567410,14276.483867,3306.024171,4539.862816,-18723.586944,-10957.026298,1654.476125,505.998791,-18527.428034,-2409.674514,-883.452700,4566.439040,13147.899586,-18436.478786,-1032.114152,2241.231768,-0.005875,-0.013500,1.006938,192.000000,0.000000,0.000000,0.000000,0.000000,0.000000,0.000000,0.000000,0.000000,0.000000,1770299521.299462,0.000000
176.000000,8173.742375,14256.344945,3285.572324,4511.096121,-18743.658810,-10981.255589,1630.403296,488.184451,-18583.195637,-2435.133151,-921.540072,4533.090238,13081.090222,-18464.574929,-1069.732138,2198.025846,-0.005875,-0.013500,1.006938,192.000000,0.000000,0.000000,0.000000,0.000000,0.000000,0.000000,0.000000,0.000000,0.000000,1770299521.299479,0.000000
178.000000,8206.420625,14294.722890,3321.871557,4554.257340,-18716.792013,-10943.659955,1667.551895,522.807303,-18542.806034,-2417.587032,-891.700493,4556.716032,13112.762643,-18447.229975,-1047.089821,2216.667201,-0.005875,-0.013500,1.006938,192.000000,0.000000,0.000000,0.000000,0.000000,0.000000,0.000000,0.000000,0.000000,0.000000,1770299521.778955,0.000000
180.000000,8176.782212,14259.183617,3282.241915,4509.598554,-18747.324496,-10982.216714,1629.196302,489.279686,-18547.052866,-2416.447093,-892.974543,4557.051308,13115.310742,-18444.905394,-1054.376489,2213.247384,-0.005875,-0.013500,1.006938,192.000000,0.000000,0.000000,127.500000,88.000000,15.500000,72.000000,0.000000,0.000000,0.000000,1770299521.779017,0.000000
182.000000,8194.864773,14282.317672,3301.799691,4542.366212,-18725.397435,-10956.087524,1651.145715,508.345724,-18581.094573,-2435.691945,-918.723752,4532.486741,13083.101879,-18461.959775,-1072.950789,2193.756663,-0.005875,-0.013500,1.006938,192.000000,0.000000,0.000000,0.000000,0.000000,0.000000,0.000000,0.000000,0.000000,0.000000,1770299521.779066,0.000000
184.000000,8202.509070,14293.001806,3306.337095,4544.489627,-18720.480051,-10950.253719,1655.616064,513.307811,-18527.875069,-2394.967067,-879.027054,4572.563418,13134.935574,-18425.012341,-1040.026670,2240.158885,-0.005875,-0.013500,1.006938,192.000000,0.000000,0.000000,0.000000,0.000000,0.000000,0.000000,0.000000,0.000000,0.000000,1770299521.779110,0.000000
186.000000,8187.287532,14268.951329,3288.142775,4519.366267,-18733.265249,-10973.521885,1633.487837,495.202898,-18572.600910,-2424.225500,-912.219395,4540.578072,13110.035731,-18454.181368,-1076.549420,2202.540899,-0.005875,-0.013500,1.006938,192.000000,0.000000,0.000000,0.000000,0.000000,0.000000,0.000000,0.000000,0.000000,0.000000,1770299521.779162,0.000000
188.000000,8216.344800,14306.546963,3322.899738,4562.214561,-18702.643359,-10939.033143,1668.200096,526.718858,-18534.044151,-2407.059360,-883.787976,4563.555665,13119.356408,-18436.344676,-1049.235588,2227.731315,-0.005875,-0.013500,1.006938,192.000000,0.000000,0.000000,0.000000,0.000000,0.000000,0.000000,0.000000,0.000000,0.000000,1770299521.779209,0.000000
190.000000,8192.115509,14276.528570,3293.574249,4519.992115,-18732.929973,-10971.018490,1635.343031,500.567317,-18537.866299,-2406.701732,-883.363293,4564.248570,13128.565327,-18438.892774,-1052.767164,2227.485445,-0.005875,-0.013500,1.006938,192.000000,0.000000,0.000000,0.000000,0.000000,0.000000,0.000000,0.000000,0.000000,0.000000,1770299521.779245,0.000000
192.000000,8209.751035,14296.622789,3318.719961,4546.233063,-18712.433423,-10947.973841,1657.605369,520.303907,-18558.943994,-2423.242023,-898.540127,4544.757848,13106.347693,-18454.606051,-1075.007150,2201.199794,0.004000,-0.014000,1.010000,192.000000,0.000000,16.000000,127.500000,72.000000,15.500000,72.000000,0.000000,0.000000,0.000000,1770299521.779261,0.000000
194.000000,8202.911401,14288.442050,3317.423560,4539.527540,-18715.137984,-10956.959242,1654.699642,514.693620,-18512.385310,-2399.795043,-864.230199,4573.770413,13147.251385,-18430.577926,-1032.695297,2240.784733,0.004000,-0.014000,1.010000,192.000000,0.000000,0.000000,0.000000,0.000000,0.000000,0.000000,0.000000,0.000000,0.000000,1770299521.779314,0.000000
196.000000,8179.240904,14258.021326,3291.450833,4512.057246,-18737.377970,-10977.902827,1628.592805,491.179584,-18569.762238,-2433.479122,-906.877328,4534.319584,13103.598428,-18463.859673,-1065.641769,2199.188137,0.004000,-0.014000,1.010000,192.000000,0.000000,0.000000,0.000000,0.000000,0.000000,0.000000,0.000000,0.000000,0.000000,1770299521.779332,0.000000
198.000000,8212.097968,14298.500335,3328.800598,4561.566360,-18703.470374,-10938.317888,1669.652959,526.920024,-18532.323066,-2413.451959,-882.446871,4558.884151,13138.534205,-18441.820853,-1046.955710,2229.921786,0.004000,-0.014000,1.010000,192.000000,0.000000,0.000000,0.000000,0.000000,0.000000,0.000000,0.000000,0.000000,0.000000,1770299521.779350,0.000000
200.000000,8174.859962,14258.602471,3288.410996,4510.425569,-18735.366313,-10983.758984,1628.861025,488.653837,-18543.409532,-2416.692962,-888.973580,4555.106706,13122.843280,-18445.844167,-1048.989719,2226.434913,0.004000,-0.014000,1.010000,192.000000,0.000000,0.000000,0.000000,0.000000,0.000000,0.000000,0.000000,0.000000,0.000000,1770299521.779367,0.000000
202.000000,8192.786061,14278.987262,3312.327363,4538.365249,-18709.237124,-10959.261472,1652.419764,508.859814,-18573.249110,-2440.139942,-912.957002,4529.335145,13093.897771,-18467.435952,-1059.405632,2194.538974,0.004000,-0.014000,1.010000,192.000000,0.000000,0.000000,127.500000,88.000000,15.500000,56.000000,0.000000,0.000000,0.000000,1770299521.779385,0.000000
204.000000,8198.753977,14286.340986,3312.595584,4536.890034,-18709.147717,-10954.344088,1653.805572,512.704314,-18515.715720,-2399.929154,-871.583923,4569.031843,13144.055086,-18430.913202,-1021.251204,2232.469884,0.004000,-0.014000,1.010000,192.000000,0.000000,0.000000,0.000000,0.000000,0.000000,0.000000,0.000000,0.000000,0.000000,1770299521.779402,0.000000
206.000000,8172.043642,14251.919300,3283.761833,4508.302153,-18736.685066,-10983.982502,1628.704563,488.855003,-18571.192750,-2433.724992,-912.644078,4532.643203,13098.256361,-18463.546749,-1066.513487,2195.209526,0.004000,-0.014000,1.010000,192.000000,0.000000,0.000000,0.000000,0.000000,0.000000,0.000000,0.000000,0.000000,0.000000,1770299521.779419,0.000000
208.000000,8210.175718,14295.326387,3322.117427,4557.498343,-18700.586999,-10938.764922,1669.720014,527.411762,-18534.915869,-2414.748360,-887.855993,4554.033822,13125.234917,-18443.229013,-1050.040251,2224.914995,0.004000,-0.014000,1.010000,192.000000,0.000000,0.000000,0.000000,0.000000,0.000000,0.000000,0.000000,0.000000,0.000000,1770299521.779436,0.000000
210.000000,8188.025139,14267.833742,3287.360464,4516.326429,-18729.130176,-10974.170086,1634.024278,498.890936,-18532.077197,-2404.354799,-883.430348,4562.549837,13134.466187,-18435.696475,-1043.804114,2224.691477,0.004000,-0.014000,1.010000,192.000000,0.000000,0.000000,0.000000,0.000000,0.000000,0.000000,0.000000,0.000000,0.000000,1770299521.779453,0.000000
212.000000,8210.913326,14295.125222,3312.305011,4550.792819,-18702.866876,-10944.375210,1657.717128,524.014297,-18558.139331,-2422.124436,-906.072665,4541.718011,13103.486669,-18456.148321,-1068.279274,2200.819814,0.002000,-0.008000,1.016000,192.000000,0.000000,8.000000,127.500000,96.000000,15.500000,96.000000,0.000000,0.000000,0.000000,1770299521.779470,0.000000
214.000000,8218.848195,14304.334140,3314.942517,4550.412840,-18703.157449,-10940.865986,1658.253569,527.635280,-18497.789621,-2385.199354,-859.335167,4584.611009,13158.874292,-18417.837431,-1033.745829,2249.278396,0.002000,-0.008000,1.016000,192.000000,0.000000,0.000000,0.000000,0.000000,0.000000,0.000000,0.000000,0.000000,0.000000,1770299521.779487,0.000000
216.000000,8192.182564,14271.477076,3290.109729,4520.930889,-18729.465452,-10970.012661,1631.878511,501.014352,-18556.462950,-2420.805683,-904.440988,4544.891959,13110.929800,-18452.482635,-1068.055757,2207.480634,0.002000,-0.008000,1.016000,192.000000,0.000000,0.000000,0.000000,0.000000,0.000000,0.000000,0.000000,0.000000,0.000000,1770299521.779505,0.000000
218.000000,8224.927869,14309.944428,3327.303031,4562.102802,-18695.669615,-10930.718294,1669.384738,533.111457,-18524.857584,-2406.187642,-883.072720,4563.712128,13132.678048,-18435.696475,-1036.673908,2237.476675,0.002000,-0.008000,1.016000,192.000000,0.000000,0.000000,0.000000,0.000000,0.000000,0.000000,0.000000,0.000000,0.000000,1770299521.779527,0.000000
220.000000,8187.578104,14265.240939,3288.008665,4512.794854,-18725.665656,-10970.258530,1629.486874,495.091140,-18530.959610,-2405.964125,-884.614990,4563.220389,13135.807292,-18435.204737,-1037.791495,2235.219149,0.002000,-0.008000,1.016000,192.000000,0.000000,0.000000,0.000000,0.000000,0.000000,0.000000,0.000000,0.000000,0.000000,1770299521.779545,0.000000
222.000000,8205.548907,14286.385690,3313.534357,4543.573206,-18703.157449,-10942.318850,1656.063098,517.666402,-18565.940090,-2433.300308,-912.264098,4533.090238,13105.297161,-18458.562310,-1069.441565,2204.239631,0.002000,-0.004000,1.016000,192.000000,0.000000,8.000000,127.500000,112.000000,15.500000,96.000000,0.000000,0.000000,0.000000,1770299521.779563,0.000000
224.000000,8196.339988,14275.701556,3308.549918,4535.973613,-18707.426632,-10950.656051,1653.045613,507.630468,-18517.257991,-2401.896107,-875.763700,4566.617854,13144.815045,-18426.688722,-1021.340611,2243.690460,0.002000,-0.004000,1.016000,192.000000,0.000000,0.000000,0.000000,0.000000,0.000000,0.000000,0.000000,0.000000,0.000000,1770299521.779580,0.000000
226.000000,8180.939636,14254.489750,3286.622856,4510.045589,-18725.397435,-10976.517019,1629.978613,490.911363,-18577.428887,-2440.050535,-921.964755,4525.982383,13095.641207,-18463.591452,-1062.736042,2214.141454,0.002000,-0.004000,1.016000,192.000000,0.000000,0.000000,0.000000,0.000000,0.000000,0.000000,0.000000,0.000000,0.000000,1770299521.779597,0.000000
228.000000,8223.922041,14302.344835,3329.158226,4558.370061,-18691.691004,-10928.505472,1671.351692,532.820884,-18526.779834,-2410.255660,-885.017322,4557.475991,13153.331060,-18436.523490,-1041.524236,2231.955794,0.002000,-0.004000,1.016000,192.000000,0.000000,0.000000,0.000000,0.000000,0.000000,0.000000,0.000000,0.000000,0.000000,1770299521.779610,0.000000
230.000000,8184.381805,14256.322593,3284.812365,4508.235098,-18731.678275,-10974.840638,1629.643336,493.258297,-18534.401779,-2407.439340,-885.285543,4558.124192,13133.147434,-18435.964696,-1047.380393,2219.841149,0.002000,-0.004000,1.016000,192.000000,0.000000,0.000000,0.000000,0.000000,0.000000,0.000000,0.000000,0.000000,0.000000,1770299521.779625,0.000000
232.000000,8205.615962,14284.172867,3308.371104,4542.343860,-18714.333321,-10954.455847,1654.274959,515.073599,-18567.460009,-2431.534521,-913.292278,4531.346802,13094.680082,-18458.651717,-1072.123775,2194.874250,-0.002000,-0.006000,1.008000,192.000000,127.500000,120.000000,127.500000,104.000000,15.500000,64.000000,0.000000,0.000000,0.000000,1770299521.779639,0.000000
234.000000,8200.743282,14282.563541,3306.761778,4540.712183,-18711.159374,-10953.382963,1654.006738,512.816073,-18518.867316,-2398.588049,-876.501307,4568.137773,13142.669278,-18426.331094,-1038.394992,2240.136533,-0.002000,-0.006000,1.008000,192.000000,0.000000,0.000000,0.000000,0.000000,0.000000,0.000000,0.000000,0.000000,0.000000,1770299521.779654,0.000000
