Sample_index,EXG Channel 0,EXG Channel 1,EXG Channel 2,EXG Channel 3,EXG Channel 4,EXG Channel 5,EXG Channel 6,EXG Channel 7,EXG Channel 8,EXG Channel 9,EXG Channel 10,EXG Channel 11,EXG Channel 12,EXG Channel 13,EXG Channel 14,EXG Channel 15,Accel Channel 0,Accel Channel 1,Accel Channel 2,Not Used,Digital Channel 0 (D11),Digital Channel 1 (D12),Digital Channel 2 (D13),Digital Channel 3 (D17),Not Used,Digital Channel 4 (D18),Analog Channel 0,Analog Channel 1,Analog Channel 2,Timestamp,Marker Channel
90.000000,1466.810878,5802.423454,1774.795565,6885.231362,-7400.640237,15010.336341,-3318.563499,-12365.186198,11147.574919,11449.256414,-2515.510024,14752.374858,13790.489887,12623.639420,5071.901390,-120.498254,0.252000,-0.232000,0.964000,192.000000,0.000000,0.000000,0.000000,0.000000,0.000000,0.000000,0.000000,0.000000,0.000000,1773825061.912355,101.000000
92.000000,1455.724413,5790.398215,1755.394251,6873.407289,-7423.930755,14986.598788,-3335.126142,-12376.630292,11163.243492,11475.497362,-2488.084434,14782.370899,13820.128300,12650.349754,5034.149293,-332.258681,0.252000,-0.232000,0.964000,192.000000,0.000000,0.000000,0.000000,0.000000,0.000000,0.000000,0.000000,0.000000,0.000000,1773825061.912417,0.000000
94.000000,1457.691366,5791.448747,1756.109507,6871.462687,-7426.389447,14979.960320,-3337.361316,-12376.183257,11149.675983,11446.976536,-2521.097961,14755.146474,13779.604588,12606.428576,5095.504832,3.084541,0.251000,-0.235000,0.962000,192.000000,3.500000,104.000000,124.000000,72.000000,15.000000,0.000000,0.000000,0.000000,0.000000,1773825061.912462,0.000000
96.000000,1477.562067,5810.425378,1780.718777,6889.344083,-7399.634409,15004.234314,-3313.869633,-12353.853864,11168.205579,11472.032842,-2487.279771,14780.448649,13817.043759,12636.871652,5036.429171,-339.478295,0.251000,-0.235000,0.962000,192.000000,0.000000,0.000000,0.000000,0.000000,0.000000,0.000000,0.000000,0.000000,0.000000,1773825061.912505,0.000000
98.000000,1452.505762,5781.368110,1745.291262,6857.224626,-7441.476875,14967.130419,-3348.805410,-12384.296940,11160.695393,11452.720934,-2504.445911,14764.981242,13798.223591,12618.163242,5072.661349,-120.475903,0.251000,-0.235000,0.962000,192.000000,0.000000,0.000000,0.000000,0.000000,0.000000,0.000000,0.000000,0.000000,0.000000,1773825061.912548,0.000000
100.000000,1482.725320,5813.219346,1780.472908,6890.774595,-7400.908458,15002.803803,-3314.741351,-12351.149303,11161.902387,11451.335126,-2505.898774,14761.404963,13794.960236,12617.447986,5066.447564,-125.706211,0.251000,-0.235000,0.962000,192.000000,0.000000,0.000000,0.000000,0.000000,0.000000,0.000000,0.000000,0.000000,0.000000,1773825061.912592,0.000000
102.000000,1464.799221,5794.332122,1757.629425,6866.031214,-7426.769427,14980.496762,-3337.830703,-12373.903379,11174.978158,11474.849161,-2481.580076,14780.895684,13819.189527,12639.419751,5028.293136,-343.568664,0.251000,-0.235000,0.962000,192.000000,0.000000,0.000000,0.000000,0.000000,0.000000,0.000000,0.000000,0.000000,0.000000,1773825061.912637,0.000000
104.000000,1452.595169,5783.759747,1753.449649,6865.695937,-7425.182453,14975.959358,-3342.323404,-12384.498106,11148.558396,11440.516882,-2524.785998,14744.842320,13772.899064,12608.172012,5093.806099,0.715256,0.247500,-0.236500,0.960000,192.000000,3.500000,80.000000,124.000000,72.000000,14.500000,120.000000,0.000000,0.000000,0.000000,1773825061.912651,0.000000
106.000000,1474.186954,5804.077483,1775.488469,6878.570542,-7401.444900,14996.545314,-3320.575156,-12363.599225,11161.678870,11465.707298,-2493.985295,14770.725640,13808.527745,12630.054370,5033.970479,-338.316004,0.247500,-0.236500,0.960000,192.000000,0.000000,0.000000,0.000000,0.000000,0.000000,0.000000,0.000000,0.000000,0.000000,1773825061.912665,0.000000
108.000000,1438.982956,5768.359395,1735.344736,6850.161475,-7442.102723,14955.596919,-3356.695575,-12399.071443,11149.430114,11448.228234,-2515.152397,14745.244651,13786.444221,12612.664713,5069.465049,-123.046353,0.247500,-0.236500,0.960000,192.000000,0.000000,0.000000,0.000000,0.000000,0.000000,0.000000,0.000000,0.000000,0.000000,1773825061.912678,0.000000
110.000000,1466.944989,5795.382654,1773.320350,6883.152650,-7402.718950,14989.772736,-3322.989145,-12368.628367,11147.351402,11438.616984,-2517.275812,14750.407904,13775.558922,12605.467451,5068.392166,-126.555577,0.247500,-0.236500,0.960000,192.000000,0.000000,0.000000,0.000000,0.000000,0.000000,0.000000,0.000000,0.000000,0.000000,1773825061.912691,0.000000
112.000000,1448.370689,5779.222343,1752.533228,6864.198370,-7431.440941,14984.251855,-3343.932729,-12389.191972,11157.230873,11463.159199,-2495.549917,14766.791733,13804.213858,12628.355638,5033.121113,-335.432629,0.247500,-0.236500,0.960000,192.000000,0.000000,0.000000,0.000000,0.000000,0.000000,0.000000,0.000000,0.000000,0.000000,1773825061.912704,0.000000
114.000000,1450.874084,5779.579971,1754.008443,6860.309167,-7432.312659,14979.602692,-3343.150418,-12388.834344,11143.641012,11435.219519,-2528.429333,14737.890928,13768.741640,12600.192440,5095.817756,9.186567,0.249750,-0.236250,0.961000,192.000000,3.500000,112.000000,124.000000,80.000000,15.000000,8.000000,0.000000,0.000000,0.000000,1773825061.912717,0.000000
116.000000,1473.806974,5800.680018,1777.723644,6885.767804,-7405.758787,14998.445213,-3318.652906,-12365.901454,11164.808114,11469.171818,-2493.135928,14768.825742,13807.656027,12633.250670,5034.953956,-339.254777,0.249750,-0.236250,0.961000,192.000000,0.000000,0.000000,0.000000,0.000000,0.000000,0.000000,0.000000,0.000000,0.000000,1773825061.912730,0.000000
118.000000,1444.369727,5770.549866,1741.737335,6848.663908,-7436.403029,14965.811666,-3353.096944,-12399.049091,11155.442733,11450.686926,-2513.341905,14750.564367,13784.901951,12622.365370,5071.610817,-117.883100,0.249750,-0.236250,0.961000,192.000000,0.000000,0.000000,0.000000,0.000000,0.000000,0.000000,0.000000,0.000000,0.000000,1773825061.912743,0.000000
120.000000,1475.595114,5803.339875,1777.231905,6883.331464,-7403.233040,15001.440346,-3315.523662,-12361.721678,11155.755658,11452.385658,-2514.414789,14751.525492,13784.209047,12626.455739,5074.337730,-124.812141,0.249750,-0.236250,0.961000,192.000000,0.000000,0.000000,0.000000,0.000000,0.000000,0.000000,0.000000,0.000000,0.000000,1773825061.912756,0.000000
122.000000,1458.987768,5788.833593,1754.433126,6873.720214,-7438.325279,14975.355861,-3333.226244,-12375.892684,11168.451448,11474.379775,-2487.458585,14781.767402,13812.998094,12625.159338,5025.543872,-341.825228,0.249750,-0.236250,0.961000,192.000000,0.000000,0.000000,0.000000,0.000000,0.000000,0.000000,0.000000,0.000000,0.000000,1773825061.912802,0.000000
124.000000,1454.293901,5780.831668,1752.153248,6866.165324,-7437.878244,14961.475427,-3335.841398,-12380.363033,11141.830521,11437.991135,-2526.194158,14747.971564,13762.460800,12592.794012,5092.889678,-5.565584,0.249875,-0.234125,0.961500,192.000000,3.500000,104.000000,124.000000,96.000000,15.000000,8.000000,0.000000,0.000000,0.000000,1773825061.912815,0.000000
126.000000,1474.768099,5802.714026,1775.287303,6888.047682,-7416.286459,14985.369442,-3312.081493,-12358.055992,11159.533102,11467.003699,-2491.347789,14777.945254,13798.044777,12637.430446,5028.337840,-347.323757,0.249875,-0.234125,0.961500,192.000000,0.000000,0.000000,0.000000,0.000000,0.000000,0.000000,0.000000,0.000000,0.000000,1773825061.912828,0.000000
128.000000,1447.141343,5774.886104,1739.792733,6855.972929,-7456.474895,14951.305384,-3348.268968,-12391.673016,11147.798437,11452.139789,-2512.939574,14757.627518,13776.385936,12610.563649,5066.581674,-130.265967,0.249875,-0.234125,0.961500,192.000000,0.000000,0.000000,0.000000,0.000000,0.000000,0.000000,0.000000,0.000000,0.000000,1773825061.912842,0.000000
130.000000,1477.495012,5807.497300,1778.885934,6890.148746,-7412.240793,14988.565742,-3312.819101,-12356.111390,11152.492303,11460.365231,-2511.710228,14759.438009,13776.631805,12615.078701,5064.190038,-133.730487,0.249875,-0.234125,0.961500,192.000000,0.000000,0.000000,0.000000,0.000000,0.000000,0.000000,0.000000,0.000000,0.000000,1773825061.912854,0.000000
132.000000,1454.428012,5783.268009,1755.282492,6868.065222,-7427.596441,14968.493875,-3336.064915,-12379.983053,11161.902387,11470.177647,-2490.207850,14788.271760,13804.415024,12625.271097,5032.562319,-351.078850,0.249875,-0.234125,0.961500,192.000000,0.000000,0.000000,0.000000,0.000000,0.000000,0.000000,0.000000,0.000000,0.000000,1773825061.912867,0.000000
134.000000,1460.328872,5787.894820,1757.495315,6863.281949,-7425.003639,14970.729050,-3338.970642,-12380.452440,11146.591442,11444.473141,-2526.104751,14750.407904,13766.953500,12597.130251,5097.158861,-2.995134,0.250938,-0.231063,0.965750,192.000000,3.500000,112.000000,124.000000,112.000000,15.000000,40.000000,0.000000,0.000000,0.000000,1773825061.912880,0.000000
136.000000,1478.612599,5806.536175,1778.863582,6889.053510,-7405.356455,15000.255704,-3316.775360,-12361.207588,11168.540855,11478.872475,-2489.961981,14782.639120,13808.617152,12634.480016,5032.450561,-341.400545,0.250938,-0.231063,0.965750,192.000000,0.000000,0.000000,0.000000,0.000000,0.000000,0.000000,0.000000,0.000000,0.000000,1773825061.912893,0.000000
138.000000,1451.410526,5777.769479,1743.212550,6853.916568,-7443.868511,14958.949680,-3352.806372,-12395.361053,11153.341669,11457.101876,-2513.855995,14762.164922,13786.421870,12609.468414,5075.052986,-119.648888,0.250938,-0.231063,0.965750,192.000000,0.000000,0.000000,0.000000,0.000000,0.000000,0.000000,0.000000,0.000000,0.000000,1773825061.912906,0.000000
140.000000,1478.210268,5803.630448,1777.053091,6888.159441,-7402.294266,14995.539486,-3319.166996,-12363.487466,11158.706088,11458.890016,-2512.291373,14762.880178,13781.459782,12612.865879,5070.560285,-120.408847,0.250938,-0.231063,0.965750,192.000000,0.000000,0.000000,0.000000,0.000000,0.000000,0.000000,0.000000,0.000000,0.000000,1773825061.912918,0.000000
142.000000,1461.669977,5787.693654,1754.388422,6867.573484,-7425.920060,14974.595901,-3340.602319,-12381.860600,11160.471876,11470.736441,-2496.019303,14778.213475,13803.364492,12627.170995,5035.758619,-331.431667,0.250938,-0.231063,0.965750,192.000000,0.000000,0.000000,0.000000,0.000000,0.000000,0.000000,0.000000,0.000000,0.000000,1773825061.913044,0.000000
144.000000,1459.747727,5786.039625,1755.081326,6864.511295,-7428.781084,14979.647396,-3341.541093,-12383.961664,11150.011259,11452.899748,-2527.691725,14749.603242,13770.887407,12607.613219,5094.275486,8.404256,0.254469,-0.229531,0.968875,192.000000,4.000000,8.000000,124.000000,112.000000,15.000000,48.000000,0.000000,0.000000,0.000000,1773825061.913059,0.000000
146.000000,1476.556239,5803.921020,1776.181373,6891.199278,-7410.631467,15001.417995,-3317.177691,-12362.973376,11162.707050,11479.431269,-2496.019303,14781.521533,13801.665759,12629.048542,5031.489436,-328.101257,0.254469,-0.229531,0.968875,192.000000,0.000000,0.000000,0.000000,0.000000,0.000000,0.000000,0.000000,0.000000,0.000000,1773825061.913072,0.000000
148.000000,1449.108297,5778.037700,1742.631405,6850.206178,-7446.036630,14957.608576,-3351.644081,-12393.908190,11145.473855,11463.360365,-2519.421580,14758.074553,13777.235303,12607.948495,5073.801288,-121.571138,0.254469,-0.229531,0.968875,192.000000,0.000000,0.000000,0.000000,0.000000,0.000000,0.000000,0.000000,0.000000,0.000000,1773825061.913085,0.000000
150.000000,1476.399777,5806.267954,1777.008388,6892.585086,-7416.509976,15007.765890,-3314.786054,-12356.469018,11151.687640,11470.535275,-2514.168920,14767.417582,13782.711480,12615.548088,5067.274578,-125.974432,0.254469,-0.229531,0.968875,192.000000,0.000000,0.000000,0.000000,0.000000,0.000000,0.000000,0.000000,0.000000,0.000000,1773825061.913099,0.000000
152.000000,1447.364860,5778.216514,1752.935559,6865.561827,-7436.470084,14982.821343,-3338.814180,-12384.073422,11152.916986,11477.956054,-2498.209774,14785.075460,13792.523896,12634.234146,5026.125017,-342.607539,0.254469,-0.229531,0.968875,192.000000,0.000000,0.000000,0.000000,0.000000,0.000000,0.000000,0.000000,0.000000,0.000000,1773825061.913157,0.000000
154.000000,1448.773020,5778.305921,1749.962777,6865.047737,-7445.366078,14977.144000,-3339.328270,-12384.945140,11130.900518,11449.010545,-2535.604243,14747.748047,13751.933128,12612.999989,5091.503869,-5.163253,0.257234,-0.228766,0.970437,192.000000,4.000000,16.000000,124.000000,112.000000,15.000000,48.000000,0.000000,0.000000,0.000000,1773825061.913175,0.000000
156.000000,1470.409509,5802.177584,1773.096832,6890.595781,-7428.065828,14992.834925,-3316.104807,-12363.710983,11148.379582,11479.118345,-2503.529489,14775.307748,13787.159477,12635.731713,5023.778084,-342.138152,0.257234,-0.228766,0.970437,192.000000,0.000000,0.000000,0.000000,0.000000,0.000000,0.000000,0.000000,0.000000,0.000000,1773825061.913188,0.000000
158.000000,1443.006270,5774.461421,1739.435105,6855.391783,-7460.475857,14954.255814,-3352.560503,-12396.657455,11139.483588,11466.288443,-2521.410885,14757.515759,13765.411230,12614.586963,5062.647767,-131.517664,0.257234,-0.228766,0.970437,192.000000,0.000000,0.000000,0.000000,0.000000,0.000000,0.000000,0.000000,0.000000,0.000000,1773825061.913202,0.000000
160.000000,1477.763233,5806.424416,1777.589533,6887.801813,-7408.373941,14995.964169,-3317.937650,-12363.174541,11148.223120,11466.288443,-2519.890966,14754.185349,13776.274178,12626.567498,5065.061756,-129.953042,0.257234,-0.228766,0.970437,192.000000,0.000000,0.000000,0.000000,0.000000,0.000000,0.000000,0.000000,0.000000,0.000000,1773825061.913214,0.000000
162.000000,1456.864352,5783.960913,1754.209608,6865.003033,-7430.591575,14971.824285,-3340.825837,-12383.358167,11160.673041,11481.398223,-2495.393454,14770.569178,13803.006864,12642.772513,5027.443770,-346.519094,0.257234,-0.228766,0.970437,192.000000,0.000000,0.000000,0.000000,0.000000,0.000000,0.000000,0.000000,0.000000,0.000000,1773825061.913227,0.000000
164.000000,1454.182143,5782.418642,1754.097850,6861.136181,-7429.161063,14974.953529,-3341.854017,-12384.967492,11143.573957,11449.569339,-2529.748086,14740.439026,13769.591006,12599.544239,5092.532050,-1.162291,0.257234,-0.228766,0.970437,192.000000,0.000000,0.000000,0.000000,0.000000,0.000000,0.000000,0.000000,0.000000,0.000000,1773825061.913240,0.000000
166.000000,1471.169468,5800.747073,1775.890800,6885.164307,-7405.311752,14992.276131,-3318.339982,-12363.733335,11155.912120,11472.837504,-2499.036789,14768.043431,13798.380053,12620.621934,5035.535101,-338.919501,0.256000,-0.232000,0.964000,192.000000,4.000000,0.000000,124.000000,96.000000,15.000000,16.000000,0.000000,0.000000,0.000000,1773825061.913252,0.000000
168.000000,1445.822590,5774.148497,1739.770381,6851.435524,-7450.708145,14944.063418,-3351.889950,-12394.332873,11144.691544,11459.784086,-2517.655792,14751.011402,13773.681375,12600.617123,5068.973311,-131.651775,0.256000,-0.232000,0.964000,192.000000,0.000000,0.000000,0.000000,0.000000,0.000000,0.000000,0.000000,0.000000,0.000000,1773825061.913265,0.000000
170.000000,1466.766175,5798.735416,1773.767385,6885.030196,-7418.923964,14985.950588,-3319.099941,-12368.091925,11140.824692,11451.737458,-2523.199025,14758.029849,13767.020555,12594.001006,5062.692471,-130.087153,0.256000,-0.232000,0.964000,192.000000,0.000000,0.000000,0.000000,0.000000,0.000000,0.000000,0.000000,0.000000,0.000000,1773825061.913277,0.000000
172.000000,1448.661262,5778.641198,1753.516704,6864.265426,-7441.141598,14964.045878,-3339.149456,-12389.460193,11144.177454,11474.111554,-2506.368161,14773.966643,13786.377166,12619.817271,5022.056999,-344.194513,0.256000,-0.232000,0.964000,192.000000,0.000000,0.000000,0.000000,0.000000,0.000000,0.000000,0.000000,0.000000,0.000000,1773825061.913289,0.000000
174.000000,1448.996538,5779.267046,1757.003576,6860.376222,-7444.203787,14962.302442,-3340.915244,-12388.879047,11130.140558,11443.243795,-2538.845246,14741.891890,13751.575500,12587.250780,5089.536916,-2.972782,0.256000,-0.232000,0.964000,192.000000,0.000000,0.000000,0.000000,0.000000,0.000000,0.000000,0.000000,0.000000,0.000000,1773825061.913302,0.000000
176.000000,1466.296788,5797.327256,1779.198859,6880.492792,-7420.645049,14985.101221,-3318.228223,-12369.544789,11153.162855,11472.993967,-2502.568364,14772.804352,13794.200277,12622.924164,5027.846101,-347.077888,0.250000,-0.228000,0.962000,192.000000,3.500000,104.000000,124.000000,112.000000,15.000000,8.000000,0.000000,0.000000,0.000000,1773825061.913314,0.000000
178.000000,1439.050012,5771.622750,1744.419544,6852.955443,-7458.240683,14941.560023,-3353.119296,-12399.585533,11143.752771,11458.375926,-2523.422542,14753.559500,13772.496733,12604.103995,5063.810058,-134.378688,0.250000,-0.228000,0.962000,192.000000,0.000000,0.000000,0.000000,0.000000,0.000000,0.000000,0.000000,0.000000,0.000000,1773825061.913332,0.000000
180.000000,1474.186954,5806.335009,1782.372806,6887.466536,-7418.521633,14993.058442,-3318.988182,-12366.572007,11151.173550,11462.913330,-2520.360353,14756.979317,13772.496733,12601.824117,5065.397032,-129.304842,0.250000,-0.228000,0.962000,192.000000,0.000000,0.000000,0.000000,0.000000,0.000000,0.000000,0.000000,0.000000,0.000000,1773825061.913349,0.000000
182.000000,1464.307483,5793.549811,1765.608998,6867.193504,-7430.233947,14969.276186,-3337.182502,-12380.765364,11167.713841,11487.567304,-2493.001818,14772.782001,13804.571486,12626.232222,5029.410723,-349.134248,0.250000,-0.228000,0.962000,192.000000,0.000000,0.000000,0.000000,0.000000,0.000000,0.000000,0.000000,0.000000,0.000000,1773825061.913363,0.000000
184.000000,1464.262779,5791.851078,1762.546809,6865.897103,-7427.216462,14966.191645,-3338.791828,-12381.927655,11157.230873,11460.052307,-2524.964812,14748.418599,13770.485076,12594.783317,5092.554401,-4.895032,0.250000,-0.228000,0.962000,192.000000,0.000000,0.000000,0.000000,0.000000,0.000000,0.000000,0.000000,0.000000,0.000000,1773825061.913381,0.000000
186.000000,1488.670884,5817.309715,1785.837327,6889.724063,-7410.944392,14995.874762,-3314.428427,-12357.653660,11174.598178,11491.858839,-2489.961981,14774.659547,13805.577315,12632.557766,5031.534139,-338.852446,0.254000,-0.232000,0.960000,192.000000,3.500000,120.000000,124.000000,96.000000,15.000000,0.000000,0.000000,0.000000,0.000000,1773825061.913399,0.000000
188.000000,1455.053861,5781.837497,1746.766477,6849.222702,-7450.663441,14939.503663,-3350.995880,-12394.131707,11161.209483,11478.425441,-2511.307897,14759.058030,13783.762012,12619.660809,5063.474782,-132.501141,0.254000,-0.232000,0.960000,192.000000,0.000000,0.000000,0.000000,0.000000,0.000000,0.000000,0.000000,0.000000,0.000000,1773825061.913416,0.000000
190.000000,1477.852640,5805.843271,1779.444728,6883.465574,-7417.247584,14984.698890,-3318.630555,-12364.850922,11152.246434,11467.048403,-2518.281641,14746.496349,13766.707631,12605.445100,5075.052986,-127.337888,0.254000,-0.232000,0.960000,192.000000,0.000000,0.000000,0.000000,0.000000,0.000000,0.000000,0.000000,0.000000,0.000000,1773825061.913433,0.000000
192.000000,1460.664148,5791.314637,1756.534190,6869.786307,-7440.828674,14971.198436,-3339.797657,-12382.017062,11156.694431,11486.963807,-2497.494518,14766.635271,13786.153649,12631.373123,5026.884976,-342.339318,0.254000,-0.232000,0.960000,192.000000,0.000000,0.000000,0.000000,0.000000,0.000000,0.000000,0.000000,0.000000,0.000000,1773825061.913451,0.000000
194.000000,1462.541695,5792.029892,1757.249446,6865.338309,-7442.795627,14966.795143,-3340.714078,-12382.620559,11142.679887,11457.660670,-2530.508045,14742.316573,13751.195520,12585.932027,5089.335750,-1.050532,0.254000,-0.232000,0.960000,192.000000,0.000000,0.000000,0.000000,0.000000,0.000000,0.000000,0.000000,0.000000,0.000000,1773825061.913467,0.000000
196.000000,1478.322027,5804.323352,1781.545792,6884.337292,-7422.790816,14984.743593,-3317.334153,-12363.755687,11158.214350,11484.773336,-2497.114539,14768.423410,13785.527800,12615.793957,5025.722686,-334.627966,0.246000,-0.232000,0.962000,192.000000,3.500000,88.000000,124.000000,96.000000,15.000000,8.000000,0.000000,0.000000,0.000000,1773825061.913484,0.000000
198.000000,1450.471753,5776.227209,1747.995823,6846.875769,-7454.195017,14945.851558,-3351.889950,-12398.356187,11150.570053,11468.300100,-2515.554728,14746.250480,13769.970986,12600.371254,5067.274578,-136.457400,0.246000,-0.232000,0.962000,192.000000,0.000000,0.000000,0.000000,0.000000,0.000000,0.000000,0.000000,0.000000,0.000000,1773825061.913512,0.000000
200.000000,1484.625218,5809.598364,1785.323237,6883.823202,-7412.464310,14982.933102,-3316.864767,-12364.381536,11157.141466,11473.418650,-2515.577080,14746.988088,13776.140067,12622.343018,5070.247360,-130.400077,0.246000,-0.232000,0.962000,192.000000,0.000000,0.000000,0.000000,0.000000,0.000000,0.000000,0.000000,0.000000,0.000000,1773825061.913529,0.000000
202.000000,1475.617465,5799.405968,1768.805297,6864.757164,-7427.685848,14964.202340,-3337.987165,-12380.184219,11171.625396,11490.294217,-2486.877440,14775.598320,13803.811527,12621.851280,5032.964651,-348.039013,0.246000,-0.232000,0.962000,192.000000,0.000000,0.000000,0.000000,0.000000,0.000000,0.000000,0.000000,0.000000,0.000000,1773825061.913544,0.000000
204.000000,1474.969265,5794.332122,1765.229018,6869.942769,-7431.083313,14970.304366,-3341.541093,-12384.140478,11161.723573,11469.484743,-2520.025077,14744.350582,13770.261558,12598.985445,5101.338637,-5.163253,0.246000,-0.232000,0.962000,192.000000,0.000000,0.000000,0.000000,0.000000,0.000000,0.000000,0.000000,0.000000,0.000000,1773825061.913562,0.000000
206.000000,1501.701951,5820.617774,1794.398045,6890.729891,-7391.274856,14990.733861,-3315.166034,-12356.446666,11181.124888,11495.032787,-2486.542164,14772.826704,13808.550097,12630.881385,5041.391258,-339.165370,0.254000,-0.228000,0.960000,192.000000,3.500000,120.000000,124.000000,112.000000,15.000000,0.000000,0.000000,0.000000,0.000000,1773825061.913582,0.000000
208.000000,1472.108242,5790.733491,1756.243617,6858.163399,-7438.437037,14958.122666,-3351.800543,-12390.778946,11177.749774,11486.226199,-2501.562536,14758.678050,13794.177925,12623.304143,5077.377567,-141.754763,0.254000,-0.228000,0.960000,192.000000,0.000000,0.000000,0.000000,0.000000,0.000000,0.000000,0.000000,0.000000,0.000000,1773825061.913598,0.000000
210.000000,1497.075140,5817.823806,1790.777062,6888.204144,-7406.406987,14994.667768,-3316.641249,-12357.877178,11174.151143,11487.790822,-2506.882251,14751.413733,13785.550152,12623.170033,5078.025768,-121.995821,0.254000,-0.228000,0.960000,192.000000,0.000000,0.000000,0.000000,0.000000,0.000000,0.000000,0.000000,0.000000,0.000000,1773825062.393305,0.000000
212.000000,1477.115032,5799.785948,1766.748937,6871.328577,-7432.290308,14969.410297,-3335.997860,-12375.400946,11176.252207,11494.876325,-2486.430405,14779.465172,13808.952428,12633.965925,5032.964651,-349.000138,0.254000,-0.228000,0.960000,192.000000,0.000000,0.000000,0.000000,0.000000,0.000000,0.000000,0.000000,0.000000,0.000000,1773825062.393372,0.000000
214.000000,1471.325931,5794.309770,1761.809201,6871.574446,-7440.739267,14964.157637,-3338.702421,-12380.363033,11155.398030,11471.988138,-2522.953155,14746.183425,13762.013765,12603.835774,5094.610762,-4.850329,0.254000,-0.228000,0.960000,192.000000,0.000000,0.000000,0.000000,0.000000,0.000000,0.000000,0.000000,0.000000,0.000000,1773825062.393419,0.000000
216.000000,1485.988675,5808.123148,1788.184260,6890.327560,-7414.945354,14981.659053,-3313.914336,-12359.464152,11166.395088,11488.953112,-2493.135928,14773.385498,13794.312035,12626.142815,5035.803322,-334.918539,0.254000,-0.224000,0.956000,192.000000,3.500000,120.000000,124.500000,0.000000,14.500000,112.000000,0.000000,0.000000,0.000000,1773825062.393472,0.000000
218.000000,1455.858523,5776.942465,1750.454515,6860.018594,-7449.389392,14953.518206,-3349.207741,-12391.583609,11156.582672,11470.736441,-2512.336077,14759.013326,13777.525875,12610.988332,5067.833372,-134.021060,0.254000,-0.224000,0.956000,192.000000,0.000000,0.000000,0.000000,0.000000,0.000000,0.000000,0.000000,0.000000,0.000000,1773825062.393542,0.000000
220.000000,1487.843870,5806.267954,1787.290190,6892.987417,-7417.605211,14987.515210,-3313.824929,-12357.072515,11158.639033,11473.843333,-2513.051333,14759.929748,13772.541436,12612.932934,5068.012186,-116.586699,0.254000,-0.224000,0.956000,192.000000,0.000000,0.000000,0.000000,0.000000,0.000000,0.000000,0.000000,0.000000,0.000000,1773825062.393595,0.000000
222.000000,1474.209306,5790.375863,1769.609960,6869.831010,-7435.441904,14966.057535,-3335.886101,-12375.713870,11174.307606,11493.132888,-2484.418748,14783.980225,13804.705597,12635.374085,5026.952031,-344.820362,0.254000,-0.224000,0.956000,192.000000,0.000000,0.000000,0.000000,0.000000,0.000000,0.000000,0.000000,0.000000,0.000000,1773825062.393634,0.000000
224.000000,1474.656340,5789.571201,1768.090042,6864.131315,-7432.066790,14966.392811,-3340.267043,-12377.546713,11156.828541,11463.963862,-2519.935670,14748.306840,13768.786343,12606.227411,5099.125814,2.346933,0.254000,-0.224000,0.956000,192.000000,0.000000,0.000000,0.000000,0.000000,0.000000,0.000000,0.000000,0.000000,0.000000,1773825062.393652,0.000000
226.000000,1489.877878,5807.542003,1791.939353,6895.848441,-7404.685903,14988.722204,-3315.523662,-12356.714887,11177.012167,11498.474955,-2485.178707,14778.213475,13806.158460,12638.928013,5039.491360,-330.805818,0.250000,-0.232000,0.952000,192.000000,3.500000,104.000000,124.000000,96.000000,14.500000,96.000000,0.000000,0.000000,0.000000,1773825062.393670,0.000000
228.000000,1453.377480,5770.169886,1752.086193,6857.671661,-7440.381639,14945.471578,-3354.929788,-12397.015082,11154.794533,11464.500304,-2513.408961,14757.672221,13774.128410,12601.265323,5081.534991,-132.411734,0.250000,-0.232000,0.952000,192.000000,0.000000,0.000000,0.000000,0.000000,0.000000,0.000000,0.000000,0.000000,0.000000,1773825062.393684,0.000000
230.000000,1489.564954,5807.877279,1791.313504,6890.685188,-7409.849156,14990.130364,-3317.714133,-12358.480675,11160.494227,11474.089202,-2512.626649,14755.548806,13775.447163,12612.105919,5083.010207,-120.095923,0.250000,-0.232000,0.952000,192.000000,0.000000,0.000000,0.000000,0.000000,0.000000,0.000000,0.000000,0.000000,0.000000,1773825062.393701,0.000000
232.000000,1471.616503,5787.604247,1771.979245,6873.273179,-7433.229081,14972.070154,-3335.550825,-12376.160905,11172.206542,11502.766490,-2485.089300,14775.643024,13801.554001,12646.929937,5037.502055,-350.654167,0.250000,-0.232000,0.952000,192.000000,0.000000,0.000000,0.000000,0.000000,0.000000,0.000000,0.000000,0.000000,0.000000,1773825062.393718,0.000000
234.000000,1471.571800,5786.397253,1770.459327,6870.523914,-7430.099837,14967.353936,-3338.680069,-12378.172562,11153.274614,11464.053269,-2520.628574,14749.759704,13761.387916,12604.931009,5102.545631,-3.352762,0.250000,-0.232000,0.952000,192.000000,0.000000,0.000000,0.000000,0.000000,0.000000,0.000000,0.000000,0.000000,0.000000,1773825062.393736,0.000000
236.000000,1491.196631,5807.184375,1793.973362,6896.988380,-7407.591630,14994.779527,-3314.428427,-12356.312556,11178.621492,11500.397205,-2484.306989,14781.499181,13807.208992,12639.352696,5042.419439,-336.885492,0.248000,-0.230000,0.949000,192.000000,3.500000,88.000000,124.000000,112.000000,14.500000,72.000000,0.000000,0.000000,0.000000,1773825062.393753,0.000000
238.000000,1457.981939,5773.321482,1756.757707,6861.873789,-7445.723706,14959.530826,-3351.420564,-12392.500030,11161.343594,11476.704356,-2509.296240,14762.209626,13777.883503,12619.347885,5076.461145,-128.924862,0.248000,-0.230000,0.949000,192.000000,0.000000,0.000000,0.000000,0.000000,0.000000,0.000000,0.000000,0.000000,0.000000,1773825062.393770,0.000000
240.000000,1489.900230,5806.223250,1791.738187,6896.809566,-7412.352552,15000.076890,-3317.289450,-12357.832474,11166.305681,11482.158182,-2508.737446,14765.383573,13778.084669,12624.064103,5083.613704,-112.496330,0.248000,-0.230000,0.949000,192.000000,0.000000,0.000000,0.000000,0.000000,0.000000,0.000000,0.000000,0.000000,0.000000,1773825062.393787,0.000000
242.000000,1467.190858,5783.826802,1766.681882,6877.542362,-7429.675153,14980.541465,-3338.456552,-12381.011233,11176.095745,11501.201868,-2485.983370,14787.064765,13805.957294,12658.217568,5035.021011,-338.964205,0.248000,-0.230000,0.949000,192.000000,0.000000,0.000000,0.000000,0.000000,0.000000,0.000000,0.000000,0.000000,0.000000,1773825062.393840,0.000000
244.000000,1461.915846,5776.964817,1761.026890,6876.000092,-7428.825787,14973.768887,-3344.290357,-12386.330949,11152.760524,11469.954129,-2526.417676,14751.793713,13763.377221,12613.268210,5104.087902,11.667611,0.248000,-0.230000,0.949000,192.000000,0.000000,0.000000,0.000000,0.000000,0.000000,0.000000,0.000000,0.000000,0.000000,1773825062.393858,0.000000
246.000000,1482.322989,5798.981285,1788.296019,6895.982551,-7403.143633,15000.188649,-3318.630555,-12362.839265,11168.071469,11498.698473,-2494.857013,14779.420469,13797.217762,12635.038809,5042.710011,-320.524015,0.247000,-0.230000,0.950500,192.000000,3.500000,88.000000,124.000000,104.000000,14.500000,96.000000,0.000000,0.000000,0.000000,1773825062.393872,0.000000
248.000000,1454.271549,5766.660662,1750.454515,6854.810638,-7441.745095,14962.928291,-3355.041546,-12398.624408,11158.527274,11481.755851,-2512.045504,14761.516721,13776.721212,12619.593754,5081.311474,-127.024964,0.247000,-0.230000,0.950500,192.000000,0.000000,0.000000,0.000000,0.000000,0.000000,0.000000,0.000000,0.000000,0.000000,1773825062.393890,0.000000
250.000000,1485.161660,5800.031817,1786.999617,6899.245906,-7404.194165,14993.885457,-3316.864767,-12360.648794,11160.941262,11478.537199,-2513.565423,14762.097867,13777.481172,12619.347885,5082.831393,-107.400132,0.247000,-0.230000,0.950500,192.000000,0.000000,0.000000,0.000000,0.000000,0.000000,0.000000,0.000000,0.000000,0.000000,1773825062.393912,0.000000
252.000000,1467.414375,5779.401157,1766.726585,6877.564714,-7424.243680,14973.210093,-3337.629537,-12382.329986,11172.430059,11501.201868,-2487.592696,14789.277588,13801.285780,12640.962021,5038.239662,-340.864103,0.247000,-0.230000,0.950500,192.000000,0.000000,0.000000,0.000000,0.000000,0.000000,0.000000,0.000000,0.000000,0.000000,1773825062.393929,0.000000
254.000000,1459.010119,5773.254427,1762.502106,6876.424775,-7433.519654,14969.566759,-3340.602319,-12387.672053,11147.641974,11462.667461,-2527.311746,14752.866596,13764.248939,12607.121480,5106.121910,5.520881,0.247000,-0.230000,0.950500,192.000000,0.000000,0.000000,0.000000,0.000000,0.000000,0.000000,0.000000,0.000000,0.000000,1773825062.393946,0.000000
0.000000,1481.406567,5797.126090,1789.905344,6900.229383,-7405.065883,14999.115765,-3315.993049,-12362.727506,11166.998585,11501.045406,-2492.241859,14781.320367,13799.497640,12638.525681,5043.715840,-324.949661,0.247500,-0.230000,0.952250,192.000000,3.500000,96.000000,124.000000,104.000000,14.500000,104.000000,0.000000,0.000000,0.000000,1773825062.393964,0.000000
2.000000,1450.091773,5765.386613,1752.890855,6863.952501,-7440.649860,14968.784448,-3353.856904,-12397.059786,11161.142428,11483.409880,-2508.469225,14767.171713,13784.007881,12626.321629,5076.729366,-129.282490,0.247500,-0.230000,0.952250,192.000000,0.000000,0.000000,0.000000,0.000000,0.000000,0.000000,0.000000,0.000000,0.000000,1773825062.393980,0.000000
4.000000,1470.230695,5787.537192,1785.747920,6891.176926,-7397.086310,15004.658998,-3321.849206,-12369.611844,11155.398030,11483.856915,-2514.951231,14759.974451,13778.710518,12628.221527,5081.445584,-104.382647,0.247500,-0.230000,0.952250,192.000000,0.000000,0.000000,0.000000,0.000000,0.000000,0.000000,0.000000,0.000000,0.000000,1773825062.393997,0.000000
6.000000,1449.912959,5764.581950,1769.878181,6871.350929,-7418.074598,14985.682367,-3338.970642,-12387.806164,11166.618605,11497.558534,-2491.146623,14774.212512,13807.074881,12647.779304,5046.979195,-339.701812,0.247500,-0.230000,0.952250,192.000000,0.000000,0.000000,0.000000,0.000000,0.000000,0.000000,0.000000,0.000000,0.000000,1773825062.394015,0.000000
8.000000,1435.518436,5753.897816,1762.904437,6874.994263,-7423.371962,14980.027375,-3342.502218,-12394.288170,11142.970460,11462.600406,-2529.725734,14744.551747,13768.763991,12613.290562,5102.120948,7.264317,0.247500,-0.230000,0.952250,192.000000,0.000000,0.000000,0.000000,0.000000,0.000000,0.000000,0.000000,0.000000,0.000000,1773825062.394032,0.000000
10.000000,1448.460096,5768.851133,1787.938391,6893.769728,-7401.154328,15002.446175,-3318.854072,-12375.222132,11157.588501,11488.953112,-2499.014437,14771.999690,13798.983550,12646.192330,5043.715840,-326.380173,0.248750,-0.229000,0.958125,192.000000,3.500000,104.000000,124.000000,112.000000,15.000000,16.000000,0.000000,0.000000,0.000000,1773825062.394049,0.000000
12.000000,1415.468921,5735.010592,1747.302919,6856.062335,-7442.370944,14964.492913,-3355.868561,-12412.840118,11136.019067,11470.065888,-2523.802522,14751.570195,13775.782439,12622.722998,5076.461145,-127.851978,0.248750,-0.229000,0.958125,192.000000,0.000000,0.000000,0.000000,0.000000,0.000000,0.000000,0.000000,0.000000,0.000000,1773825062.394066,0.000000
14.000000,1444.727355,5764.984282,1783.870373,6893.747377,-7403.613019,15003.116727,-3321.603337,-12378.329024,11141.428189,11473.329243,-2527.624670,14745.624631,13776.855323,12626.075760,5080.171535,-105.254365,0.248750,-0.229000,0.958125,192.000000,0.000000,0.000000,0.000000,0.000000,0.000000,0.000000,0.000000,0.000000,0.000000,1773825062.394083,0.000000
16.000000,1422.353258,5743.906587,1764.066728,6871.485039,-7421.874395,14983.134268,-3341.742258,-12399.026739,11147.418457,11490.674197,-2505.697609,14773.743126,13801.956332,12647.555786,5038.999622,-337.198417,0.248750,-0.229000,0.958125,192.000000,0.000000,0.000000,0.000000,0.000000,0.000000,0.000000,0.000000,0.000000,0.000000,1773825062.394100,0.000000
18.000000,1421.615651,5742.341965,1762.323292,6864.108964,-7422.276726,14986.621140,-3345.966738,-12400.926638,11133.470968,11462.287481,-2540.745144,14740.841358,13765.858265,12619.526699,5101.450396,13.656916,0.248750,-0.229000,0.958125,192.000000,0.000000,0.000000,0.000000,0.000000,0.000000,0.000000,0.000000,0.000000,0.000000,1773825062.394117,0.000000
20.000000,1439.631157,5762.100907,1786.351417,6896.563696,-7395.611095,15010.582210,-3320.619860,-12376.965568,11151.844102,11489.534258,-2505.272926,14768.244597,13804.683245,12651.109713,5045.839256,-317.260661,0.248375,-0.228500,0.955063,192.000000,3.500000,96.000000,124.000000,112.000000,14.500000,96.000000,0.000000,0.000000,0.000000,1773825062.394134,0.000000
22.000000,1410.618593,5733.803598,1749.828666,6861.918493,-7436.380677,14977.792201,-3356.337947,-12410.582591,11136.376695,11476.123211,-2525.165978,14752.643079,13780.051622,12625.673428,5080.149183,-124.722734,0.248375,-0.228500,0.955063,192.000000,0.000000,0.000000,0.000000,0.000000,0.000000,0.000000,0.000000,0.000000,0.000000,1773825062.394151,0.000000
24.000000,1439.094715,5762.324424,1780.048225,6893.277990,-7403.657723,15010.023416,-3321.782150,-12378.977225,11141.897576,11477.106688,-2524.785998,14751.950175,13777.771744,12625.807539,5079.970369,-101.052237,0.248375,-0.228500,0.955063,192.000000,0.000000,0.000000,0.000000,0.000000,0.000000,0.000000,0.000000,0.000000,0.000000,1773825062.394168,0.000000
26.000000,1422.442665,5747.728735,1761.205704,6879.285798,-7426.612964,14985.101221,-3340.311747,-12395.450460,11145.987945,11503.638208,-2503.373027,14771.351489,13798.871791,12653.590757,5038.284366,-335.209112,0.248375,-0.228500,0.955063,192.000000,0.000000,0.000000,0.000000,0.000000,0.000000,0.000000,0.000000,0.000000,0.000000,1773825062.394188,0.000000
28.000000,1422.822645,5746.946424,1759.216399,6870.747432,-7423.550775,14978.395698,-3345.363241,-12398.780870,11131.302849,11473.195132,-2535.313670,14752.643079,13761.410268,12620.688989,5102.120948,6.951393,0.248375,-0.228500,0.955063,192.000000,0.000000,0.000000,0.000000,0.000000,0.000000,0.000000,0.000000,0.000000,0.000000,1773825062.394203,0.000000
30.000000,1439.966433,5763.509067,1785.122071,6897.502470,-7395.052301,15008.190573,-3320.910432,-12376.943216,11149.474817,11504.219354,-2503.395379,14772.536131,13800.190544,12655.088324,5051.136619,-320.389905,0.248188,-0.231250,0.953531,192.000000,3.500000,96.000000,124.000000,88.000000,14.500000,96.000000,0.000000,0.000000,0.000000,1773825062.394217,0.000000
32.000000,1413.278450,5735.971717,1749.761611,6868.646368,-7442.750924,14972.450134,-3351.442915,-12406.648684,11144.356268,11485.108612,-2518.683972,14762.924881,13787.092422,12649.813312,5079.478631,-130.198911,0.248188,-0.231250,0.953531,192.000000,0.000000,0.000000,0.000000,0.000000,0.000000,0.000000,0.000000,0.000000,0.000000,1773825062.394232,0.000000
34.000000,1439.944081,5763.196142,1786.597286,6899.849403,-7401.333141,15008.436442,-3316.931822,-12373.948082,11143.797474,11475.922045,-2522.975507,14762.321384,13784.007881,12623.170033,5085.267733,-104.852033,0.248188,-0.231250,0.953531,192.000000,0.000000,0.000000,0.000000,0.000000,0.000000,0.000000,0.000000,0.000000,0.000000,1773825062.394247,0.000000
36.000000,1432.702116,5755.149514,1770.839306,6883.085595,-7427.462331,14988.364576,-3330.834607,-12382.866428,11153.229911,11503.235877,-2491.884231,14788.160001,13805.465556,12649.746257,5037.077372,-344.127458,0.248188,-0.231250,0.953531,192.000000,0.000000,0.000000,0.000000,0.000000,0.000000,0.000000,0.000000,0.000000,0.000000,1773825062.394263,0.000000
38.000000,1420.587471,5741.291433,1765.184315,6870.635673,-7428.378752,14980.072079,-3339.194159,-12395.763385,11137.807207,11474.513885,-2526.954118,14752.151341,13770.842704,12617.895021,5103.774977,8.203090,0.248188,-0.231250,0.953531,192.000000,0.000000,0.000000,0.000000,0.000000,0.000000,0.000000,0.000000,0.000000,0.000000,1773825062.394279,0.000000
40.000000,1441.911035,5762.927921,1790.039455,6894.842612,-7399.679112,15014.806690,-3314.093150,-12373.657510,11145.183283,11497.111499,-2500.981391,14774.011347,13801.375187,12647.131103,5049.840218,-312.387981,0.248188,-0.231250,0.953531,192.000000,0.000000,0.000000,0.000000,0.000000,0.000000,0.000000,0.000000,0.000000,0.000000,1773825062.394295,0.000000
42.000000,1414.194872,5733.356563,1751.058012,6870.434507,-7435.330145,14984.318910,-3350.615901,-12407.006312,11139.081256,11480.191228,-2518.572213,14761.047335,13786.153649,12625.226393,5083.077262,-123.716906,0.250000,-0.232000,0.950000,192.000000,3.500000,104.000000,124.000000,96.000000,14.500000,88.000000,0.000000,0.000000,0.000000,1773825062.394312,0.000000
44.000000,1438.379459,5763.218494,1783.870373,6901.794005,-7404.037703,15027.815405,-3317.669430,-12375.199780,11134.700314,11474.759755,-2524.428371,14766.299995,13776.654157,12628.221527,5085.714768,-88.267039,0.250000,-0.232000,0.950000,192.000000,0.000000,0.000000,0.000000,0.000000,0.000000,0.000000,0.000000,0.000000,0.000000,1773825062.394329,0.000000
46.000000,1431.673936,5753.651947,1765.161963,6879.062281,-7433.899633,14998.087585,-3334.701459,-12388.744937,11149.832445,11500.777185,-2496.064007,14785.120164,13807.164288,12652.182597,5038.060848,-327.855388,0.250000,-0.232000,0.950000,192.000000,0.000000,0.000000,0.000000,0.000000,0.000000,0.000000,0.000000,0.000000,0.000000,1773825062.394342,0.000000
48.000000,1421.459189,5742.409020,1760.065765,6873.429641,-7437.162988,14985.414146,-3341.384630,-12398.624408,11130.118207,11470.468220,-2531.536225,14749.379724,13762.974890,12613.134100,5099.014056,12.986364,0.250000,-0.232000,0.950000,192.000000,0.000000,0.000000,0.000000,0.000000,0.000000,0.000000,0.000000,0.000000,0.000000,1773825062.394358,0.000000
50.000000,1440.525227,5761.430354,1783.199821,6889.522897,-7406.809319,15006.983579,-3318.183520,-12378.217265,11139.282422,11488.327263,-2506.256402,14768.825742,13788.724099,12635.575251,5049.259072,-317.707696,0.250000,-0.232000,0.950000,192.000000,0.000000,0.000000,0.000000,0.000000,0.000000,0.000000,0.000000,0.000000,0.000000,1773825062.394374,0.000000
52.000000,1410.126854,5730.070857,1744.084268,6864.533647,-7448.696488,14964.694079,-3352.381689,-12410.873164,11125.469044,11467.450734,-2525.411847,14755.012364,13769.278082,12619.437292,5082.317303,-131.830589,0.244000,-0.236000,0.958000,192.000000,3.500000,80.000000,124.000000,80.000000,14.500000,120.000000,0.000000,0.000000,0.000000,1773825062.394391,0.000000
54.000000,1449.242407,5770.125183,1779.780004,6894.999074,-7406.898726,15003.675521,-3317.334153,-12373.009309,11130.274669,11474.312720,-2528.071705,14757.493407,13773.100230,12611.860050,5085.290085,-105.343772,0.244000,-0.236000,0.958000,192.000000,0.000000,0.000000,0.000000,0.000000,0.000000,0.000000,0.000000,0.000000,0.000000,1773825062.394408,0.000000
56.000000,1434.713773,5757.183523,1762.725623,6874.882504,-7428.266994,14981.279073,-3335.081438,-12389.661359,11147.261995,11503.213525,-2499.595582,14781.588588,13797.910666,12641.856091,5040.497189,-345.937949,0.244000,-0.236000,0.958000,192.000000,0.000000,0.000000,0.000000,0.000000,0.000000,0.000000,0.000000,0.000000,0.000000,1773825062.394423,0.000000
58.000000,1435.920767,5757.451744,1758.836419,6877.654121,-7437.788837,14982.866047,-3336.444895,-12388.096736,11132.465140,11478.358385,-2532.922033,14748.753875,13765.634747,12613.782300,5101.025713,1.318753,0.244000,-0.236000,0.958000,192.000000,0.000000,0.000000,0.000000,0.000000,0.000000,0.000000,0.000000,0.000000,0.000000,1773825062.394445,0.000000
60.000000,1463.681634,5781.926904,1785.434995,6905.884374,-7418.007543,15018.785300,-3309.689857,-12360.760553,11154.615719,11505.515755,-2495.281696,14795.133745,13796.591913,12649.634498,5035.021011,-322.043934,0.244000,-0.236000,0.958000,192.000000,0.000000,0.000000,0.000000,0.000000,0.000000,0.000000,0.000000,0.000000,0.000000,1773825062.394462,0.000000
62.000000,1430.958680,5748.443991,1747.839361,6861.069126,-7450.976366,14979.334471,-3348.961872,-12399.205553,11143.372791,11493.736386,-2514.660658,14772.357317,13780.006919,12635.239975,5071.610817,-128.142551,0.248000,-0.230000,0.956000,192.000000,3.500000,96.000000,124.000000,104.000000,14.500000,112.000000,0.000000,0.000000,0.000000,1773825062.394477,0.000000
64.000000,1453.533942,5771.108660,1778.237734,6905.683208,-7412.374903,15012.437405,-3315.613069,-12370.572969,11144.803303,11492.574095,-2520.092132,14765.540035,13781.169210,12627.014533,5079.791555,-98.615897,0.248000,-0.230000,0.956000,192.000000,0.000000,0.000000,0.000000,0.000000,0.000000,0.000000,0.000000,0.000000,0.000000,1773825062.394494,0.000000
66.000000,1438.111238,5755.685956,1759.529324,6880.001054,-7433.430247,14988.297521,-3335.841398,-12389.929579,11146.323221,11507.214487,-2504.132987,14786.058937,13798.760033,12653.546054,5034.037534,-332.884530,0.248000,-0.230000,0.956000,192.000000,0.000000,0.000000,0.000000,0.000000,0.000000,0.000000,0.000000,0.000000,0.000000,1773825062.394511,0.000000
68.000000,1432.746820,5750.410944,1755.170733,6874.837801,-7436.447732,14985.212980,-3341.898720,-12396.210420,11130.766407,11481.420574,-2540.946310,14748.999745,13759.085686,12607.948495,5101.986838,10.527672,0.248000,-0.230000,0.956000,192.000000,0.000000,0.000000,0.000000,0.000000,0.000000,0.000000,0.000000,0.000000,0.000000,1773825062.394526,0.000000
70.000000,1446.783715,5766.146572,1781.188164,6897.524821,-7407.323409,15017.801823,-3317.512967,-12376.496181,11145.071524,11511.237801,-2509.944440,14778.191123,13795.295512,12652.182597,5048.521465,-316.567757,0.248000,-0.230000,0.956000,192.000000,0.000000,0.000000,0.000000,0.000000,0.000000,0.000000,0.000000,0.000000,0.000000,1773825062.394542,0.000000
72.000000,1414.127816,5730.897871,1742.162018,6857.895179,-7449.590558,14973.813590,-3356.628520,-12415.768196,11128.397122,11483.231066,-2532.117371,14754.833550,13776.721212,12617.760911,5084.105442,-133.641080,0.244000,-0.228000,0.948000,192.000000,3.500000,80.000000,124.000000,112.000000,14.500000,80.000000,0.000000,0.000000,0.000000,1773825062.394560,0.000000
74.000000,1445.509666,5760.916264,1778.215382,6887.399481,-7411.257316,15012.280942,-3324.330249,-12387.113260,11130.252317,11481.577037,-2536.140685,14750.609070,13769.501599,12618.789091,5091.481518,-100.381684,0.244000,-0.228000,0.948000,192.000000,0.000000,0.000000,0.000000,0.000000,0.000000,0.000000,0.000000,0.000000,0.000000,1773825062.874305,0.000000
76.000000,1432.880930,5746.007651,1760.669262,6875.083670,-7426.411799,14984.005986,-3340.579968,-12401.574838,11142.434018,11494.362234,-2508.379818,14772.536131,13801.308131,12643.957155,5049.840218,-344.775658,0.244000,-0.228000,0.948000,192.000000,0.000000,0.000000,0.000000,0.000000,0.000000,0.000000,0.000000,0.000000,0.000000,1773825062.874378,0.000000
78.000000,1432.769171,5748.086363,1757.428260,6874.368414,-7430.613927,14983.670710,-3343.306880,-12401.016045,11127.592460,11473.038670,-2538.577025,14747.211605,13760.024459,12610.608352,5106.814814,4.313887,0.244000,-0.228000,0.948000,192.000000,0.000000,0.000000,0.000000,0.000000,0.000000,0.000000,0.000000,0.000000,0.000000,1773825062.874431,0.000000
80.000000,1449.331814,5767.711194,1782.372806,6902.598667,-7409.469176,15016.103091,-3317.155339,-12378.060803,11145.585614,11506.633342,-2505.854071,14778.772268,13796.591913,12646.795827,5044.721668,-317.372420,0.244000,-0.228000,0.948000,192.000000,0.000000,0.000000,0.000000,0.000000,0.000000,0.000000,0.000000,0.000000,0.000000,1773825062.874481,0.000000
82.000000,1420.386305,5739.100962,1746.386498,6872.602626,-7454.373831,14980.563817,-3352.269930,-12407.721568,11130.453483,11488.193153,-2524.607184,14757.404000,13775.447163,12632.624821,5075.991759,-134.088115,0.248000,-0.226000,0.954000,192.000000,3.500000,96.000000,124.000000,120.000000,14.500000,104.000000,0.000000,0.000000,0.000000,1773825062.874530,0.000000
84.000000,1454.405660,5770.952197,1782.305751,6907.896031,-7418.834557,15021.311047,-3317.289450,-12369.231864,11138.097780,11496.329188,-2522.148493,14763.103695,13776.251826,12635.239975,5077.802250,-98.146510,0.248000,-0.226000,0.954000,192.000000,0.000000,0.000000,0.000000,0.000000,0.000000,0.000000,0.000000,0.000000,0.000000,1773825062.874548,0.000000
86.000000,1440.972262,5757.876427,1766.391309,6887.757109,-7430.301002,15010.202230,-3336.757819,-12385.034547,11147.686678,11512.310685,-2496.153414,14788.115297,13805.934942,12661.324461,5034.372811,-331.722239,0.248000,-0.226000,0.954000,192.000000,0.000000,0.000000,0.000000,0.000000,0.000000,0.000000,0.000000,0.000000,0.000000,1773825062.874592,0.000000
88.000000,1439.921730,5756.825895,1760.892780,6881.208048,-7429.183415,15005.642474,-3343.932729,-12388.476716,11131.861643,11483.029900,-2528.898719,14757.158131,13766.506465,12625.740483,5107.552422,16.093256,0.248000,-0.226000,0.954000,192.000000,0.000000,0.000000,0.000000,0.000000,0.000000,0.000000,0.000000,0.000000,0.000000,1773825062.874638,0.000000
90.000000,1467.302617,5783.983264,1788.027798,6907.270182,-7408.418644,15027.480129,-3314.741351,-12359.039469,11153.788704,11514.277639,-2493.180632,14788.651739,13805.912591,12659.245748,5042.888825,-313.058533,0.248000,-0.226000,0.954000,192.000000,0.000000,0.000000,0.000000,0.000000,0.000000,0.000000,0.000000,0.000000,0.000000,1773825062.874664,0.000000
92.000000,1429.394058,5745.538264,1749.515742,6863.661929,-7442.505055,14979.110954,-3354.795677,-12401.373673,11146.367925,11498.810232,-2511.062027,14770.055088,13787.807678,12639.486806,5078.718672,-136.770324,0.248000,-0.230000,0.952000,192.000000,3.500000,96.000000,124.000000,104.000000,14.500000,96.000000,0.000000,0.000000,0.000000,1773825062.874682,0.000000
94.000000,1459.747727,5778.887067,1784.205649,6897.614228,-7410.385598,15018.450024,-3321.268060,-12369.857713,11139.863567,11491.523563,-2521.902623,14758.029849,13778.911683,12630.143777,5089.559268,-100.560498,0.248000,-0.230000,0.952000,192.000000,0.000000,0.000000,0.000000,0.000000,0.000000,0.000000,0.000000,0.000000,0.000000,1773825062.874699,0.000000
96.000000,1446.403735,5765.900703,1764.647873,6879.889295,-7434.480779,14996.299445,-3337.920110,-12386.375652,11152.425248,11515.484633,-2495.080530,14785.723661,13806.583143,12666.845342,5045.548683,-347.927254,0.248000,-0.230000,0.952000,192.000000,0.000000,0.000000,0.000000,0.000000,0.000000,0.000000,0.000000,0.000000,0.000000,1773825062.874716,0.000000
98.000000,1447.744840,5768.985244,1759.037585,6871.686205,-7441.275709,14997.506439,-3341.384630,-12385.816859,11133.470968,11489.780127,-2532.050315,14752.240747,13764.181884,12623.348847,5106.188966,1.005829,0.248000,-0.230000,0.952000,192.000000,0.000000,0.000000,0.000000,0.000000,0.000000,0.000000,0.000000,0.000000,0.000000,1773825062.874734,0.000000
100.000000,1468.263742,5791.046416,1784.943257,6909.192432,-7413.403083,15015.432538,-3312.439121,-12358.458323,11156.225044,11528.470996,-2493.471204,14788.361167,13799.877620,12661.927958,5039.424305,-323.988536,0.248000,-0.230000,0.952000,192.000000,0.000000,0.000000,0.000000,0.000000,0.000000,0.000000,0.000000,0.000000,0.000000,1773825062.874750,0.000000
102.000000,1440.569930,5759.575159,1750.655681,6872.624978,-7451.132828,14975.489971,-3349.028927,-12389.348434,11145.898538,11501.604200,-2511.978449,14778.705213,13788.321768,12635.999934,5071.521410,-142.648833,0.250000,-0.226000,0.964000,192.000000,3.500000,104.000000,124.000000,120.000000,15.000000,16.000000,0.000000,0.000000,0.000000,1773825062.874765,0.000000
104.000000,1468.621369,5783.737395,1786.619638,6904.297400,-7403.501261,15012.347998,-3317.535319,-12360.782905,11149.921852,11502.654732,-2513.207795,14773.877236,13786.623035,12645.968812,5084.775994,-102.192176,0.250000,-0.226000,0.964000,192.000000,0.000000,0.000000,0.000000,0.000000,0.000000,0.000000,0.000000,0.000000,0.000000,1773825062.874781,0.000000
106.000000,1451.052898,5768.471154,1767.665359,6885.209010,-7421.784988,14998.467564,-3335.550825,-12379.848943,11161.187132,11522.525432,-2488.442062,14788.674091,13820.105948,12658.374030,5044.811075,-346.183818,0.250000,-0.226000,0.964000,192.000000,0.000000,0.000000,0.000000,0.000000,0.000000,0.000000,0.000000,0.000000,0.000000,1773825062.874797,0.000000
108.000000,1443.095677,5760.089250,1758.992882,6881.990359,-7430.412761,15000.546277,-3341.719907,-12388.856696,11135.415570,11483.096955,-2530.217472,14759.706230,13773.055526,12624.421731,5105.205489,10.393561,0.250000,-0.226000,0.964000,192.000000,0.000000,0.000000,0.000000,0.000000,0.000000,0.000000,0.000000,0.000000,0.000000,1773825062.874815,0.000000
110.000000,1473.181125,5789.459442,1790.307676,6905.079711,-7398.159194,15031.861071,-3311.947383,-12357.586605,11161.522408,11516.021075,-2492.085396,14788.763498,13816.864946,12661.212702,5044.833427,-314.153768,0.250000,-0.226000,0.964000,192.000000,0.000000,0.000000,0.000000,0.000000,0.000000,0.000000,0.000000,0.000000,0.000000,1773825062.874831,0.000000
112.000000,1440.324061,5758.770497,1752.309710,6876.313016,-7448.472971,14998.713434,-3349.721831,-12392.947065,11153.855759,11509.583772,-2506.658734,14779.174600,13800.794041,12649.790961,5072.951922,-137.060897,0.250000,-0.224000,0.962000,192.000000,3.500000,104.000000,124.500000,8.000000,15.000000,0.000000,0.000000,0.000000,0.000000,1773825062.874848,0.000000
114.000000,1462.228771,5777.367148,1784.585629,6899.111795,-7403.367150,15023.859146,-3320.150473,-12370.796486,11151.173550,11505.225182,-2514.817120,14769.831570,13792.635655,12642.057257,5084.798346,-95.620763,0.250000,-0.224000,0.962000,192.000000,0.000000,0.000000,0.000000,0.000000,0.000000,0.000000,0.000000,0.000000,0.000000,1773825062.874866,0.000000
116.000000,1442.514532,5760.625691,1763.843210,6878.168211,-7423.506072,15001.127422,-3338.411848,-12392.835306,11154.682774,11516.825738,-2496.555745,14783.019100,13817.423739,12664.006670,5043.022936,-348.664862,0.250000,-0.224000,0.962000,192.000000,0.000000,0.000000,0.000000,0.000000,0.000000,0.000000,0.000000,0.000000,0.000000,1773825062.874883,0.000000
118.000000,1443.520360,5758.368165,1759.551675,6877.050624,-7436.514787,14997.439384,-3342.345755,-12391.963588,11133.314506,11489.064871,-2534.866635,14749.156207,13775.178942,12626.142815,5108.804120,1.743436,0.250000,-0.224000,0.962000,192.000000,0.000000,0.000000,0.000000,0.000000,0.000000,0.000000,0.000000,0.000000,0.000000,1773825062.874899,0.000000
120.000000,1465.022739,5778.551791,1789.793586,6903.179813,-7396.415758,15020.618143,-3312.305011,-12363.733335,11160.673041,11521.988991,-2493.247687,14788.718794,13817.602553,12665.325423,5046.934491,-320.233443,0.250000,-0.224000,0.962000,192.000000,0.000000,0.000000,0.000000,0.000000,0.000000,0.000000,0.000000,0.000000,0.000000,1773825062.874915,0.000000
122.000000,1429.796389,5744.443029,1747.995823,6866.053565,-7435.441904,14979.759154,-3351.644081,-12402.357149,11144.132751,11503.258229,-2514.839472,14764.869483,13790.601646,12642.548995,5084.239553,-148.281473,0.249000,-0.225000,0.959000,192.000000,3.500000,96.000000,124.000000,120.000000,14.500000,112.000000,0.000000,0.000000,0.000000,1773825062.874949,0.000000
124.000000,1466.565009,5781.390462,1782.641027,6901.928115,-7405.624676,15017.667713,-3317.825892,-12363.442762,11143.551605,11501.939476,-2517.342868,14769.093963,13787.807678,12640.984373,5091.146242,-104.092074,0.249000,-0.225000,0.959000,192.000000,0.000000,0.000000,0.000000,0.000000,0.000000,0.000000,0.000000,0.000000,0.000000,1773825062.874965,0.000000
126.000000,1456.126744,5771.734508,1765.430184,6886.907743,-7426.970592,14998.065233,-3334.276776,-12377.747879,11158.549626,11528.381589,-2487.480937,14795.200800,13818.653085,12671.025118,5038.753753,-347.971958,0.249000,-0.225000,0.959000,192.000000,0.000000,0.000000,0.000000,0.000000,0.000000,0.000000,0.000000,0.000000,0.000000,1773825062.874982,0.000000
128.000000,1452.930445,5764.805468,1760.244579,6883.219705,-7435.598366,14998.087585,-3340.356450,-12381.950007,11144.602137,11497.804403,-2519.980373,14766.344698,13781.124506,12631.104902,5103.350294,2.458692,0.249000,-0.225000,0.959000,192.000000,0.000000,0.000000,0.000000,0.000000,0.000000,0.000000,0.000000,0.000000,0.000000,1773825062.874998,0.000000
130.000000,1470.722433,5779.579971,1788.273667,6900.475252,-7404.685903,15023.657980,-3315.881290,-12362.526341,11161.835332,11523.531261,-2489.313780,14791.468059,13817.177870,12662.419696,5043.648785,-316.724219,0.249000,-0.225000,0.959000,192.000000,0.000000,0.000000,0.000000,0.000000,0.000000,0.000000,0.000000,0.000000,0.000000,1773825062.875014,0.000000
132.000000,1440.927558,5749.695688,1752.175600,6867.685243,-7438.146465,14983.558951,-3352.538151,-12397.685635,11152.358192,11506.610990,-2508.178652,14769.898626,13801.375187,12641.274946,5080.283294,-142.000633,0.250500,-0.227500,0.958500,192.000000,3.500000,112.000000,124.000000,104.000000,14.500000,120.000000,0.000000,0.000000,0.000000,1773825062.875031,0.000000
134.000000,1465.268608,5773.142668,1782.842193,6898.955333,-7407.077540,15028.195385,-3321.111598,-12371.131762,11153.453428,11499.771357,-2513.632478,14766.523512,13799.989378,12639.822082,5079.076300,-90.658676,0.250500,-0.227500,0.958500,192.000000,0.000000,0.000000,0.000000,0.000000,0.000000,0.000000,0.000000,0.000000,0.000000,1773825062.875047,0.000000
136.000000,1447.901302,5757.496447,1763.418527,6876.491830,-7425.160101,15002.826155,-3339.238863,-12390.957760,11155.062754,11521.206679,-2496.712207,14783.153210,13813.869812,12663.179655,5046.241587,-339.455943,0.250500,-0.227500,0.958500,192.000000,0.000000,0.000000,0.000000,0.000000,0.000000,0.000000,0.000000,0.000000,0.000000,1773825062.875064,0.000000
138.000000,1446.336680,5756.088287,1757.383556,6871.932074,-7433.542005,15005.709530,-3344.580930,-12393.438803,11141.674059,11500.576019,-2531.290356,14752.330154,13781.459782,12640.716152,5109.608782,6.616116,0.250500,-0.227500,0.958500,192.000000,0.000000,0.000000,0.000000,0.000000,0.000000,0.000000,0.000000,0.000000,0.000000,1773825062.875080,0.000000
140.000000,1468.844887,5776.607189,1784.093891,6905.571449,-7406.228174,15031.481091,-3316.708304,-12365.722640,11157.119114,11516.646924,-2496.935725,14786.170696,13814.339198,12657.569368,5049.370831,-314.623155,0.250500,-0.227500,0.958500,192.000000,0.000000,0.000000,0.000000,0.000000,0.000000,0.000000,0.000000,0.000000,0.000000,1773825062.875096,0.000000
142.000000,1444.459134,5750.455648,1748.107582,6869.093403,-7440.068715,14995.360672,-3352.582854,-12396.478641,11151.531178,11509.226144,-2511.106731,14770.882102,13799.654102,12648.606318,5079.791555,-144.995766,0.249250,-0.229750,0.956250,192.000000,3.500000,96.000000,124.000000,96.000000,14.500000,104.000000,0.000000,0.000000,0.000000,1773825062.875113,0.000000
144.000000,1479.439614,5783.960913,1784.987960,6899.469423,-7392.995941,15035.280888,-3320.128121,-12362.414582,11157.767315,11517.228069,-2510.413827,14768.803390,13800.101137,12656.340022,5087.368797,-100.873423,0.249250,-0.229750,0.956250,192.000000,0.000000,0.000000,0.000000,0.000000,0.000000,0.000000,0.000000,0.000000,0.000000,1773825062.875129,0.000000
146.000000,1460.440631,5767.219456,1766.726585,6884.538458,-7414.721836,15014.113786,-3336.534302,-12379.804239,11167.199751,11537.925784,-2485.312818,14793.703233,13830.968896,12678.200028,5045.749849,-347.927254,0.249250,-0.229750,0.956250,192.000000,0.000000,0.000000,0.000000,0.000000,0.000000,0.000000,0.000000,0.000000,0.000000,1773825062.875145,0.000000
148.000000,1454.495067,5762.302072,1759.730489,6875.776574,-7424.243680,15011.163355,-3343.552750,-12387.716757,11146.502035,11507.974447,-2524.048391,14759.974451,13789.931093,12649.031001,5111.598088,4.805625,0.249250,-0.229750,0.956250,192.000000,0.000000,0.000000,0.000000,0.000000,0.000000,0.000000,0.000000,0.000000,0.000000,1773825062.875161,0.000000
150.000000,1476.735053,5783.066843,1787.759577,6908.164252,-7398.650932,15040.555899,-3315.546014,-12361.989899,11164.294024,11535.847072,-2493.627667,14789.456402,13821.134129,12659.715135,5055.249340,-312.231518,0.249250,-0.229750,0.956250,192.000000,0.000000,0.000000,0.000000,0.000000,0.000000,0.000000,0.000000,0.000000,0.000000,1773825062.875178,0.000000
152.000000,1448.393041,5753.070802,1749.828666,6873.876676,-7438.504093,15005.530716,-3353.342814,-12396.433937,11159.711916,11524.827662,-2507.128120,14777.677033,13810.360588,12649.634498,5081.691454,-142.849999,0.247625,-0.228875,0.955125,192.000000,3.500000,88.000000,124.000000,112.000000,14.500000,104.000000,0.000000,0.000000,0.000000,1773825062.875195,0.000000
154.000000,1474.879858,5775.668416,1783.490394,6907.471348,-7400.975514,15039.572422,-3321.089246,-12366.147323,11153.989870,11516.311647,-2516.269984,14768.982204,13800.235248,12645.164149,5092.464994,-87.238859,0.247625,-0.228875,0.955125,192.000000,0.000000,0.000000,0.000000,0.000000,0.000000,0.000000,0.000000,0.000000,0.000000,1773825062.875216,0.000000
156.000000,1458.294863,5760.983319,1765.988978,6889.209973,-7416.219403,15026.474300,-3338.814180,-12384.185181,11166.618605,11537.791674,-2487.816213,14795.513725,13829.001943,12668.342908,5043.157046,-341.981690,0.247625,-0.228875,0.955125,192.000000,0.000000,0.000000,0.000000,0.000000,0.000000,0.000000,0.000000,0.000000,0.000000,1773825062.875233,0.000000
158.000000,1452.371651,5754.233093,1760.266931,6882.392690,-7424.266031,15018.472376,-3346.100848,-12391.985940,11149.228948,11513.003589,-2525.680068,14759.616823,13791.585123,12641.230242,5111.441626,12.047590,0.247625,-0.228875,0.955125,192.000000,0.000000,0.000000,0.000000,0.000000,0.000000,0.000000,0.000000,0.000000,0.000000,1773825062.875250,0.000000
160.000000,1475.282189,5776.741299,1790.039455,6903.895069,-7393.599438,15048.334306,-3320.217528,-12366.661414,11169.479629,11538.842206,-2491.928934,14787.869428,13833.159367,12668.901702,5050.935453,-308.409370,0.247625,-0.228875,0.955125,192.000000,0.000000,0.000000,0.000000,0.000000,0.000000,0.000000,0.000000,0.000000,0.000000,1773825062.875266,0.000000
162.000000,1447.856599,5746.655851,1753.002614,6870.188638,-7429.429284,14995.315968,-3354.907436,-12400.479603,11156.627376,11520.714941,-2506.502271,14770.703288,13809.108890,12650.126237,5085.714768,-143.967586,0.244812,-0.230438,0.952562,192.000000,3.500000,72.000000,124.000000,96.000000,14.500000,88.000000,0.000000,0.000000,0.000000,1773825062.875283,0.000000
164.000000,1477.942047,5775.377843,1787.513708,6900.318790,-7391.520726,15028.821233,-3319.770493,-12368.047222,11157.230873,11513.808252,-2511.486710,14764.467152,13806.158460,12640.805559,5096.600067,-99.554670,0.244812,-0.230438,0.952562,192.000000,0.000000,0.000000,0.000000,0.000000,0.000000,0.000000,0.000000,0.000000,0.000000,1773825062.875300,0.000000
166.000000,1461.088832,5758.949311,1767.061861,6884.337292,-7421.896746,15012.146832,-3336.109619,-12383.112297,11169.367870,11537.255232,-2483.412919,14788.048242,13832.287649,12665.258368,5045.124000,-350.922388,0.244812,-0.230438,0.952562,192.000000,0.000000,0.000000,0.000000,0.000000,0.000000,0.000000,0.000000,0.000000,0.000000,1773825062.875317,0.000000
168.000000,1459.278340,5757.004709,1763.329120,6876.022443,-7419.661572,15000.054538,-3340.758782,-12387.470888,11147.038477,11507.370950,-2523.400190,14755.012364,13791.808640,12629.942611,5112.358047,-0.044703,0.244812,-0.230438,0.952562,192.000000,0.000000,0.000000,0.000000,0.000000,0.000000,0.000000,0.000000,0.000000,0.000000,1773825062.875333,0.000000
170.000000,1481.294809,5778.596494,1789.525365,6906.063188,-7393.107700,15034.722094,-3313.489653,-12361.766381,11171.960672,11540.451531,-2486.184536,14787.712966,13835.282783,12670.242807,5050.376660,-318.691172,0.244812,-0.230438,0.952562,192.000000,0.000000,0.000000,0.000000,0.000000,0.000000,0.000000,0.000000,0.000000,0.000000,1773825062.875350,0.000000
172.000000,1447.588378,5745.873540,1751.058012,6864.131315,-7429.898671,14997.931123,-3352.851075,-12401.038396,11155.666251,11516.222240,-2509.318591,14773.564312,13809.265352,12654.998917,5082.876096,-145.465153,0.246406,-0.231219,0.951281,192.000000,3.500000,96.000000,124.000000,96.000000,14.500000,88.000000,0.000000,0.000000,0.000000,1773825062.875367,0.000000
174.000000,1477.807936,5776.182506,1780.942295,6904.096234,-7400.908458,15041.092341,-3320.530453,-12366.996690,11154.861588,11524.671200,-2515.599431,14762.187274,13807.208992,12647.734600,5093.135547,-91.910373,0.246406,-0.231219,0.951281,192.000000,0.000000,0.000000,0.000000,0.000000,0.000000,0.000000,0.000000,0.000000,0.000000,1773825062.875384,0.000000
176.000000,1462.429936,5762.033851,1763.709100,6889.254676,-7410.072674,15018.002989,-3337.361316,-12382.039414,11167.289158,11539.445703,-2487.615047,14801.548696,13831.751207,12672.142705,5042.732363,-342.361670,0.246406,-0.231219,0.951281,192.000000,0.000000,0.000000,0.000000,0.000000,0.000000,0.000000,0.000000,0.000000,0.000000,1773825062.875401,0.000000
178.000000,1455.612654,5755.104811,1755.729527,6877.765879,-7414.364209,15012.482108,-3345.095020,-12390.711891,11143.864530,11509.472014,-2529.815141,14762.768419,13791.451012,12652.026135,5113.118006,8.136035,0.246406,-0.231219,0.951281,192.000000,0.000000,0.000000,0.000000,0.000000,0.000000,0.000000,0.000000,0.000000,0.000000,1773825062.875419,0.000000
180.000000,1476.735053,5776.562485,1782.708083,6906.800795,-7390.112566,15044.243937,-3317.848243,-12367.577835,11161.544759,11534.461264,-2498.030960,14794.083213,13828.376094,12667.292376,5053.461200,-305.570698,0.246406,-0.231219,0.951281,192.000000,0.000000,0.000000,0.000000,0.000000,0.000000,0.000000,0.000000,0.000000,0.000000,1773825062.875436,0.000000
182.000000,1450.695270,5747.952252,1749.895722,6867.662891,-7428.401104,15007.184745,-3354.572160,-12399.160850,11154.258091,11524.492386,-2511.553766,14781.141553,13811.925210,12648.092228,5081.602047,-139.273720,0.246406,-0.231219,0.951281,192.000000,0.000000,0.000000,0.000000,0.000000,0.000000,0.000000,0.000000,0.000000,0.000000,1773825062.875454,0.000000
184.000000,1473.382291,5772.114488,1781.724606,6903.246868,-7391.721891,15036.510233,-3322.787979,-12372.361108,11155.420381,11523.978296,-2517.342868,14775.575969,13806.493736,12643.443065,5089.827489,-87.998818,0.250000,-0.232000,0.960000,192.000000,3.500000,104.000000,124.000000,96.000000,15.000000,0.000000,0.000000,0.000000,0.000000,1773825062.875472,0.000000
186.000000,1457.803125,5757.004709,1765.005501,6883.376167,-7408.530403,15020.305219,-3338.702421,-12390.711891,11164.517541,11536.562328,-2494.700550,14796.251332,13833.025257,12660.475094,5044.118171,-347.055536,0.250000,-0.232000,0.960000,192.000000,0.000000,0.000000,0.000000,0.000000,0.000000,0.000000,0.000000,0.000000,0.000000,1773825062.875492,0.000000
188.000000,1450.739974,5748.734563,1758.881123,6879.196391,-7417.426397,15005.128384,-3343.530398,-12398.400891,11145.272689,11505.180479,-2533.704344,14759.639175,13792.948579,12630.948440,5107.015980,8.672477,0.250000,-0.232000,0.960000,192.000000,0.000000,0.000000,0.000000,0.000000,0.000000,0.000000,0.000000,0.000000,0.000000,1773825062.875508,0.000000
190.000000,1472.667035,5769.722851,1786.239658,6904.498566,-7389.397310,15031.257574,-3315.456607,-12373.188123,11160.494227,11529.856805,-2503.663600,14791.043376,13825.246850,12656.787057,5053.550607,-312.455036,0.250000,-0.232000,0.960000,192.000000,0.000000,0.000000,0.000000,0.000000,0.000000,0.000000,0.000000,0.000000,0.000000,1773825062.875525,0.000000
192.000000,1439.608805,5735.971717,1743.100791,6872.826144,-7433.497302,14999.674559,-3354.013366,-12411.208440,11150.950033,11516.311647,-2519.063952,14779.465172,13808.170117,12650.349754,5079.769204,-147.521513,0.250000,-0.232000,0.960000,192.000000,0.000000,0.000000,0.000000,0.000000,0.000000,0.000000,0.000000,0.000000,0.000000,1773825062.875543,0.000000
194.000000,1472.644683,5771.578046,1777.723644,6905.705560,-7391.878354,15035.839681,-3319.055238,-12374.685690,11149.586576,11514.255287,-2526.752952,14772.267911,13800.145841,12641.409056,5085.871230,-83.573173,0.252000,-0.232000,0.958000,192.000000,3.500000,112.000000,124.000000,96.000000,14.500000,120.000000,0.000000,0.000000,0.000000,1773825063.354686,0.000000
196.000000,1452.617520,5754.546017,1761.585684,6885.097252,-7412.196089,15010.962190,-3335.997860,-12393.103527,11164.808114,11541.457360,-2496.689856,14796.787774,13834.299306,12672.075650,5039.469008,-344.283920,0.252000,-0.232000,0.958000,192.000000,0.000000,0.000000,0.000000,0.000000,0.000000,0.000000,0.000000,0.000000,0.000000,1773825063.354758,0.000000
198.000000,1445.487314,5746.924072,1755.215437,6878.615246,-7420.846214,15010.090472,-3342.613976,-12399.160850,11140.757637,11508.287371,-2535.961871,14762.857826,13791.383957,12637.050466,5106.859518,6.973744,0.252000,-0.232000,0.958000,192.000000,0.000000,0.000000,0.000000,0.000000,0.000000,0.000000,0.000000,0.000000,0.000000,1773825063.354812,0.000000
200.000000,1469.470736,5769.365224,1782.976303,6903.068054,-7390.246676,15039.103036,-3316.618898,-12374.149248,11159.264882,11529.677991,-2504.021228,14789.076422,13826.610306,12661.346812,5047.761506,-309.191681,0.252000,-0.232000,0.958000,192.000000,0.000000,0.000000,0.000000,0.000000,0.000000,0.000000,0.000000,0.000000,0.000000,1773825063.354867,0.000000
202.000000,1443.050974,5740.464418,1747.034698,6865.204199,-7427.730552,14996.724128,-3352.918131,-12407.207478,11152.939338,11519.306781,-2517.588737,14773.385498,13812.819280,12647.913414,5078.986893,-153.824705,0.252000,-0.232000,0.958000,192.000000,0.000000,0.000000,0.000000,0.000000,0.000000,0.000000,0.000000,0.000000,0.000000,1773825063.354921,0.000000
204.000000,1470.118936,5768.784078,1781.232867,6890.014635,-7394.493508,15038.365428,-3323.369124,-12379.044280,11152.447599,11514.076473,-2522.550824,14763.595434,13805.823184,12664.029022,5088.508736,-92.647981,0.252000,-0.230000,0.966000,192.000000,3.500000,112.000000,124.000000,104.000000,15.000000,24.000000,0.000000,0.000000,0.000000,1773825063.354976,0.000000
206.000000,1452.058727,5749.695688,1766.458364,6877.967045,-7408.798624,15012.683274,-3339.261215,-12395.003425,11160.896559,11537.635212,-2494.678199,14786.729489,13835.171024,12670.779249,5041.860645,-350.520057,0.252000,-0.230000,0.966000,192.000000,0.000000,0.000000,0.000000,0.000000,0.000000,0.000000,0.000000,0.000000,0.000000,1773825063.355016,0.000000
208.000000,1447.588378,5745.873540,1759.864600,6873.049661,-7415.191223,15003.384948,-3346.503180,-12398.736167,11141.092913,11505.381644,-2529.859844,14750.698477,13798.134184,12630.769626,5110.256983,2.928079,0.252000,-0.230000,0.966000,192.000000,0.000000,0.000000,0.000000,0.000000,0.000000,0.000000,0.000000,0.000000,0.000000,1773825063.355034,0.000000
210.000000,1472.555276,5768.784078,1790.084158,6901.279915,-7382.065938,15047.037905,-3317.736485,-12371.087059,11159.309585,11533.008401,-2496.712207,14790.015196,13833.606402,12661.413868,5052.008337,-309.504605,0.252000,-0.230000,0.966000,192.000000,0.000000,0.000000,0.000000,0.000000,0.000000,0.000000,0.000000,0.000000,0.000000,1773825063.355051,0.000000
212.000000,1438.982956,5737.201063,1751.527399,6863.281949,-7421.159139,15010.045768,-3355.287415,-12406.246353,11148.625451,11522.704246,-2514.392437,14770.055088,13816.663780,12650.774437,5089.447509,-149.488467,0.252000,-0.230000,0.966000,192.000000,0.000000,0.000000,0.000000,0.000000,0.000000,0.000000,0.000000,0.000000,0.000000,1773825063.355068,0.000000
214.000000,1470.074233,5765.878351,1784.160946,6897.658932,-7388.950275,15039.617126,-3322.318592,-12373.322233,11147.485512,11511.841299,-2521.075609,14768.177541,13809.108890,12640.067952,5094.521355,-90.569269,0.248000,-0.226000,0.966000,192.000000,3.500000,96.000000,124.000000,120.000000,15.000000,24.000000,0.000000,0.000000,0.000000,1773825063.355086,0.000000
216.000000,1460.462983,5756.870598,1771.353396,6879.777536,-7407.815147,15026.519004,-3337.182502,-12385.369824,11165.143390,11539.892738,-2489.961981,14793.166792,13840.177815,12668.856999,5047.090953,-352.732879,0.248000,-0.226000,0.966000,192.000000,0.000000,0.000000,0.000000,0.000000,0.000000,0.000000,0.000000,0.000000,0.000000,1773825063.355103,0.000000
218.000000,1458.227808,5754.478962,1764.290245,6877.810583,-7416.487624,15021.936896,-3342.479866,-12390.063690,11151.128847,11513.808252,-2523.154321,14760.555596,13802.939809,12642.839568,5110.055817,2.168119,0.248000,-0.226000,0.966000,192.000000,0.000000,0.000000,0.000000,0.000000,0.000000,0.000000,0.000000,0.000000,0.000000,1773825063.355128,0.000000
220.000000,1483.865259,5779.624674,1793.436920,6904.118586,-7381.753013,15049.295431,-3313.757874,-12360.425277,11175.894579,11548.028773,-2485.983370,14799.112356,13840.311925,12671.606263,5046.196883,-310.823358,0.248000,-0.226000,0.966000,192.000000,0.000000,0.000000,0.000000,0.000000,0.000000,0.000000,0.000000,0.000000,0.000000,1773825063.355146,0.000000
222.000000,1446.470791,5740.620880,1752.555579,6860.957368,-7423.148444,15007.475317,-3353.298110,-12402.155984,11158.259053,11520.089092,-2506.077588,14777.431163,13819.413044,12649.410981,5082.563172,-154.450554,0.248000,-0.226000,0.966000,192.000000,0.000000,0.000000,0.000000,0.000000,0.000000,0.000000,0.000000,0.000000,0.000000,1773825063.355164,0.000000
224.000000,1469.716605,5765.476020,1780.227039,6896.116662,-7394.135880,15041.762893,-3324.285546,-12377.971396,11154.481608,11516.468110,-2519.019248,14774.368974,13808.036006,12645.722943,5087.681721,-90.904545,0.248000,-0.224000,0.962000,192.000000,3.500000,96.000000,124.500000,0.000000,15.000000,8.000000,0.000000,0.000000,0.000000,1773825063.355181,0.000000
226.000000,1454.360956,5750.902683,1763.239713,6874.748394,-7411.056150,15021.691027,-3340.065877,-12396.210420,11156.493265,11530.080322,-2500.087321,14786.394213,13828.644315,12662.419696,5040.653651,-350.117725,0.248000,-0.224000,0.962000,192.000000,0.000000,0.000000,0.000000,0.000000,0.000000,0.000000,0.000000,0.000000,0.000000,1773825063.355198,0.000000
228.000000,1455.053861,5748.108715,1756.668300,6873.228475,-7418.812206,15011.655094,-3347.374898,-12401.776004,11140.332954,11501.984179,-2534.911339,14763.550730,13791.048681,12639.866786,5104.311419,-2.749265,0.248000,-0.224000,0.962000,192.000000,0.000000,0.000000,0.000000,0.000000,0.000000,0.000000,0.000000,0.000000,0.000000,1773825063.355216,0.000000
230.000000,1475.550410,5767.822953,1785.189126,6894.887316,-7386.290417,15043.126350,-3322.787979,-12380.340681,11159.533102,11526.504043,-2503.753007,14781.677995,13825.716236,12653.635461,5050.801343,-314.131417,0.248000,-0.224000,0.962000,192.000000,0.000000,0.000000,0.000000,0.000000,0.000000,0.000000,0.000000,0.000000,0.000000,1773825063.355233,0.000000
232.000000,1446.604901,5739.279776,1748.375803,6857.336385,-7429.831616,15004.010797,-3358.014328,-12411.789586,11153.811056,11516.065778,-2514.750065,14769.988033,13809.041835,12643.420713,5077.914009,-154.942293,0.248000,-0.224000,0.962000,192.000000,0.000000,0.000000,0.000000,0.000000,0.000000,0.000000,0.000000,0.000000,0.000000,1773825063.355250,0.000000
234.000000,1472.443518,5768.292340,1779.265914,6892.786252,-7396.125185,15030.765835,-3325.537244,-12380.005405,11147.820788,11509.293200,-2525.747123,14762.924881,13800.928152,12628.825024,5093.292009,-93.631458,0.244000,-0.228000,0.964000,192.000000,3.500000,80.000000,124.000000,112.000000,15.000000,16.000000,0.000000,0.000000,0.000000,1773825063.355268,0.000000
236.000000,1459.837134,5756.401212,1763.865562,6872.736737,-7407.725740,15016.863050,-3340.065877,-12396.344530,11166.596254,11536.562328,-2495.885193,14792.652701,13834.656934,12660.788019,5041.435962,-358.589036,0.244000,-0.228000,0.964000,192.000000,0.000000,0.000000,0.000000,0.000000,0.000000,0.000000,0.000000,0.000000,0.000000,1773825063.355285,0.000000
238.000000,1455.478544,5750.567406,1756.109507,6869.451030,-7411.950220,15008.615256,-3347.665471,-12402.379501,11143.864530,11509.136737,-2535.358374,14758.543939,13793.887352,12624.801710,5109.452320,-6.347895,0.244000,-0.228000,0.964000,192.000000,0.000000,0.000000,0.000000,0.000000,0.000000,0.000000,0.000000,0.000000,0.000000,1773825063.355302,0.000000
240.000000,1485.251067,5776.674244,1785.882030,6897.234249,-7388.123261,15045.495635,-3318.496444,-12372.115239,11163.556416,11537.188177,-2499.819100,14790.529286,13830.812434,12661.235054,5050.622529,-315.249004,0.244000,-0.228000,0.964000,192.000000,0.000000,0.000000,0.000000,0.000000,0.000000,0.000000,0.000000,0.000000,0.000000,1773825063.355319,0.000000
242.000000,1454.919750,5747.505217,1746.878236,6864.824219,-7429.406933,15004.413128,-3355.466229,-12404.212344,11155.107457,11525.453511,-2511.844338,14782.125030,13815.300323,12654.417772,5076.461145,-154.405851,0.244000,-0.228000,0.964000,192.000000,0.000000,0.000000,0.000000,0.000000,0.000000,0.000000,0.000000,0.000000,0.000000,1773825063.355337,0.000000
244.000000,1484.848736,5776.137802,1781.881068,6891.020464,-7390.760766,15041.584079,-3323.994973,-12373.590454,11155.040402,11522.078398,-2517.588737,14772.334966,13810.494698,12644.538301,5090.676855,-87.127100,0.250000,-0.236000,0.962000,192.000000,3.500000,104.000000,124.000000,80.000000,15.000000,8.000000,0.000000,0.000000,0.000000,1773825063.355354,0.000000
246.000000,1469.157811,5759.843380,1764.983149,6878.861115,-7406.496394,15023.434463,-3339.395325,-12388.811992,11169.949015,11544.407790,-2488.777338,14799.984074,13843.999963,12677.842400,5039.491360,-351.011795,0.250000,-0.236000,0.962000,192.000000,0.000000,0.000000,0.000000,0.000000,0.000000,0.000000,0.000000,0.000000,0.000000,1773825063.355371,0.000000
248.000000,1462.251122,5753.428430,1756.265969,6873.809621,-7415.928831,15017.399492,-3348.827761,-12396.769213,11146.457332,11514.545860,-2527.959946,14767.149361,13804.504431,12648.673373,5104.646695,1.721084,0.250000,-0.236000,0.962000,192.000000,0.000000,0.000000,0.000000,0.000000,0.000000,0.000000,0.000000,0.000000,0.000000,1773825063.355387,0.000000
250.000000,1490.861355,5779.892895,1789.011274,6897.703635,-7393.152403,15038.879518,-3321.491578,-12368.851884,11162.438829,11538.395171,-2496.399283,14794.798469,13831.080655,12663.246711,5046.867436,-306.509472,0.250000,-0.236000,0.962000,192.000000,0.000000,0.000000,0.000000,0.000000,0.000000,0.000000,0.000000,0.000000,0.000000,1773825063.355405,0.000000
252.000000,1451.052898,5737.961023,1750.186294,6855.660004,-7427.171758,14994.399547,-3361.881180,-12408.794452,11154.459256,11523.643020,-2511.509062,14774.860713,13817.557850,12645.097094,5083.725462,-156.529266,0.250000,-0.236000,0.962000,192.000000,0.000000,0.000000,0.000000,0.000000,0.000000,0.000000,0.000000,0.000000,0.000000,1773825063.355422,0.000000
254.000000,1480.423091,5769.991072,1782.931600,6888.338254,-7394.359397,15049.563652,-3328.599433,-12377.569065,11149.184245,11510.522546,-2522.528472,14766.679974,13807.946599,12633.474187,5099.729311,-88.065873,0.255000,-0.233000,0.963000,192.000000,4.000000,16.000000,124.000000,104.000000,15.000000,16.000000,0.000000,0.000000,0.000000,1773825063.355439,0.000000
0.000000,1467.883762,5755.820066,1766.436013,6872.133240,-7410.385598,15031.235222,-3342.569273,-12392.254161,11164.137562,11542.753761,-2493.761777,14793.792640,13839.484911,12675.853095,5052.611834,-352.844638,0.255000,-0.233000,0.963000,192.000000,0.000000,0.000000,0.000000,0.000000,0.000000,0.000000,0.000000,0.000000,0.000000,1773825063.355456,0.000000
2.000000,1459.032471,5747.415811,1754.947216,6864.533647,-7417.024066,15011.006893,-3354.192180,-12405.464042,11142.009335,11507.706226,-2533.257310,14757.582814,13797.977721,12623.706475,5114.548518,-0.804663,0.255000,-0.233000,0.963000,192.000000,0.000000,0.000000,0.000000,0.000000,0.000000,0.000000,0.000000,0.000000,0.000000,1773825063.355484,0.000000
4.000000,1485.608695,5774.439070,1785.591458,6894.484984,-7388.145612,15039.170091,-3322.475055,-12374.551579,11158.147294,11540.809159,-2501.115501,14784.606073,13836.176853,12658.329327,5057.417459,-315.874853,0.255000,-0.233000,0.963000,192.000000,0.000000,0.000000,0.000000,0.000000,0.000000,0.000000,0.000000,0.000000,0.000000,1773825063.355501,0.000000
6.000000,1448.683613,5739.883273,1747.839361,6856.285853,-7431.351534,14995.807707,-3360.651834,-12411.633123,11146.457332,11520.826700,-2517.342868,14776.715908,13816.261448,12644.068914,5085.468898,-165.693482,0.255000,-0.233000,0.963000,192.000000,0.000000,0.000000,0.000000,0.000000,0.000000,0.000000,0.000000,0.000000,0.000000,1773825063.355518,0.000000
8.000000,1482.434748,5773.165020,1782.529269,6890.282856,-7399.902630,15035.124425,-3324.039677,-12374.797448,11147.239643,11518.278601,-2523.511949,14768.155190,13808.661855,12628.221527,5092.308532,-97.945344,0.254500,-0.231500,0.964500,192.000000,3.500000,120.000000,124.000000,104.000000,15.000000,24.000000,0.000000,0.000000,0.000000,1773825063.355536,0.000000
10.000000,1472.667035,5763.151439,1768.648835,6878.771708,-7415.146520,15021.713379,-3337.070744,-12384.431050,11161.924739,11546.821779,-2491.861879,14799.380577,13840.826016,12661.302109,5040.385430,-363.864048,0.254500,-0.231500,0.964500,192.000000,0.000000,0.000000,0.000000,0.000000,0.000000,0.000000,0.000000,0.000000,0.000000,1773825063.355552,0.000000
12.000000,1465.693291,5756.200046,1758.590550,6877.609417,-7422.142616,15013.599695,-3345.899683,-12392.812955,11141.763466,11522.346618,-2527.490560,14771.083268,13795.630788,12638.212757,5103.037370,-4.313887,0.254500,-0.231500,0.964500,192.000000,0.000000,0.000000,0.000000,0.000000,0.000000,0.000000,0.000000,0.000000,0.000000,1773825063.355568,0.000000
14.000000,1492.917716,5782.820974,1791.581725,6907.225479,-7392.861830,15052.871710,-3315.098979,-12363.800390,11160.024841,11548.162883,-2494.633495,14798.665321,13831.818263,12670.645138,5045.861607,-310.219861,0.254500,-0.231500,0.964500,192.000000,0.000000,0.000000,0.000000,0.000000,0.000000,0.000000,0.000000,0.000000,0.000000,1773825063.355585,0.000000
16.000000,1465.134497,5752.377898,1757.428260,6867.931112,-7426.121226,15009.889306,-3352.113468,-12399.607885,11157.454390,11536.271755,-2503.328324,14785.768364,13825.827995,12661.816199,5078.182230,-158.473868,0.254500,-0.231500,0.964500,192.000000,0.000000,0.000000,0.000000,0.000000,0.000000,0.000000,0.000000,0.000000,0.000000,1773825063.355602,0.000000
18.000000,1484.312294,5770.616921,1787.111376,6895.356702,-7387.005673,15038.745408,-3325.134912,-12376.563236,11159.175475,11525.721732,-2511.956097,14774.592492,13821.402350,12645.342963,5098.142338,-91.776263,0.254250,-0.228750,0.961250,192.000000,3.500000,120.000000,124.000000,120.000000,14.500000,120.000000,0.000000,0.000000,0.000000,1773825063.355619,0.000000
20.000000,1466.229733,5752.780229,1770.034643,6874.927208,-7408.664514,15018.606486,-3343.217473,-12396.679806,11167.132696,11540.898566,-2491.258382,14789.590512,13848.112684,12664.096077,5051.337785,-354.744536,0.254250,-0.228750,0.961250,192.000000,0.000000,0.000000,0.000000,0.000000,0.000000,0.000000,0.000000,0.000000,0.000000,1773825063.355636,0.000000
22.000000,1455.590302,5740.665584,1762.859733,6863.281949,-7415.615906,15003.407300,-3352.404040,-12406.648684,11145.607966,11503.794671,-2529.993955,14752.643079,13807.924248,12623.415902,5119.197681,-0.514090,0.254250,-0.228750,0.961250,192.000000,0.000000,0.000000,0.000000,0.000000,0.000000,0.000000,0.000000,0.000000,0.000000,1773825063.355653,0.000000
24.000000,1485.698102,5771.555695,1793.213402,6891.288685,-7387.720929,15037.426655,-3321.513930,-12373.411640,11164.249321,11529.633287,-2498.142719,14783.264969,13843.642335,12651.914376,5060.323186,-312.857367,0.254250,-0.228750,0.961250,192.000000,0.000000,0.000000,0.000000,0.000000,0.000000,0.000000,0.000000,0.000000,0.000000,1773825063.355668,0.000000
26.000000,1448.773020,5735.815255,1752.801448,6855.280024,-7421.337953,14988.051651,-3360.450668,-12411.074330,11152.224082,11519.083264,-2511.129083,14774.816009,13830.924193,12636.290507,5088.173460,-168.822726,0.254250,-0.228750,0.961250,192.000000,0.000000,0.000000,0.000000,0.000000,0.000000,0.000000,0.000000,0.000000,0.000000,1773825063.355687,0.000000
28.000000,1479.774890,5766.168924,1783.870373,6886.550115,-7391.252505,15031.257574,-3328.711191,-12379.915998,11143.529253,11510.679008,-2522.975507,14763.304861,13810.159422,12631.104902,5106.546593,-94.480824,0.254125,-0.231375,0.962625,192.000000,3.500000,120.000000,124.000000,88.000000,15.000000,16.000000,0.000000,0.000000,0.000000,1773825063.355704,0.000000
30.000000,1468.397852,5756.356508,1768.782946,6872.982606,-7405.512918,15016.416015,-3343.172770,-12391.628312,11157.633204,11539.870386,-2492.130100,14790.842210,13843.374114,12658.083458,5053.461200,-363.953455,0.254125,-0.231375,0.962625,192.000000,0.000000,0.000000,0.000000,0.000000,0.000000,0.000000,0.000000,0.000000,0.000000,1773825063.355721,0.000000
32.000000,1466.274436,5757.787020,1758.970530,6867.819353,-7432.200901,15008.883477,-3348.112505,-12392.142402,11139.215367,11515.551688,-2527.132932,14761.986108,13804.124451,12639.822082,5110.592259,-11.265279,0.254125,-0.231375,0.962625,192.000000,0.000000,0.000000,0.000000,0.000000,0.000000,0.000000,0.000000,0.000000,0.000000,1773825063.355739,0.000000
34.000000,1488.156794,5778.797660,1785.323237,6890.171098,-7406.496394,15048.021382,-3319.122293,-12363.420411,11152.715820,11548.878139,-2493.471204,14794.127917,13829.091350,12666.644176,5045.414572,-319.808760,0.254125,-0.231375,0.962625,192.000000,0.000000,0.000000,0.000000,0.000000,0.000000,0.000000,0.000000,0.000000,0.000000,1773825063.355757,0.000000
36.000000,1454.360956,5745.806485,1744.486600,6869.048699,-7449.299985,15003.474355,-3355.130953,-12397.775042,11135.907309,11528.269831,-2512.537242,14781.409774,13805.040873,12645.208853,5069.375642,-163.413604,0.254125,-0.231375,0.962625,192.000000,0.000000,0.000000,0.000000,0.000000,0.000000,0.000000,0.000000,0.000000,0.000000,1773825063.355774,0.000000
38.000000,1490.749596,5784.586762,1780.003521,6904.856194,-7415.727665,15043.372219,-3321.491578,-12362.414582,11140.578823,11534.014229,-2515.845301,14783.466134,13798.715329,12641.878443,5081.780861,-93.854975,0.253062,-0.231687,0.963313,192.000000,3.500000,112.000000,124.000000,96.000000,15.000000,16.000000,0.000000,0.000000,0.000000,1773825063.355791,0.000000
40.000000,1490.034341,5783.625637,1771.465155,6888.472365,-7424.489549,15026.876632,-3334.008555,-12370.371803,11163.981100,11571.363994,-2482.474146,14817.060806,13838.076751,12678.222379,5030.997697,-361.092432,0.253062,-0.231687,0.963313,192.000000,0.000000,0.000000,0.000000,0.000000,0.000000,0.000000,0.000000,0.000000,0.000000,1773825063.355808,0.000000
42.000000,1485.228716,5773.567352,1766.436013,6876.022443,-7429.451636,15016.393663,-3343.999784,-12381.122992,11156.873245,11548.922843,-2512.961926,14782.415602,13808.907724,12646.795827,5105.473710,-7.577241,0.253062,-0.231687,0.963313,192.000000,0.000000,0.000000,0.000000,0.000000,0.000000,0.000000,0.000000,0.000000,0.000000,1773825063.355825,0.000000
44.000000,1501.724303,5791.180526,1794.353341,6897.524821,-7388.011502,15038.924222,-3317.043581,-12359.978242,11174.531123,11563.250311,-2483.167050,14806.980170,13847.464484,12666.912397,5055.428154,-316.031315,0.253062,-0.231687,0.963313,192.000000,0.000000,0.000000,0.000000,0.000000,0.000000,0.000000,0.000000,0.000000,0.000000,1773825063.355842,0.000000
46.000000,1466.565009,5751.327366,1754.567236,6857.492847,-7424.422494,14999.026358,-3357.857866,-12400.971341,11157.543797,11540.473883,-2504.423559,14787.198876,13827.392617,12646.840530,5086.608837,-166.319330,0.253062,-0.231687,0.963313,192.000000,0.000000,0.000000,0.000000,0.000000,0.000000,0.000000,0.000000,0.000000,0.000000,1773825063.355859,0.000000
48.000000,1492.694198,5778.395328,1787.200783,6889.634656,-7391.207801,15038.141911,-3326.230148,-12371.757611,11155.778009,11529.499177,-2513.073684,14774.771306,13819.055416,12641.163187,5102.880907,-91.843318,0.252531,-0.231844,0.960656,192.000000,3.500000,112.000000,124.000000,96.000000,14.500000,120.000000,0.000000,0.000000,0.000000,1773825063.355876,0.000000
50.000000,1478.612599,5764.358433,1772.739204,6875.530705,-7401.936639,15018.293562,-3340.758782,-12387.739109,11168.674966,11554.041392,-2485.312818,14797.659492,13851.532501,12656.071801,5049.013203,-362.679406,0.252531,-0.231844,0.960656,192.000000,0.000000,0.000000,0.000000,0.000000,0.000000,0.000000,0.000000,0.000000,0.000000,1773825063.355894,0.000000
52.000000,1473.002311,5758.949311,1763.083251,6864.131315,-7410.251488,15006.625951,-3350.146514,-12394.332873,11149.497169,11520.781996,-2523.131969,14763.550730,13811.321713,12624.086454,5116.314306,-14.640393,0.252531,-0.231844,0.960656,192.000000,0.000000,0.000000,0.000000,0.000000,0.000000,0.000000,0.000000,0.000000,0.000000,1773825063.355910,0.000000
54.000000,1499.690294,5786.106680,1793.347513,6895.267295,-7387.430356,15042.858129,-3318.809368,-12364.225073,11166.193922,11553.974337,-2489.939629,14792.071556,13843.642335,12660.720964,5057.283349,-314.645507,0.252531,-0.231844,0.960656,192.000000,0.000000,0.000000,0.000000,0.000000,0.000000,0.000000,0.000000,0.000000,0.000000,1773825063.355927,0.000000
56.000000,1466.296788,5750.947386,1755.193085,6860.286815,-7423.774293,15001.306236,-3353.879256,-12399.116146,11160.360117,11546.978241,-2501.003742,14782.817934,13832.131187,12648.919242,5080.015073,-170.096775,0.252531,-0.231844,0.960656,192.000000,0.000000,0.000000,0.000000,0.000000,0.000000,0.000000,0.000000,0.000000,0.000000,1773825063.355944,0.000000
58.000000,1493.208288,5775.936636,1783.848021,6893.210935,-7400.148499,15035.705571,-3322.050371,-12368.270739,11157.029707,11538.126950,-2510.547937,14776.760611,13818.720140,12647.846359,5091.213297,-92.804443,0.251266,-0.233922,0.955328,192.000000,3.500000,104.000000,124.000000,80.000000,14.500000,88.000000,0.000000,0.000000,0.000000,1773825063.355964,0.000000
60.000000,1477.405605,5760.268064,1766.748937,6878.503487,-7415.213575,15018.762948,-3339.462380,-12386.465059,11163.534065,11552.052087,-2487.324475,14801.481641,13841.809492,12661.235054,5037.502055,-359.907789,0.251266,-0.233922,0.955328,192.000000,0.000000,0.000000,0.000000,0.000000,0.000000,0.000000,0.000000,0.000000,0.000000,1773825063.834941,0.000000
62.000000,1473.918733,5756.982357,1759.462268,6867.372318,-7420.287421,15012.437405,-3349.475962,-12392.209457,11144.825655,11525.140587,-2523.579004,14768.736335,13803.878582,12624.108806,5104.222012,-7.599593,0.251266,-0.233922,0.955328,192.000000,0.000000,0.000000,0.000000,0.000000,0.000000,0.000000,0.000000,0.000000,0.000000,1773825063.835001,0.000000
64.000000,1499.936163,5784.273837,1789.950048,6893.814432,-7387.810336,15053.586966,-3319.546976,-12364.448591,11166.775068,11562.088020,-2490.498422,14797.614789,13843.351763,12663.202007,5045.526331,-311.851539,0.251266,-0.233922,0.955328,192.000000,0.000000,0.000000,0.000000,0.000000,0.000000,0.000000,0.000000,0.000000,0.000000,1773825063.835049,0.000000
66.000000,1470.141288,5753.562540,1755.170733,6858.990414,-7425.316563,15014.672579,-3355.421526,-12397.372710,11159.957786,11545.078343,-2504.803539,14788.517629,13834.209899,12647.712248,5074.561247,-171.348473,0.251266,-0.233922,0.955328,192.000000,0.000000,0.000000,0.000000,0.000000,0.000000,0.000000,0.000000,0.000000,0.000000,1773825063.835093,0.000000
68.000000,1492.537736,5777.121279,1787.424301,6887.779461,-7393.107700,15036.376123,-3325.134912,-12371.198818,11159.756620,11539.646869,-2513.878347,14782.773230,13816.999056,12641.453760,5093.873154,-92.536222,0.251266,-0.233922,0.955328,192.000000,0.000000,0.000000,0.000000,0.000000,0.000000,0.000000,0.000000,0.000000,0.000000,1773825063.835136,0.000000
70.000000,1474.119899,5757.943482,1769.632312,6875.463650,-7402.674246,15020.841661,-3340.848189,-12388.990806,11168.272635,11559.159942,-2489.805518,14800.721681,13845.229309,12660.519798,5053.260035,-362.411185,0.254000,-0.234000,0.954000,192.000000,3.500000,120.000000,124.000000,88.000000,14.500000,104.000000,0.000000,0.000000,0.000000,1773825063.835179,0.000000
72.000000,1472.220000,5756.870598,1761.250408,6869.383975,-7410.475005,15023.389759,-3347.911340,-12394.109356,11146.032649,11525.699380,-2529.681030,14768.222245,13803.923285,12622.655943,5116.247251,-8.426608,0.254000,-0.234000,0.954000,192.000000,0.000000,0.000000,0.000000,0.000000,0.000000,0.000000,0.000000,0.000000,0.000000,1773825063.835215,0.000000
74.000000,1503.333629,5785.547887,1791.358208,6900.721121,-7375.203952,15053.341097,-3317.580023,-12361.520512,11168.473800,11565.194913,-2493.158280,14800.721681,13843.329411,12663.202007,5058.803267,-309.683419,0.254000,-0.234000,0.954000,192.000000,0.000000,0.000000,0.000000,0.000000,0.000000,0.000000,0.000000,0.000000,0.000000,1773825063.835230,0.000000
76.000000,1471.705910,5754.903645,1753.784925,6866.701766,-7425.249508,15020.193460,-3352.694613,-12394.914019,11158.817847,11551.605052,-2505.630553,14791.803335,13829.940716,12647.444027,5083.747814,-167.392214,0.254000,-0.234000,0.954000,192.000000,0.000000,0.000000,0.000000,0.000000,0.000000,0.000000,0.000000,0.000000,0.000000,1773825063.835245,0.000000
78.000000,1499.332666,5782.977436,1784.853850,6902.196336,-7395.499336,15050.949460,-3319.479921,-12361.744030,11157.990832,11550.263947,-2510.994972,14784.315501,13819.033065,12645.968812,5089.872192,-82.992027,0.254000,-0.234000,0.954000,192.000000,0.000000,0.000000,0.000000,0.000000,0.000000,0.000000,0.000000,0.000000,0.000000,1773825063.835262,0.000000
80.000000,1486.972152,5769.924017,1768.537077,6880.515144,-7412.710179,15033.157472,-3333.248595,-12376.898512,11168.697318,11565.485485,-2482.608257,14807.382501,13846.279841,12679.675243,5037.077372,-359.728975,0.254000,-0.238000,0.950000,192.000000,3.500000,120.000000,124.000000,72.000000,14.500000,88.000000,0.000000,0.000000,0.000000,1773825063.835279,0.000000
82.000000,1476.779756,5758.323462,1758.411736,6875.955388,-7420.734456,15013.756158,-3343.150418,-12387.090908,11149.452466,11540.518587,-2519.578042,14774.436030,13803.498602,12636.826949,5101.092768,-6.146730,0.254000,-0.238000,0.950000,192.000000,0.000000,0.000000,0.000000,0.000000,0.000000,0.000000,0.000000,0.000000,0.000000,1773825063.835295,0.000000
84.000000,1503.825367,5786.911343,1788.944219,6908.477176,-7394.426452,15051.150626,-3310.427464,-12357.027812,11166.529198,11562.825628,-2488.598524,14804.342664,13838.814359,12662.374993,5043.112343,-312.253870,0.254000,-0.238000,0.950000,192.000000,0.000000,0.000000,0.000000,0.000000,0.000000,0.000000,0.000000,0.000000,0.000000,1773825063.835313,0.000000
86.000000,1471.817669,5754.881293,1754.030794,6867.282911,-7422.857871,15006.111861,-3349.118334,-12393.416452,11159.846027,11554.622537,-2500.824928,14795.781946,13831.438283,12655.714173,5072.057852,-174.053034,0.254000,-0.238000,0.950000,192.000000,0.000000,0.000000,0.000000,0.000000,0.000000,0.000000,0.000000,0.000000,0.000000,1773825063.835329,0.000000
88.000000,1503.557146,5783.290360,1785.770272,6895.982551,-7397.466290,15044.646268,-3318.742313,-12363.576873,11158.817847,11550.643927,-2509.452702,14786.282454,13816.686132,12654.775400,5090.207468,-86.881231,0.254000,-0.238000,0.950000,192.000000,0.000000,0.000000,0.000000,0.000000,0.000000,0.000000,0.000000,0.000000,0.000000,1773825063.835346,0.000000
90.000000,1488.112091,5768.582913,1773.633274,6876.827106,-7400.819051,15025.267306,-3333.427409,-12376.876161,11174.754640,11576.773116,-2478.070853,14806.264914,13855.198187,12674.757859,5046.152180,-366.233333,0.248000,-0.230000,0.946000,192.000000,3.500000,96.000000,124.000000,104.000000,14.500000,72.000000,0.000000,0.000000,0.000000,1773825063.835371,0.000000
92.000000,1484.021721,5760.737450,1764.692576,6871.395632,-7409.916211,15009.352864,-3342.278700,-12383.313463,11156.985004,11544.720715,-2515.666487,14778.280530,13816.663780,12631.954268,5110.815777,-6.794930,0.248000,-0.230000,0.946000,192.000000,0.000000,0.000000,0.000000,0.000000,0.000000,0.000000,0.000000,0.000000,0.000000,1773825063.835388,0.000000
94.000000,1510.888518,5787.626599,1794.174527,6903.224516,-7376.232132,15051.932937,-3312.439121,-12353.675050,11175.626358,11566.781886,-2485.044597,14809.103585,13850.638431,12662.933786,5055.785782,-311.158635,0.248000,-0.230000,0.946000,192.000000,0.000000,0.000000,0.000000,0.000000,0.000000,0.000000,0.000000,0.000000,0.000000,1773825063.835405,0.000000
96.000000,1478.567896,5757.407040,1756.333024,6868.981644,-7415.593554,15033.045713,-3350.101811,-12387.694405,11163.332899,11560.478694,-2498.455643,14799.514687,13834.813396,12661.503275,5080.775032,-168.867429,0.248000,-0.230000,0.946000,192.000000,0.000000,0.000000,0.000000,0.000000,0.000000,0.000000,0.000000,0.000000,0.000000,1773825063.835422,0.000000
98.000000,1504.227698,5781.837497,1784.898553,6897.793042,-7381.328330,15058.794923,-3322.162130,-12362.056954,11159.510751,11554.287261,-2509.832681,14787.891780,13824.084559,12660.296280,5095.817756,-78.767547,0.248000,-0.230000,0.946000,192.000000,0.000000,0.000000,0.000000,0.000000,0.000000,0.000000,0.000000,0.000000,0.000000,1773825063.835439,0.000000
100.000000,1495.398759,5774.595532,1772.046300,6883.733795,-7396.929848,15045.026248,-3333.650927,-12370.282396,11170.887789,11577.197799,-2481.311855,14812.299885,13855.175836,12680.144629,5043.671136,-350.989443,0.248000,-0.234000,0.946000,192.000000,3.500000,96.000000,124.000000,88.000000,14.500000,72.000000,0.000000,0.000000,0.000000,1773825063.835455,0.000000
102.000000,1490.146099,5766.124221,1762.502106,6879.039929,-7408.485700,15033.984486,-3342.681032,-12377.412603,11157.052059,11548.878139,-2513.431312,14783.868466,13817.826071,12650.997955,5106.323076,-0.692904,0.248000,-0.234000,0.946000,192.000000,0.000000,0.000000,0.000000,0.000000,0.000000,0.000000,0.000000,0.000000,0.000000,1773825063.835472,0.000000
104.000000,1513.816597,5789.839421,1794.375693,6905.146766,-7380.031929,15064.204045,-3312.863804,-12349.182349,11173.257074,11578.069517,-2481.378911,14812.523402,13851.711315,12677.395365,5048.812038,-303.201414,0.248000,-0.234000,0.946000,192.000000,0.000000,0.000000,0.000000,0.000000,0.000000,0.000000,0.000000,0.000000,0.000000,1773825063.835488,0.000000
106.000000,1487.150966,5760.022194,1760.132821,6871.641501,-7416.711142,15026.787225,-3347.665471,-12381.704138,11168.451448,11567.586549,-2490.252553,14800.162888,13839.686077,12664.073725,5076.349387,-171.773156,0.248000,-0.234000,0.946000,192.000000,0.000000,0.000000,0.000000,0.000000,0.000000,0.000000,0.000000,0.000000,0.000000,1773825063.835504,0.000000
108.000000,1519.940975,5788.408910,1793.861603,6902.643371,-7386.938618,15055.352754,-3314.607241,-12350.769323,11171.424231,11566.223093,-2498.232126,14787.623559,13831.460635,12658.619900,5092.710864,-81.293295,0.248000,-0.234000,0.946000,192.000000,0.000000,0.000000,0.000000,0.000000,0.000000,0.000000,0.000000,0.000000,0.000000,1773825063.835520,0.000000
110.000000,1498.863280,5771.287474,1778.930638,6887.041853,-7405.982304,15040.310030,-3324.889043,-12363.867445,11186.355196,11583.299826,-2468.481954,14822.559336,13865.256472,12680.904589,5035.132770,-360.332472,0.246000,-0.232000,0.950000,192.000000,3.500000,88.000000,124.000000,96.000000,14.500000,88.000000,0.000000,0.000000,0.000000,1773825063.835536,0.000000
112.000000,1486.905096,5760.670395,1768.402966,6877.765879,-7412.978400,15030.922297,-3337.450723,-12376.272664,11154.012222,11550.576872,-2509.743274,14788.808201,13822.944620,12648.181635,5100.913954,-11.108817,0.246000,-0.232000,0.950000,192.000000,0.000000,0.000000,0.000000,0.000000,0.000000,0.000000,0.000000,0.000000,0.000000,1773825063.835552,0.000000
114.000000,1518.912794,5789.861773,1799.583650,6898.262429,-7369.280740,15060.627766,-3310.360409,-12351.372820,11174.486419,11580.371747,-2479.411957,14815.607943,13858.215673,12680.926941,5051.538950,-305.280126,0.246000,-0.232000,0.950000,192.000000,0.000000,0.000000,0.000000,0.000000,0.000000,0.000000,0.000000,0.000000,0.000000,1773825063.835566,0.000000
116.000000,1479.797242,5750.522703,1761.116297,6867.104097,-7407.390464,15018.450024,-3348.000747,-12389.683710,11163.511713,11564.077325,-2493.717074,14797.659492,13845.966917,12655.624766,5086.966465,-170.007368,0.246000,-0.232000,0.950000,192.000000,0.000000,0.000000,0.000000,0.000000,0.000000,0.000000,0.000000,0.000000,0.000000,1773825063.835582,0.000000
118.000000,1518.130483,5788.878296,1796.655571,6900.631714,-7366.442068,15059.197254,-3315.747179,-12354.099733,11163.511713,11562.132724,-2500.266135,14790.641044,13837.585013,12655.758876,5101.204527,-76.733539,0.246000,-0.232000,0.950000,192.000000,0.000000,0.000000,0.000000,0.000000,0.000000,0.000000,0.000000,0.000000,0.000000,1773825063.835598,0.000000
120.000000,1506.082893,5775.400195,1781.679902,6883.286760,-7382.401214,15044.690972,-3330.991069,-12368.360146,11183.695338,11591.435861,-2469.800707,14820.972362,13874.398336,12689.934694,5050.778991,-355.839772,0.252000,-0.230000,0.952000,192.000000,3.500000,112.000000,124.000000,104.000000,14.500000,96.000000,0.000000,0.000000,0.000000,1773825063.835614,0.000000
122.000000,1496.717512,5768.493506,1770.079347,6870.769783,-7396.639275,15029.670600,-3341.719907,-12377.926693,11163.578768,11563.697346,-2508.022190,14785.678957,13833.606402,12655.401248,5114.883794,3.688038,0.252000,-0.230000,0.952000,192.000000,0.000000,0.000000,0.000000,0.000000,0.000000,0.000000,0.000000,0.000000,0.000000,1773825063.835633,0.000000
124.000000,1517.191710,5787.984227,1799.538946,6901.391673,-7371.426507,15062.013574,-3311.679162,-12351.663393,11174.531123,11580.505858,-2479.434309,14813.909210,13859.445019,12672.343871,5060.792573,-297.457015,0.252000,-0.230000,0.952000,192.000000,0.000000,0.000000,0.000000,0.000000,0.000000,0.000000,0.000000,0.000000,0.000000,1773825063.835649,0.000000
126.000000,1493.565916,5762.838514,1762.815030,6865.941807,-7410.542060,15028.128329,-3347.240787,-12381.994710,11169.591387,11576.951930,-2489.492594,14797.972417,13845.743399,12669.907531,5080.864439,-168.889781,0.252000,-0.230000,0.952000,192.000000,0.000000,0.000000,0.000000,0.000000,0.000000,0.000000,0.000000,0.000000,0.000000,1773825063.835666,0.000000
128.000000,1519.449236,5788.163041,1793.302809,6899.402368,-7382.736490,15057.967908,-3317.557671,-12352.199835,11169.032594,11566.804238,-2497.561574,14800.744033,13838.099103,12655.445952,5093.269657,-79.415748,0.252000,-0.230000,0.952000,192.000000,0.000000,0.000000,0.000000,0.000000,0.000000,0.000000,0.000000,0.000000,0.000000,1773825063.835680,0.000000
130.000000,1506.373466,5774.483773,1778.885934,6885.387824,-7392.370092,15047.619050,-3329.806427,-12366.884931,11181.571922,11591.122936,-2468.325492,14825.286248,13865.882321,12682.133935,5036.652689,-356.465621,0.251000,-0.230000,0.952000,192.000000,3.500000,104.000000,124.000000,104.000000,14.500000,96.000000,0.000000,0.000000,0.000000,1773825063.835696,0.000000
132.000000,1495.152890,5763.933750,1765.161963,6877.117679,-7404.350627,15038.700704,-3340.647023,-12377.144382,11159.823675,11560.165770,-2506.703437,14793.904399,13824.844518,12651.288527,5105.049027,-3.062189,0.251000,-0.230000,0.952000,192.000000,0.000000,0.000000,0.000000,0.000000,0.000000,0.000000,0.000000,0.000000,0.000000,1773825063.835712,0.000000
134.000000,1520.924451,5791.806375,1797.706103,6897.904801,-7369.928941,15069.635519,-3312.014438,-12349.763495,11175.313434,11583.925674,-2478.562591,14821.620562,13858.014507,12678.647063,5050.108439,-301.927364,0.251000,-0.230000,0.952000,192.000000,0.000000,0.000000,0.000000,0.000000,0.000000,0.000000,0.000000,0.000000,0.000000,1773825063.835728,0.000000
136.000000,1491.397797,5760.178657,1762.144478,6865.539475,-7407.591630,15028.575364,-3347.285491,-12382.933483,11170.731326,11575.141439,-2489.537297,14806.354321,13849.565548,12673.506161,5077.444622,-175.282380,0.251000,-0.230000,0.952000,192.000000,0.000000,0.000000,0.000000,0.000000,0.000000,0.000000,0.000000,0.000000,0.000000,1773825063.835742,0.000000
138.000000,1511.514367,5781.569276,1789.838289,6887.488888,-7377.684996,15062.237091,-3320.686915,-12360.537036,11168.943187,11569.642910,-2500.377893,14797.011292,13841.273050,12667.515894,5095.258963,-83.372007,0.251000,-0.230000,0.952000,192.000000,0.000000,0.000000,0.000000,0.000000,0.000000,0.000000,0.000000,0.000000,0.000000,1773825063.835759,0.000000
140.000000,1493.744730,5761.184485,1774.348530,6877.855286,-7391.945409,15044.288641,-3333.561520,-12376.697347,11169.971367,11585.870276,-2480.641303,14815.540888,13863.669498,12686.626635,5045.995718,-357.784373,0.248500,-0.230000,0.953000,192.000000,3.500000,88.000000,124.000000,104.000000,14.500000,104.000000,0.000000,0.000000,0.000000,1773825063.835776,0.000000
142.000000,1487.799166,5755.171866,1763.239713,6870.166286,-7395.924019,15030.676428,-3343.843322,-12383.738146,11151.195902,11553.907282,-2517.499330,14784.896646,13825.693885,12638.145702,5112.335695,-6.012619,0.248500,-0.230000,0.953000,192.000000,0.000000,0.000000,0.000000,0.000000,0.000000,0.000000,0.000000,0.000000,0.000000,1773825063.835789,0.000000
144.000000,1523.807826,5789.839421,1799.337780,6895.647275,-7361.077650,15067.176827,-3311.366238,-12348.198873,11173.681757,11583.702157,-2481.021283,14813.238658,13862.082525,12676.523647,5060.166724,-299.021637,0.248500,-0.230000,0.953000,192.000000,0.000000,0.000000,0.000000,0.000000,0.000000,0.000000,0.000000,0.000000,0.000000,1773825063.835806,0.000000
146.000000,1495.018780,5761.095078,1759.216399,6871.417984,-7415.370037,15031.257574,-3345.385593,-12377.747879,11173.122963,11578.337738,-2485.424576,14813.059844,13850.794894,12673.506161,5081.758509,-174.276552,0.248500,-0.230000,0.953000,192.000000,0.000000,0.000000,0.000000,0.000000,0.000000,0.000000,0.000000,0.000000,0.000000,1773825063.835822,0.000000
148.000000,1521.997335,5789.459442,1790.285324,6899.469423,-7380.255446,15066.126295,-3314.540185,-12345.449608,11171.245417,11573.710927,-2493.873536,14808.969475,13836.959164,12673.483810,5091.213297,-76.264152,0.248500,-0.230000,0.953000,192.000000,0.000000,0.000000,0.000000,0.000000,0.000000,0.000000,0.000000,0.000000,0.000000,1773825063.835838,0.000000
150.000000,1513.950707,5782.642160,1781.456385,6886.348949,-7395.387577,15045.808559,-3324.509063,-12352.490408,11183.047138,11600.778890,-2463.542219,14837.244432,13868.229254,12679.831705,5040.385430,-359.639568,0.250250,-0.227000,0.955500,192.000000,3.500000,112.000000,124.500000,0.000000,14.500000,120.000000,0.000000,0.000000,0.000000,1773825063.835852,0.000000
152.000000,1501.411379,5769.901665,1771.465155,6875.374243,-7403.478909,15033.246879,-3337.517779,-12364.917977,11166.328033,11572.660395,-2496.153414,14807.158984,13831.952373,12648.472208,5104.490233,-11.757018,0.250250,-0.227000,0.955500,192.000000,0.000000,0.000000,0.000000,0.000000,0.000000,0.000000,0.000000,0.000000,0.000000,1773825063.835868,0.000000
154.000000,1526.646498,5794.510936,1798.890746,6903.760958,-7370.197161,15066.550978,-3309.801615,-12338.319402,11176.363966,11586.183201,-2472.348806,14831.857661,13859.847350,12672.477981,5055.025823,-300.586259,0.250250,-0.227000,0.955500,192.000000,0.000000,0.000000,0.000000,0.000000,0.000000,0.000000,0.000000,0.000000,0.000000,1773825063.835888,0.000000
156.000000,1501.053751,5766.638311,1763.440879,6862.365527,-7404.574144,15027.524832,-3346.436125,-12372.070536,11171.960672,11585.065613,-2482.183574,14818.513670,13849.230271,12672.232112,5073.890695,-172.309598,0.250250,-0.227000,0.955500,192.000000,0.000000,0.000000,0.000000,0.000000,0.000000,0.000000,0.000000,0.000000,0.000000,1773825063.835917,0.000000
158.000000,1526.355925,5794.063901,1794.442748,6903.470385,-7375.695691,15065.925129,-3313.891985,-12340.889852,11173.793515,11578.583608,-2490.006684,14811.450519,13843.910556,12659.558673,5091.705035,-80.354521,0.250250,-0.227000,0.955500,192.000000,0.000000,0.000000,0.000000,0.000000,0.000000,0.000000,0.000000,0.000000,0.000000,1773825063.835934,0.000000
160.000000,1514.420094,5782.373939,1780.472908,6882.280932,-7385.686920,15050.860053,-3330.745200,-12355.373783,11188.523315,11610.613657,-2459.518905,14838.585536,13881.685004,12691.879295,5035.021011,-366.725071,0.251125,-0.226500,0.958750,192.000000,3.500000,112.000000,124.000000,120.000000,15.000000,8.000000,0.000000,0.000000,0.000000,1773825063.835953,0.000000
162.000000,1499.444425,5765.274854,1768.470021,6871.038004,-7394.001769,15043.416922,-3343.128066,-12369.880065,11163.779934,11567.206570,-2502.210737,14797.547733,13835.103969,12650.103885,5106.256021,-1.139939,0.251125,-0.226500,0.958750,192.000000,0.000000,0.000000,0.000000,0.000000,0.000000,0.000000,0.000000,0.000000,0.000000,1773825063.835965,0.000000
164.000000,1521.036210,5789.392387,1798.108434,6893.501507,-7355.288548,15070.507237,-3313.780226,-12343.795579,11180.834315,11592.240523,-2474.025187,14816.881992,13867.759868,12677.507124,5054.556436,-297.501719,0.251125,-0.226500,0.958750,192.000000,0.000000,0.000000,0.000000,0.000000,0.000000,0.000000,0.000000,0.000000,0.000000,1773825063.835981,0.000000
166.000000,1488.536774,5754.411907,1759.506972,6860.733850,-7400.729644,15029.871765,-3351.107639,-12383.313463,11169.926664,11577.086041,-2489.514946,14810.131766,13854.281766,12661.704440,5079.322169,-176.779947,0.251125,-0.226500,0.958750,192.000000,0.000000,0.000000,0.000000,0.000000,0.000000,0.000000,0.000000,0.000000,0.000000,1773825063.835997,0.000000
168.000000,1512.967230,5779.423509,1792.408740,6889.500545,-7373.236999,15061.723001,-3319.122293,-12355.977280,11165.165742,11568.748840,-2502.076626,14794.217324,13840.736609,12655.669469,5093.470823,-79.482803,0.251125,-0.226500,0.958750,192.000000,0.000000,0.000000,0.000000,0.000000,0.000000,0.000000,0.000000,0.000000,0.000000,1773825063.836013,0.000000
170.000000,1508.005143,5773.746165,1781.098757,6873.675510,-7384.882258,15039.952402,-3329.806427,-12363.621576,11181.549571,11595.414471,-2468.057271,14821.084120,13877.751097,12684.972606,5038.060848,-363.998158,0.250563,-0.229250,0.960375,192.000000,3.500000,104.000000,124.000000,96.000000,15.000000,8.000000,0.000000,0.000000,0.000000,1773825063.836027,0.000000
172.000000,1492.045998,5758.368165,1764.133783,6867.886408,-7398.896801,15035.347943,-3342.189293,-12377.792582,11159.778972,11561.462171,-2506.949306,14791.557466,13835.439245,12639.643269,5104.378474,-5.766750,0.250563,-0.229250,0.960375,192.000000,0.000000,0.000000,0.000000,0.000000,0.000000,0.000000,0.000000,0.000000,0.000000,1773825063.836044,0.000000
174.000000,1518.510463,5785.123203,1796.789682,6894.596743,-7364.720984,15067.355641,-3310.561575,-12348.489445,11171.625396,11585.311483,-2481.311855,14815.920867,13863.960071,12667.717060,5048.677927,-296.942925,0.250563,-0.229250,0.960375,192.000000,0.000000,0.000000,0.000000,0.000000,0.000000,0.000000,0.000000,0.000000,0.000000,1773825063.836060,0.000000
176.000000,1491.397797,5757.764668,1762.747975,6857.269330,-7404.507089,15033.582155,-3348.246616,-12381.324158,11167.020937,11578.650663,-2489.514946,14810.779966,13854.237062,12668.678185,5073.242494,-180.870316,0.250563,-0.229250,0.960375,192.000000,0.000000,0.000000,0.000000,0.000000,0.000000,0.000000,0.000000,0.000000,0.000000,1773825063.836075,0.000000
178.000000,1516.185882,5781.792793,1790.665304,6890.953409,-7382.132993,15059.353716,-3320.239880,-12354.949099,11170.284292,11580.997596,-2496.689856,14800.721681,13847.531539,12660.765667,5088.151108,-79.773376,0.250563,-0.229250,0.960375,192.000000,0.000000,0.000000,0.000000,0.000000,0.000000,0.000000,0.000000,0.000000,0.000000,1773825063.836089,0.000000
180.000000,1499.645591,5765.945407,1777.298960,6878.637597,-7388.637351,15047.127312,-3333.025078,-12371.176466,11174.106440,11586.563180,-2475.165126,14828.773120,13865.703507,12664.051373,5041.793590,-363.305254,0.249281,-0.233625,0.960187,192.000000,3.500000,96.000000,124.000000,72.000000,15.000000,0.000000,0.000000,0.000000,0.000000,1773825064.315717,0.000000
182.000000,1493.700027,5758.591683,1762.479754,6868.601664,-7402.160156,15035.571460,-3343.530398,-12380.094812,11159.063716,11560.344584,-2509.787978,14789.881085,13831.237117,12637.810425,5104.311419,-12.628736,0.249281,-0.233625,0.960187,192.000000,0.000000,0.000000,0.000000,0.000000,0.000000,0.000000,0.000000,0.000000,0.000000,1773825064.315792,0.000000
184.000000,1519.516292,5786.799584,1792.028760,6903.962124,-7380.210743,15066.707440,-3311.880328,-12350.098771,11174.978158,11590.295922,-2478.897867,14818.714835,13857.545120,12669.907531,5047.605043,-301.837957,0.249281,-0.233625,0.960187,192.000000,0.000000,0.000000,0.000000,0.000000,0.000000,0.000000,0.000000,0.000000,0.000000,1773825064.315902,0.000000
186.000000,1486.726282,5753.048450,1751.639158,6867.998167,-7421.315601,15026.429597,-3349.543017,-12386.509763,11166.305681,11577.220151,-2490.766643,14810.198821,13842.725914,12653.031963,5059.719689,-176.288209,0.249281,-0.233625,0.960187,192.000000,0.000000,0.000000,0.000000,0.000000,0.000000,0.000000,0.000000,0.000000,0.000000,1773825064.315963,0.000000
188.000000,1503.110111,5770.683976,1781.389330,6891.959237,-7380.322502,15052.603489,-3323.592642,-12363.800390,11159.287233,11570.894607,-2504.669428,14795.312559,13827.146748,12643.755990,5083.904276,-76.018283,0.249281,-0.233625,0.960187,192.000000,0.000000,0.000000,0.000000,0.000000,0.000000,0.000000,0.000000,0.000000,0.000000,1773825064.316008,0.000000
190.000000,1498.036265,5766.146572,1772.180411,6877.497658,-7395.834612,15045.473283,-3335.059087,-12371.757611,11169.658443,11591.324102,-2477.690873,14815.652647,13860.719068,12678.356490,5039.871340,-367.485031,0.251641,-0.234813,0.961094,192.000000,3.500000,120.000000,124.000000,80.000000,15.000000,8.000000,0.000000,0.000000,0.000000,1773825064.316025,0.000000
192.000000,1487.262724,5754.702479,1762.613864,6867.953464,-7405.490566,15028.463605,-3346.547883,-12383.022890,11155.420381,11565.172561,-2512.134911,14783.332024,13826.587954,12639.218585,5100.444567,-16.070904,0.251641,-0.234813,0.961094,192.000000,0.000000,0.000000,0.000000,0.000000,0.000000,0.000000,0.000000,0.000000,0.000000,1773825064.316041,0.000000
194.000000,1514.956536,5785.167907,1796.342647,6899.625885,-7375.315711,15054.257519,-3313.735522,-12351.752800,11172.161838,11593.805145,-2480.216620,14811.741091,13853.901786,12665.884217,5046.062773,-311.002172,0.251641,-0.234813,0.961094,192.000000,0.000000,0.000000,0.000000,0.000000,0.000000,0.000000,0.000000,0.000000,0.000000,1773825064.316053,0.000000
196.000000,1473.158774,5741.760819,1753.606111,6860.242112,-7420.309773,15017.377140,-3352.515799,-12394.399928,11159.376640,11579.768250,-2494.544088,14805.951989,13841.183643,12660.251577,5065.955826,-190.906249,0.251641,-0.234813,0.961094,192.000000,0.000000,0.000000,0.000000,0.000000,0.000000,0.000000,0.000000,0.000000,0.000000,1773825064.316065,0.000000
198.000000,1499.623239,5767.733546,1784.339760,6892.540382,-7389.866697,15054.749257,-3323.682049,-12368.427201,11148.357230,11563.384421,-2513.744237,14790.037547,13823.481062,12648.405152,5085.625361,-81.114481,0.251641,-0.234813,0.961094,192.000000,0.000000,0.000000,0.000000,0.000000,0.000000,0.000000,0.000000,0.000000,0.000000,1773825064.316079,0.000000
200.000000,1490.749596,5756.647081,1774.057957,6877.207086,-7396.281647,15040.310030,-3334.790866,-12377.837286,11164.629300,11590.787660,-2482.205925,14818.424263,13858.215673,12669.102868,5032.607023,-365.629836,0.251641,-0.234813,0.961094,192.000000,0.000000,0.000000,0.000000,0.000000,0.000000,0.000000,0.000000,0.000000,0.000000,1773825064.316096,0.000000
202.000000,1482.434748,5747.907549,1761.071594,6868.311091,-7408.530403,15031.168167,-3348.760706,-12387.739109,11150.123018,11564.770229,-2515.577080,14781.029794,13824.911574,12642.079609,5100.399864,-15.780332,0.256000,-0.238000,0.956000,192.000000,4.000000,0.000000,124.000000,72.000000,14.500000,112.000000,0.000000,0.000000,0.000000,1773825064.316113,0.000000
204.000000,1505.859376,5771.399232,1787.804280,6891.489850,-7376.925037,15065.500446,-3320.061066,-12359.777076,11165.724536,11584.171544,-2486.184536,14810.534097,13855.131132,12664.341946,5045.839256,-301.837957,0.256000,-0.238000,0.956000,192.000000,0.000000,0.000000,0.000000,0.000000,0.000000,0.000000,0.000000,0.000000,0.000000,1773825064.316128,0.000000
206.000000,1476.086852,5741.894930,1751.639158,6854.810638,-7412.330200,15022.182765,-3355.600340,-12393.148231,11155.643899,11576.594302,-2498.612106,14798.017120,13841.496568,12654.641289,5071.834334,-185.698293,0.256000,-0.238000,0.956000,192.000000,0.000000,0.000000,0.000000,0.000000,0.000000,0.000000,0.000000,0.000000,0.000000,1773825064.316146,0.000000
208.000000,1504.898251,5768.895837,1781.188164,6894.596743,-7382.177696,15057.967908,-3323.704401,-12361.408754,11157.454390,11569.039413,-2507.284583,14797.637140,13836.065094,12649.835664,5083.680759,-78.901658,0.256000,-0.238000,0.956000,192.000000,0.000000,0.000000,0.000000,0.000000,0.000000,0.000000,0.000000,0.000000,0.000000,1773825064.316164,0.000000
210.000000,1491.487204,5757.295282,1769.386443,6879.486964,-7393.040644,15053.788132,-3336.869578,-12373.009309,11169.479629,11601.270628,-2478.182611,14819.519498,13858.841522,12678.311786,5032.070581,-366.635664,0.256000,-0.238000,0.956000,192.000000,0.000000,0.000000,0.000000,0.000000,0.000000,0.000000,0.000000,0.000000,0.000000,1773825064.316179,0.000000
212.000000,1475.393948,5740.889101,1755.461306,6866.388841,-7402.853060,15030.564669,-3350.459439,-12385.638045,11145.563262,11563.786753,-2517.834606,14789.858733,13819.234230,12646.348792,5102.478576,-12.539329,0.254000,-0.230000,0.960000,192.000000,3.500000,120.000000,124.000000,104.000000,15.000000,0.000000,0.000000,0.000000,0.000000,1773825064.316195,0.000000
214.000000,1504.093588,5769.700500,1788.541888,6895.155537,-7371.895894,15067.802676,-3318.339982,-12356.133742,11158.169646,11586.250256,-2492.241859,14809.975303,13849.833769,12669.751068,5049.571997,-302.374399,0.254000,-0.230000,0.960000,192.000000,0.000000,0.000000,0.000000,0.000000,0.000000,0.000000,0.000000,0.000000,0.000000,1773825064.316213,0.000000
216.000000,1473.583457,5737.290470,1748.286396,6861.404402,-7412.509014,15029.223565,-3356.270892,-12392.902362,11154.950995,11576.773116,-2502.568364,14802.442766,13837.808530,12656.608243,5069.487401,-190.079235,0.254000,-0.230000,0.960000,192.000000,0.000000,0.000000,0.000000,0.000000,0.000000,0.000000,0.000000,0.000000,0.000000,1773825064.316228,0.000000
218.000000,1502.372504,5766.101869,1778.930638,6884.337292,-7380.121336,15060.493655,-3326.788941,-12365.029736,11153.609890,11575.208494,-2512.805463,14790.462230,13826.990286,12655.624766,5090.051006,-84.266077,0.254000,-0.230000,0.960000,192.000000,0.000000,0.000000,0.000000,0.000000,0.000000,0.000000,0.000000,0.000000,0.000000,1773825064.316258,0.000000
220.000000,1487.396835,5752.847284,1765.117260,6880.224571,-7391.587781,15053.095228,-3337.629537,-12378.530190,11162.461181,11595.123898,-2487.816213,14817.418434,13854.728801,12678.937635,5035.959785,-366.993292,0.254000,-0.230000,0.960000,192.000000,0.000000,0.000000,0.000000,0.000000,0.000000,0.000000,0.000000,0.000000,0.000000,1773825064.316274,0.000000
222.000000,1476.712701,5741.939633,1753.472001,6865.874751,-7406.876374,15035.347943,-3348.783058,-12391.136574,11140.444713,11558.601148,-2526.976469,14784.226094,13813.467480,12641.342001,5104.177309,-10.952355,0.250000,-0.232000,0.956000,192.000000,3.500000,104.000000,124.000000,96.000000,14.500000,112.000000,0.000000,0.000000,0.000000,1773825064.316292,0.000000
224.000000,1511.648478,5773.969683,1789.860641,6893.166231,-7373.840496,15071.177789,-3315.210738,-12356.312556,11161.812980,11590.586494,-2491.817175,14811.137594,13850.593728,12670.220455,5051.203674,-299.379265,0.250000,-0.232000,0.956000,192.000000,0.000000,0.000000,0.000000,0.000000,0.000000,0.000000,0.000000,0.000000,0.000000,1773825064.316308,0.000000
226.000000,1478.277323,5738.653927,1753.874332,6857.649309,-7413.000752,15032.665733,-3352.515799,-12391.158925,11158.437867,11583.657453,-2498.500347,14804.163850,13845.162254,12681.083403,5072.191962,-186.212383,0.250000,-0.232000,0.956000,192.000000,0.000000,0.000000,0.000000,0.000000,0.000000,0.000000,0.000000,0.000000,0.000000,1773825064.316326,0.000000
228.000000,1501.277268,5764.425488,1782.886896,6882.727967,-7378.243789,15059.219606,-3325.850168,-12365.521475,11154.973347,11576.460192,-2510.860862,14793.725585,13831.594745,12648.829836,5095.951867,-77.649960,0.250000,-0.232000,0.956000,192.000000,0.000000,0.000000,0.000000,0.000000,0.000000,0.000000,0.000000,0.000000,0.000000,1773825064.316343,0.000000
230.000000,1494.415283,5759.217532,1772.068652,6877.922342,-7388.324426,15058.705516,-3333.270947,-12371.042355,11166.909178,11593.268704,-2480.618951,14821.978190,13863.937719,12672.254464,5039.312546,-365.853353,0.250000,-0.232000,0.956000,192.000000,0.000000,0.000000,0.000000,0.000000,0.000000,0.000000,0.000000,0.000000,0.000000,1773825064.316360,0.000000
232.000000,1487.642704,5750.478000,1759.350510,6860.823257,-7395.633447,15042.008763,-3347.643119,-12383.380518,11151.128847,11569.464096,-2512.984277,14793.278550,13827.325562,12647.488731,5106.323076,-10.058285,0.250000,-0.232000,0.950000,192.000000,3.500000,104.000000,124.000000,96.000000,14.500000,88.000000,0.000000,0.000000,0.000000,1773825064.316392,0.000000
234.000000,1506.440521,5771.376881,1791.626429,6894.887316,-7362.843438,15073.323557,-3316.507139,-12356.670184,11167.289158,11594.520401,-2486.296294,14815.384426,13858.372135,12676.925978,5055.942244,-297.233498,0.250000,-0.232000,0.950000,192.000000,0.000000,0.000000,0.000000,0.000000,0.000000,0.000000,0.000000,0.000000,0.000000,1773825064.316410,0.000000
236.000000,1478.389082,5740.039735,1754.366071,6855.324728,-7407.546926,15029.268268,-3354.996843,-12391.427146,11157.052059,11578.449497,-2498.299181,14808.410681,13843.664687,12651.690859,5076.304683,-187.777005,0.250000,-0.232000,0.950000,192.000000,0.000000,0.000000,0.000000,0.000000,0.000000,0.000000,0.000000,0.000000,0.000000,1773825064.316427,0.000000
