Sample_index,EXG Channel 0,EXG Channel 1,EXG Channel 2,EXG Channel 3,EXG Channel 4,EXG Channel 5,EXG Channel 6,EXG Channel 7,EXG Channel 8,EXG Channel 9,EXG Channel 10,EXG Channel 11,EXG Channel 12,EXG Channel 13,EXG Channel 14,EXG Channel 15,Accel Channel 0,Accel Channel 1,Accel Channel 2,Not Used,Digital Channel 0 (D11),Digital Channel 1 (D12),Digital Channel 2 (D13),Digital Channel 3 (D17),Not Used,Digital Channel 4 (D18),Analog Channel 0,Analog Channel 1,Analog Channel 2,Timestamp,Marker Channel
90.000000,3012.523414,5934.477560,3339.238863,7591.837059,-6376.438603,16946.355038,-2257.436783,-11933.484606,10841.423075,13373.853370,-418.156435,16250.567585,15645.751732,14657.737572,5876.072452,369.519039,0.236000,-0.242000,0.956000,192.000000,0.000000,0.000000,0.000000,0.000000,0.000000,0.000000,0.000000,0.000000,0.000000,1773825422.520332,101.000000
92.000000,2991.289257,5913.779844,3327.459494,7578.090737,-6399.080920,16934.218041,-2271.473679,-11952.774161,10850.095552,13396.406281,-374.838755,16286.464487,15711.287047,14687.778316,5806.871451,-153.780002,0.236000,-0.242000,0.956000,192.000000,0.000000,0.000000,0.000000,0.000000,0.000000,0.000000,0.000000,0.000000,0.000000,1773825422.520404,0.000000
94.000000,2979.733405,5904.369760,3310.248650,7562.220998,-6401.718426,16917.141308,-2286.695217,-11968.353327,10812.544622,13361.649318,-413.440217,16240.375190,15664.258976,14658.899863,5885.549591,445.403212,0.236000,-0.240000,0.954000,192.000000,3.500000,48.000000,124.000000,72.000000,14.500000,96.000000,0.000000,0.000000,0.000000,1773825422.520458,0.000000
96.000000,3010.556461,5935.975127,3332.890967,7602.521193,-6361.574693,16954.491073,-2254.173428,-11936.233871,10849.402648,13390.773641,-395.245897,16269.141885,15704.134489,14679.485819,5826.719800,-2.972782,0.236000,-0.240000,0.954000,192.000000,0.000000,0.000000,0.000000,0.000000,0.000000,0.000000,0.000000,0.000000,0.000000,1773825422.520511,0.000000
98.000000,2976.425347,5907.700170,3313.132025,7566.981920,-6412.067284,16911.642779,-2291.232621,-11969.001528,10849.469703,13387.040900,-407.494653,16264.805647,15695.305550,14676.401279,5848.937434,131.808237,0.236000,-0.240000,0.954000,192.000000,0.000000,0.000000,0.000000,0.000000,0.000000,0.000000,0.000000,0.000000,0.000000,1773825422.520566,0.000000
100.000000,3003.850937,5934.321098,3326.543072,7598.229658,-6378.718481,16959.587271,-2262.890609,-11941.531234,10820.993581,13375.105068,-407.382894,16252.579242,15657.061715,14652.730781,5873.323187,374.592885,0.236000,-0.240000,0.954000,192.000000,0.000000,0.000000,0.000000,0.000000,0.000000,0.000000,0.000000,0.000000,0.000000,1773825422.520620,0.000000
102.000000,3001.459301,5926.945022,3317.244746,7590.987693,-6393.962371,16959.564919,-2270.244333,-11944.638126,10884.271369,13416.612258,-394.821214,16289.996063,15731.224803,14703.804517,5802.892840,-141.888874,0.236000,-0.240000,0.954000,192.000000,0.000000,0.000000,0.000000,0.000000,0.000000,0.000000,0.000000,0.000000,0.000000,1773825422.520640,0.000000
104.000000,2987.712978,5912.014057,3321.670392,7571.809896,-6402.701903,16931.893460,-2283.431862,-11959.747906,10802.978075,13371.014699,-409.863938,16249.740571,15650.289136,14646.740514,5881.079242,454.813296,0.236000,-0.240000,0.956000,192.000000,3.500000,48.000000,124.000000,64.000000,14.500000,120.000000,0.000000,0.000000,0.000000,1773825422.520659,0.000000
106.000000,3029.689554,5947.486275,3332.131008,7606.075121,-6360.255940,16973.154780,-2248.943120,-11924.521556,10852.978927,13397.680330,-388.696836,16275.288615,15683.995567,14687.644206,5832.754771,-1.050532,0.236000,-0.240000,0.956000,192.000000,0.000000,0.000000,0.000000,0.000000,0.000000,0.000000,0.000000,0.000000,0.000000,1773825422.520677,0.000000
108.000000,2992.563306,5914.115121,3314.897813,7569.351205,-6409.519185,16925.053826,-2285.599981,-11958.585615,10862.232549,13396.629798,-401.660848,16272.673461,15700.133526,14676.267168,5844.265919,131.472961,0.236000,-0.240000,0.956000,192.000000,0.000000,0.000000,0.000000,0.000000,0.000000,0.000000,0.000000,0.000000,0.000000,1773825422.520694,0.000000
110.000000,3021.553519,5940.736048,3349.252444,7590.205382,-6379.478440,16954.982812,-2256.922693,-11931.316487,10830.046037,13384.917484,-396.028208,16257.228405,15669.243416,14667.929967,5874.641940,380.538449,0.236000,-0.240000,0.956000,192.000000,0.000000,0.000000,0.000000,0.000000,0.000000,0.000000,0.000000,0.000000,0.000000,1773825422.520712,0.000000
112.000000,3001.593411,5923.167577,3331.080476,7587.590228,-6389.156746,16950.423056,-2267.003330,-11946.627432,10865.942939,13407.246877,-367.976769,16287.425612,15725.636867,14698.261285,5809.844233,-155.277569,0.236000,-0.240000,0.956000,192.000000,0.000000,0.000000,0.000000,0.000000,0.000000,0.000000,0.000000,0.000000,0.000000,1773825422.520731,0.000000
114.000000,2990.529298,5915.724446,3311.902679,7572.167524,-6396.622228,16931.379370,-2282.895420,-11962.273653,10832.392971,13369.159504,-425.085476,16248.555928,15665.868302,14645.913499,5895.406711,448.174828,0.238000,-0.240000,0.957000,192.000000,3.500000,64.000000,124.000000,64.000000,14.500000,120.000000,0.000000,0.000000,0.000000,1773825422.520750,0.000000
116.000000,3018.401923,5943.105333,3343.172770,7600.643647,-6366.805001,16973.132428,-2250.775963,-11932.568184,10848.642689,13397.099185,-391.446101,16275.154504,15708.090747,14688.247703,5830.340782,5.342067,0.238000,-0.240000,0.957000,192.000000,0.000000,0.000000,0.000000,0.000000,0.000000,0.000000,0.000000,0.000000,0.000000,1773825422.520768,0.000000
118.000000,2986.349521,5911.991705,3309.801615,7567.361899,-6411.642600,16922.125747,-2286.047016,-11968.420383,10857.963366,13391.287731,-405.080665,16267.107876,15694.389128,14679.843447,5848.199826,114.932670,0.238000,-0.240000,0.957000,192.000000,0.000000,0.000000,0.000000,0.000000,0.000000,0.000000,0.000000,0.000000,0.000000,1773825422.520787,0.000000
120.000000,3006.577850,5929.336659,3331.348697,7595.927429,-6377.846763,16956.256861,-2255.849809,-11945.867472,10825.106302,13374.143943,-412.635554,16247.415989,15662.068506,14650.406200,5872.160896,383.667694,0.238000,-0.240000,0.957000,192.000000,0.000000,0.000000,0.000000,0.000000,0.000000,0.000000,0.000000,0.000000,0.000000,1773825422.520806,0.000000
122.000000,3000.006437,5923.279336,3329.314688,7585.243295,-6389.469670,16948.366695,-2262.465926,-11951.813036,10861.651404,13403.290618,-387.132214,16276.272091,15713.589277,14678.122363,5808.681942,-149.332005,0.238000,-0.240000,0.957000,192.000000,0.000000,0.000000,0.000000,0.000000,0.000000,0.000000,0.000000,0.000000,0.000000,1773825422.520824,0.000000
124.000000,2991.289257,5918.384304,3304.571307,7569.485315,-6409.563888,16936.989658,-2278.827402,-11963.547702,10849.156779,13381.698833,-427.611223,16248.265356,15663.387258,14654.585976,5881.258056,446.073764,0.238000,-0.240000,0.955500,192.000000,3.500000,56.000000,124.000000,64.000000,14.500000,104.000000,0.000000,0.000000,0.000000,1773825422.520843,0.000000
126.000000,3012.791635,5938.836150,3355.734450,7594.005179,-6368.727251,16970.629033,-2247.289091,-11935.563318,10822.602907,13395.378100,-387.981580,16263.106914,15671.523293,14674.926063,5830.765466,13.522805,0.238000,-0.240000,0.955500,192.000000,0.000000,0.000000,0.000000,0.000000,0.000000,0.000000,0.000000,0.000000,0.000000,1773825422.520861,0.000000
128.000000,2980.359254,5909.711827,3309.265174,7569.462963,-6420.717409,16930.127672,-2283.185993,-11967.548665,10827.520290,13388.873743,-395.648229,16262.861045,15655.586500,14672.802648,5847.216350,112.429275,0.238000,-0.240000,0.955500,192.000000,0.000000,0.000000,0.000000,0.000000,0.000000,0.000000,0.000000,0.000000,0.000000,1773825422.520880,0.000000
130.000000,3007.762493,5934.879891,3333.159188,7592.462908,-6379.746661,16952.524120,-2256.319196,-11941.240661,10832.571785,13379.709527,-417.284717,16250.366420,15664.303680,14644.170063,5873.390242,385.724054,0.238000,-0.240000,0.955500,192.000000,0.000000,0.000000,0.000000,0.000000,0.000000,0.000000,0.000000,0.000000,0.000000,1773825422.520910,0.000000
132.000000,2997.905373,5925.805083,3333.136837,7582.561086,-6394.834089,16940.364771,-2263.158830,-11949.242586,10850.564939,13406.330455,-380.314932,16278.216693,15699.194753,14677.094183,5811.341800,-158.697386,0.238000,-0.240000,0.955500,192.000000,0.000000,0.000000,0.000000,0.000000,0.000000,0.000000,0.000000,0.000000,0.000000,1773825422.520928,0.000000
134.000000,2986.260114,5912.997533,3321.759799,7564.836152,-6413.229574,16920.359960,-2278.045091,-11962.899502,10825.776854,13373.607501,-417.999973,16239.570527,15657.553453,14641.331391,5885.281370,434.652023,0.238000,-0.241000,0.954750,192.000000,3.500000,56.000000,124.000000,56.000000,14.500000,104.000000,0.000000,0.000000,0.000000,1773825422.520947,0.000000
136.000000,3018.536033,5944.669955,3351.286453,7599.101376,-6372.728213,16963.431771,-2243.489294,-11927.337876,10845.781666,13396.093356,-388.249801,16270.751211,15680.084012,14671.573302,5832.821826,4.693866,0.238000,-0.241000,0.954750,192.000000,0.000000,0.000000,0.000000,0.000000,0.000000,0.000000,0.000000,0.000000,0.000000,1773825422.520966,0.000000
138.000000,2990.216373,5917.020847,3312.819101,7564.702042,-6403.439510,16916.917791,-2282.224868,-11961.692507,10845.021706,13392.964112,-395.938801,16268.426629,15679.771087,14661.559720,5849.809152,98.772359,0.238000,-0.241000,0.954750,192.000000,0.000000,0.000000,0.000000,0.000000,0.000000,0.000000,0.000000,0.000000,0.000000,1773825422.520984,0.000000
140.000000,3015.138568,5940.490179,3332.600395,7589.110147,-6385.893391,16948.880786,-2256.252141,-11937.507920,10841.512482,13388.225542,-409.640421,16255.216748,15672.730288,14662.789066,5875.603065,383.958266,0.238000,-0.241000,0.954750,192.000000,0.000000,0.000000,0.000000,0.000000,0.000000,0.000000,0.000000,0.000000,0.000000,1773825422.521002,0.000000
142.000000,3004.007400,5931.527130,3327.034810,7584.818612,-6400.533783,16937.682562,-2263.002367,-11944.861644,10859.975023,13406.688083,-383.377121,16279.043708,15706.302608,14681.899808,5803.496337,-156.372804,0.238000,-0.241000,0.954750,192.000000,0.000000,0.000000,0.000000,0.000000,0.000000,0.000000,0.000000,0.000000,0.000000,1773825422.521021,0.000000
144.000000,2992.250382,5920.060685,3306.739426,7567.652472,-6413.408388,16929.613582,-2281.934295,-11962.407763,10825.240412,13372.959301,-420.860996,16244.890242,15656.726439,14636.615173,5886.443661,441.916340,0.236000,-0.241500,0.956375,192.000000,3.500000,40.000000,124.000000,56.000000,14.500000,120.000000,0.000000,0.000000,0.000000,1773825422.521039,0.000000
146.000000,3042.810028,5966.842886,3299.989200,7608.712627,-6360.077126,16987.348138,-2246.976167,-11923.627487,10872.849628,13408.811499,-396.095263,16277.412030,15729.079035,14683.307968,5825.982192,20.407143,0.236000,-0.241500,0.956375,192.000000,0.000000,0.000000,0.000000,0.000000,0.000000,0.000000,0.000000,0.000000,0.000000,1773825422.521058,0.000000
148.000000,2974.033710,5902.827490,3335.595529,7552.073306,-6416.247060,16908.401776,-2286.471699,-11974.768278,10848.329764,13396.853315,-400.520909,16262.481065,15683.481477,14670.992156,5840.153198,106.193138,0.236000,-0.241500,0.956375,192.000000,0.000000,0.000000,0.000000,0.000000,0.000000,0.000000,0.000000,0.000000,0.000000,1773825422.521076,0.000000
150.000000,3013.283374,5937.204473,3323.078552,7588.081966,-6383.613513,16955.720419,-2258.219094,-11943.118208,10821.306505,13370.098277,-420.101037,16242.073922,15635.559337,14639.610307,5881.816850,390.641438,0.236000,-0.241500,0.956375,192.000000,0.000000,0.000000,0.000000,0.000000,0.000000,0.000000,0.000000,0.000000,0.000000,1773825422.521094,0.000000
152.000000,3010.377647,5933.270566,3324.397305,7579.901228,-6390.319036,16959.028478,-2262.957664,-11943.364077,10875.107154,13405.592848,-395.000028,16278.775487,15717.701997,14688.292407,5808.033741,-155.545790,0.236000,-0.241500,0.956375,192.000000,0.000000,0.000000,0.000000,0.000000,0.000000,0.000000,0.000000,0.000000,0.000000,1773825422.521113,0.000000
154.000000,2992.473899,5918.205490,3304.101921,7560.186989,-6411.307324,16936.430864,-2282.157812,-11962.340708,10816.053845,13372.914597,-412.635554,16241.068094,15663.253148,14651.523787,5883.426176,435.434334,0.240000,-0.241750,0.955188,192.000000,3.500000,80.000000,124.000000,56.000000,14.500000,104.000000,0.000000,0.000000,0.000000,1773825422.521132,0.000000
156.000000,3019.295993,5944.357031,3355.175657,7597.089719,-6360.434754,16974.629995,-2245.344489,-11928.522519,10864.780648,13402.843583,-400.610316,16272.360536,15717.210259,14693.254494,5832.128922,25.279823,0.240000,-0.241750,0.955188,192.000000,0.000000,0.000000,0.000000,0.000000,0.000000,0.000000,0.000000,0.000000,0.000000,1773825422.521150,0.000000
158.000000,2998.441815,5921.513548,3294.401264,7565.506705,-6415.017714,16937.727265,-2283.029530,-11956.886882,10849.648517,13393.500554,-395.245897,16268.717202,15685.359023,14668.444058,5842.388373,103.980315,0.240000,-0.241750,0.955188,192.000000,0.000000,0.000000,0.000000,0.000000,0.000000,0.000000,0.000000,0.000000,0.000000,1773825422.521169,0.000000
160.000000,3015.652658,5937.092714,3334.097962,7585.891495,-6373.421117,16956.189806,-2258.911998,-11934.244565,10830.068389,13379.351900,-417.508235,16247.147768,15656.234700,14663.325508,5884.655521,402.979601,0.240000,-0.241750,0.955188,192.000000,0.000000,0.000000,0.000000,0.000000,0.000000,0.000000,0.000000,0.000000,0.000000,1773825422.521187,0.000000
162.000000,3014.043333,5936.980955,3336.377840,7581.510554,-6383.144126,16943.561070,-2261.728318,-11935.339801,10867.820486,13413.483013,-383.153603,16284.050498,15712.874021,14710.130061,5818.382599,-153.802354,0.240000,-0.241750,0.955188,192.000000,0.000000,0.000000,0.000000,0.000000,0.000000,0.000000,0.000000,0.000000,0.000000,1773825422.521206,0.000000
164.000000,2995.938420,5922.318211,3296.927011,7566.713699,-6399.840879,16925.545564,-2280.839059,-11954.405839,10825.307468,13374.076888,-414.736618,16243.772655,15650.490302,14643.633621,5887.762414,435.099058,0.240000,-0.241750,0.955188,192.000000,0.000000,0.000000,0.000000,0.000000,0.000000,0.000000,0.000000,0.000000,0.000000,1773825422.521224,0.000000
166.000000,3026.403848,5950.704926,3333.270947,7602.923525,-6364.592178,16966.002222,-2245.210379,-11920.811167,10859.706802,13404.274095,-386.998103,16273.679289,15730.196623,14687.733613,5819.522538,34.376983,0.242000,-0.240000,0.952000,192.000000,3.500000,72.000000,124.000000,64.000000,14.500000,96.000000,0.000000,0.000000,0.000000,1773825422.521243,0.000000
168.000000,2990.752815,5918.272545,3306.024171,7566.870161,-6420.337429,16921.455195,-2283.387158,-11958.093877,10861.316128,13396.540391,-403.761912,16266.057344,15710.035349,14670.411011,5839.169722,96.470129,0.242000,-0.240000,0.952000,192.000000,0.000000,0.000000,0.000000,0.000000,0.000000,0.000000,0.000000,0.000000,0.000000,1773825422.521261,0.000000
170.000000,3013.238670,5938.858502,3318.138816,7592.105280,-6385.066376,16949.104303,-2257.369728,-11934.311621,10838.405590,13383.978711,-417.888214,16249.449998,15680.642805,14663.794895,5869.277521,404.343057,0.242000,-0.240000,0.952000,192.000000,0.000000,0.000000,0.000000,0.000000,0.000000,0.000000,0.000000,0.000000,0.000000,1773825422.521279,0.000000
172.000000,3004.633248,5931.862406,3313.981392,7587.970208,-6385.491059,16933.011047,-2264.634045,-11942.827635,10849.983793,13402.284789,-397.816348,16275.221559,15676.105401,14677.272997,5814.202823,-155.210513,0.242000,-0.240000,0.952000,192.000000,0.000000,0.000000,0.000000,0.000000,0.000000,0.000000,0.000000,0.000000,0.000000,1773825422.521298,0.000000
174.000000,2992.652713,5920.485368,3311.187424,7566.937216,-6423.198452,16913.632085,-2281.777833,-11954.651708,10827.967325,13384.179876,-416.725924,16250.746399,15670.562168,14662.342031,5871.713861,439.368241,0.242000,-0.240000,0.952000,192.000000,0.000000,0.000000,0.000000,0.000000,0.000000,0.000000,0.000000,0.000000,0.000000,1773825422.521317,0.000000
176.000000,3031.075362,5956.337566,3340.445857,7605.181051,-6371.051833,16960.347230,-2245.836228,-11919.470062,10871.195599,13407.179821,-396.341133,16274.282786,15702.122832,14682.212732,5826.183358,35.785143,0.240000,-0.238000,0.960000,192.000000,3.500000,64.000000,124.000000,72.000000,15.000000,0.000000,0.000000,0.000000,0.000000,1773825422.521335,0.000000
178.000000,3006.399036,5934.768133,3305.353618,7570.044109,-6418.415179,16933.815710,-2280.503783,-11946.828597,10835.388104,13400.787222,-379.577324,16273.433420,15682.587407,14684.805534,5835.995774,91.239821,0.240000,-0.238000,0.960000,192.000000,0.000000,0.000000,0.000000,0.000000,0.000000,0.000000,0.000000,0.000000,0.000000,1773825422.521353,0.000000
180.000000,3031.924728,5956.941063,3322.050371,7596.866202,-6377.198562,16972.081896,-2257.928521,-11924.700370,10876.090631,13407.805670,-409.506310,16270.035955,15723.155823,14684.090279,5860.761507,412.412037,0.240000,-0.238000,0.960000,192.000000,0.000000,0.000000,0.000000,0.000000,0.000000,0.000000,0.000000,0.000000,0.000000,1773825422.521372,0.000000
182.000000,3019.228938,5947.910958,3317.490616,7586.472641,-6386.809812,16969.220873,-2265.304597,-11933.305792,10859.036250,13417.886307,-375.397548,16285.905693,15674.071392,14701.435232,5817.622640,-154.338795,0.240000,-0.238000,0.960000,192.000000,0.000000,0.000000,0.000000,0.000000,0.000000,0.000000,0.000000,0.000000,0.000000,1773825422.521390,0.000000
184.000000,3005.996705,5937.539749,3323.994973,7566.110202,-6401.718426,16936.050884,-2280.168507,-11946.403914,10874.570712,13399.870801,-422.380915,16258.904786,15701.876962,14684.269093,5874.217257,446.252578,0.240000,-0.238000,0.960000,192.000000,0.000000,0.000000,0.000000,0.000000,0.000000,0.000000,0.000000,0.000000,0.000000,1773825422.521409,0.000000
186.000000,3031.723563,5960.383232,3345.050316,7600.755406,-6364.502771,16965.868111,-2247.646719,-11918.419530,10847.212177,13410.242010,-373.542353,16276.450905,15688.220047,14705.994988,5831.458370,35.718088,0.238000,-0.238000,0.954000,192.000000,3.500000,56.000000,124.000000,72.000000,14.500000,104.000000,0.000000,0.000000,0.000000,1773825422.521427,0.000000
188.000000,3001.034618,5928.934327,3294.110691,7561.706908,-6413.140167,16922.572782,-2285.331760,-11955.858702,10860.511465,13402.798879,-390.641438,16270.639452,15700.155878,14672.556778,5836.286346,85.003684,0.238000,-0.238000,0.954000,192.000000,0.000000,0.000000,0.000000,0.000000,0.000000,0.000000,0.000000,0.000000,0.000000,1773825422.521446,0.000000
190.000000,3017.172577,5942.837112,3327.839473,7585.600923,-6369.956597,16947.070294,-2259.649606,-11934.110455,10854.320032,13386.459754,-419.028153,16249.986440,15669.981023,14657.603461,5876.698300,406.287659,0.238000,-0.238000,0.954000,192.000000,0.000000,0.000000,0.000000,0.000000,0.000000,0.000000,0.000000,0.000000,0.000000,1773825422.521464,0.000000
192.000000,3005.795539,5933.561138,3346.637290,7579.498897,-6393.984722,16947.360867,-2262.868257,-11938.491397,10854.521198,13411.113728,-368.513211,16279.647205,15706.906105,14698.775375,5804.837442,-154.115278,0.238000,-0.238000,0.954000,192.000000,0.000000,0.000000,0.000000,0.000000,0.000000,0.000000,0.000000,0.000000,0.000000,1773825422.521482,0.000000
194.000000,3008.880080,5934.701077,3287.271057,7571.318158,-6407.328714,16948.925489,-2280.704949,-11947.834426,10838.740866,13381.520019,-411.920299,16248.332411,15666.829427,14665.471276,5877.435908,433.534435,0.238000,-0.238000,0.954000,192.000000,0.000000,0.000000,0.000000,0.000000,0.000000,0.000000,0.000000,0.000000,0.000000,1773825422.521501,0.000000
196.000000,3024.503949,5950.548464,3365.189238,7598.587286,-6375.142202,16967.119809,-2244.539826,-11917.458405,10865.630015,13403.871763,-387.221621,16276.093277,15677.267692,14691.533410,5829.580823,44.904655,0.236000,-0.230000,0.964000,192.000000,3.500000,48.000000,124.000000,104.000000,15.000000,16.000000,0.000000,0.000000,0.000000,1773825422.521519,0.000000
198.000000,2998.151243,5928.286127,3294.803595,7562.735088,-6408.133377,16932.653419,-2285.287057,-11952.215368,10843.255918,13399.200249,-386.618124,16272.047612,15683.213256,14687.845372,5836.331050,75.034806,0.236000,-0.230000,0.964000,192.000000,0.000000,0.000000,0.000000,0.000000,0.000000,0.000000,0.000000,0.000000,0.000000,1773825422.521537,0.000000
200.000000,3027.119103,5951.755458,3325.783113,7590.384196,-6384.619341,16949.394876,-2257.727356,-11922.331085,10843.814712,13387.219714,-424.191406,16260.894091,15678.005299,14674.791953,5873.166725,413.216700,0.236000,-0.230000,0.964000,192.000000,0.000000,0.000000,0.000000,0.000000,0.000000,0.000000,0.000000,0.000000,0.000000,1773825422.521556,0.000000
202.000000,3017.776074,5944.066458,3318.898775,7584.237466,-6385.960446,16949.059600,-2262.153001,-11929.774216,10875.911817,13416.969885,-368.937894,16290.107821,15733.102349,14703.446889,5801.864660,-157.155115,0.236000,-0.230000,0.964000,192.000000,0.000000,0.000000,0.000000,0.000000,0.000000,0.000000,0.000000,0.000000,0.000000,1773825422.521574,0.000000
204.000000,3010.601164,5937.360935,3296.323514,7570.222923,-6406.032313,16933.435730,-2280.593190,-11944.638126,10864.132448,13391.421842,-421.799770,16254.322678,15689.918779,14680.782220,5876.698300,432.394496,0.236000,-0.230000,0.964000,192.000000,0.000000,0.000000,0.000000,0.000000,0.000000,0.000000,0.000000,0.000000,0.000000,1773825422.521592,0.000000
206.000000,3033.310537,5960.338528,3355.265064,7598.475528,-6369.397803,16957.776780,-2244.472771,-11910.261143,10860.600872,13410.666694,-375.308141,16281.770621,15695.014977,14698.417747,5823.657611,48.905617,0.234000,-0.236000,0.956000,192.000000,3.500000,40.000000,124.000000,80.000000,14.500000,112.000000,0.000000,0.000000,0.000000,1773825422.521611,0.000000
208.000000,2998.039484,5926.788560,3299.497461,7558.868236,-6407.596935,16912.715663,-2284.191821,-11948.214406,10855.616433,13403.916467,-385.098205,16272.628757,15683.414421,14675.931892,5838.141541,71.659693,0.234000,-0.236000,0.956000,192.000000,0.000000,0.000000,0.000000,0.000000,0.000000,0.000000,0.000000,0.000000,0.000000,1773825422.521630,0.000000
210.000000,3011.271717,5940.713697,3339.752953,7583.633969,-6388.977932,16956.167454,-2260.297806,-11932.925812,10826.425055,13380.804763,-407.226432,16250.277013,15646.489340,14654.161293,5877.905295,413.931956,0.234000,-0.236000,0.956000,192.000000,0.000000,0.000000,0.000000,0.000000,0.000000,0.000000,0.000000,0.000000,0.000000,1773825423.002193,0.000000
212.000000,3018.983068,5947.419220,3309.935726,7585.623275,-6380.305455,16959.699030,-2260.990710,-11929.908327,10870.457991,13420.568516,-386.551069,16287.760888,15734.398751,14696.361386,5799.361265,-153.020043,0.234000,-0.236000,0.956000,192.000000,0.000000,0.000000,0.000000,0.000000,0.000000,0.000000,0.000000,0.000000,0.000000,1773825423.002260,0.000000
214.000000,2995.089054,5921.446493,3316.954174,7561.863370,-6398.432720,16936.252050,-2282.247219,-11954.651708,10855.817599,13392.114746,-413.171996,16257.071943,15682.274483,14668.756982,5878.397033,421.375086,0.234000,-0.236000,0.956000,192.000000,0.000000,0.000000,0.000000,0.000000,0.000000,0.000000,0.000000,0.000000,0.000000,1773825423.002317,0.000000
216.000000,3025.018039,5952.180141,3348.760706,7598.319065,-6375.812754,16969.869074,-2247.043222,-11920.140615,10857.941015,13396.093356,-381.633685,16271.444115,15696.132564,14676.669499,5829.580823,51.252550,0.236000,-0.238000,0.954000,192.000000,3.500000,48.000000,124.000000,72.000000,14.500000,104.000000,0.000000,0.000000,0.000000,1773825423.002369,0.000000
218.000000,2989.210545,5921.938231,3291.920220,7565.126725,-6399.952638,16924.673846,-2285.912905,-11956.506903,10854.409439,13398.194420,-391.244935,16269.812437,15697.183096,14678.591750,5840.063791,72.330245,0.236000,-0.238000,0.954000,192.000000,0.000000,0.000000,0.000000,0.000000,0.000000,0.000000,0.000000,0.000000,0.000000,1773825423.002427,0.000000
220.000000,3007.717789,5941.272490,3339.440029,7584.371577,-6377.399728,16955.631012,-2261.013062,-11934.758655,10829.733113,13386.079775,-408.478130,16252.288670,15662.180264,14663.616081,5881.146298,420.369258,0.236000,-0.238000,0.954000,192.000000,0.000000,0.000000,0.000000,0.000000,0.000000,0.000000,0.000000,0.000000,0.000000,1773825423.002479,0.000000
222.000000,3008.544804,5938.992612,3330.946366,7586.740862,-6379.992530,16956.547434,-2261.907132,-11936.904423,10869.340404,13414.444138,-375.956342,16284.542237,15717.053797,14696.920180,5807.743169,-149.890798,0.236000,-0.238000,0.954000,192.000000,0.000000,0.000000,0.000000,0.000000,0.000000,0.000000,0.000000,0.000000,0.000000,1773825423.002498,0.000000
224.000000,2999.447644,5931.370667,3306.113578,7566.959568,-6396.175193,16939.627163,-2281.062577,-11950.583690,10837.936203,13381.967054,-409.439255,16251.573414,15670.070430,14672.981462,5884.901391,425.107828,0.236000,-0.238000,0.954000,192.000000,0.000000,0.000000,0.000000,0.000000,0.000000,0.000000,0.000000,0.000000,0.000000,1773825423.002517,0.000000
226.000000,3035.746877,5966.105278,3328.420619,7602.476490,-6357.350213,16984.710632,-2247.043222,-11915.133824,10873.542532,13410.711397,-389.166223,16281.949435,15722.060588,14694.573247,5833.224157,63.054271,0.234000,-0.237000,0.956000,192.000000,3.500000,32.000000,124.000000,80.000000,14.500000,120.000000,0.000000,0.000000,0.000000,1773825423.002535,0.000000
228.000000,2986.327170,5920.261850,3324.732581,7560.432859,-6409.027446,16927.490166,-2284.907077,-11957.959766,10873.654291,13410.666694,-398.598659,16278.641376,15710.147108,14683.978520,5839.750867,69.916257,0.234000,-0.237000,0.956000,192.000000,0.000000,0.000000,0.000000,0.000000,0.000000,0.000000,0.000000,0.000000,0.000000,1773825423.002554,0.000000
230.000000,3019.318345,5952.694232,3334.969680,7585.220943,-6382.987664,16959.676678,-2258.643777,-11928.746036,10827.475587,13381.944702,-401.616144,16255.686135,15649.976212,14659.257491,5879.626379,419.966927,0.234000,-0.237000,0.956000,192.000000,0.000000,0.000000,0.000000,0.000000,0.000000,0.000000,0.000000,0.000000,0.000000,1773825423.002572,0.000000
232.000000,3005.259097,5944.871121,3336.623709,7582.829306,-6389.559077,16956.346268,-2261.907132,-11936.703257,10865.853532,13424.792996,-364.802821,16293.192362,15720.093634,14717.081453,5800.389445,-159.747918,0.234000,-0.237000,0.956000,192.000000,0.000000,0.000000,0.000000,0.000000,0.000000,0.000000,0.000000,0.000000,0.000000,1773825423.002591,0.000000
234.000000,2987.467109,5928.710810,3292.613124,7563.316234,-6414.838900,16935.514442,-2285.421167,-11959.077353,10832.705895,13389.767812,-421.822121,16255.753190,15645.572918,14676.714203,5881.235705,420.659831,0.234000,-0.237000,0.956000,192.000000,0.000000,0.000000,0.000000,0.000000,0.000000,0.000000,0.000000,0.000000,0.000000,1773825423.002609,0.000000
236.000000,3022.559347,5961.411412,3342.233997,7597.000312,-6377.869115,16970.941957,-2247.356146,-11920.587649,10849.223834,13416.120519,-393.614220,16276.875589,15683.995567,14710.331227,5826.563338,63.277789,0.235000,-0.238500,0.956000,192.000000,3.500000,48.000000,124.000000,64.000000,14.500000,112.000000,0.000000,0.000000,0.000000,1773825423.002628,0.000000
238.000000,2992.540955,5931.549481,3304.459549,7565.707870,-6420.516243,16925.791434,-2286.874030,-11957.512731,10871.106192,13424.234202,-402.130234,16279.960129,15712.739910,14701.122308,5825.110474,67.569323,0.235000,-0.238500,0.956000,192.000000,0.000000,0.000000,0.000000,0.000000,0.000000,0.000000,0.000000,0.000000,0.000000,1773825423.002662,0.000000
240.000000,3009.528280,5939.394944,3320.619860,7587.277304,-6385.759280,16956.614489,-2261.705966,-11932.769350,10830.805997,13381.698833,-410.065104,16251.327545,15649.730343,14665.895959,5874.440774,426.739505,0.235000,-0.238500,0.956000,192.000000,0.000000,0.000000,0.000000,0.000000,0.000000,0.000000,0.000000,0.000000,0.000000,1773825423.002681,0.000000
242.000000,3011.450530,5938.187949,3325.671354,7582.024644,-6390.162574,16962.805922,-2261.817725,-11929.617754,10882.483230,13412.655999,-373.855278,16289.861952,15745.619326,14699.445927,5792.454576,-150.360185,0.235000,-0.238500,0.956000,192.000000,0.000000,0.000000,0.000000,0.000000,0.000000,0.000000,0.000000,0.000000,0.000000,1773825423.002700,0.000000
244.000000,2996.743083,5924.732199,3299.676275,7562.377460,-6409.094502,16931.222907,-2282.515440,-11943.386429,10859.058602,13383.576379,-415.295412,16257.988364,15683.503828,14668.041726,5865.790649,425.532511,0.235000,-0.238500,0.956000,192.000000,0.000000,0.000000,0.000000,0.000000,0.000000,0.000000,0.000000,0.000000,0.000000,1773825423.002718,0.000000
246.000000,3033.802275,5961.433764,3339.417677,7598.319065,-6378.249094,16963.968213,-2244.964510,-11905.567277,10859.125657,13390.974807,-382.460699,16278.931949,15691.952788,14689.365290,5831.368963,66.876419,0.234500,-0.238250,0.959000,192.000000,3.500000,40.000000,124.000000,72.000000,15.000000,8.000000,0.000000,0.000000,0.000000,1773825423.002749,0.000000
248.000000,3013.573946,5946.055763,3281.213734,7562.802143,-6397.270429,16926.327875,-2282.940123,-11938.737266,10870.055660,13406.375159,-389.836775,16274.662766,15714.572753,14694.707357,5829.402009,54.895884,0.234500,-0.238250,0.959000,192.000000,0.000000,0.000000,0.000000,0.000000,0.000000,0.000000,0.000000,0.000000,0.000000,1773825423.002765,0.000000
250.000000,3009.818853,5941.920691,3357.679052,7581.063519,-6386.385129,16929.412416,-2259.247274,-11920.297077,10859.036250,13386.236237,-407.449950,16272.561702,15677.491209,14660.129209,5868.450507,425.778380,0.234500,-0.238250,0.959000,192.000000,0.000000,0.000000,0.000000,0.000000,0.000000,0.000000,0.000000,0.000000,0.000000,1773825423.002784,0.000000
252.000000,3019.184234,5952.671880,3327.884177,7582.851658,-6386.854516,16943.538719,-2258.107335,-11919.648876,10841.400724,13400.183725,-357.963187,16287.291501,15674.987814,14679.843447,5807.206727,-155.322272,0.234500,-0.238250,0.959000,192.000000,0.000000,0.000000,0.000000,0.000000,0.000000,0.000000,0.000000,0.000000,0.000000,1773825423.002801,0.000000
254.000000,3000.788748,5934.410505,3307.007647,7558.152981,-6411.217917,16924.226811,-2284.348283,-11945.621603,10845.826369,13384.425746,-403.001953,16260.022373,15663.789590,14669.427534,5871.847972,415.407171,0.234500,-0.238250,0.959000,192.000000,0.000000,0.000000,0.000000,0.000000,0.000000,0.000000,0.000000,0.000000,0.000000,1773825423.002819,0.000000
0.000000,3038.183217,5969.011005,3333.226244,7600.911868,-6365.486248,16980.754373,-2248.540789,-11911.289324,10890.619265,13409.012664,-392.921316,16280.764792,15731.805948,14697.322511,5825.155178,76.577077,0.235250,-0.240125,0.961500,192.000000,3.500000,48.000000,124.000000,56.000000,15.000000,16.000000,0.000000,0.000000,0.000000,1773825423.002838,0.000000
2.000000,3008.142472,5940.400772,3304.794825,7564.523228,-6409.787406,16944.142216,-2284.325932,-11944.146388,10853.090686,13401.949513,-376.135156,16281.882379,15699.373567,14696.584904,5826.228061,53.107745,0.235250,-0.240125,0.961500,192.000000,0.000000,0.000000,0.000000,0.000000,0.000000,0.000000,0.000000,0.000000,0.000000,1773825423.002856,0.000000
4.000000,3027.677897,5958.013947,3331.572215,7584.148059,-6377.287969,16960.034306,-2262.532981,-11927.069655,10870.323881,13404.810536,-410.065104,16268.381926,15714.595105,14699.557686,5865.857704,434.964947,0.235250,-0.240125,0.961500,192.000000,0.000000,0.000000,0.000000,0.000000,0.000000,0.000000,0.000000,0.000000,0.000000,1773825423.002874,0.000000
6.000000,3022.380534,5951.576644,3321.133950,7587.925504,-6378.070280,16951.853568,-2264.790507,-11934.132807,10867.999300,13414.645304,-374.101147,16288.945531,15701.966369,14691.622817,5807.921983,-149.756688,0.235250,-0.240125,0.961500,192.000000,0.000000,0.000000,0.000000,0.000000,0.000000,0.000000,0.000000,0.000000,0.000000,1773825423.002892,0.000000
8.000000,3004.074455,5933.516435,3320.373991,7559.807010,-6410.122682,16929.993562,-2283.476565,-11951.969499,10860.734983,13386.929141,-415.138950,16253.473312,15676.015994,14675.194284,5873.971388,429.600528,0.235250,-0.240125,0.961500,192.000000,0.000000,0.000000,0.000000,0.000000,0.000000,0.000000,0.000000,0.000000,0.000000,1773825423.002911,0.000000
10.000000,3031.790618,5964.227732,3339.551787,7596.083891,-6361.284120,16986.834048,-2247.199684,-11917.525460,10860.533817,13408.520926,-376.850412,16271.667632,15705.900276,14711.940552,5829.871396,81.539164,0.234625,-0.241063,0.961750,192.000000,3.500000,40.000000,124.000000,56.000000,15.000000,8.000000,0.000000,0.000000,0.000000,1773825423.002929,0.000000
12.000000,3003.269792,5938.344412,3308.706380,7567.317196,-6411.575545,16944.209271,-2282.560144,-11948.817903,10854.029459,13404.475260,-387.512194,16274.998042,15681.358061,14685.677252,5832.732419,55.365271,0.234625,-0.241063,0.961750,192.000000,0.000000,0.000000,0.000000,0.000000,0.000000,0.000000,0.000000,0.000000,0.000000,1773825423.002948,0.000000
14.000000,3032.036487,5967.893418,3311.768569,7588.573705,-6376.751527,16970.249053,-2259.716661,-11921.034684,10894.486117,13408.006836,-421.240976,16267.376097,15724.586335,14698.887133,5862.192018,444.911473,0.234625,-0.241063,0.961750,192.000000,0.000000,0.000000,0.000000,0.000000,0.000000,0.000000,0.000000,0.000000,0.000000,1773825423.002966,0.000000
16.000000,3023.319307,5957.857485,3329.649965,7588.260780,-6383.859382,16955.698068,-2257.883818,-11919.693580,10871.419116,13430.872671,-365.696891,16294.354653,15736.432759,14711.314703,5799.405968,-147.007423,0.234625,-0.241063,0.961750,192.000000,0.000000,0.000000,0.000000,0.000000,0.000000,0.000000,0.000000,0.000000,0.000000,1773825423.002985,0.000000
18.000000,2992.496251,5926.229766,3313.400246,7557.638890,-6408.379246,16930.015913,-2284.705911,-11950.762504,10829.040209,13380.290673,-405.460644,16260.804684,15653.664250,14662.565549,5881.146298,410.512139,0.234625,-0.241063,0.961750,192.000000,0.000000,0.000000,0.000000,0.000000,0.000000,0.000000,0.000000,0.000000,0.000000,1773825423.003004,0.000000
20.000000,3039.770191,5969.815668,3332.019249,7594.496917,-6361.842914,16973.601815,-2245.724469,-11909.791757,10872.737869,13409.146775,-386.796938,16277.546141,15723.535803,14692.695700,5829.200843,80.242763,0.235313,-0.239531,0.959875,192.000000,3.500000,48.000000,124.000000,72.000000,14.500000,120.000000,0.000000,0.000000,0.000000,1773825423.003023,0.000000
22.000000,3009.438873,5939.260833,3304.034865,7561.528094,-6406.814624,16931.960515,-2281.151984,-11945.196920,10870.770916,13406.956304,-378.079757,16275.869760,15712.248172,14685.744308,5825.065771,40.858989,0.235313,-0.239531,0.959875,192.000000,0.000000,0.000000,0.000000,0.000000,0.000000,0.000000,0.000000,0.000000,0.000000,1773825423.003041,0.000000
24.000000,3022.469940,5953.118915,3345.475000,7575.095603,-6387.010978,16956.189806,-2259.694309,-11928.768388,10861.696108,13395.199286,-407.405246,16252.735705,15693.450355,14678.591750,5875.468954,435.903720,0.235313,-0.239531,0.959875,192.000000,0.000000,0.000000,0.000000,0.000000,0.000000,0.000000,0.000000,0.000000,0.000000,1773825423.003060,0.000000
26.000000,3032.483522,5961.500819,3337.383668,7588.037263,-6378.964350,16960.771914,-2256.028623,-11923.448673,10874.637768,13418.556859,-362.902923,16289.929007,15725.189832,14694.148564,5801.797605,-154.539961,0.235313,-0.239531,0.959875,192.000000,0.000000,0.000000,0.000000,0.000000,0.000000,0.000000,0.000000,0.000000,0.000000,1773825423.003083,0.000000
28.000000,3010.399998,5939.082019,3295.250630,7557.951815,-6402.545441,16927.870146,-2283.655379,-11951.410705,10876.515314,13395.981597,-415.116598,16261.296423,15717.344370,14679.351709,5871.579751,401.526737,0.235313,-0.239531,0.959875,192.000000,0.000000,0.000000,0.000000,0.000000,0.000000,0.000000,0.000000,0.000000,0.000000,1773825423.003101,0.000000
30.000000,3038.227920,5964.764174,3351.532322,7598.207307,-6374.426946,16966.873940,-2244.495123,-11913.636257,10852.688355,13400.966036,-380.650208,16273.902807,15693.606817,14686.906598,5837.515692,82.008550,0.238656,-0.237766,0.963938,192.000000,3.500000,72.000000,124.000000,80.000000,15.000000,32.000000,0.000000,0.000000,0.000000,1773825423.003120,0.000000
32.000000,3010.131778,5939.238481,3316.596546,7563.092716,-6415.800025,16927.400759,-2279.497955,-11946.672135,10878.214047,13404.117632,-381.991313,16281.412993,15721.747663,14692.606293,5823.724666,37.215655,0.238656,-0.237766,0.963938,192.000000,0.000000,0.000000,0.000000,0.000000,0.000000,0.000000,0.000000,0.000000,0.000000,1773825423.003139,0.000000
34.000000,3033.064667,5962.238426,3323.480883,7592.261743,-6389.469670,16954.513425,-2257.012100,-11921.906402,10856.354041,13398.328531,-408.656944,16261.050553,15677.066526,14670.567473,5874.664292,432.573310,0.238656,-0.237766,0.963938,192.000000,0.000000,0.000000,0.000000,0.000000,0.000000,0.000000,0.000000,0.000000,0.000000,1773825423.003157,0.000000
36.000000,3032.394115,5961.858447,3334.433238,7586.293827,-6385.178135,16958.223815,-2256.319196,-11921.034684,10872.670814,13413.795938,-361.762984,16299.272036,15725.860384,14700.675273,5796.768462,-148.750859,0.238656,-0.237766,0.963938,192.000000,0.000000,0.000000,0.000000,0.000000,0.000000,0.000000,0.000000,0.000000,0.000000,1773825423.003175,0.000000
38.000000,3010.601164,5940.333717,3315.881290,7564.523228,-6408.155728,16925.702027,-2281.353150,-11944.146388,10850.766105,13395.311045,-402.778435,16262.369306,15676.507732,14686.012529,5866.908236,409.372200,0.238656,-0.237766,0.963938,192.000000,0.000000,0.000000,0.000000,0.000000,0.000000,0.000000,0.000000,0.000000,0.000000,1773825423.003194,0.000000
40.000000,3045.782810,5973.190781,3341.183465,7606.589211,-6377.980873,16986.029385,-2243.310481,-11905.790795,10863.774820,13408.409167,-371.821269,16279.066059,15702.100480,14696.897828,5827.658573,91.642152,0.238656,-0.237766,0.963938,192.000000,0.000000,0.000000,0.000000,0.000000,0.000000,0.000000,0.000000,0.000000,0.000000,1773825423.003212,0.000000
42.000000,3010.489405,5940.266662,3301.956153,7566.646643,-6413.140167,16932.452253,-2279.453251,-11940.905385,10878.281102,13413.460662,-388.607429,16288.789068,15718.797233,14708.900715,5824.618736,35.248701,0.238000,-0.238000,0.956000,192.000000,3.500000,56.000000,124.000000,72.000000,14.500000,112.000000,0.000000,0.000000,0.000000,1773825423.003231,0.000000
44.000000,3021.620574,5949.587339,3331.348697,7585.332702,-6381.266580,16951.741809,-2260.364862,-11926.242641,10853.671831,13387.152658,-401.906717,16253.786236,15665.622433,14671.081563,5879.246399,439.167075,0.238000,-0.238000,0.956000,192.000000,0.000000,0.000000,0.000000,0.000000,0.000000,0.000000,0.000000,0.000000,0.000000,1773825423.003249,0.000000
46.000000,3025.487426,5951.643700,3336.623709,7588.461946,-6392.084824,16941.661172,-2255.715699,-11920.811167,10870.636805,13412.119557,-366.725071,16286.263321,15717.009093,14697.389567,5804.301000,-148.572045,0.238000,-0.238000,0.956000,192.000000,0.000000,0.000000,0.000000,0.000000,0.000000,0.000000,0.000000,0.000000,0.000000,1773825423.003268,0.000000
48.000000,3010.645868,5939.797275,3305.264211,7563.562103,-6408.558060,16921.276381,-2279.699120,-11938.781969,10866.680547,13384.313987,-403.896022,16254.725010,15689.114116,14671.752116,5871.423289,399.693894,0.238000,-0.238000,0.956000,192.000000,0.000000,0.000000,0.000000,0.000000,0.000000,0.000000,0.000000,0.000000,0.000000,1773825423.003286,0.000000
50.000000,3053.203589,5978.130517,3350.995880,7603.370560,-6376.304493,16977.222798,-2239.130704,-11898.302960,10884.718404,13416.120519,-371.240124,16281.010661,15737.863271,14700.474107,5827.502111,95.531356,0.238000,-0.238000,0.956000,192.000000,0.000000,0.000000,0.000000,0.000000,0.000000,0.000000,0.000000,0.000000,0.000000,1773825423.003304,0.000000
52.000000,3009.349466,5937.696211,3325.447837,7567.384251,-6409.474481,16924.673846,-2277.620408,-11942.671173,10881.164477,13410.420824,-376.090452,16278.663728,15714.595105,14686.996005,5831.413666,24.631622,0.240000,-0.244000,0.956000,192.000000,3.500000,64.000000,124.000000,48.000000,14.500000,112.000000,0.000000,0.000000,0.000000,1773825423.003323,0.000000
54.000000,3035.456304,5963.266607,3335.729639,7590.183030,-6386.809812,16953.865225,-2254.128725,-11916.027894,10854.431791,13388.784336,-390.797900,16252.959222,15675.278387,14664.577206,5881.973312,434.875540,0.240000,-0.244000,0.956000,192.000000,0.000000,0.000000,0.000000,0.000000,0.000000,0.000000,0.000000,0.000000,0.000000,1773825423.003342,0.000000
56.000000,3029.667202,5960.226769,3340.669375,7590.875934,-6375.589237,16954.446370,-2253.726393,-11920.587649,10897.056567,13429.263345,-364.825173,16297.349786,15744.255870,14712.387587,5799.785948,-153.802354,0.240000,-0.244000,0.956000,192.000000,0.000000,0.000000,0.000000,0.000000,0.000000,0.000000,0.000000,0.000000,0.000000,1773825423.003360,0.000000
58.000000,2996.385455,5928.934327,3312.684990,7560.432859,-6403.439510,16918.124785,-2282.738958,-11955.903406,10841.758352,13390.080737,-405.505348,16241.023390,15665.175398,14661.470313,5886.801289,397.414016,0.240000,-0.244000,0.956000,192.000000,0.000000,0.000000,0.000000,0.000000,0.000000,0.000000,0.000000,0.000000,0.000000,1773825423.003381,0.000000
60.000000,3041.848903,5968.429860,3332.734505,7608.265592,-6370.671853,16979.234455,-2240.136533,-11910.507013,10883.533762,13412.320723,-395.827043,16273.500475,15737.125663,14698.149526,5837.649803,104.986144,0.240000,-0.244000,0.956000,192.000000,0.000000,0.000000,0.000000,0.000000,0.000000,0.000000,0.000000,0.000000,0.000000,1773825423.003400,0.000000
62.000000,3005.773187,5931.929461,3303.833700,7568.323024,-6403.819490,16939.805977,-2279.296789,-11951.902443,10870.547398,13413.326551,-377.185688,16274.908635,15722.887602,14696.182572,5823.925832,33.393506,0.242000,-0.240000,0.954000,192.000000,3.500000,72.000000,124.000000,64.000000,14.500000,104.000000,0.000000,0.000000,0.000000,1773825423.003418,0.000000
64.000000,3018.983068,5944.222920,3345.229130,7581.108222,-6387.703882,16964.638765,-2260.901303,-11937.597327,10842.250090,13384.470449,-404.007781,16242.655068,15656.905253,14680.111668,5891.629266,445.671433,0.242000,-0.240000,0.954000,192.000000,0.000000,0.000000,0.000000,0.000000,0.000000,0.000000,0.000000,0.000000,0.000000,1773825423.003437,0.000000
66.000000,3029.153112,5951.777810,3339.440029,7586.405586,-6366.961463,16967.812713,-2255.559236,-11932.210557,10893.860268,13419.763854,-371.396586,16280.697737,15745.954602,14718.623724,5811.967649,-148.236769,0.242000,-0.240000,0.954000,192.000000,0.000000,0.000000,0.000000,0.000000,0.000000,0.000000,0.000000,0.000000,0.000000,1773825423.003455,0.000000
68.000000,3000.095844,5923.592260,3313.847281,7558.085925,-6400.243211,16930.172375,-2286.896382,-11964.754696,10850.006145,13386.795030,-397.838700,16242.789178,15672.149142,14668.064078,5890.198754,397.078740,0.242000,-0.240000,0.954000,192.000000,0.000000,0.000000,0.000000,0.000000,0.000000,0.000000,0.000000,0.000000,0.000000,1773825423.003474,0.000000
70.000000,3041.133647,5962.014909,3350.437087,7594.116937,-6357.305510,16974.205312,-2246.327966,-11922.398141,10881.857381,13409.370292,-391.557859,16263.129266,15728.609649,14695.467317,5842.321317,114.440932,0.242000,-0.240000,0.954000,192.000000,0.000000,0.000000,0.000000,0.000000,0.000000,0.000000,0.000000,0.000000,0.000000,1773825423.003493,0.000000
72.000000,3015.831472,5936.399810,3311.343886,7563.495048,-6400.980818,16934.508614,-2280.749652,-11952.863568,10885.478364,13411.918391,-378.526792,16262.950452,15717.545535,14692.002796,5839.952033,25.168064,0.240000,-0.242000,0.946000,192.000000,3.500000,64.000000,124.000000,56.000000,14.500000,72.000000,0.000000,0.000000,0.000000,1773825423.003511,0.000000
74.000000,3034.986917,5955.152923,3331.751029,7583.522211,-6372.616455,16946.936184,-2259.403737,-11930.400065,10888.160573,13389.723109,-408.567537,16253.272146,15705.073262,14665.627738,5883.984969,449.448878,0.240000,-0.242000,0.946000,192.000000,0.000000,0.000000,0.000000,0.000000,0.000000,0.000000,0.000000,0.000000,0.000000,1773825423.482393,0.000000
76.000000,3033.668164,5957.790429,3327.861825,7587.165545,-6370.738908,16971.254882,-2256.945045,-11928.589574,10885.411308,13429.397455,-354.051632,16284.475182,15751.699001,14708.744253,5811.028875,-145.040470,0.240000,-0.242000,0.946000,192.000000,0.000000,0.000000,0.000000,0.000000,0.000000,0.000000,0.000000,0.000000,0.000000,1773825423.482455,0.000000
78.000000,3003.962696,5933.024696,3316.775360,7567.496010,-6401.785481,16941.415303,-2282.515440,-11950.941318,10870.703861,13403.357673,-411.562671,16255.350859,15719.780710,14682.346843,5884.275542,401.057351,0.240000,-0.242000,0.946000,192.000000,0.000000,0.000000,0.000000,0.000000,0.000000,0.000000,0.000000,0.000000,0.000000,1773825423.482503,0.000000
80.000000,3036.529188,5968.206342,3353.454572,7600.040150,-6361.328824,16982.698975,-2245.925635,-11913.859774,10876.291797,13412.387778,-379.733787,16271.958205,15697.764241,14693.142735,5841.941338,116.184368,0.240000,-0.242000,0.946000,192.000000,0.000000,0.000000,0.000000,0.000000,0.000000,0.000000,0.000000,0.000000,0.000000,1773825423.482558,0.000000
82.000000,3009.841205,5940.065496,3325.179616,7569.105335,-6397.650408,16940.990620,-2279.587362,-11944.056981,10892.317997,13420.859089,-376.202211,16277.501437,15728.095559,14705.592657,5832.866530,24.385753,0.236000,-0.238000,0.946000,192.000000,3.500000,48.000000,124.000000,72.000000,14.500000,72.000000,0.000000,0.000000,0.000000,1773825423.482601,0.000000
84.000000,3025.621536,5953.163618,3332.198063,7586.450289,-6372.370585,16960.749562,-2264.701100,-11928.857795,10850.408477,13398.105013,-396.139967,16257.675440,15677.580616,14671.036860,5887.784766,455.550904,0.236000,-0.238000,0.946000,192.000000,0.000000,0.000000,0.000000,0.000000,0.000000,0.000000,0.000000,0.000000,0.000000,1773825423.482645,0.000000
86.000000,3034.092848,5962.193723,3318.004706,7595.614504,-6376.885638,16967.410382,-2258.174391,-11920.095911,10886.797117,13430.447987,-372.782394,16284.341071,15758.493931,14701.278770,5809.888936,-140.033679,0.236000,-0.238000,0.946000,192.000000,0.000000,0.000000,0.000000,0.000000,0.000000,0.000000,0.000000,0.000000,0.000000,1773825423.482684,0.000000
88.000000,3001.325190,5930.856577,3305.934764,7560.209341,-6396.085786,16942.823463,-2287.455176,-11953.556472,10878.974006,13401.971865,-400.990296,16258.278937,15718.171384,14683.687947,5871.937379,398.732769,0.236000,-0.238000,0.946000,192.000000,0.000000,0.000000,0.000000,0.000000,0.000000,0.000000,0.000000,0.000000,0.000000,1773825423.482700,0.000000
90.000000,3037.579720,5964.451249,3347.978395,7596.039187,-6352.030498,16983.235417,-2248.339623,-11917.346646,10890.418099,13417.640438,-393.480109,16264.693888,15738.265602,14688.605331,5849.943262,125.728563,0.236000,-0.238000,0.946000,192.000000,0.000000,0.000000,0.000000,0.000000,0.000000,0.000000,0.000000,0.000000,0.000000,1773825423.482726,0.000000
92.000000,3012.791635,5942.770057,3303.498424,7566.154905,-6395.772862,16939.247184,-2280.816708,-11946.560376,10871.173247,13416.500499,-372.871801,16275.556836,15715.667989,14688.806497,5834.587614,15.400352,0.232000,-0.246000,0.954000,192.000000,3.500000,32.000000,124.000000,40.000000,14.500000,104.000000,0.000000,0.000000,0.000000,1773825423.482744,0.000000
94.000000,3014.959754,5945.295804,3336.333136,7577.733109,-6384.284065,16955.139274,-2265.326949,-11937.887900,10867.932244,13396.071004,-411.160339,16252.199263,15712.024654,14671.193322,5885.728405,452.779287,0.232000,-0.246000,0.954000,192.000000,0.000000,0.000000,0.000000,0.000000,0.000000,0.000000,0.000000,0.000000,0.000000,1773825423.482761,0.000000
96.000000,3022.581699,5951.666051,3324.687877,7586.316179,-6372.884676,16975.457010,-2261.191876,-11934.333972,10859.863265,13419.428577,-372.760042,16275.445077,15708.426024,14704.206849,5811.587669,-141.374784,0.232000,-0.246000,0.954000,192.000000,0.000000,0.000000,0.000000,0.000000,0.000000,0.000000,0.000000,0.000000,0.000000,1773825423.482773,0.000000
98.000000,2994.776129,5929.202548,3296.547031,7560.566969,-6407.395769,16946.042114,-2288.729225,-11962.899502,10851.459009,13400.094318,-416.904738,16248.019486,15702.502811,14686.526619,5874.865457,393.368351,0.232000,-0.246000,0.954000,192.000000,0.000000,0.000000,0.000000,0.000000,0.000000,0.000000,0.000000,0.000000,0.000000,1773825423.482785,0.000000
100.000000,3026.783827,5958.662147,3345.027965,7591.725301,-6361.172362,16973.557111,-2250.463039,-11927.002600,10859.304471,13412.343074,-396.028208,16259.396524,15699.887657,14683.375023,5841.516655,127.583757,0.232000,-0.246000,0.954000,192.000000,0.000000,0.000000,0.000000,0.000000,0.000000,0.000000,0.000000,0.000000,0.000000,1773825423.482798,0.000000
102.000000,2997.883022,5932.443551,3298.759854,7565.193780,-6404.288877,16938.733094,-2284.013007,-11958.429153,10861.874922,13415.092339,-396.095263,16258.725972,15709.074224,14691.801630,5830.318431,13.455750,0.236000,-0.246000,0.952000,192.000000,3.500000,48.000000,124.000000,40.000000,14.500000,96.000000,0.000000,0.000000,0.000000,1773825423.482810,0.000000
104.000000,3020.234766,5951.889569,3318.362334,7585.466812,-6382.965312,16967.879768,-2263.672920,-11934.870414,10860.086782,13394.908714,-419.005802,16249.315888,15713.902201,14671.014508,5880.878077,459.149535,0.236000,-0.246000,0.952000,192.000000,0.000000,0.000000,0.000000,0.000000,0.000000,0.000000,0.000000,0.000000,0.000000,1773825423.482822,0.000000
106.000000,3021.173539,5954.012985,3329.605261,7592.574667,-6381.445394,16973.490056,-2259.694309,-11931.472949,10888.875829,13425.508252,-371.240124,16282.351766,15736.008076,14692.248665,5803.228116,-137.217359,0.236000,-0.246000,0.952000,192.000000,0.000000,0.000000,0.000000,0.000000,0.000000,0.000000,0.000000,0.000000,0.000000,1773825423.482836,0.000000
108.000000,2996.541917,5929.090789,3309.332229,7562.265702,-6404.802967,16932.765178,-2287.254010,-11958.853836,10852.375430,13395.691025,-403.761912,16249.494702,15687.929474,14666.141828,5876.698300,389.300333,0.236000,-0.246000,0.952000,192.000000,0.000000,0.000000,0.000000,0.000000,0.000000,0.000000,0.000000,0.000000,0.000000,1773825423.482853,0.000000
110.000000,3045.648699,5975.493011,3316.283621,7605.538679,-6363.251074,16986.476420,-2247.870236,-11915.580859,10867.932244,13414.868821,-396.944630,16269.655975,15731.917707,14689.745270,5837.247471,133.372859,0.236000,-0.246000,0.952000,192.000000,0.000000,0.000000,0.000000,0.000000,0.000000,0.000000,0.000000,0.000000,0.000000,1773825423.482884,0.000000
112.000000,3008.500100,5941.384249,3314.964868,7564.970263,-6404.802967,16937.101416,-2282.291923,-11948.326164,10888.652311,13428.838662,-383.801804,16283.536408,15750.939041,14707.380796,5821.958878,14.752151,0.232000,-0.243000,0.956000,192.000000,3.500000,16.000000,124.000000,64.000000,15.000000,0.000000,0.000000,0.000000,0.000000,1773825423.482903,0.000000
114.000000,3029.913071,5959.310348,3329.895834,7585.153888,-6377.153859,16966.583367,-2265.416356,-11927.449635,10851.436657,13397.501516,-407.159377,16254.322678,15672.126791,14660.308023,5889.975237,456.757898,0.232000,-0.243000,0.956000,192.000000,0.000000,0.000000,0.000000,0.000000,0.000000,0.000000,0.000000,0.000000,0.000000,1773825423.482920,0.000000
116.000000,3024.302784,5954.795296,3338.188331,7578.515420,-6372.080013,16974.384126,-2263.091774,-11931.204728,10877.342329,13431.967906,-365.048690,16284.296368,15731.157748,14706.464375,5810.067750,-136.703269,0.232000,-0.243000,0.956000,192.000000,0.000000,0.000000,0.000000,0.000000,0.000000,0.000000,0.000000,0.000000,0.000000,1773825423.482937,0.000000
118.000000,3000.766397,5935.461037,3294.669484,7557.728297,-6397.650408,16946.533852,-2292.596077,-11959.770257,10859.818561,13392.047690,-413.194348,16246.208995,15692.600988,14659.056325,5879.916952,391.267287,0.232000,-0.243000,0.956000,192.000000,0.000000,0.000000,0.000000,0.000000,0.000000,0.000000,0.000000,0.000000,0.000000,1773825423.482954,0.000000
120.000000,3034.539882,5970.486220,3340.714078,7594.005179,-6368.168458,16979.882655,-2252.675861,-11922.845176,10865.093573,13412.790109,-391.043769,16267.554911,15711.309399,14690.818154,5846.903425,133.998708,0.232000,-0.243000,0.956000,192.000000,0.000000,0.000000,0.000000,0.000000,0.000000,0.000000,0.000000,0.000000,0.000000,1773825423.482972,0.000000
122.000000,3003.582716,5939.730220,3301.710284,7560.812838,-6397.896278,16948.701972,-2287.186955,-11954.718763,10888.138221,13426.156452,-402.666676,16269.186588,15730.688361,14692.382776,5827.323297,15.713276,0.234000,-0.244500,0.958000,192.000000,3.500000,48.000000,124.000000,40.000000,15.000000,0.000000,0.000000,0.000000,0.000000,1773825423.482995,0.000000
124.000000,3023.632231,5960.696156,3318.362334,7587.299655,-6389.581429,16975.859341,-2266.265722,-11933.126978,10840.283136,13395.758080,-408.545185,16251.595766,15701.273465,14674.970767,5877.167687,467.419680,0.234000,-0.244500,0.958000,192.000000,0.000000,0.000000,0.000000,0.000000,0.000000,0.000000,0.000000,0.000000,0.000000,1773825423.483013,0.000000
126.000000,3021.352353,5956.561083,3356.852038,7579.342434,-6369.107231,16966.158684,-2260.230751,-11929.908327,10879.644558,13432.705514,-371.485993,16282.999967,15728.475538,14704.966808,5806.603230,-137.977319,0.234000,-0.244500,0.958000,192.000000,0.000000,0.000000,0.000000,0.000000,0.000000,0.000000,0.000000,0.000000,0.000000,1773825423.483030,0.000000
128.000000,3002.956868,5936.399810,3316.685953,7558.801181,-6408.982743,16922.125747,-2289.332722,-11953.802342,10845.044058,13391.377138,-399.492729,16246.186643,15672.104439,14654.004831,5885.169612,378.370330,0.234000,-0.244500,0.958000,192.000000,0.000000,0.000000,0.000000,0.000000,0.000000,0.000000,0.000000,0.000000,0.000000,1773825423.483048,0.000000
130.000000,3053.024775,5982.377348,3341.585796,7605.091644,-6357.707841,16986.878751,-2247.780829,-11905.254353,10882.371471,13417.841603,-379.174993,16276.428554,15714.215125,14682.212732,5845.249396,138.133781,0.234000,-0.244500,0.958000,192.000000,0.000000,0.000000,0.000000,0.000000,0.000000,0.000000,0.000000,0.000000,0.000000,1773825423.483066,0.000000
132.000000,3020.905318,5954.571778,3310.181595,7568.948873,-6400.422025,16962.940033,-2283.722434,-11939.541929,10891.893314,13422.490766,-371.731862,16288.833772,15745.842844,14708.096052,5829.960803,3.062189,0.236000,-0.241250,0.959000,192.000000,3.500000,56.000000,124.000000,72.000000,15.000000,0.000000,0.000000,0.000000,0.000000,1773825423.483083,0.000000
134.000000,3039.949005,5975.537714,3323.503235,7584.282170,-6378.517315,16981.112001,-2263.874085,-11919.134786,10866.568788,13412.544240,-397.592830,16263.397487,15694.724404,14675.238988,5883.090899,468.157288,0.236000,-0.241250,0.959000,192.000000,0.000000,0.000000,0.000000,0.000000,0.000000,0.000000,0.000000,0.000000,0.000000,1773825423.483100,0.000000
136.000000,3046.341604,5980.410395,3327.325383,7590.026568,-6364.994510,16981.693146,-2258.330853,-11913.569202,10906.578410,13439.791017,-361.673577,16303.608275,15758.046896,14716.097977,5811.297096,-133.328156,0.236000,-0.241250,0.959000,192.000000,0.000000,0.000000,0.000000,0.000000,0.000000,0.000000,0.000000,0.000000,0.000000,1773825423.483118,0.000000
138.000000,3018.200757,5955.041165,3299.788034,7564.053841,-6403.171289,16949.528986,-2287.298714,-11946.985060,10868.088707,13411.404301,-390.932011,16269.700679,15692.444526,14669.360479,5877.167687,378.884420,0.236000,-0.241250,0.959000,192.000000,0.000000,0.000000,0.000000,0.000000,0.000000,0.000000,0.000000,0.000000,0.000000,1773825423.483135,0.000000
140.000000,3037.557368,5973.257836,3353.879256,7600.442481,-6368.660196,16979.614434,-2245.344489,-11913.971533,10883.332596,13427.251688,-387.333380,16275.668594,15725.301591,14698.998892,5836.509864,147.454458,0.236000,-0.241250,0.959000,192.000000,0.000000,0.000000,0.000000,0.000000,0.000000,0.000000,0.000000,0.000000,0.000000,1773825423.483153,0.000000
142.000000,3004.610897,5937.629156,3304.616011,7559.762306,-6394.856440,16943.806940,-2283.990655,-11955.389316,10857.493980,13407.559801,-373.609409,16277.568493,15703.933323,14685.185514,5830.385486,-3.419817,0.235000,-0.242625,0.958500,192.000000,3.500000,40.000000,124.000000,48.000000,14.500000,120.000000,0.000000,0.000000,0.000000,1773825423.483171,0.000000
144.000000,3022.961679,5956.896360,3326.476017,7578.090737,-6381.713615,16958.648498,-2266.846867,-11937.619679,10860.131485,13400.340188,-415.317764,16240.106969,15693.897390,14662.342031,5887.807117,463.172849,0.235000,-0.242625,0.958500,192.000000,0.000000,0.000000,0.000000,0.000000,0.000000,0.000000,0.000000,0.000000,0.000000,1773825423.483188,0.000000
146.000000,3028.147284,5961.590226,3336.377840,7584.170411,-6378.092632,16961.867149,-2258.040280,-11928.366056,10912.211050,13429.933897,-379.934952,16292.097126,15787.282978,14718.266096,5802.132881,-134.982185,0.235000,-0.242625,0.958500,192.000000,0.000000,0.000000,0.000000,0.000000,0.000000,0.000000,0.000000,0.000000,0.000000,1773825423.483204,0.000000
148.000000,2986.751853,5921.625307,3304.459549,7555.001385,-6409.697999,16925.523213,-2291.634952,-11968.755659,10850.944919,13384.403394,-409.796883,16248.980611,15705.877925,14648.774522,5877.368853,375.732824,0.235000,-0.242625,0.958500,192.000000,0.000000,0.000000,0.000000,0.000000,0.000000,0.000000,0.000000,0.000000,0.000000,1773825423.483222,0.000000
150.000000,3033.042316,5967.692252,3339.775305,7597.246182,-6366.290911,16981.536684,-2248.809010,-11919.157138,10877.342329,13414.377083,-402.420807,16262.369306,15723.781672,14683.799706,5838.476817,149.689633,0.235000,-0.242625,0.958500,192.000000,0.000000,0.000000,0.000000,0.000000,0.000000,0.000000,0.000000,0.000000,0.000000,1773825423.483240,0.000000
152.000000,2985.053120,5922.675839,3330.029944,7548.653489,-6398.231554,16935.402684,-2287.566935,-11961.781914,10847.838026,13390.527772,-381.276057,16265.945585,15680.508695,14667.348822,5840.868454,-6.526709,0.233500,-0.243312,0.960250,192.000000,3.500000,32.000000,124.000000,48.000000,15.000000,8.000000,0.000000,0.000000,0.000000,1773825423.483256,0.000000
154.000000,3025.442722,5959.131534,3307.052351,7574.402699,-6377.086804,16967.119809,-2269.037338,-11933.641068,10853.783590,13385.588036,-418.938746,16241.828053,15685.068451,14669.315776,5890.422272,474.214610,0.233500,-0.243312,0.960250,192.000000,0.000000,0.000000,0.000000,0.000000,0.000000,0.000000,0.000000,0.000000,0.000000,1773825423.483277,0.000000
156.000000,3038.563196,5970.016834,3318.205871,7598.073196,-6368.548437,16976.015803,-2256.050975,-11918.397178,10909.953524,13435.253612,-375.017568,16289.034938,15763.880702,14721.752968,5810.805358,-124.990955,0.233500,-0.243312,0.960250,192.000000,0.000000,0.000000,0.000000,0.000000,0.000000,0.000000,0.000000,0.000000,0.000000,1773825423.483294,0.000000
158.000000,3012.948097,5946.458095,3308.818139,7555.694289,-6408.267487,16936.274402,-2288.215135,-11947.253281,10865.294738,13393.053519,-395.827043,16263.442190,15710.705901,14675.395450,5873.032614,378.504441,0.233500,-0.243312,0.960250,192.000000,0.000000,0.000000,0.000000,0.000000,0.000000,0.000000,0.000000,0.000000,0.000000,1773825423.483311,0.000000
160.000000,3038.898473,5970.910903,3359.333081,7598.184955,-6365.218027,16969.332632,-2249.524265,-11913.859774,10874.391898,13418.199231,-382.885383,16272.181722,15722.887602,14704.542125,5841.941338,154.830534,0.233500,-0.243312,0.960250,192.000000,0.000000,0.000000,0.000000,0.000000,0.000000,0.000000,0.000000,0.000000,0.000000,1773825423.483352,0.000000
162.000000,3020.100656,5954.191798,3289.774452,7573.240408,-6401.316095,16949.238413,-2282.381330,-11943.699353,10873.766050,13409.817327,-378.169164,16282.597635,15700.558209,14690.192305,5829.469064,-11.041762,0.233750,-0.242656,0.964125,192.000000,3.500000,40.000000,124.000000,56.000000,15.000000,32.000000,0.000000,0.000000,0.000000,1773825423.483370,0.000000
164.000000,3017.597260,5952.716583,3334.880273,7573.955664,-6381.333635,16958.112056,-2269.171449,-11934.713952,10861.852570,13397.076833,-412.635554,16256.088466,15726.106253,14680.849276,5870.506867,476.583895,0.233750,-0.242656,0.964125,192.000000,0.000000,0.000000,0.000000,0.000000,0.000000,0.000000,0.000000,0.000000,0.000000,1773825423.483388,0.000000
166.000000,3035.612766,5967.289921,3331.415752,7591.591190,-6367.095574,16973.490056,-2256.073327,-11920.475891,10891.178059,13425.821176,-370.100185,16285.212789,15729.973105,14699.445927,5804.971552,-131.249443,0.233750,-0.242656,0.964125,192.000000,0.000000,0.000000,0.000000,0.000000,0.000000,0.000000,0.000000,0.000000,0.000000,1773825423.483406,0.000000
168.000000,2998.665333,5928.487292,3309.354581,7549.882835,-6403.372455,16937.526099,-2292.283153,-11959.680850,10859.572692,13389.946626,-397.302258,16248.310059,15693.740927,14666.499456,5872.160896,370.949551,0.233750,-0.242656,0.964125,192.000000,0.000000,0.000000,0.000000,0.000000,0.000000,0.000000,0.000000,0.000000,0.000000,1773825423.483424,0.000000
170.000000,3036.573891,5963.400717,3349.073630,7595.435690,-6372.929379,16986.476420,-2252.139420,-11921.593478,10879.108117,13420.367351,-397.637534,16251.081675,15717.165556,14684.961997,5845.070582,164.799412,0.233750,-0.242656,0.964125,192.000000,0.000000,0.000000,0.000000,0.000000,0.000000,0.000000,0.000000,0.000000,0.000000,1773825423.483441,0.000000
172.000000,3007.069589,5938.277356,3321.759799,7562.846847,-6408.334542,16939.493053,-2282.448385,-11950.762504,10878.057585,13405.346978,-383.421824,16274.707469,15744.457036,14691.578113,5818.963745,-14.215709,0.233875,-0.242328,0.967062,192.000000,3.500000,40.000000,124.000000,56.000000,15.000000,40.000000,0.000000,0.000000,0.000000,1773825423.483455,0.000000
174.000000,3027.074400,5956.784601,3326.587776,7576.861391,-6390.699016,16949.216062,-2267.539772,-11934.713952,10863.216026,13392.830001,-410.892118,16243.280917,15687.124811,14669.025203,5886.801289,463.575180,0.233875,-0.242328,0.967062,192.000000,0.000000,0.000000,0.000000,0.000000,0.000000,0.000000,0.000000,0.000000,0.000000,1773825423.483471,0.000000
176.000000,3034.875159,5962.327833,3336.020212,7587.545525,-6389.268504,16967.432733,-2256.475658,-11921.749940,10878.839896,13425.620011,-372.089490,16280.205998,15747.921556,14698.417747,5809.151329,-131.919996,0.233875,-0.242328,0.967062,192.000000,0.000000,0.000000,0.000000,0.000000,0.000000,0.000000,0.000000,0.000000,0.000000,1773825423.483489,0.000000
178.000000,3010.735275,5940.646641,3298.961019,7556.789524,-6393.962371,16933.502785,-2287.522231,-11952.930624,10870.122715,13403.961170,-404.141891,16254.166216,15722.529974,14687.331282,5868.741079,367.373272,0.233875,-0.242328,0.967062,192.000000,0.000000,0.000000,0.000000,0.000000,0.000000,0.000000,0.000000,0.000000,0.000000,1773825423.483507,0.000000
180.000000,3042.184179,5971.737918,3359.780116,7592.999350,-6352.186960,16980.530856,-2246.909111,-11911.669303,10879.331634,13412.030150,-393.815386,16261.788161,15715.399768,14687.577151,5851.127905,167.280456,0.233875,-0.242328,0.967062,192.000000,0.000000,0.000000,0.000000,0.000000,0.000000,0.000000,0.000000,0.000000,0.000000,1773825423.483523,0.000000
182.000000,3020.480635,5952.582473,3286.935781,7571.966359,-6391.280161,16965.175207,-2280.839059,-11943.677001,10885.344253,13426.424673,-376.448080,16280.541275,15734.644620,14696.942532,5824.618736,-16.719105,0.233875,-0.242328,0.967062,192.000000,0.000000,0.000000,0.000000,0.000000,0.000000,0.000000,0.000000,0.000000,0.000000,1773825423.483541,0.000000
184.000000,3022.536996,5954.415316,3329.828778,7572.793373,-6386.809812,16962.761219,-2266.109260,-11932.232908,10883.377300,13415.114691,-411.652078,16245.203167,15726.821509,14686.951302,5872.876152,477.835593,0.234000,-0.244000,0.962000,192.000000,3.500000,40.000000,124.000000,48.000000,15.000000,8.000000,0.000000,0.000000,0.000000,1773825423.483558,0.000000
186.000000,3025.152150,5956.248159,3327.012459,7590.942990,-6377.243266,16965.868111,-2256.408603,-11925.460330,10869.720384,13417.148699,-369.183763,16285.525714,15706.481422,14699.758851,5809.173680,-132.031754,0.234000,-0.244000,0.962000,192.000000,0.000000,0.000000,0.000000,0.000000,0.000000,0.000000,0.000000,0.000000,0.000000,1773825423.483579,0.000000
188.000000,2998.933554,5933.024696,3303.565479,7557.080097,-6419.398656,16935.894422,-2289.511536,-11958.630318,10866.211160,13403.201211,-406.779397,16250.500530,15733.057646,14665.918310,5855.307681,364.199324,0.234000,-0.244000,0.962000,192.000000,0.000000,0.000000,0.000000,0.000000,0.000000,0.000000,0.000000,0.000000,0.000000,1773825423.483596,0.000000
190.000000,3031.812970,5964.428897,3340.758782,7588.618408,-6361.261768,16972.260710,-2252.742917,-11923.895708,10867.865189,13411.918391,-405.281830,16250.366420,15695.998454,14693.120383,5842.678945,166.811069,0.234000,-0.244000,0.962000,192.000000,0.000000,0.000000,0.000000,0.000000,0.000000,0.000000,0.000000,0.000000,0.000000,1773825423.483612,0.000000
192.000000,2999.469995,5934.946946,3308.639325,7559.516437,-6403.037179,16939.627163,-2283.297751,-11953.936452,10879.979835,13412.387778,-384.159432,16262.928100,15746.535748,14689.745270,5817.197957,-23.961070,0.234000,-0.244000,0.962000,192.000000,0.000000,0.000000,0.000000,0.000000,0.000000,0.000000,0.000000,0.000000,0.000000,1773825423.483629,0.000000
194.000000,3015.071513,5948.112124,3310.114540,7576.481411,-6389.469670,16958.760257,-2271.294865,-11944.414609,10852.911872,13390.617179,-418.268194,16234.653143,15685.336672,14667.058249,5881.012187,474.058148,0.238000,-0.244000,0.962000,192.000000,3.500000,56.000000,124.000000,48.000000,15.000000,8.000000,0.000000,0.000000,0.000000,1773825423.963274,0.000000
196.000000,3015.295031,5948.223883,3333.695630,7581.555257,-6373.354062,16951.920623,-2260.320158,-11934.512786,10884.092556,13411.203135,-389.099167,16272.695812,15754.023582,14697.255456,5802.088177,-126.041487,0.238000,-0.244000,0.962000,192.000000,0.000000,0.000000,0.000000,0.000000,0.000000,0.000000,0.000000,0.000000,0.000000,1773825423.963342,0.000000
198.000000,2980.873344,5918.585470,3316.283621,7551.156885,-6412.201394,16902.813840,-2293.400740,-11968.085106,10851.637823,13382.727013,-402.711380,16228.841690,15695.484363,14635.586993,5871.982082,355.236275,0.238000,-0.244000,0.962000,192.000000,0.000000,0.000000,0.000000,0.000000,0.000000,0.000000,0.000000,0.000000,0.000000,1773825423.963397,0.000000
200.000000,3024.123970,5961.411412,3340.356450,7596.821498,-6367.386146,16978.474495,-2252.541751,-11925.236812,10855.594081,13389.007853,-394.396531,16257.653088,15701.832259,14663.973709,5838.096838,178.411624,0.238000,-0.244000,0.962000,192.000000,0.000000,0.000000,0.000000,0.000000,0.000000,0.000000,0.000000,0.000000,0.000000,1773825423.963448,0.000000
202.000000,2995.513737,5934.052877,3297.575211,7567.786582,-6408.200432,16938.017838,-2284.795318,-11956.395144,10873.453125,13407.269228,-394.374179,16265.677365,15731.090692,14684.202037,5820.729532,-25.793913,0.238000,-0.244000,0.962000,192.000000,0.000000,0.000000,0.000000,0.000000,0.000000,0.000000,0.000000,0.000000,0.000000,1773825423.963501,0.000000
204.000000,3013.484539,5950.481409,3322.944441,7575.408527,-6397.337484,16949.841911,-2267.830344,-11935.675077,10857.561035,13387.286769,-419.765761,16240.688114,15694.187962,14665.337165,5874.284312,473.119375,0.238000,-0.238000,0.958000,192.000000,3.500000,56.000000,124.000000,72.000000,14.500000,120.000000,0.000000,0.000000,0.000000,1773825423.963549,0.000000
206.000000,3024.995688,5960.383232,3342.882197,7586.763213,-6379.791365,16951.473588,-2252.944082,-11920.185318,10878.549323,13418.646266,-362.768813,16274.349841,15723.915782,14708.163107,5799.160099,-138.357298,0.238000,-0.238000,0.958000,192.000000,0.000000,0.000000,0.000000,0.000000,0.000000,0.000000,0.000000,0.000000,0.000000,1773825423.963601,0.000000
208.000000,3003.828586,5942.099505,3286.153470,7562.064536,-6417.051723,16923.869184,-2284.728263,-11945.778065,10872.044965,13395.892190,-404.097188,16256.848425,15720.227745,14670.187494,5858.414573,343.412202,0.238000,-0.238000,0.958000,192.000000,0.000000,0.000000,0.000000,0.000000,0.000000,0.000000,0.000000,0.000000,0.000000,1773825423.963619,0.000000
210.000000,3026.493254,5965.412374,3359.958930,7589.311312,-6382.138298,16953.284079,-2246.707946,-11912.518670,10892.072128,13405.436385,-393.927144,16267.174931,15741.081922,14687.778316,5822.584727,171.504935,0.238000,-0.238000,0.958000,192.000000,0.000000,0.000000,0.000000,0.000000,0.000000,0.000000,0.000000,0.000000,0.000000,1773825423.963637,0.000000
212.000000,2996.452510,5937.673859,3290.020322,7565.864332,-6408.468653,16928.920678,-2282.604847,-11949.175531,10854.588253,13406.866897,-367.417975,16267.219635,15708.224858,14703.379834,5807.944335,-42.937701,0.238000,-0.238000,0.958000,192.000000,0.000000,0.000000,0.000000,0.000000,0.000000,0.000000,0.000000,0.000000,0.000000,1773825423.963655,0.000000
214.000000,3000.565231,5944.021755,3332.153360,7576.704928,-6399.326789,16927.467814,-2269.126745,-11938.245528,10859.863265,13380.380080,-424.392572,16245.404332,15720.808890,14642.158406,5869.344577,464.916285,0.236000,-0.238000,0.954000,192.000000,3.500000,48.000000,124.000000,72.000000,14.500000,104.000000,0.000000,0.000000,0.000000,1773825423.963672,0.000000
216.000000,3011.875214,5953.945929,3332.689802,7580.683539,-6381.333635,16950.735980,-2260.878952,-11931.942336,10867.909893,13418.400397,-375.241086,16265.364440,15713.969256,14690.102898,5802.736378,-138.402002,0.236000,-0.238000,0.954000,192.000000,0.000000,0.000000,0.000000,0.000000,0.000000,0.000000,0.000000,0.000000,0.000000,1773825423.963690,0.000000
218.000000,2984.159050,5925.715676,3298.245764,7559.695251,-6423.265508,16915.152003,-2293.266629,-11960.396106,10846.295756,13377.049670,-408.142854,16247.907728,15703.352178,14660.643299,5856.537027,348.083716,0.236000,-0.238000,0.954000,192.000000,0.000000,0.000000,0.000000,0.000000,0.000000,0.000000,0.000000,0.000000,0.000000,1773825423.963715,0.000000
220.000000,3019.161882,5958.684499,3341.876369,7596.083891,-6375.924513,16963.588233,-2255.738050,-11926.354399,10870.502695,13388.761984,-394.664752,16255.350859,15717.411425,14660.017450,5837.403934,182.144366,0.236000,-0.238000,0.954000,192.000000,0.000000,0.000000,0.000000,0.000000,0.000000,0.000000,0.000000,0.000000,0.000000,1773825423.963732,0.000000
222.000000,2995.312571,5937.316231,3302.269078,7564.947911,-6405.250002,16929.971210,-2284.750615,-11954.271728,10908.858288,13411.001970,-408.880461,16266.616138,15751.676649,14680.111668,5816.125073,-33.661727,0.236000,-0.238000,0.954000,192.000000,0.000000,0.000000,0.000000,0.000000,0.000000,0.000000,0.000000,0.000000,0.000000,1773825423.963750,0.000000
224.000000,3005.728484,5946.480447,3317.401209,7569.664129,-6390.319036,16936.162643,-2273.686501,-11942.648821,10828.704933,13380.313025,-412.456740,16244.040876,15679.189942,14650.227386,5880.609856,472.962913,0.236000,-0.234000,0.960000,192.000000,3.500000,48.000000,124.000000,88.000000,15.000000,0.000000,0.000000,0.000000,0.000000,1773825423.963767,0.000000
226.000000,3021.441760,5960.874970,3326.163092,7582.605789,-6376.617417,16958.022649,-2261.996539,-11931.450597,10887.512372,13423.630705,-380.426691,16273.388716,15758.806856,14709.928895,5805.709160,-122.465208,0.236000,-0.234000,0.960000,192.000000,0.000000,0.000000,0.000000,0.000000,0.000000,0.000000,0.000000,0.000000,0.000000,1773825423.963784,0.000000
228.000000,2996.988952,5937.025659,3301.263249,7558.398850,-6415.934135,16929.658285,-2292.238449,-11957.691545,10853.850645,13386.258589,-409.752179,16251.998097,15699.552381,14673.495552,5863.555475,349.491876,0.236000,-0.234000,0.960000,192.000000,0.000000,0.000000,0.000000,0.000000,0.000000,0.000000,0.000000,0.000000,0.000000,1773825423.963802,0.000000
230.000000,3038.674955,5979.873953,3326.833645,7600.196612,-6365.083917,16984.598873,-2254.218132,-11920.006504,10877.901122,13403.804708,-397.190499,16260.402353,15729.548422,14692.069851,5846.389335,191.420340,0.236000,-0.234000,0.960000,192.000000,0.000000,0.000000,0.000000,0.000000,0.000000,0.000000,0.000000,0.000000,0.000000,1773825423.963819,0.000000
232.000000,3003.828586,5950.548464,3321.469226,7564.992614,-6401.785481,16936.833195,-2282.671902,-11948.326164,10884.807811,13430.827967,-375.330493,16279.133115,15737.483291,14694.215619,5812.526442,-35.829846,0.236000,-0.234000,0.960000,192.000000,0.000000,0.000000,0.000000,0.000000,0.000000,0.000000,0.000000,0.000000,0.000000,1773825423.963836,0.000000
234.000000,3008.075417,5955.264682,3319.144645,7570.267626,-6388.016807,16936.497919,-2274.982902,-11944.727533,10853.895349,13388.784336,-410.959174,16247.080713,15705.877925,14673.339090,5876.541838,474.236962,0.242000,-0.236000,0.968000,192.000000,3.500000,72.000000,124.000000,80.000000,15.000000,32.000000,0.000000,0.000000,0.000000,1773825423.963854,0.000000
236.000000,3031.857673,5976.454136,3314.048447,7591.300618,-6376.215086,16961.084838,-2257.302673,-11921.258202,10893.972027,13431.744389,-382.438348,16277.479086,15748.525053,14694.975578,5803.541041,-128.634289,0.242000,-0.236000,0.968000,192.000000,0.000000,0.000000,0.000000,0.000000,0.000000,0.000000,0.000000,0.000000,0.000000,1773825423.963871,0.000000
238.000000,2987.824737,5935.349278,3310.606278,7559.114106,-6421.097388,16924.696198,-2289.667999,-11957.512731,10862.791343,13397.948551,-402.018476,16260.402353,15701.899314,14672.824999,5855.374736,335.924367,0.242000,-0.236000,0.968000,192.000000,0.000000,0.000000,0.000000,0.000000,0.000000,0.000000,0.000000,0.000000,0.000000,1773825423.963887,0.000000
240.000000,3022.492292,5968.005177,3341.451686,7601.560068,-6368.816658,16970.584329,-2251.178295,-11921.839347,10856.175227,13400.742519,-388.518022,16269.320699,15699.686491,14672.154447,5840.890806,187.397026,0.242000,-0.236000,0.968000,192.000000,0.000000,0.000000,0.000000,0.000000,0.000000,0.000000,0.000000,0.000000,0.000000,1773825423.963903,0.000000
242.000000,3002.375722,5948.022717,3299.631572,7571.049937,-6412.916650,16937.235527,-2282.068405,-11949.689621,10889.322864,13416.142871,-385.254667,16281.055365,15763.076039,14692.963921,5807.206727,-37.416820,0.242000,-0.236000,0.968000,192.000000,0.000000,0.000000,0.000000,0.000000,0.000000,0.000000,0.000000,0.000000,0.000000,1773825423.963920,0.000000
244.000000,3007.181347,5950.749630,3328.353563,7578.068385,-6396.555173,16943.091684,-2272.434804,-11943.162911,10845.267575,13385.029243,-405.214775,16245.605498,15675.032517,14657.268185,5872.563228,472.806450,0.236000,-0.246000,0.958000,192.000000,3.500000,48.000000,124.000000,40.000000,14.500000,120.000000,0.000000,0.000000,0.000000,1773825423.963937,0.000000
246.000000,3023.498121,5964.004214,3325.805464,7589.199554,-6366.469725,16972.372469,-2260.409565,-11929.573051,10876.202390,13411.404301,-378.392682,16272.852275,15720.451262,14683.419726,5809.508957,-116.810217,0.236000,-0.246000,0.958000,192.000000,0.000000,0.000000,0.000000,0.000000,0.000000,0.000000,0.000000,0.000000,0.000000,1773825423.963953,0.000000
248.000000,3001.749873,5945.049935,3282.688949,7560.946949,-6397.270429,16942.264669,-2291.545545,-11957.378621,10878.772840,13399.736690,-411.182691,16254.680306,15747.742742,14673.450848,5859.465105,346.899074,0.236000,-0.246000,0.958000,192.000000,0.000000,0.000000,0.000000,0.000000,0.000000,0.000000,0.000000,0.000000,0.000000,1773825423.963970,0.000000
250.000000,3032.237653,5974.107203,3350.526494,7586.763213,-6354.332728,16977.334556,-2252.117068,-11919.984152,10884.181963,13411.203135,-389.903830,16255.596728,15730.017809,14690.616988,5844.601195,198.259973,0.236000,-0.246000,0.958000,192.000000,0.000000,0.000000,0.000000,0.000000,0.000000,0.000000,0.000000,0.000000,0.000000,1773825423.963989,0.000000
252.000000,3000.900507,5946.033412,3325.716058,7562.131591,-6403.864193,16939.671867,-2282.426033,-11949.957842,10883.667872,13411.113728,-372.692987,16271.421763,15730.956582,14676.110706,5818.494358,-47.229236,0.236000,-0.246000,0.958000,192.000000,0.000000,0.000000,0.000000,0.000000,0.000000,0.000000,0.000000,0.000000,0.000000,1773825423.964006,0.000000
254.000000,3009.997667,5955.801124,3331.371049,7581.242333,-6386.519240,16954.312259,-2272.054824,-11941.285365,10859.617395,13393.031167,-406.399418,16244.376152,15686.364852,14657.782275,5876.787707,479.780195,0.239000,-0.243000,0.962000,192.000000,3.500000,72.000000,124.000000,64.000000,15.000000,24.000000,0.000000,0.000000,0.000000,1773825423.964022,0.000000
0.000000,3025.710943,5971.402642,3329.627613,7590.987693,-6355.137391,16982.497809,-2259.627254,-11930.064789,10873.721346,13418.780377,-377.833888,16278.730783,15727.357951,14696.495497,5811.945297,-116.117312,0.239000,-0.243000,0.962000,192.000000,0.000000,0.000000,0.000000,0.000000,0.000000,0.000000,0.000000,0.000000,0.000000,1773825423.964050,0.000000
2.000000,3000.028789,5948.045069,3312.193252,7556.342489,-6401.226688,16934.866242,-2289.667999,-11954.003507,10884.092556,13413.304199,-407.114674,16254.456789,15724.653390,14668.824037,5867.601140,337.421934,0.239000,-0.243000,0.962000,192.000000,0.000000,0.000000,0.000000,0.000000,0.000000,0.000000,0.000000,0.000000,0.000000,1773825423.964068,0.000000
4.000000,3039.747839,5985.707758,3323.771456,7600.308371,-6363.608702,16977.513370,-2252.340585,-11915.066769,10866.367622,13407.738615,-383.064196,16266.817304,15709.297742,14686.794840,5844.578844,201.210404,0.239000,-0.243000,0.962000,192.000000,0.000000,0.000000,0.000000,0.000000,0.000000,0.000000,0.000000,0.000000,0.000000,1773825423.964085,0.000000
6.000000,3023.609879,5970.419165,3290.623819,7575.877914,-6399.237382,16951.987678,-2279.676769,-11935.518615,10923.744550,13433.644287,-386.484013,16289.705490,15819.089510,14691.980444,5796.120262,-36.098067,0.239000,-0.243000,0.962000,192.000000,0.000000,0.000000,0.000000,0.000000,0.000000,0.000000,0.000000,0.000000,0.000000,1773825423.964102,0.000000
8.000000,3000.833452,5952.448362,3356.181485,7569.574722,-6384.552286,16940.185957,-2274.334702,-11944.571071,10848.396820,13394.238161,-396.229374,16240.732818,15673.870227,14661.537368,5887.047158,474.102852,0.240500,-0.242500,0.961000,192.000000,3.500000,72.000000,124.000000,56.000000,15.000000,0.000000,0.000000,0.000000,0.000000,1773825423.964119,0.000000
10.000000,3029.041353,5976.856467,3342.077534,7587.389062,-6367.609664,16970.696088,-2258.241446,-11922.979286,10886.350082,13419.294467,-373.363539,16281.301234,15722.731140,14698.685968,5818.136730,-122.912243,0.240500,-0.242500,0.961000,192.000000,0.000000,0.000000,0.000000,0.000000,0.000000,0.000000,0.000000,0.000000,0.000000,1773825423.964136,0.000000
12.000000,2996.251344,5946.189874,3302.850223,7558.734126,-6403.931249,16931.669942,-2292.014932,-11957.915063,10882.259712,13397.032129,-401.347923,16259.798856,15717.523184,14665.046592,5866.997643,333.130399,0.240500,-0.242500,0.961000,192.000000,0.000000,0.000000,0.000000,0.000000,0.000000,0.000000,0.000000,0.000000,0.000000,1773825423.964153,0.000000
14.000000,3033.310537,5983.830212,3341.697555,7597.246182,-6365.061565,16980.843780,-2252.675861,-11918.196013,10886.663006,13410.040845,-392.720150,16258.681269,15729.928402,14669.293424,5845.070582,218.980040,0.240500,-0.242500,0.961000,192.000000,0.000000,0.000000,0.000000,0.000000,0.000000,0.000000,0.000000,0.000000,0.000000,1773825423.964170,0.000000
16.000000,3008.835376,5959.891493,3297.016418,7572.346338,-6396.085786,16952.367658,-2281.196687,-11944.682830,10907.003094,13423.206022,-382.259534,16282.217655,15764.372440,14700.317645,5814.001657,-41.060155,0.240500,-0.242500,0.961000,192.000000,0.000000,0.000000,0.000000,0.000000,0.000000,0.000000,0.000000,0.000000,0.000000,1773825423.964186,0.000000
18.000000,3009.371818,5962.350185,3321.648040,7580.840001,-6387.569772,16963.811751,-2272.166583,-11937.060885,10876.157686,13398.172068,-408.567537,16255.462617,15730.330733,14658.363421,5870.842143,488.162099,0.240250,-0.244250,0.958500,192.000000,3.500000,64.000000,124.000000,40.000000,14.500000,112.000000,0.000000,0.000000,0.000000,1773825423.964203,0.000000
20.000000,3022.581699,5974.665996,3340.199988,7590.808879,-6360.859437,16974.294719,-2256.922693,-11923.068693,10876.291797,13427.072874,-361.226542,16280.630682,15731.493024,14695.914351,5807.340837,-110.931708,0.240250,-0.244250,0.958500,192.000000,0.000000,0.000000,0.000000,0.000000,0.000000,0.000000,0.000000,0.000000,0.000000,1773825423.964220,0.000000
22.000000,2989.076434,5944.781714,3296.547031,7557.147152,-6407.306362,16936.944954,-2292.618429,-11957.177455,10864.378317,13396.719205,-408.791054,16252.400428,15701.139355,14666.141828,5865.187152,328.123609,0.240250,-0.244250,0.958500,192.000000,0.000000,0.000000,0.000000,0.000000,0.000000,0.000000,0.000000,0.000000,0.000000,1773825423.964236,0.000000
24.000000,3024.816874,5977.817592,3339.954119,7596.486222,-6365.553303,16981.491981,-2251.893550,-11915.558507,10873.587236,13406.151641,-393.234240,16261.385830,15708.180154,14678.524694,5850.569111,212.989773,0.240250,-0.244250,0.958500,192.000000,0.000000,0.000000,0.000000,0.000000,0.000000,0.000000,0.000000,0.000000,0.000000,1773825423.964252,0.000000
26.000000,2994.798481,5948.737973,3320.396342,7562.980957,-6400.958467,16947.874957,-2278.827402,-11943.207615,10881.432698,13416.120519,-372.894153,16277.054402,15723.625210,14698.685968,5815.610983,-49.509114,0.240250,-0.244250,0.958500,192.000000,0.000000,0.000000,0.000000,0.000000,0.000000,0.000000,0.000000,0.000000,0.000000,1773825423.964273,0.000000
28.000000,3007.091940,5959.712679,3307.588793,7575.140306,-6397.113967,16953.708762,-2268.813821,-11935.071580,10861.606701,13394.439327,-405.103017,16237.670629,15713.365759,14665.135999,5876.787707,484.429358,0.238125,-0.244125,0.955250,192.000000,3.500000,48.000000,124.000000,48.000000,14.500000,96.000000,0.000000,0.000000,0.000000,1773825423.964291,0.000000
30.000000,3005.527318,5958.393926,3340.982299,7593.267571,-6376.505658,16959.587271,-2252.519399,-11925.326219,10877.699957,13410.353769,-370.457813,16280.742440,15736.253945,14677.652976,5801.775253,-114.955022,0.238125,-0.244125,0.955250,192.000000,0.000000,0.000000,0.000000,0.000000,0.000000,0.000000,0.000000,0.000000,0.000000,1773825423.964309,0.000000
32.000000,2986.170707,5938.590281,3295.563554,7563.562103,-6420.382133,16941.214137,-2287.164603,-11956.842179,10878.459916,13390.125440,-410.132159,16251.282841,15735.963373,14656.217653,5855.598254,324.055591,0.238125,-0.244125,0.955250,192.000000,0.000000,0.000000,0.000000,0.000000,0.000000,0.000000,0.000000,0.000000,0.000000,1773825423.964326,0.000000
34.000000,3019.139531,5967.781659,3342.613976,7593.491089,-6372.325882,16980.888484,-2249.501914,-11925.706199,10860.399706,13394.841658,-393.971848,16255.864949,15714.282181,14668.734630,5846.836370,216.610756,0.238125,-0.244125,0.955250,192.000000,0.000000,0.000000,0.000000,0.000000,0.000000,0.000000,0.000000,0.000000,0.000000,1773825423.964343,0.000000
36.000000,3002.778054,5949.900264,3304.705418,7562.712736,-6384.842859,16949.730152,-2279.229734,-11952.595347,10904.946733,13425.709418,-393.167185,16271.600577,15762.651356,14708.051349,5816.236832,-55.275864,0.238125,-0.244125,0.955250,192.000000,0.000000,0.000000,0.000000,0.000000,0.000000,0.000000,0.000000,0.000000,0.000000,1773825423.964360,0.000000
38.000000,3010.154129,5962.841924,3322.229185,7581.801126,-6382.965312,16954.558129,-2268.232676,-11937.731437,10866.658195,13385.073946,-409.506310,16245.538443,15687.616549,14642.225461,5883.292065,482.864735,0.235063,-0.239063,0.954625,192.000000,3.500000,32.000000,124.000000,88.000000,14.500000,104.000000,0.000000,0.000000,0.000000,1773825423.964377,0.000000
40.000000,3026.828531,5978.734014,3351.867599,7587.701987,-6362.625225,16973.713574,-2251.848847,-11924.700370,10892.943846,13421.551993,-376.492784,16284.721051,15745.306402,14703.335131,5809.240736,-114.016248,0.235063,-0.239063,0.954625,192.000000,0.000000,0.000000,0.000000,0.000000,0.000000,0.000000,0.000000,0.000000,0.000000,1773825423.964394,0.000000
42.000000,2990.596353,5945.765191,3296.882307,7559.963472,-6399.773824,16932.496957,-2285.801147,-11955.612833,10874.861285,13396.965074,-396.363484,16256.334335,15711.711730,14655.502397,5867.042347,316.970088,0.235063,-0.239063,0.954625,192.000000,0.000000,0.000000,0.000000,0.000000,0.000000,0.000000,0.000000,0.000000,0.000000,1773825423.964411,0.000000
44.000000,3019.564214,5976.565895,3343.217473,7594.496917,-6368.347271,16973.847684,-2246.819704,-11918.821862,10875.733003,13410.957266,-397.190499,16263.844522,15735.717504,14668.377002,5848.490399,218.711819,0.235063,-0.239063,0.954625,192.000000,0.000000,0.000000,0.000000,0.000000,0.000000,0.000000,0.000000,0.000000,0.000000,1773825423.964428,0.000000
46.000000,2987.020074,5945.742839,3319.681087,7564.232655,-6399.662065,16943.650477,-2278.067443,-11954.696411,10891.915666,13425.217679,-382.013664,16277.702603,15741.148977,14708.699549,5811.475910,-58.941550,0.235063,-0.239063,0.954625,192.000000,0.000000,0.000000,0.000000,0.000000,0.000000,0.000000,0.000000,0.000000,0.000000,1773825423.964445,0.000000
48.000000,2997.681856,5960.025604,3309.399284,7569.641777,-6389.246153,16961.286004,-2271.741899,-11946.582728,10845.491093,13387.420879,-423.856130,16247.505396,15685.537837,14643.030124,5885.795460,484.876392,0.234531,-0.237531,0.956313,192.000000,3.500000,40.000000,124.000000,80.000000,14.500000,120.000000,0.000000,0.000000,0.000000,1773825423.964463,0.000000
50.000000,3011.048199,5970.217999,3341.675203,7584.751556,-6370.046004,16979.279158,-2255.916864,-11930.690638,10887.981759,13431.006781,-385.455833,16282.977615,15749.597937,14692.427479,5808.145500,-107.556594,0.234531,-0.237531,0.956313,192.000000,0.000000,0.000000,0.000000,0.000000,0.000000,0.000000,0.000000,0.000000,0.000000,1773825423.964480,0.000000
52.000000,2981.901524,5942.703002,3304.347790,7554.375536,-6408.066321,16929.546527,-2289.310371,-11960.060830,10858.499808,13398.015606,-412.009706,16255.015582,15698.434794,14662.833770,5872.674986,313.997306,0.234531,-0.237531,0.956313,192.000000,0.000000,0.000000,0.000000,0.000000,0.000000,0.000000,0.000000,0.000000,0.000000,1773825423.964497,0.000000
54.000000,3014.266850,5971.357938,3342.189293,7588.864277,-6362.133487,16966.203388,-2249.278396,-11921.951106,10862.992509,13408.364464,-391.848432,16265.364440,15699.060643,14679.664633,5850.747925,221.528139,0.234531,-0.237531,0.956313,192.000000,0.000000,0.000000,0.000000,0.000000,0.000000,0.000000,0.000000,0.000000,0.000000,1773825423.964514,0.000000
56.000000,2989.232896,5946.167522,3311.768569,7566.713699,-6399.706769,16943.225794,-2278.805051,-11948.527330,10884.405480,13408.029188,-383.310066,16282.083545,15745.507568,14677.742383,5814.113416,-64.574190,0.234531,-0.237531,0.956313,192.000000,0.000000,0.000000,0.000000,0.000000,0.000000,0.000000,0.000000,0.000000,0.000000,1773825423.964532,0.000000
58.000000,2998.575926,5957.142229,3317.334153,7573.128649,-6396.264600,16960.213120,-2271.227809,-11938.245528,10868.602797,13392.673539,-419.877520,16255.060286,15703.083957,14660.240967,5873.926684,485.301076,0.234531,-0.237531,0.956313,192.000000,0.000000,0.000000,0.000000,0.000000,0.000000,0.000000,0.000000,0.000000,0.000000,1773825424.444075,0.000000
60.000000,3016.814949,5976.029453,3326.945403,7588.149022,-6366.939112,16978.206274,-2255.246312,-11919.805338,10893.793213,13424.010685,-374.592885,16293.058252,15763.947757,14690.795802,5800.545907,-106.394304,0.230000,-0.240000,0.960000,192.000000,3.500000,24.000000,124.000000,64.000000,15.000000,0.000000,0.000000,0.000000,0.000000,1773825424.444178,0.000000
62.000000,2977.900562,5941.026621,3307.834662,7556.744821,-6415.621211,16932.586364,-2288.081025,-11954.428191,10867.440506,13399.200249,-403.985429,16263.017507,15699.172401,14666.141828,5865.880056,307.135321,0.230000,-0.240000,0.960000,192.000000,0.000000,0.000000,0.000000,0.000000,0.000000,0.000000,0.000000,0.000000,0.000000,1773825424.444232,0.000000
64.000000,3016.189100,5976.744709,3344.424468,7586.383234,-6366.469725,16973.668870,-2250.619501,-11916.743149,10860.220892,13413.572420,-391.244935,16261.430533,15698.770070,14670.701584,5853.027803,226.333764,0.230000,-0.240000,0.960000,192.000000,0.000000,0.000000,0.000000,0.000000,0.000000,0.000000,0.000000,0.000000,0.000000,1773825424.444310,0.000000
66.000000,2987.042426,5948.223883,3310.874499,7563.673861,-6397.695112,16941.661172,-2277.441594,-11945.196920,10877.834067,13412.544240,-388.652133,16287.246798,15713.365759,14676.468334,5815.610983,-72.777280,0.230000,-0.240000,0.960000,192.000000,0.000000,0.000000,0.000000,0.000000,0.000000,0.000000,0.000000,0.000000,0.000000,1773825424.444368,0.000000
68.000000,2992.362141,5954.147095,3320.016363,7571.228751,-6398.209202,16944.388085,-2273.060652,-11940.391295,10853.850645,13379.486010,-414.267232,16256.781370,15678.251169,14648.595708,5880.095766,478.886125,0.230000,-0.240000,0.960000,192.000000,0.000000,0.000000,0.000000,0.000000,0.000000,0.000000,0.000000,0.000000,0.000000,1773825424.444444,0.000000
70.000000,3001.794577,5963.065441,3332.287470,7586.003254,-6372.303530,16962.694164,-2256.520361,-11929.282478,10882.371471,13417.528679,-392.474281,16284.095202,15742.959469,14680.446944,5810.425378,-103.555632,0.238000,-0.240000,0.950000,192.000000,3.500000,56.000000,124.000000,64.000000,14.500000,88.000000,0.000000,0.000000,0.000000,1773825424.444498,0.000000
72.000000,2974.011359,5937.092714,3300.212717,7551.827437,-6417.118778,16930.418245,-2289.712702,-11961.580749,10849.022668,13385.833905,-402.554918,16253.763885,15679.949901,14647.008735,5863.399012,303.469634,0.238000,-0.240000,0.950000,192.000000,0.000000,0.000000,0.000000,0.000000,0.000000,0.000000,0.000000,0.000000,0.000000,1773825424.444552,0.000000
74.000000,3008.276583,5966.999348,3339.507084,7589.423071,-6370.627149,16978.832123,-2252.027661,-11926.868490,10874.078974,13405.369330,-408.344019,16257.586033,15745.105236,14666.410049,5840.399067,238.426058,0.238000,-0.240000,0.950000,192.000000,0.000000,0.000000,0.000000,0.000000,0.000000,0.000000,0.000000,0.000000,0.000000,1773825424.444605,0.000000
76.000000,2987.154184,5947.396868,3314.651944,7564.232655,-6399.796176,16954.580480,-2279.207382,-11951.880092,10872.402593,13409.414996,-381.432519,16273.858103,15706.839050,14672.176799,5815.990963,-76.197097,0.238000,-0.240000,0.950000,192.000000,0.000000,0.000000,0.000000,0.000000,0.000000,0.000000,0.000000,0.000000,0.000000,1773825424.444625,0.000000
78.000000,3000.319362,5960.338528,3325.604299,7571.049937,-6390.520202,16961.464818,-2272.837135,-11942.335897,10857.672794,13404.072929,-414.982488,16240.397542,15687.348329,14658.519883,5877.078280,488.989113,0.238000,-0.240000,0.950000,192.000000,0.000000,0.000000,0.000000,0.000000,0.000000,0.000000,0.000000,0.000000,0.000000,1773825424.444644,0.000000
80.000000,3027.320269,5985.528944,3342.815142,7598.229658,-6361.105306,16985.984681,-2250.932425,-11914.798548,10888.272332,13431.073836,-369.139060,16294.287597,15722.462919,14689.454697,5812.973477,-104.807330,0.238000,-0.242000,0.948000,192.000000,3.500000,56.000000,124.000000,56.000000,14.500000,80.000000,0.000000,0.000000,0.000000,1773825424.444662,0.000000
82.000000,3001.436949,5964.093621,3311.723865,7560.432859,-6411.463787,16948.299640,-2284.683559,-11943.766408,10881.387994,13415.248801,-393.435406,16272.069963,15708.671893,14678.614101,5858.660443,298.552251,0.238000,-0.242000,0.948000,192.000000,0.000000,0.000000,0.000000,0.000000,0.000000,0.000000,0.000000,0.000000,0.000000,1773825424.444681,0.000000
84.000000,3026.694420,5987.428842,3348.403078,7593.066405,-6367.877885,16978.921530,-2250.083059,-11914.418568,10882.192657,13418.713322,-385.209964,16276.652071,15712.941076,14684.649072,5848.199826,238.448410,0.238000,-0.242000,0.948000,192.000000,0.000000,0.000000,0.000000,0.000000,0.000000,0.000000,0.000000,0.000000,0.000000,1773825424.444699,0.000000
86.000000,3007.158996,5970.821496,3310.315706,7572.636911,-6385.871039,16948.344344,-2277.396891,-11941.866510,10893.212067,13436.684124,-370.837792,16282.508228,15733.169405,14683.889113,5820.908346,-79.929838,0.238000,-0.242000,0.948000,192.000000,0.000000,0.000000,0.000000,0.000000,0.000000,0.000000,0.000000,0.000000,0.000000,1773825424.444717,0.000000
88.000000,3008.343638,5972.676691,3312.237956,7579.677710,-6391.615437,16962.403591,-2271.183106,-11937.776141,10887.288855,13405.972827,-414.870729,16257.004888,15727.112082,14653.915424,5876.877114,487.826823,0.238000,-0.242000,0.948000,192.000000,0.000000,0.000000,0.000000,0.000000,0.000000,0.000000,0.000000,0.000000,0.000000,1773825424.444736,0.000000
90.000000,3024.503949,5989.306389,3334.790866,7597.156775,-6370.493039,16974.562940,-2250.083059,-11916.452577,10890.842782,13441.579156,-367.015644,16278.529618,15731.649486,14692.494535,5804.770387,-98.682952,0.242000,-0.236000,0.950000,192.000000,3.500000,72.000000,124.000000,80.000000,14.500000,88.000000,0.000000,0.000000,0.000000,1773825424.444784,0.000000
92.000000,2989.746987,5955.801124,3312.215604,7560.522265,-6416.381170,16939.783626,-2284.236525,-11947.789722,10889.099346,13410.085548,-412.948479,16275.065097,15707.219029,14671.059212,5864.606007,297.300553,0.242000,-0.236000,0.950000,192.000000,0.000000,0.000000,0.000000,0.000000,0.000000,0.000000,0.000000,0.000000,0.000000,1773825424.444804,0.000000
94.000000,3016.882004,5982.287941,3348.648947,7598.654342,-6370.828315,16977.759239,-2247.020870,-11913.368036,10862.523122,13407.582153,-379.644380,16274.819228,15699.597084,14678.547046,5845.294099,244.438677,0.242000,-0.236000,0.950000,192.000000,0.000000,0.000000,0.000000,0.000000,0.000000,0.000000,0.000000,0.000000,0.000000,1773825424.444822,0.000000
96.000000,2990.551649,5957.142229,3320.977488,7566.691347,-6399.729121,16941.974097,-2274.669978,-11941.620641,10872.022614,13415.785243,-373.050615,16281.614158,15703.083957,14669.785162,5812.928774,-76.912353,0.242000,-0.236000,0.950000,192.000000,0.000000,0.000000,0.000000,0.000000,0.000000,0.000000,0.000000,0.000000,0.000000,1773825424.444841,0.000000
98.000000,3010.444702,5973.481354,3313.176729,7574.380347,-6386.452184,16958.380277,-2268.232676,-11931.294135,10866.300567,13392.830001,-417.709400,16253.987402,15695.238494,14652.350802,5882.308588,485.859869,0.242000,-0.236000,0.950000,192.000000,0.000000,0.000000,0.000000,0.000000,0.000000,0.000000,0.000000,0.000000,0.000000,1773825424.444859,0.000000
100.000000,3020.480635,5985.908924,3352.292282,7588.126670,-6361.708803,16975.278196,-2248.071402,-11914.686789,10910.422911,13437.622897,-359.974844,16287.559722,15763.478370,14708.408977,5811.341800,-100.538147,0.242000,-0.242000,0.946000,192.000000,3.500000,72.000000,124.000000,56.000000,14.500000,72.000000,0.000000,0.000000,0.000000,1773825424.444878,0.000000
102.000000,2986.260114,5951.487237,3300.257421,7556.297786,-6395.504641,16940.409474,-2287.879859,-11955.970461,10864.892407,13413.058330,-390.909659,16256.826074,15704.760337,14684.403203,5866.572960,296.361780,0.242000,-0.242000,0.946000,192.000000,0.000000,0.000000,0.000000,0.000000,0.000000,0.000000,0.000000,0.000000,0.000000,1773825424.444896,0.000000
104.000000,3015.160920,5977.661130,3346.078497,7598.743749,-6364.145144,16979.770896,-2250.261873,-11921.392312,10875.397727,13397.881496,-397.235202,16260.648222,15709.610666,14663.571377,5854.234797,258.341462,0.242000,-0.242000,0.946000,192.000000,0.000000,0.000000,0.000000,0.000000,0.000000,0.000000,0.000000,0.000000,0.000000,1773825424.444914,0.000000
106.000000,3001.593411,5971.268531,3315.434255,7577.554295,-6407.641638,16962.224777,-2272.457155,-11938.737266,10892.832088,13425.731769,-371.128365,16280.407164,15740.076094,14691.913389,5810.850061,-72.620818,0.242000,-0.242000,0.946000,192.000000,0.000000,0.000000,0.000000,0.000000,0.000000,0.000000,0.000000,0.000000,0.000000,1773825424.444933,0.000000
108.000000,3007.226051,5976.923523,3326.744238,7578.023681,-6403.372455,16951.495940,-2267.897399,-11932.970516,10874.302491,13401.457775,-417.552938,16257.630737,15687.750660,14674.300215,5881.839202,485.725759,0.242000,-0.242000,0.946000,192.000000,0.000000,0.000000,0.000000,0.000000,0.000000,0.000000,0.000000,0.000000,0.000000,1773825424.444951,0.000000
110.000000,3030.203644,5998.157680,3341.943424,7603.415263,-6384.418176,16967.522140,-2245.635062,-11908.607114,10891.736852,13438.047580,-360.064251,16300.389624,15730.174271,14704.855049,5802.423454,-98.370027,0.246000,-0.246000,0.952000,192.000000,3.500000,88.000000,124.000000,40.000000,14.500000,96.000000,0.000000,0.000000,0.000000,1773825424.444970,0.000000
112.000000,2993.479728,5965.457078,3308.035828,7564.187952,-6423.310211,16930.015913,-2283.655379,-11946.694487,10870.748564,13413.594772,-389.032112,16269.790086,15698.814773,14673.674366,5861.990853,287.622248,0.246000,-0.246000,0.952000,192.000000,0.000000,0.000000,0.000000,0.000000,0.000000,0.000000,0.000000,0.000000,0.000000,1773825424.444988,0.000000
114.000000,3025.509778,5996.503651,3338.076572,7601.694179,-6378.874943,16979.681489,-2246.752649,-11912.518670,10881.745622,13419.585040,-387.489842,16272.516998,15716.115024,14668.198188,5846.970480,257.469744,0.246000,-0.246000,0.952000,192.000000,0.000000,0.000000,0.000000,0.000000,0.000000,0.000000,0.000000,0.000000,0.000000,1773825424.445007,0.000000
116.000000,2993.837356,5964.406546,3317.267098,7575.810859,-6399.773824,16950.780684,-2273.753556,-11944.593423,10892.765032,13426.782301,-376.984522,16278.842542,15753.151864,14682.413898,5818.047323,-84.154318,0.246000,-0.246000,0.952000,192.000000,0.000000,0.000000,0.000000,0.000000,0.000000,0.000000,0.000000,0.000000,0.000000,1773825424.445026,0.000000
118.000000,2993.971466,5963.534828,3340.065877,7573.061594,-6391.146051,16948.657268,-2269.596132,-11939.161949,10855.370564,13385.409222,-403.538394,16252.176911,15676.753602,14655.055363,5884.499059,484.071730,0.246000,-0.246000,0.952000,192.000000,0.000000,0.000000,0.000000,0.000000,0.000000,0.000000,0.000000,0.000000,0.000000,1773825424.445045,0.000000
120.000000,3023.989859,5993.307351,3346.637290,7593.312275,-6369.420155,16972.037193,-2245.635062,-11911.423434,10892.407404,13419.585040,-368.043824,16283.245836,15739.517300,14699.602389,5814.448692,-97.878289,0.242000,-0.240000,0.956000,192.000000,3.500000,72.000000,124.000000,64.000000,14.500000,112.000000,0.000000,0.000000,0.000000,1773825424.445063,0.000000
122.000000,2989.679931,5962.260778,3308.840490,7556.029565,-6413.766016,16928.943030,-2285.599981,-11948.773199,10869.832143,13409.616162,-397.257554,16268.203112,15708.224858,14661.202092,5861.387355,280.983780,0.242000,-0.240000,0.956000,192.000000,0.000000,0.000000,0.000000,0.000000,0.000000,0.000000,0.000000,0.000000,0.000000,1773825424.445081,0.000000
124.000000,3017.507853,5991.899191,3347.754878,7589.400719,-6366.849705,16980.933187,-2250.552446,-11917.391350,10863.618358,13413.237144,-395.581173,16255.596728,15695.439660,14672.936758,5860.895617,254.340500,0.242000,-0.240000,0.956000,192.000000,0.000000,0.000000,0.000000,0.000000,0.000000,0.000000,0.000000,0.000000,0.000000,1773825424.445100,0.000000
126.000000,2997.994780,5974.241313,3310.852147,7574.581513,-6387.636827,16952.300602,-2275.049958,-11938.536100,10887.646483,13425.061217,-373.765871,16287.962054,15738.355009,14677.585921,5811.207689,-82.388530,0.242000,-0.240000,0.956000,192.000000,0.000000,0.000000,0.000000,0.000000,0.000000,0.000000,0.000000,0.000000,0.000000,1773825424.445118,0.000000
128.000000,3015.093865,5988.054691,3317.177691,7580.035338,-6384.507583,16962.828274,-2271.473679,-11929.796568,10881.186829,13409.169127,-413.306107,16253.272146,15710.124756,14665.493627,5886.108385,493.414759,0.242000,-0.240000,0.956000,192.000000,0.000000,0.000000,0.000000,0.000000,0.000000,0.000000,0.000000,0.000000,0.000000,1773825424.445136,0.000000
130.000000,3015.384437,5986.735938,3355.645043,7592.686426,-6358.825428,16971.031364,-2253.815800,-11918.978324,10893.748509,13429.509214,-361.584170,16292.320644,15761.243196,14689.946436,5812.481739,-88.870536,0.240000,-0.241000,0.956000,192.000000,3.500000,56.000000,124.000000,56.000000,14.500000,112.000000,0.000000,0.000000,0.000000,1773825424.445155,0.000000
132.000000,2989.948152,5964.071270,3309.645153,7554.979033,-6405.607629,16936.363809,-2287.991618,-11948.080295,10863.506599,13405.816365,-394.307124,16253.696830,15688.018881,14656.083543,5872.540876,282.526050,0.240000,-0.241000,0.956000,192.000000,0.000000,0.000000,0.000000,0.000000,0.000000,0.000000,0.000000,0.000000,0.000000,1773825424.445174,0.000000
134.000000,3021.307650,5994.313180,3330.052296,7601.180089,-6371.744737,16975.814638,-2249.412507,-11911.132862,10903.270352,13414.332380,-403.717208,16273.969862,15745.552271,14691.756927,5845.897597,266.321035,0.240000,-0.241000,0.956000,192.000000,0.000000,0.000000,0.000000,0.000000,0.000000,0.000000,0.000000,0.000000,0.000000,1773825424.445192,0.000000
136.000000,2986.304818,5961.254950,3332.131008,7564.590283,-6397.292781,16949.663097,-2274.781737,-11938.871376,10869.474515,13415.159394,-375.598714,16278.462562,15721.814718,14684.112630,5818.874338,-93.162071,0.240000,-0.241000,0.956000,192.000000,0.000000,0.000000,0.000000,0.000000,0.000000,0.000000,0.000000,0.000000,0.000000,1773825424.445211,0.000000
138.000000,3000.855804,5977.527020,3304.906583,7578.426013,-6392.040121,16965.152856,-2274.647626,-11934.646897,10844.015878,13397.903847,-413.619031,16239.704637,15682.609759,14652.842540,5882.487402,482.730625,0.240000,-0.241000,0.956000,192.000000,0.000000,0.000000,0.000000,0.000000,0.000000,0.000000,0.000000,0.000000,0.000000,1773825424.445229,0.000000
140.000000,3015.563251,5990.535735,3349.788886,7595.659208,-6374.404594,16974.182960,-2249.703079,-11912.675132,10889.926361,13431.006781,-374.078795,16289.481972,15740.925460,14700.362349,5806.379712,-87.775300,0.238000,-0.241500,0.952000,192.000000,3.500000,48.000000,124.000000,56.000000,14.500000,80.000000,0.000000,0.000000,0.000000,1773825424.445248,0.000000
142.000000,2978.437004,5954.281205,3318.071761,7563.204475,-6415.509452,16936.721437,-2285.287057,-11947.029763,10873.877808,13404.676426,-394.910621,16266.213806,15700.245285,14664.621909,5860.537989,272.981855,0.238000,-0.241500,0.952000,192.000000,0.000000,0.000000,0.000000,0.000000,0.000000,0.000000,0.000000,0.000000,0.000000,1773825424.445266,0.000000
144.000000,3023.162845,5997.598886,3348.514837,7597.559106,-6375.209257,16983.123658,-2245.143324,-11904.404986,10858.946843,13406.308103,-384.695874,16272.516998,15695.149087,14694.237971,5850.211483,264.935227,0.238000,-0.241500,0.952000,192.000000,0.000000,0.000000,0.000000,0.000000,0.000000,0.000000,0.000000,0.000000,0.000000,1773825424.445284,0.000000
146.000000,2998.732388,5970.776793,3314.406075,7578.604827,-6395.012903,16966.896292,-2270.892533,-11929.260126,10892.273294,13434.828929,-376.068100,16290.130173,15737.885623,14687.957130,5810.939468,-88.065873,0.238000,-0.241500,0.952000,192.000000,0.000000,0.000000,0.000000,0.000000,0.000000,0.000000,0.000000,0.000000,0.000000,1773825424.445302,0.000000
148.000000,2994.194984,5966.552313,3330.253462,7571.631082,-6397.404539,16966.203388,-2273.284170,-11932.456426,10863.685413,13390.997158,-405.907679,16256.602556,15685.470782,14661.224444,5883.940266,488.005637,0.238000,-0.241500,0.952000,192.000000,0.000000,0.000000,0.000000,0.000000,0.000000,0.000000,0.000000,0.000000,0.000000,1773825424.445320,0.000000
150.000000,3019.474807,5993.463813,3349.498314,7595.100414,-6368.034347,16993.383109,-2250.910074,-11910.417606,10872.804925,13428.302220,-364.445193,16283.804629,15728.095559,14698.171878,5817.957916,-85.651885,0.238000,-0.238750,0.952000,192.000000,3.500000,56.000000,124.000000,80.000000,14.500000,96.000000,0.000000,0.000000,0.000000,1773825424.445339,0.000000
152.000000,2982.281504,5956.494028,3307.633496,7553.213245,-6403.908897,16950.490111,-2291.925525,-11953.176493,10870.614454,13410.130252,-394.843566,16259.374173,15701.295817,14690.080546,5865.209504,277.318093,0.238000,-0.238750,0.952000,192.000000,0.000000,0.000000,0.000000,0.000000,0.000000,0.000000,0.000000,0.000000,0.000000,1773825424.445357,0.000000
154.000000,3024.772170,5992.927372,3313.959040,7598.497879,-6353.304547,16999.641597,-2254.039318,-11914.820899,10893.212067,13408.118595,-411.450912,16258.189530,15722.507623,14688.784145,5862.415536,279.977951,0.238000,-0.238750,0.952000,192.000000,0.000000,0.000000,0.000000,0.000000,0.000000,0.000000,0.000000,0.000000,0.000000,1773825424.445376,0.000000
156.000000,2984.382568,5957.835133,3323.682049,7571.295806,-6401.651371,16953.731114,-2275.809917,-11944.056981,10876.761183,13424.792996,-370.211943,16277.546141,15754.045934,14698.663616,5808.950163,-85.406016,0.238000,-0.238750,0.952000,192.000000,0.000000,0.000000,0.000000,0.000000,0.000000,0.000000,0.000000,0.000000,0.000000,1773825424.445394,0.000000
158.000000,2992.406844,5965.390022,3312.819101,7570.558199,-6400.556135,16956.502730,-2275.452289,-11942.268842,10856.868131,13401.994217,-420.659831,16237.782387,15683.816753,14664.465447,5885.616646,489.972590,0.238000,-0.238750,0.952000,192.000000,0.000000,0.000000,0.000000,0.000000,0.000000,0.000000,0.000000,0.000000,0.000000,1773825424.445412,0.000000
160.000000,3002.286315,5972.922560,3353.834552,7588.059615,-6377.891466,16962.403591,-2251.133591,-11919.112434,10884.807811,13416.075816,-377.655074,16276.227388,15724.318114,14694.662654,5814.694561,-83.886097,0.238000,-0.236375,0.953000,192.000000,3.500000,56.000000,124.000000,88.000000,14.500000,104.000000,0.000000,0.000000,0.000000,1773825424.445431,0.000000
162.000000,2971.507963,5941.943043,3312.550880,7552.788562,-6422.460845,16908.491183,-2286.762272,-11953.064734,10850.319070,13384.381042,-397.212851,16251.640469,15684.934340,14663.996060,5866.394146,261.716576,0.238000,-0.236375,0.953000,192.000000,0.000000,0.000000,0.000000,0.000000,0.000000,0.000000,0.000000,0.000000,0.000000,1773825424.445449,0.000000
164.000000,3008.634211,5980.008063,3348.179561,7590.250086,-6377.489135,16972.484228,-2252.832324,-11921.593478,10852.777762,13396.562743,-397.414016,16254.769713,15687.281273,14673.383793,5860.783858,267.125698,0.238000,-0.236375,0.953000,192.000000,0.000000,0.000000,0.000000,0.000000,0.000000,0.000000,0.000000,0.000000,0.000000,1773825424.445468,0.000000
166.000000,2997.234821,5966.976996,3292.277848,7577.934274,-6401.807833,16968.304452,-2274.535868,-11937.865548,10892.921495,13414.578249,-388.406263,16268.784257,15762.897225,14705.279732,5811.162986,-88.401149,0.238000,-0.236375,0.953000,192.000000,0.000000,0.000000,0.000000,0.000000,0.000000,0.000000,0.000000,0.000000,0.000000,1773825424.445487,0.000000
168.000000,2989.769338,5965.814706,3346.838456,7571.429917,-6400.623190,16948.992544,-2271.563086,-11935.943298,10864.244206,13387.309121,-412.300278,16249.807626,15685.940169,14662.252624,5885.214315,481.858907,0.238000,-0.236375,0.953000,192.000000,0.000000,0.000000,0.000000,0.000000,0.000000,0.000000,0.000000,0.000000,0.000000,1773825424.445506,0.000000
170.000000,3023.095789,5998.112976,3349.520665,7592.619371,-6376.438603,16982.341347,-2247.758478,-11908.517707,10880.382166,13427.475205,-369.966074,16278.462562,15705.296779,14701.032901,5822.025934,-84.467242,0.238000,-0.234187,0.957500,192.000000,3.500000,56.000000,124.000000,96.000000,15.000000,8.000000,0.000000,0.000000,0.000000,1773825424.445524,0.000000
172.000000,3000.811100,5976.990578,3296.368217,7563.629158,-6403.908897,16947.383219,-2282.962475,-11937.530272,10891.066300,13412.790109,-398.509252,16266.414972,15739.316134,14700.004721,5858.973367,267.371567,0.238000,-0.234187,0.957500,192.000000,0.000000,0.000000,0.000000,0.000000,0.000000,0.000000,0.000000,0.000000,0.000000,1773825424.445543,0.000000
174.000000,3019.452455,5995.877802,3365.166886,7598.654342,-6368.928417,16974.093553,-2247.087925,-11906.595457,10881.186829,13409.012664,-385.075853,16271.533522,15704.268599,14668.734630,5861.320300,279.285047,0.238000,-0.234187,0.957500,192.000000,0.000000,0.000000,0.000000,0.000000,0.000000,0.000000,0.000000,0.000000,0.000000,1773825424.445562,0.000000
176.000000,3004.052103,5979.091642,3318.921127,7578.202495,-6395.817565,16956.770951,-2272.166583,-11927.740208,10885.970102,13425.977638,-365.607484,16283.938740,15721.434739,14689.901732,5830.273727,-98.168862,0.238000,-0.234187,0.957500,192.000000,0.000000,0.000000,0.000000,0.000000,0.000000,0.000000,0.000000,0.000000,0.000000,1773825424.445580,0.000000
178.000000,3009.729446,5982.109127,3300.682104,7576.213190,-6389.179097,16962.917681,-2275.720510,-11930.847100,10886.126564,13407.649208,-409.819235,16252.355725,15745.619326,14669.807514,5887.337731,495.627582,0.238000,-0.234187,0.957500,192.000000,0.000000,0.000000,0.000000,0.000000,0.000000,0.000000,0.000000,0.000000,0.000000,1773825424.923620,0.000000
180.000000,3017.083170,5990.200459,3351.621729,7593.826365,-6366.246208,16986.118792,-2251.893550,-11914.440920,10888.920532,13429.755083,-374.101147,16278.462562,15730.554251,14699.870610,5827.233890,-70.720919,0.239000,-0.236094,0.961750,192.000000,3.500000,64.000000,124.000000,72.000000,15.000000,24.000000,0.000000,0.000000,0.000000,1773825424.923706,0.000000
182.000000,2985.678969,5955.979938,3305.063046,7558.421202,-6413.944830,16949.104303,-2290.070330,-11949.600214,10876.001224,13402.754176,-395.380008,16260.558815,15712.382282,14677.004776,5863.689585,264.264675,0.239000,-0.236094,0.961750,192.000000,0.000000,0.000000,0.000000,0.000000,0.000000,0.000000,0.000000,0.000000,0.000000,1773825424.923755,0.000000
184.000000,3016.345562,5986.132441,3345.452648,7586.629103,-6356.970234,16978.072164,-2253.882856,-11916.251411,10879.197523,13412.074853,-398.196327,16251.662821,15716.070320,14681.519828,5864.114268,289.477442,0.239000,-0.236094,0.961750,192.000000,0.000000,0.000000,0.000000,0.000000,0.000000,0.000000,0.000000,0.000000,0.000000,1773825424.923808,0.000000
186.000000,2983.734367,5955.667014,3330.141703,7569.038280,-6391.682493,16952.322954,-2276.145193,-11940.793626,10876.537666,13414.757063,-369.004949,16268.203112,15719.847765,14696.070814,5821.221271,-102.706266,0.239000,-0.236094,0.961750,192.000000,0.000000,0.000000,0.000000,0.000000,0.000000,0.000000,0.000000,0.000000,0.000000,1773825424.923862,0.000000
188.000000,2984.382568,5955.331737,3303.073740,7572.391042,-6396.957504,16965.264614,-2283.230696,-11947.812074,10865.540608,13374.479219,-428.840569,16238.877623,15685.224913,14642.024296,5893.886792,484.049378,0.239000,-0.236094,0.961750,192.000000,0.000000,0.000000,0.000000,0.000000,0.000000,0.000000,0.000000,0.000000,0.000000,1773825424.923916,0.000000
190.000000,3006.197871,5976.364729,3330.342869,7594.474565,-6371.700033,16986.252902,-2258.420260,-11922.621658,10877.252922,13413.885345,-384.584115,16259.843559,15748.927384,14685.006700,5817.957916,-72.531411,0.237500,-0.239047,0.959875,192.000000,3.500000,48.000000,124.000000,56.000000,14.500000,120.000000,0.000000,0.000000,0.000000,1773825424.923948,0.000000
192.000000,2966.210600,5939.797275,3322.609165,7553.012079,-6407.440473,16936.855547,-2297.044074,-11960.641975,10872.402593,13395.087528,-402.532566,16247.103065,15722.597030,14668.913444,5857.744021,259.101422,0.237500,-0.239047,0.959875,192.000000,0.000000,0.000000,0.000000,0.000000,0.000000,0.000000,0.000000,0.000000,0.000000,1773825424.923967,0.000000
194.000000,3003.448606,5975.940046,3355.063898,7589.579533,-6372.884676,16974.138257,-2257.950873,-11920.744112,10851.190788,13384.068118,-400.297391,16239.436417,15676.977119,14658.810456,5872.049138,288.359855,0.237500,-0.239047,0.959875,192.000000,0.000000,0.000000,0.000000,0.000000,0.000000,0.000000,0.000000,0.000000,0.000000,1773825424.923986,0.000000
196.000000,2994.150280,5967.111107,3323.346773,7564.433821,-6377.466783,16963.208254,-2280.012045,-11939.407818,10884.718404,13413.840641,-371.731862,16265.923234,15744.702905,14708.565439,5823.344686,-103.421522,0.237500,-0.239047,0.959875,192.000000,0.000000,0.000000,0.000000,0.000000,0.000000,0.000000,0.000000,0.000000,0.000000,1773825424.924005,0.000000
198.000000,2992.116272,5966.105278,3318.764665,7569.060632,-6392.733025,16961.598928,-2283.253048,-11942.782932,10876.135335,13396.138060,-417.061200,16235.323696,15712.024654,14657.223482,5889.014112,486.731587,0.237500,-0.239047,0.959875,192.000000,0.000000,0.000000,0.000000,0.000000,0.000000,0.000000,0.000000,0.000000,0.000000,1773825424.924024,0.000000
200.000000,3017.709019,5988.166450,3342.613976,7588.908981,-6374.516353,16983.771859,-2259.403737,-11918.263068,10892.139184,13416.634609,-370.949551,16262.615176,15742.691248,14691.444003,5821.087160,-71.145603,0.237500,-0.239047,0.959875,192.000000,0.000000,0.000000,0.000000,0.000000,0.000000,0.000000,0.000000,0.000000,0.000000,1773825424.924042,0.000000
202.000000,2983.734367,5953.633005,3305.420674,7549.189931,-6404.735911,16933.234564,-2298.429882,-11955.277557,10871.083840,13388.940798,-404.477168,16246.968954,15693.919741,14665.784200,5872.250303,251.188904,0.234000,-0.244000,0.956000,192.000000,3.500000,40.000000,124.000000,48.000000,14.500000,112.000000,0.000000,0.000000,0.000000,1773825424.924061,0.000000
204.000000,3028.639022,5998.180032,3344.111543,7587.679635,-6361.440582,16981.201408,-2261.236580,-11913.815071,10881.499753,13411.270191,-395.469415,16248.891204,15728.587297,14694.930875,5871.423289,290.907954,0.234000,-0.244000,0.956000,192.000000,0.000000,0.000000,0.000000,0.000000,0.000000,0.000000,0.000000,0.000000,0.000000,1773825424.924080,0.000000
206.000000,2992.630362,5960.673804,3321.871557,7562.690385,-6386.273371,16962.403591,-2287.075196,-11943.721705,10889.278160,13422.982505,-365.875705,16261.564644,15725.234535,14692.271017,5826.742152,-103.376818,0.234000,-0.244000,0.956000,192.000000,0.000000,0.000000,0.000000,0.000000,0.000000,0.000000,0.000000,0.000000,0.000000,1773825424.924098,0.000000
208.000000,2996.027827,5967.468735,3318.161168,7566.668995,-6394.007074,16967.790361,-2287.365769,-11943.162911,10878.884599,13383.665786,-418.134084,16238.229422,15713.298704,14644.393580,5890.556382,490.486680,0.234000,-0.244000,0.956000,192.000000,0.000000,0.000000,0.000000,0.000000,0.000000,0.000000,0.000000,0.000000,0.000000,1773825424.924117,0.000000
210.000000,3019.072475,5987.205325,3339.797657,7584.639798,-6352.589292,16983.101306,-2261.303635,-11921.369960,10887.624131,13414.108862,-379.800842,16260.067077,15735.829262,14682.078622,5823.523500,-69.670387,0.234000,-0.244000,0.956000,192.000000,0.000000,0.000000,0.000000,0.000000,0.000000,0.000000,0.000000,0.000000,0.000000,1773825424.924135,0.000000
212.000000,2986.215411,5953.275377,3296.055293,7553.637928,-6401.271391,16951.585347,-2297.066426,-11955.434019,10895.536649,13394.506382,-402.420807,16245.873719,15741.059570,14659.279842,5859.710975,248.506695,0.240000,-0.244000,0.952000,192.000000,3.500000,64.000000,124.000000,48.000000,14.500000,96.000000,0.000000,0.000000,0.000000,1773825424.924154,0.000000
214.000000,3017.619612,5987.026511,3360.629482,7581.667016,-6364.860399,16986.543475,-2260.409565,-11921.302905,10868.245169,13388.672577,-405.415941,16243.124454,15702.681625,14663.191398,5870.037481,295.914745,0.240000,-0.244000,0.952000,192.000000,0.000000,0.000000,0.000000,0.000000,0.000000,0.000000,0.000000,0.000000,0.000000,1773825424.924172,0.000000
216.000000,3005.013228,5977.437613,3322.028020,7568.412431,-6395.750510,16964.817579,-2278.514478,-11933.819882,10904.812623,13422.669580,-371.106013,16266.370269,15741.193681,14703.290427,5814.694561,-108.093036,0.240000,-0.244000,0.952000,192.000000,0.000000,0.000000,0.000000,0.000000,0.000000,0.000000,0.000000,0.000000,0.000000,1773825424.924191,0.000000
218.000000,2995.849013,5968.921598,3326.900700,7563.852675,-6402.321923,16959.855492,-2282.157812,-11938.401990,10870.994433,13387.622045,-404.141891,16237.357704,15699.485326,14646.069961,5886.443661,482.395349,0.240000,-0.244000,0.952000,192.000000,0.000000,0.000000,0.000000,0.000000,0.000000,0.000000,0.000000,0.000000,0.000000,1773825424.924210,0.000000
220.000000,3017.440798,5988.300561,3346.078497,7584.215115,-6359.875960,16986.677585,-2258.800239,-11914.373864,10890.194582,13413.773586,-379.756138,16273.746344,15729.257849,14697.747194,5821.623602,-71.592637,0.240000,-0.244000,0.952000,192.000000,0.000000,0.000000,0.000000,0.000000,0.000000,0.000000,0.000000,0.000000,0.000000,1773825424.924229,0.000000
222.000000,2987.422405,5961.657281,3304.772473,7553.034431,-6409.049798,16942.510538,-2296.328818,-11949.734324,10874.481305,13392.137097,-389.970886,16254.769713,15705.609704,14661.537368,5864.337786,244.572788,0.230000,-0.252000,0.952000,192.000000,3.500000,24.000000,124.000000,16.000000,14.500000,96.000000,0.000000,0.000000,0.000000,1773825424.924246,0.000000
224.000000,3028.348449,5999.856412,3346.100848,7587.456118,-6373.354062,16980.776725,-2257.190914,-11908.450652,10905.058492,13399.736690,-397.615182,16258.435399,15731.984762,14674.233159,5863.041385,297.501719,0.230000,-0.252000,0.952000,192.000000,0.000000,0.000000,0.000000,0.000000,0.000000,0.000000,0.000000,0.000000,0.000000,1773825424.924264,0.000000
226.000000,2996.720731,5967.893418,3322.273889,7563.875027,-6385.446356,16954.580480,-2283.051882,-11939.027839,10884.003149,13412.164260,-363.484068,16270.371231,15715.466823,14693.723880,5825.736323,-112.093998,0.230000,-0.252000,0.952000,192.000000,0.000000,0.000000,0.000000,0.000000,0.000000,0.000000,0.000000,0.000000,0.000000,1773825424.924283,0.000000
228.000000,3000.252306,5973.593113,3308.371104,7558.689422,-6382.205353,16951.205367,-2287.499879,-11941.039496,10880.583332,13379.508362,-410.869767,16235.636620,15708.046044,14647.925156,5894.646751,486.776291,0.230000,-0.252000,0.952000,192.000000,0.000000,0.000000,0.000000,0.000000,0.000000,0.000000,0.000000,0.000000,0.000000,1773825424.924302,0.000000
230.000000,3017.664315,5988.769947,3343.508046,7586.874972,-6370.001301,16985.202370,-2262.756498,-11919.134786,10893.145012,13422.423711,-374.414071,16259.284766,15723.759320,14696.048462,5827.390352,-63.166030,0.230000,-0.252000,0.952000,192.000000,0.000000,0.000000,0.000000,0.000000,0.000000,0.000000,0.000000,0.000000,0.000000,1773825424.924320,0.000000
232.000000,2991.758644,5964.495953,3303.699589,7552.319175,-6392.800080,16953.529948,-2299.703932,-11949.622565,10902.085710,13398.976731,-401.482034,16245.180815,15721.501794,14667.997023,5863.354309,245.668023,0.228000,-0.248000,0.956000,192.000000,3.500000,16.000000,124.000000,32.000000,14.500000,112.000000,0.000000,0.000000,0.000000,1773825424.924339,0.000000
234.000000,3016.859653,5989.507555,3354.840381,7585.958551,-6367.386146,16977.692184,-2262.600036,-11914.038588,10878.795192,13391.511249,-388.339208,16249.181777,15706.034387,14671.148619,5873.502001,304.564870,0.228000,-0.248000,0.956000,192.000000,0.000000,0.000000,0.000000,0.000000,0.000000,0.000000,0.000000,0.000000,0.000000,1773825424.924358,0.000000
236.000000,3018.916013,5991.608619,3303.453720,7569.820591,-6391.235458,16975.255844,-2278.939161,-11925.057998,10905.304361,13424.860051,-367.775603,16268.828961,15748.659164,14701.099956,5817.086198,-109.121216,0.228000,-0.248000,0.956000,192.000000,0.000000,0.000000,0.000000,0.000000,0.000000,0.000000,0.000000,0.000000,0.000000,1773825424.924376,0.000000
238.000000,3001.906336,5980.097470,3337.741296,7566.557236,-6399.550307,16949.216062,-2281.509612,-11931.405894,10901.929248,13394.238161,-401.392627,16251.953393,15710.795308,14657.514054,5879.738138,483.736454,0.228000,-0.248000,0.956000,192.000000,0.000000,0.000000,0.000000,0.000000,0.000000,0.000000,0.000000,0.000000,0.000000,1773825424.924395,0.000000
240.000000,3031.432990,6006.405474,3354.415697,7594.049882,-6375.656292,16981.357870,-2253.994614,-11903.108585,10894.396710,13418.199231,-358.387871,16276.048574,15741.886585,14684.872590,5822.472968,-70.028015,0.228000,-0.248000,0.956000,192.000000,0.000000,0.000000,0.000000,0.000000,0.000000,0.000000,0.000000,0.000000,0.000000,1773825424.924413,0.000000
