Sample_index,EXG Channel 0,EXG Channel 1,EXG Channel 2,EXG Channel 3,EXG Channel 4,EXG Channel 5,EXG Channel 6,EXG Channel 7,EXG Channel 8,EXG Channel 9,EXG Channel 10,EXG Channel 11,EXG Channel 12,EXG Channel 13,EXG Channel 14,EXG Channel 15,Accel Channel 0,Accel Channel 1,Accel Channel 2,Not Used,Digital Channel 0 (D11),Digital Channel 1 (D12),Digital Channel 2 (D13),Digital Channel 3 (D17),Not Used,Digital Channel 4 (D18),Analog Channel 0,Analog Channel 1,Analog Channel 2,Timestamp,Marker Channel
90.000000,-8151.547092,-2613.790645,-7283.584152,2174.690625,-10183.834753,13919.347694,-10460.281129,-14921.555212,6925.553909,9717.622068,-8850.620252,12810.634114,12816.244401,8426.071218,-130.668298,-3149.584311,0.298000,-0.194000,0.938000,192.000000,0.000000,0.000000,0.000000,0.000000,0.000000,0.000000,0.000000,0.000000,0.000000,1773823373.328644,101.000000
92.000000,-8123.652115,-2579.883049,-7250.436515,2251.290053,-10159.583111,13948.092037,-10412.582506,-14871.286138,6937.154464,9784.856115,-8830.950717,12814.255096,12845.212262,8498.602629,-135.697441,-3174.528858,0.298000,-0.194000,0.938000,192.000000,0.000000,0.000000,0.000000,0.000000,0.000000,0.000000,0.000000,0.000000,0.000000,1773823373.329572,0.000000
94.000000,-8141.108828,-2602.458310,-7286.132251,2221.763399,-10193.311893,13913.133909,-10446.110123,-14896.834182,6932.929985,9688.318931,-8827.508548,12875.677690,12840.361934,8436.598889,-144.392269,-3170.259675,0.294000,-0.196000,0.938000,192.000000,4.500000,24.000000,124.500000,112.000000,14.500000,40.000000,0.000000,0.000000,0.000000,1773823373.329641,0.000000
96.000000,-8121.573403,-2587.080310,-7273.257646,2219.125893,-10172.591826,13936.804406,-10435.895376,-14893.056738,6929.890147,9711.765911,-8854.084772,12817.429044,12815.685608,8431.525043,-135.585682,-3153.652329,0.294000,-0.196000,0.938000,192.000000,0.000000,0.000000,0.000000,0.000000,0.000000,0.000000,0.000000,0.000000,0.000000,1773823373.329687,0.000000
98.000000,-8112.856223,-2582.744072,-7262.819381,2220.399942,-10161.103029,13943.532281,-10428.340486,-14885.613607,6938.048534,9744.734734,-8822.457054,12840.876024,12842.083018,8473.121640,-146.672147,-3186.844669,0.294000,-0.196000,0.938000,192.000000,0.000000,0.000000,0.000000,0.000000,0.000000,0.000000,0.000000,0.000000,0.000000,1773823373.329708,0.000000
100.000000,-8131.117598,-2602.838290,-7290.446137,2199.009323,-10197.089338,13907.121290,-10458.157713,-14911.698092,6929.823092,9727.322725,-8851.111990,12818.256058,12812.779881,8439.616375,-131.249443,-3151.685375,0.294000,-0.196000,0.938000,192.000000,0.000000,0.000000,0.000000,0.000000,0.000000,0.000000,0.000000,0.000000,0.000000,1773823373.329733,0.000000
102.000000,-8088.783394,-2565.488525,-7250.905901,2232.179312,-10160.074849,13953.501159,-10416.292896,-14874.236569,6943.591767,9718.471434,-8830.771903,12819.910088,12836.428027,8447.975927,-139.452534,-3174.707672,0.294000,-0.196000,0.938000,192.000000,0.000000,0.000000,0.000000,0.000000,0.000000,0.000000,0.000000,0.000000,0.000000,1773823373.329752,0.000000
104.000000,-8119.248822,-2586.588572,-7285.796974,2208.531166,-10197.201097,13914.854993,-10448.390001,-14904.187906,6950.766677,9720.550146,-8820.110121,12862.333699,12847.805065,8461.677547,-147.163885,-3173.478326,0.293000,-0.197000,0.940000,192.000000,4.500000,16.000000,124.500000,104.000000,14.500000,56.000000,0.000000,0.000000,0.000000,1773823373.329770,0.000000
106.000000,-8114.264383,-2604.939354,-7269.122573,2217.963602,-10166.221579,13931.037656,-10434.397809,-14895.940113,6919.831862,9721.041885,-8858.085735,12807.169593,12814.120986,8438.945823,-130.578891,-3149.740773,0.293000,-0.197000,0.940000,192.000000,0.000000,0.000000,0.000000,0.000000,0.000000,0.000000,0.000000,0.000000,0.000000,1773823373.329788,0.000000
108.000000,-8083.418975,-2579.704235,-7255.711526,2213.537957,-10170.736631,13949.947232,-10424.250117,-14883.333729,6947.458619,9732.329515,-8814.276315,12849.347335,12863.250120,8461.565788,-152.416545,-3188.364588,0.293000,-0.197000,0.940000,192.000000,0.000000,0.000000,0.000000,0.000000,0.000000,0.000000,0.000000,0.000000,0.000000,1773823373.329816,0.000000
110.000000,-8115.761950,-2614.103569,-7293.418919,2197.310590,-10197.022283,13915.391435,-10454.402620,-14913.553287,6939.255528,9715.230431,-8846.216958,12821.474710,12831.197719,8451.865131,-140.301900,-3149.785477,0.293000,-0.197000,0.940000,192.000000,0.000000,0.000000,0.000000,0.000000,0.000000,0.000000,0.000000,0.000000,0.000000,1773823373.329835,0.000000
112.000000,-8079.462717,-2576.552639,-7257.499666,2221.763399,-10146.909672,13958.619709,-10417.946925,-14884.563075,6932.952336,9784.431432,-8842.841845,12789.042328,12834.282259,8473.591026,-139.072554,-3176.316998,0.293000,-0.197000,0.940000,192.000000,0.000000,0.000000,0.000000,0.000000,0.000000,0.000000,0.000000,0.000000,0.000000,1773823373.329860,0.000000
114.000000,-8103.960228,-2612.337781,-7282.399509,2192.460262,-10196.754062,13917.939534,-10447.920614,-14908.993531,6944.597595,9701.618219,-8837.566833,12856.030507,12848.252100,8452.222759,-149.130839,-3177.501640,0.292500,-0.194500,0.943000,192.000000,4.500000,16.000000,125.000000,0.000000,14.500000,72.000000,0.000000,0.000000,0.000000,1773823373.330016,0.000000
116.000000,-8087.710510,-2595.618677,-7267.736765,2204.016114,-10178.403280,13930.478863,-10434.196643,-14897.527086,6923.698714,9717.286791,-8850.866121,12786.337767,12821.541765,8465.566750,-131.137685,-3160.827239,0.292500,-0.194500,0.943000,192.000000,0.000000,0.000000,0.000000,0.000000,0.000000,0.000000,0.000000,0.000000,0.000000,1773823373.330078,0.000000
118.000000,-8084.603618,-2581.179450,-7269.547256,2238.951890,-10178.202114,13939.576023,-10423.423102,-14887.513505,6928.437284,9715.543355,-8822.144130,12858.757419,12844.385248,8452.781552,-158.339758,-3194.220745,0.292500,-0.194500,0.943000,192.000000,0.000000,0.000000,0.000000,0.000000,0.000000,0.000000,0.000000,0.000000,0.000000,1773823373.330130,0.000000
120.000000,-8104.161394,-2617.009296,-7297.218716,2193.644904,-10204.778338,13911.099900,-10456.906016,-14921.197584,6919.541290,9701.461756,-8863.472505,12799.614704,12814.635076,8431.279174,-142.425316,-3156.021614,0.292500,-0.194500,0.943000,192.000000,0.000000,0.000000,0.000000,0.000000,0.000000,0.000000,0.000000,0.000000,0.000000,1773823373.330219,0.000000
122.000000,-8053.244120,-2555.653758,-7247.463733,2217.337753,-10164.992233,13944.292241,-10414.281239,-14869.565054,6947.883302,9780.765746,-8833.096484,12786.136602,12846.888643,8490.779518,-146.850961,-3180.943809,0.292500,-0.194500,0.943000,192.000000,0.000000,0.000000,0.000000,0.000000,0.000000,0.000000,0.000000,0.000000,0.000000,1773823373.330348,0.000000
124.000000,-8090.348016,-2598.412645,-7292.390739,2223.171559,-10204.308951,13921.381703,-10446.825379,-14900.768089,6942.094200,9721.712437,-8823.217013,12854.532940,12846.910995,8454.636747,-149.488467,-3178.686282,0.292250,-0.195250,0.946500,192.000000,4.500000,16.000000,124.500000,112.000000,14.500000,88.000000,0.000000,0.000000,0.000000,1773823373.330444,0.000000
126.000000,-8074.902961,-2582.878182,-7267.982634,2225.853768,-10172.658881,13943.845206,-10431.894413,-14887.625264,6932.862929,9707.675541,-8849.569720,12808.331884,12830.258945,8449.607605,-138.290243,-3149.874884,0.292250,-0.195250,0.946500,192.000000,0.000000,0.000000,0.000000,0.000000,0.000000,0.000000,0.000000,0.000000,0.000000,1773823373.330467,0.000000
128.000000,-8058.765001,-2565.309711,-7261.835904,2209.291125,-10160.767753,13969.996747,-10428.116969,-14889.703976,6946.922177,9757.922263,-8819.730141,12803.146279,12860.277338,8493.059396,-144.325214,-3182.419024,0.292250,-0.195250,0.946500,192.000000,0.000000,0.000000,0.000000,0.000000,0.000000,0.000000,0.000000,0.000000,0.000000,1773823373.330486,0.000000
130.000000,-8089.990388,-2593.584668,-7294.938838,2217.337753,-10202.990198,13926.410845,-10450.960451,-14906.110156,6937.757961,9673.767945,-8857.079906,12853.840036,12835.712771,8444.265538,-134.512798,-3147.237378,0.292250,-0.195250,0.946500,192.000000,0.000000,0.000000,0.000000,0.000000,0.000000,0.000000,0.000000,0.000000,0.000000,1773823373.330508,0.000000
132.000000,-8040.168350,-2545.818990,-7242.188721,2217.225995,-10155.291576,13980.993805,-10413.700093,-14873.074278,6957.136924,9734.117655,-8831.822435,12825.810948,12859.584434,8508.616210,-142.447667,-3173.746547,0.292250,-0.195250,0.946500,192.000000,0.000000,0.000000,0.000000,0.000000,0.000000,0.000000,0.000000,0.000000,0.000000,1773823373.330527,0.000000
134.000000,-8066.006966,-2585.314522,-7280.521963,2198.942268,-10181.800745,13952.115351,-10447.942966,-14911.295761,6956.667537,9752.848417,-8821.227708,12827.599088,12863.048954,8510.292591,-136.636214,-3166.169306,0.292125,-0.194625,0.948250,192.000000,4.500000,16.000000,124.500000,120.000000,14.500000,88.000000,0.000000,0.000000,0.000000,1773823373.330554,0.000000
136.000000,-8055.300481,-2555.072612,-7264.339300,2242.841094,-10176.771602,13953.031773,-10422.171405,-14875.197694,6949.738497,9722.315934,-8843.825322,12783.789669,12853.214187,8475.736794,-130.288318,-3144.644576,0.292125,-0.194625,0.948250,192.000000,0.000000,0.000000,0.000000,0.000000,0.000000,0.000000,0.000000,0.000000,0.000000,1773823373.330575,0.000000
138.000000,-8042.984670,-2545.662528,-7262.774678,2256.498010,-10168.300291,13967.850979,-10414.325942,-14875.041232,6943.167084,9708.010818,-8820.065417,12893.335568,12861.014946,8475.110945,-151.120144,-3179.893277,0.292125,-0.194625,0.948250,192.000000,0.000000,0.000000,0.000000,0.000000,0.000000,0.000000,0.000000,0.000000,0.000000,1773823373.330592,0.000000
140.000000,-8066.096373,-2578.698406,-7283.204172,2204.641963,-10191.076719,13943.129950,-10448.434704,-14907.563020,6955.035860,9710.536565,-8844.160598,12834.729294,12842.664163,8469.210085,-134.915130,-3142.990547,0.292125,-0.194625,0.948250,192.000000,0.000000,0.000000,0.000000,0.000000,0.000000,0.000000,0.000000,0.000000,0.000000,1773823373.330610,0.000000
142.000000,-8029.640678,-2526.261214,-7247.687250,2259.314330,-10167.942663,13981.999634,-10400.669026,-14855.729324,6959.103877,9753.094286,-8825.228670,12825.609782,12860.232635,8497.954428,-141.307728,-3164.247056,0.292125,-0.194625,0.948250,192.000000,0.000000,0.000000,0.000000,0.000000,0.000000,0.000000,0.000000,0.000000,0.000000,1773823373.330687,0.000000
144.000000,-8061.804838,-2564.259179,-7276.722166,2195.589506,-10175.899884,13951.265985,-10440.477483,-14902.645636,6957.583959,9718.940821,-8819.372513,12849.235576,12866.714640,8496.188640,-143.744069,-3159.821410,0.296063,-0.193312,0.948125,192.000000,4.500000,48.000000,125.000000,0.000000,14.500000,80.000000,0.000000,0.000000,0.000000,1773823373.330710,0.000000
146.000000,-8048.930234,-2548.568255,-7270.418974,2217.337753,-10148.451942,13966.845151,-10423.467806,-14893.347310,6945.312851,9741.046696,-8858.979804,12800.307608,12846.374553,8484.811602,-126.265004,-3139.078991,0.296063,-0.193312,0.948125,192.000000,0.000000,0.000000,0.000000,0.000000,0.000000,0.000000,0.000000,0.000000,0.000000,1773823373.330729,0.000000
148.000000,-8045.689231,-2549.395269,-7260.517151,2262.532981,-10162.779410,13959.089095,-10405.362893,-14869.475647,6971.039709,9748.445123,-8818.321981,12853.527111,12877.309367,8511.790158,-136.725621,-3174.215934,0.296063,-0.193312,0.948125,192.000000,0.000000,0.000000,0.000000,0.000000,0.000000,0.000000,0.000000,0.000000,0.000000,1773823373.330762,0.000000
150.000000,-8063.928254,-2575.211534,-7272.788259,2185.888849,-10186.561666,13949.589604,-10441.528015,-14905.976046,6950.744325,9708.636666,-8858.219845,12838.730256,12842.060666,8476.787326,-124.163940,-3136.441485,0.296063,-0.193312,0.948125,192.000000,0.000000,0.000000,0.000000,0.000000,0.000000,0.000000,0.000000,0.000000,0.000000,1773823373.330782,0.000000
152.000000,-8024.991515,-2518.996897,-7234.879701,2246.506780,-10151.469428,13993.510782,-10398.813832,-14861.361964,6966.703471,9724.081722,-8820.355990,12831.153015,12867.184027,8507.677437,-127.471999,-3161.408384,0.296063,-0.193312,0.948125,192.000000,0.000000,0.000000,0.000000,0.000000,0.000000,0.000000,0.000000,0.000000,0.000000,1773823373.330799,0.000000
154.000000,-8055.702812,-2540.745144,-7276.811573,2242.014079,-10198.765719,13950.930709,-10428.429893,-14885.166572,6962.836619,9758.883388,-8815.215089,12839.959602,12863.384231,8526.475254,-126.488522,-3155.887503,0.297031,-0.192656,0.951063,192.000000,4.500000,40.000000,125.000000,0.000000,14.500000,104.000000,0.000000,0.000000,0.000000,1773823373.330826,0.000000
156.000000,-8052.238292,-2540.566330,-7271.022471,2246.037393,-10162.198265,13977.618692,-10418.215146,-14887.044118,6935.075752,9639.279203,-8858.041031,12900.331664,12824.067512,8433.559052,-125.661507,-3134.809808,0.297031,-0.192656,0.951063,192.000000,0.000000,0.000000,0.000000,0.000000,0.000000,0.000000,0.000000,0.000000,0.000000,1773823373.330843,0.000000
158.000000,-8039.095466,-2531.670336,-7265.680404,2226.256099,-10157.683212,14005.178393,-10412.023713,-14879.444525,6979.242799,9806.358493,-8823.395827,12824.045160,12889.289902,8554.951376,-137.306766,-3167.398652,0.297031,-0.192656,0.951063,192.000000,0.000000,0.000000,0.000000,0.000000,0.000000,0.000000,0.000000,0.000000,0.000000,1773823373.330861,0.000000
160.000000,-8062.207170,-2560.749955,-7282.958303,2194.583678,-10171.384832,13964.766439,-10442.444437,-14909.351159,6960.288520,9807.230211,-8855.895264,12759.985061,12856.879873,8601.621819,-111.065818,-3133.759276,0.297031,-0.192656,0.951063,192.000000,0.000000,0.000000,0.000000,0.000000,0.000000,0.000000,0.000000,0.000000,0.000000,1773823373.330879,0.000000
162.000000,-8045.197492,-2549.238807,-7243.708640,2265.125783,-10144.696849,13998.651683,-10397.584486,-14873.588368,6945.871645,9621.107235,-8837.723295,12898.454118,12851.761323,8463.555093,-133.663432,-3159.039099,0.297031,-0.192656,0.951063,192.000000,0.000000,0.000000,0.000000,0.000000,0.000000,0.000000,0.000000,0.000000,0.000000,1773823373.330897,0.000000
164.000000,-8052.327699,-2536.431257,-7278.912637,2210.408713,-10160.343070,13970.779058,-10433.861367,-14896.297740,6973.654863,9744.399458,-8825.899223,12842.038315,12885.512458,8566.239007,-124.186292,-3153.808791,0.295516,-0.193328,0.950531,192.000000,4.500000,24.000000,124.500000,120.000000,14.500000,88.000000,0.000000,0.000000,0.000000,1773823373.330916,0.000000
166.000000,-8046.493893,-2544.991975,-7280.745480,2241.790562,-10150.798875,13981.485543,-10420.942059,-14894.107270,6954.432363,9669.789335,-8862.600787,12861.752553,12842.820626,8476.250884,-119.447722,-3127.321974,0.295516,-0.193328,0.950531,192.000000,0.000000,0.000000,0.000000,0.000000,0.000000,0.000000,0.000000,0.000000,0.000000,1773823373.330948,0.000000
168.000000,-8049.243158,-2530.396286,-7253.699869,2267.472716,-10157.750268,13973.416564,-10405.899335,-14871.219083,6999.046445,9803.765691,-8835.979859,12834.706942,12925.857356,8560.226388,-137.329118,-3162.458916,0.295516,-0.193328,0.950531,192.000000,0.000000,0.000000,0.000000,0.000000,0.000000,0.000000,0.000000,0.000000,0.000000,1773823373.330967,0.000000
170.000000,-8079.753289,-2567.880162,-7299.431539,2219.170597,-10166.467448,13974.042413,-10441.684478,-14914.737930,6930.560700,9711.207117,-8858.398659,12832.672934,12841.770094,8499.317884,-121.481731,-3121.443465,0.295516,-0.193328,0.950531,192.000000,0.000000,0.000000,0.000000,0.000000,0.000000,0.000000,0.000000,0.000000,0.000000,1773823373.330986,0.000000
172.000000,-8044.728106,-2533.234958,-7242.881625,2266.422184,-10154.822189,14004.105509,-10395.930457,-14865.005298,6970.078584,9680.629931,-8853.034240,12868.279263,12863.719507,8498.960256,-135.809199,-3143.147009,0.295516,-0.193328,0.950531,192.000000,0.000000,0.000000,0.000000,0.000000,0.000000,0.000000,0.000000,0.000000,0.000000,1773823373.331016,0.000000
174.000000,-8065.381118,-2564.393290,-7288.657998,2211.593355,-10178.827963,13972.969529,-10435.694210,-14909.820546,6963.104840,9698.064291,-8835.398714,12848.632079,12858.466847,8493.215858,-131.607071,-3147.639709,0.295516,-0.193328,0.950531,192.000000,0.000000,0.000000,0.000000,0.000000,0.000000,0.000000,0.000000,0.000000,0.000000,1773823373.331035,0.000000
176.000000,-8046.449190,-2548.657662,-7263.400526,2223.037448,-10162.421782,13989.778041,-10417.656352,-14885.926531,6974.794802,9722.695914,-8862.801953,12781.465087,12856.946928,8523.524824,-126.823798,-3129.355982,0.300000,-0.200000,0.944000,192.000000,4.500000,48.000000,124.500000,96.000000,14.500000,64.000000,0.000000,0.000000,0.000000,1773823373.331053,0.000000
178.000000,-8036.569719,-2524.383667,-7265.188666,2287.142251,-10169.037899,13981.105564,-10398.657369,-14861.227853,6973.476049,9649.404544,-8842.618327,12916.581382,12882.226751,8469.880637,-148.817915,-3167.175134,0.300000,-0.200000,0.944000,192.000000,0.000000,0.000000,0.000000,0.000000,0.000000,0.000000,0.000000,0.000000,0.000000,1773823373.331070,0.000000
180.000000,-8056.865103,-2566.561409,-7289.999102,2225.250271,-10182.068966,13968.454476,-10432.162634,-14898.197639,6957.695718,9697.505498,-8844.160598,12873.666033,12856.231672,8465.767916,-133.149342,-3134.519235,0.300000,-0.200000,0.944000,192.000000,0.000000,0.000000,0.000000,0.000000,0.000000,0.000000,0.000000,0.000000,0.000000,1773823373.331087,0.000000
182.000000,-8012.876870,-2498.500347,-7232.063381,2255.626292,-10156.319756,13987.118183,-10388.062643,-14847.794455,6977.029976,9823.904613,-8817.204394,12797.603047,12895.995426,8558.527655,-134.624557,-3155.731041,0.300000,-0.200000,0.944000,192.000000,0.000000,0.000000,0.000000,0.000000,0.000000,0.000000,0.000000,0.000000,0.000000,1773823373.331111,0.000000
184.000000,-8051.523036,-2538.733487,-7271.827134,2246.775001,-10194.407129,13952.920014,-10422.037294,-14884.585426,6958.276863,9542.362039,-8825.675705,12949.080819,12839.758437,8408.838023,-139.854865,-3159.083803,0.300000,-0.200000,0.944000,192.000000,0.000000,0.000000,0.000000,0.000000,0.000000,0.000000,0.000000,0.000000,0.000000,1773823373.331132,0.000000
186.000000,-8035.250966,-2523.646059,-7269.524904,2260.364862,-10176.637492,13986.022948,-10405.988742,-14872.291967,6958.500380,9705.954457,-8857.214017,12846.307498,12821.944096,8461.968119,-127.226129,-3134.005145,0.292000,-0.194000,0.944000,192.000000,4.500000,16.000000,124.500000,120.000000,14.500000,64.000000,0.000000,0.000000,0.000000,1773823373.331172,0.000000
188.000000,-8014.106216,-2508.089245,-7245.563834,2248.764306,-10156.833846,13991.432070,-10399.171460,-14862.256034,6989.524602,9719.298448,-8813.315190,12893.469679,12900.711644,8532.845501,-150.091964,-3162.794192,0.292000,-0.194000,0.944000,192.000000,0.000000,0.000000,0.000000,0.000000,0.000000,0.000000,0.000000,0.000000,0.000000,1773823373.331233,0.000000
190.000000,-8044.482236,-2537.593548,-7288.590942,2249.390155,-10184.594713,13949.835473,-10426.194719,-14886.038290,6973.878381,9680.719338,-8850.776714,12860.590262,12854.085905,8459.218855,-123.158112,-3127.254918,0.292000,-0.194000,0.944000,192.000000,0.000000,0.000000,0.000000,0.000000,0.000000,0.000000,0.000000,0.000000,0.000000,1773823373.331255,0.000000
192.000000,-8009.881736,-2499.975562,-7239.998250,2273.351225,-10147.982555,13993.175506,-10386.319207,-14848.777932,6996.185421,9674.393794,-8830.861310,12887.211190,12859.964414,8505.218745,-129.975394,-3157.586236,0.292000,-0.194000,0.944000,192.000000,0.000000,0.000000,0.000000,0.000000,0.000000,0.000000,0.000000,0.000000,0.000000,1773823373.331273,0.000000
194.000000,-8039.788370,-2525.903586,-7274.352881,2256.185085,-10186.047576,13953.858787,-10417.589297,-14878.259883,6977.678177,9686.553143,-8826.100388,12899.862277,12885.691272,8485.571562,-134.602205,-3146.298605,0.292000,-0.194000,0.944000,192.000000,0.000000,0.000000,0.000000,0.000000,0.000000,0.000000,0.000000,0.000000,0.000000,1773823373.331398,0.000000
196.000000,-8025.058571,-2509.676219,-7240.266471,2246.752649,-10170.423707,13966.353412,-10402.904201,-14862.501903,6951.839560,9666.101297,-8835.175197,12860.970242,12824.603954,8454.524988,-125.415638,-3136.553244,0.286000,-0.190000,0.946000,192.000000,4.000000,120.000000,125.000000,8.000000,14.500000,72.000000,0.000000,0.000000,0.000000,1773823373.331436,0.000000
198.000000,-8015.849652,-2508.536280,-7246.480256,2270.825478,-10164.679308,13968.745049,-10390.946018,-14854.142350,6990.061044,9667.844733,-8795.813775,12923.845699,12878.762231,8481.123564,-140.458362,-3176.115832,0.286000,-0.190000,0.946000,192.000000,0.000000,0.000000,0.000000,0.000000,0.000000,0.000000,0.000000,0.000000,0.000000,1773823373.331465,0.000000
200.000000,-8040.436571,-2522.483769,-7267.915579,2252.631158,-10200.285637,13931.864671,-10418.595126,-14873.342499,6978.773413,9695.382082,-8838.259737,12871.252045,12858.824475,8468.695994,-132.299975,-3134.116904,0.286000,-0.190000,0.946000,192.000000,0.000000,0.000000,0.000000,0.000000,0.000000,0.000000,0.000000,0.000000,0.000000,1773823373.331493,0.000000
202.000000,-8002.080977,-2487.324475,-7233.382134,2280.615542,-10157.683212,13982.245503,-10380.865381,-14838.429074,6979.086337,9666.525980,-8816.220917,12910.077025,12854.756457,8458.749468,-133.998708,-3162.861247,0.286000,-0.190000,0.946000,192.000000,0.000000,0.000000,0.000000,0.000000,0.000000,0.000000,0.000000,0.000000,0.000000,1773823373.331511,0.000000
204.000000,-8023.896280,-2506.345809,-7291.809594,2253.748745,-10186.584018,13946.080380,-10417.946925,-14870.548531,7013.664486,9686.843716,-8820.288935,12900.890458,12899.325836,8494.020521,-139.430182,-3156.580407,0.286000,-0.190000,0.946000,192.000000,0.000000,0.000000,0.000000,0.000000,0.000000,0.000000,0.000000,0.000000,0.000000,1773823373.331529,0.000000
206.000000,-8024.633887,-2512.269022,-7250.347108,2265.528115,-10177.039823,13952.763552,-10403.239477,-14864.625319,6987.512945,9663.754364,-8840.919595,12879.991577,12862.177236,8445.651346,-127.919034,-3137.514369,0.290000,-0.190000,0.952000,192.000000,4.500000,8.000000,125.000000,8.000000,14.500000,96.000000,0.000000,0.000000,0.000000,1773823373.331546,0.000000
208.000000,-8019.448283,-2501.428425,-7248.849541,2288.259839,-10176.101050,13971.829590,-10392.510640,-14851.281327,6976.001796,9708.793129,-8807.995475,12899.012911,12883.612559,8495.875716,-143.766420,-3171.690186,0.290000,-0.190000,0.952000,192.000000,0.000000,0.000000,0.000000,0.000000,0.000000,0.000000,0.000000,0.000000,0.000000,1773823373.331564,0.000000
210.000000,-8030.579451,-2523.891929,-7279.538486,2260.901303,-10211.953248,13942.235880,-10421.612611,-14874.460086,6963.060136,9623.364761,-8837.164502,12905.360807,12824.827471,8432.396761,-140.726583,-3137.089686,0.290000,-0.190000,0.952000,192.000000,0.000000,0.000000,0.000000,0.000000,0.000000,0.000000,0.000000,0.000000,0.000000,1773823373.808099,0.000000
212.000000,-7999.868155,-2477.266190,-7234.745590,2289.109205,-10165.260454,13960.810180,-10385.156916,-14838.138501,6981.075642,9682.060442,-8812.085845,12902.745653,12866.804047,8459.911759,-143.900531,-3168.806811,0.290000,-0.190000,0.952000,192.000000,0.000000,0.000000,0.000000,0.000000,0.000000,0.000000,0.000000,0.000000,0.000000,1773823373.808167,0.000000
214.000000,-8034.133379,-2515.018286,-7265.859218,2257.369728,-10201.738501,13935.396246,-10417.812814,-14871.509656,6983.713148,9646.230596,-8823.820510,12923.286906,12871.632024,8445.092552,-141.665356,-3159.240265,0.290000,-0.190000,0.952000,192.000000,0.000000,0.000000,0.000000,0.000000,0.000000,0.000000,0.000000,0.000000,0.000000,1773823373.808221,0.000000
216.000000,-8017.861309,-2501.249612,-7253.677518,2259.224923,-10177.710376,13956.496293,-10404.312361,-14858.143313,6966.122325,9670.459887,-8843.333583,12859.740896,12840.026658,8463.979776,-124.298051,-3138.654308,0.292000,-0.190000,0.948000,192.000000,4.500000,16.000000,125.000000,8.000000,14.500000,80.000000,0.000000,0.000000,0.000000,1773823373.808276,0.000000
218.000000,-8020.610573,-2497.762739,-7244.625061,2283.588324,-10175.855181,13958.999689,-10394.835221,-14848.353249,6973.699567,9658.546407,-8796.685493,12936.653249,12876.996443,8456.871922,-148.281473,-3180.005035,0.292000,-0.190000,0.948000,192.000000,0.000000,0.000000,0.000000,0.000000,0.000000,0.000000,0.000000,0.000000,0.000000,1773823373.808341,0.000000
220.000000,-8043.543463,-2519.779208,-7277.012739,2261.281283,-10208.466376,13928.891889,-10424.205413,-14874.013051,6969.162162,9627.522186,-8837.499778,12897.224772,12842.731219,8426.384142,-131.718830,-3135.905044,0.292000,-0.190000,0.948000,192.000000,0.000000,0.000000,0.000000,0.000000,0.000000,0.000000,0.000000,0.000000,0.000000,1773823373.808395,0.000000
222.000000,-8015.067341,-2493.202984,-7239.797084,2283.431862,-10164.299329,13972.187218,-10386.296855,-14843.525272,6963.462468,9653.383154,-8823.217013,12901.605714,12865.552350,8449.160570,-147.767383,-3159.419079,0.292000,-0.190000,0.948000,192.000000,0.000000,0.000000,0.000000,0.000000,0.000000,0.000000,0.000000,0.000000,0.000000,1773823373.808419,0.000000
224.000000,-8040.593033,-2517.767551,-7274.196419,2253.547579,-10189.288579,13949.231976,-10418.885698,-14872.046098,6985.903619,9663.910826,-8824.647525,12893.447327,12881.287978,8481.369434,-139.363127,-3159.910817,0.292000,-0.190000,0.948000,192.000000,0.000000,0.000000,0.000000,0.000000,0.000000,0.000000,0.000000,0.000000,0.000000,1773823373.808435,0.000000
226.000000,-8018.621268,-2495.996952,-7267.535599,2263.069423,-10188.238047,13956.675107,-10403.686512,-14858.702106,6957.651014,9615.519299,-8844.272357,12897.940027,12835.980992,8448.624128,-137.776153,-3137.201445,0.288000,-0.188000,0.950000,192.000000,4.500000,0.000000,125.000000,16.000000,14.500000,88.000000,0.000000,0.000000,0.000000,1773823373.808453,0.000000
228.000000,-8024.544480,-2506.166995,-7255.756230,2295.211231,-10182.337187,13972.120163,-10392.912971,-14849.537891,7020.995858,9712.280001,-8823.082903,12915.553202,12920.470586,8522.362533,-167.123993,-3173.411271,0.288000,-0.188000,0.950000,192.000000,0.000000,0.000000,0.000000,0.000000,0.000000,0.000000,0.000000,0.000000,0.000000,1773823373.808471,0.000000
230.000000,-8052.662975,-2515.711190,-7265.747460,2264.075251,-10221.475091,13917.380740,-10423.534861,-14874.393031,6928.750208,9577.722499,-8825.608650,12902.924466,12818.345465,8382.686482,-148.169714,-3141.314166,0.288000,-0.188000,0.950000,192.000000,0.000000,0.000000,0.000000,0.000000,0.000000,0.000000,0.000000,0.000000,0.000000,1773823373.808489,0.000000
232.000000,-8022.801044,-2496.041655,-7240.378230,2270.490202,-10149.055439,13965.436991,-10389.582561,-14853.941185,6976.359424,9653.137285,-8829.140226,12885.467754,12865.842922,8469.098326,-147.856790,-3170.349082,0.288000,-0.188000,0.950000,192.000000,0.000000,0.000000,0.000000,0.000000,0.000000,0.000000,0.000000,0.000000,0.000000,1773823373.808506,0.000000
234.000000,-8050.874835,-2518.907490,-7275.358710,2259.135516,-10190.830850,13937.698476,-10422.707846,-14881.679700,6957.718069,9665.609558,-8819.193699,12889.424013,12863.943024,8474.909779,-134.915130,-3157.653291,0.288000,-0.188000,0.950000,192.000000,0.000000,0.000000,0.000000,0.000000,0.000000,0.000000,0.000000,0.000000,0.000000,1773823373.808534,0.000000
236.000000,-8046.248024,-2515.912356,-7258.058460,2275.899324,-10175.788125,13946.482712,-10405.988742,-14867.620452,6938.428514,9562.299795,-8857.146961,12890.563952,12827.509681,8400.210249,-134.445743,-3133.580462,0.290000,-0.188000,0.954000,192.000000,4.500000,8.000000,125.000000,16.000000,14.500000,104.000000,0.000000,0.000000,0.000000,1773823373.808551,0.000000
238.000000,-8037.441437,-2507.999838,-7256.382079,2279.073272,-10167.406221,13972.634253,-10400.959599,-14864.737077,6947.793895,9672.806820,-8823.574641,12883.746670,12885.378347,8483.537553,-151.209551,-3173.187753,0.290000,-0.188000,0.954000,192.000000,0.000000,0.000000,0.000000,0.000000,0.000000,0.000000,0.000000,0.000000,0.000000,1773823373.808569,0.000000
240.000000,-8057.222731,-2538.867597,-7276.208076,2230.391172,-10197.446966,13936.223261,-10432.274393,-14894.420194,6931.208900,9605.662180,-8850.687307,12850.576681,12837.635021,8419.745674,-138.737278,-3136.240320,0.290000,-0.188000,0.954000,192.000000,0.000000,0.000000,0.000000,0.000000,0.000000,0.000000,0.000000,0.000000,0.000000,1773823373.808586,0.000000
242.000000,-8033.596937,-2508.446873,-7241.562872,2289.757405,-10171.563646,13975.808200,-10389.135526,-14848.174435,6946.385735,9634.317116,-8838.639717,12894.140231,12848.565024,8475.915608,-150.762516,-3161.229570,0.290000,-0.188000,0.954000,192.000000,0.000000,0.000000,0.000000,0.000000,0.000000,0.000000,0.000000,0.000000,0.000000,1773823373.808602,0.000000
244.000000,-8051.903016,-2525.456551,-7279.627893,2270.199629,-10202.341998,13927.550784,-10422.931364,-14876.807019,6946.586901,9617.598011,-8830.771903,12911.529888,12865.194722,8447.975927,-156.126935,-3159.977872,0.290000,-0.188000,0.954000,192.000000,0.000000,0.000000,0.000000,0.000000,0.000000,0.000000,0.000000,0.000000,0.000000,1773823373.808619,0.000000
246.000000,-8018.308344,-2497.405111,-7265.769811,2264.991673,-10180.258474,13957.636232,-10408.961524,-14861.518426,6937.355630,9569.430002,-8852.050764,12898.990559,12834.863405,8385.189877,-147.499162,-3143.862265,0.291000,-0.190000,0.955000,192.000000,4.500000,16.000000,125.000000,0.000000,14.500000,112.000000,0.000000,0.000000,0.000000,1773823373.808637,0.000000
248.000000,-8020.141187,-2500.981391,-7251.621157,2273.217115,-10171.854218,13971.337851,-10401.630151,-14859.327955,6960.266168,9680.384061,-8807.749606,12875.610635,12888.798164,8505.442262,-155.501086,-3175.244114,0.291000,-0.190000,0.955000,192.000000,0.000000,0.000000,0.000000,0.000000,0.000000,0.000000,0.000000,0.000000,0.000000,1773823373.808654,0.000000
250.000000,-8023.628059,-2508.871556,-7273.816439,2259.895475,-10237.322478,13925.203851,-10425.479463,-14872.090801,6939.121418,9625.599936,-8837.119798,12899.661112,12830.348352,8414.515366,-154.696423,-3145.024555,0.291000,-0.190000,0.955000,192.000000,0.000000,0.000000,0.000000,0.000000,0.000000,0.000000,0.000000,0.000000,0.000000,1773823373.808677,0.000000
252.000000,-8006.260753,-2489.492594,-7244.200378,2290.874993,-10170.736631,13968.186255,-10393.695282,-14849.023801,6960.266168,9647.996384,-8818.478443,12904.399682,12844.564062,8451.127523,-161.446650,-3170.729061,0.291000,-0.190000,0.955000,192.000000,0.000000,0.000000,0.000000,0.000000,0.000000,0.000000,0.000000,0.000000,0.000000,1773823373.808695,0.000000
254.000000,-8012.809815,-2500.042617,-7267.692061,2240.717678,-10206.678236,13940.581851,-10427.312306,-14874.191865,6963.618930,9637.535767,-8819.014885,12894.900190,12869.799181,8462.236340,-151.298958,-3164.068242,0.291000,-0.190000,0.955000,192.000000,0.000000,0.000000,0.000000,0.000000,0.000000,0.000000,0.000000,0.000000,0.000000,1773823373.808713,0.000000
0.000000,-8009.278239,-2501.920164,-7254.124553,2282.224868,-10176.749251,13933.809273,-10409.542669,-14858.769162,6946.966880,9585.545610,-8836.605708,12897.560048,12833.567003,8409.352113,-143.878179,-3147.192675,0.287500,-0.191000,0.957500,192.000000,4.000000,112.000000,125.000000,0.000000,15.000000,0.000000,0.000000,0.000000,0.000000,1773823373.808730,0.000000
2.000000,-7992.693245,-2476.707396,-7251.308233,2274.200591,-10172.033032,13962.464209,-10403.597105,-14849.135560,6972.671386,9681.412242,-8802.519298,12892.955588,12889.893399,8486.130355,-148.214417,-3183.402501,0.287500,-0.191000,0.957500,192.000000,0.000000,0.000000,0.000000,0.000000,0.000000,0.000000,0.000000,0.000000,0.000000,1773823373.808748,0.000000
4.000000,-8029.171291,-2520.315650,-7276.364538,2258.196742,-10198.050463,13922.745159,-10434.040181,-14880.897389,6936.930947,9559.952862,-8832.381228,12921.007028,12829.119006,8406.759311,-144.012290,-3143.817561,0.287500,-0.191000,0.957500,192.000000,0.000000,0.000000,0.000000,0.000000,0.000000,0.000000,0.000000,0.000000,0.000000,1773823373.808765,0.000000
6.000000,-7982.903180,-2473.868725,-7245.832055,2273.150059,-10155.559797,13975.539979,-10394.790518,-14846.565109,6954.812343,9622.358933,-8827.329734,12890.720414,12860.031469,8453.608567,-151.969511,-3169.365605,0.287500,-0.191000,0.957500,192.000000,0.000000,0.000000,0.000000,0.000000,0.000000,0.000000,0.000000,0.000000,0.000000,1773823373.808782,0.000000
8.000000,-8009.971143,-2505.250574,-7265.881570,2254.709870,-10200.531507,13929.361275,-10425.591222,-14874.884769,6963.574226,9644.107180,-8809.962429,12910.769929,12857.237501,8454.457933,-153.243560,-3168.180963,0.287500,-0.191000,0.957500,192.000000,0.000000,0.000000,0.000000,0.000000,0.000000,0.000000,0.000000,0.000000,0.000000,1773823373.808800,0.000000
10.000000,-7987.708806,-2477.154431,-7259.377212,2246.059745,-10179.140887,13963.112409,-10415.465881,-14864.513560,6957.092220,9674.662015,-8829.877833,12845.860463,12852.297765,8488.454937,-139.452534,-3145.538645,0.289750,-0.189500,0.958750,192.000000,4.500000,16.000000,125.000000,16.000000,15.000000,0.000000,0.000000,0.000000,0.000000,1773823373.808818,0.000000
12.000000,-7984.601913,-2474.226352,-7259.041936,2294.674789,-10186.584018,13955.334002,-10402.010131,-14845.782798,6957.248683,9601.661217,-8813.494004,12928.539566,12869.486257,8436.330668,-163.547714,-3174.953541,0.289750,-0.189500,0.958750,192.000000,0.000000,0.000000,0.000000,0.000000,0.000000,0.000000,0.000000,0.000000,0.000000,1773823373.808836,0.000000
14.000000,-7992.223858,-2490.923106,-7281.594846,2258.733184,-10206.074739,13912.932743,-10433.034352,-14871.822580,6963.238950,9612.792386,-8828.469673,12905.763138,12847.246271,8427.814654,-148.214417,-3141.068297,0.289750,-0.189500,0.958750,192.000000,0.000000,0.000000,0.000000,0.000000,0.000000,0.000000,0.000000,0.000000,0.000000,1773823373.808852,0.000000
16.000000,-7969.402727,-2464.682158,-7241.987555,2284.884725,-10158.152599,13978.378651,-10394.164669,-14842.541795,6958.880360,9615.429892,-8814.097502,12916.111996,12854.421181,8438.118808,-147.454458,-3166.504582,0.289750,-0.189500,0.958750,192.000000,0.000000,0.000000,0.000000,0.000000,0.000000,0.000000,0.000000,0.000000,0.000000,1773823373.808870,0.000000
18.000000,-7990.569829,-2488.397358,-7271.514210,2257.973225,-10202.386701,13949.388438,-10427.647582,-14871.867284,6963.551875,9654.567797,-8813.918688,12894.721376,12865.015908,8468.852457,-146.895665,-3157.429774,0.289750,-0.189500,0.958750,192.000000,0.000000,0.000000,0.000000,0.000000,0.000000,0.000000,0.000000,0.000000,0.000000,1773823373.808888,0.000000
20.000000,-7975.817677,-2474.740443,-7255.108029,2278.983865,-10184.929989,13956.831569,-10408.022750,-14853.158874,6954.253549,9629.355029,-8837.052743,12892.106222,12839.892547,8432.888500,-143.386441,-3141.940015,0.291875,-0.189750,0.962375,192.000000,4.500000,24.000000,125.000000,8.000000,15.000000,24.000000,0.000000,0.000000,0.000000,1773823373.808905,0.000000
22.000000,-7966.385241,-2467.721995,-7242.412238,2261.728318,-10164.344032,13961.234863,-10401.786614,-14848.822635,6961.316700,9613.597049,-8792.930400,12932.808749,12873.263702,8466.416117,-156.931598,-3178.239248,0.291875,-0.189750,0.962375,192.000000,0.000000,0.000000,0.000000,0.000000,0.000000,0.000000,0.000000,0.000000,0.000000,1773823373.808938,0.000000
24.000000,-7991.307436,-2489.067911,-7275.425765,2256.162734,-10201.894963,13936.960868,-10430.486254,-14871.107324,6951.481933,9637.424009,-8827.016810,12874.493048,12844.117027,8465.142067,-134.781019,-3145.292776,0.291875,-0.189750,0.962375,192.000000,0.000000,0.000000,0.000000,0.000000,0.000000,0.000000,0.000000,0.000000,0.000000,1773823373.808956,0.000000
26.000000,-7952.884788,-2453.103954,-7239.104180,2286.851679,-10159.806628,13974.757668,-10391.013073,-14834.897498,6953.515941,9616.323962,-8816.220917,12923.689237,12857.684536,8452.043945,-150.136668,-3166.035195,0.291875,-0.189750,0.962375,192.000000,0.000000,0.000000,0.000000,0.000000,0.000000,0.000000,0.000000,0.000000,0.000000,1773823373.808982,0.000000
28.000000,-7979.930398,-2481.222448,-7275.068137,2253.435821,-10195.345902,13937.162034,-10425.926498,-14867.106362,6955.594654,9635.837035,-8810.789443,12913.072158,12872.213170,8470.461782,-149.622577,-3162.727137,0.291875,-0.189750,0.962375,192.000000,0.000000,0.000000,0.000000,0.000000,0.000000,0.000000,0.000000,0.000000,0.000000,1773823373.808999,0.000000
30.000000,-7956.237549,-2462.491687,-7250.458866,2278.581533,-10182.001910,13954.574043,-10405.564058,-14844.620507,6962.322529,9625.890508,-8834.415237,12892.955588,12841.948908,8451.932186,-140.748935,-3143.035250,0.292937,-0.189875,0.959188,192.000000,4.500000,24.000000,125.000000,8.000000,14.500000,112.000000,0.000000,0.000000,0.000000,1773823373.809017,0.000000
32.000000,-7950.359041,-2456.881399,-7242.948680,2281.196687,-10168.724974,13964.922901,-10396.735119,-14837.155025,6959.796782,9635.546462,-8787.677740,12934.373371,12881.310330,8463.778611,-155.344624,-3175.668797,0.292937,-0.189875,0.959188,192.000000,0.000000,0.000000,0.000000,0.000000,0.000000,0.000000,0.000000,0.000000,0.000000,1773823373.809035,0.000000
34.000000,-7973.738965,-2479.680178,-7275.761041,2251.021832,-10204.443062,13933.742217,-10426.641754,-14865.184112,6946.273976,9605.729235,-8821.898260,12898.856449,12842.865329,8443.259709,-138.826685,-3137.961404,0.292937,-0.189875,0.959188,192.000000,0.000000,0.000000,0.000000,0.000000,0.000000,0.000000,0.000000,0.000000,0.000000,1773823373.809050,0.000000
36.000000,-7930.018953,-2437.860064,-7233.046857,2286.337589,-10159.270186,13970.801410,-10386.565076,-14827.521423,6959.819133,9635.546462,-8807.146109,12907.238353,12861.171408,8461.006994,-147.342699,-3164.381166,0.292937,-0.189875,0.959188,192.000000,0.000000,0.000000,0.000000,0.000000,0.000000,0.000000,0.000000,0.000000,0.000000,1773823373.809067,0.000000
38.000000,-7960.260863,-2471.812364,-7266.552122,2243.422239,-10183.991216,13941.766494,-10421.947887,-14862.434848,6966.681119,9641.670840,-8797.937190,12903.483260,12868.301614,8471.221742,-142.782944,-3161.318977,0.292937,-0.189875,0.959188,192.000000,0.000000,0.000000,0.000000,0.000000,0.000000,0.000000,0.000000,0.000000,0.000000,1773823373.809083,0.000000
40.000000,-7944.212311,-2455.853219,-7255.286843,2269.238504,-10170.647224,13955.713982,-10403.619457,-14846.118074,6945.268148,9623.409465,-8830.526034,12881.645606,12836.696248,8443.706744,-132.299975,-3135.078029,0.295469,-0.190938,0.956594,192.000000,4.500000,40.000000,125.000000,0.000000,14.500000,104.000000,0.000000,0.000000,0.000000,1773823373.809101,0.000000
42.000000,-7933.148197,-2446.353727,-7244.312137,2291.299676,-10161.326547,13962.553616,-10392.018901,-14834.115187,6973.610160,9651.863235,-8791.924571,12923.130443,12890.541600,8493.819355,-150.159019,-3176.629922,0.295469,-0.190938,0.956594,192.000000,0.000000,0.000000,0.000000,0.000000,0.000000,0.000000,0.000000,0.000000,0.000000,1773823373.809118,0.000000
44.000000,-7957.377488,-2470.851239,-7268.429669,2257.235617,-10195.882344,13930.948249,-10419.690361,-14858.992679,6946.922177,9612.390055,-8821.428874,12894.363748,12848.341507,8430.005125,-134.781019,-3136.262672,0.295469,-0.190938,0.956594,192.000000,0.000000,0.000000,0.000000,0.000000,0.000000,0.000000,0.000000,0.000000,0.000000,1773823373.809135,0.000000
46.000000,-7922.285250,-2434.708468,-7228.844730,2279.989693,-10161.170085,13967.247482,-10380.708919,-14825.286248,6961.830790,9654.590148,-8807.302571,12899.348187,12863.607748,8487.337349,-147.566217,-3165.744622,0.295469,-0.190938,0.956594,192.000000,0.000000,0.000000,0.000000,0.000000,0.000000,0.000000,0.000000,0.000000,0.000000,1773823373.809154,0.000000
48.000000,-7958.986814,-2479.501364,-7274.107012,2261.147173,-10186.584018,13921.515813,-10416.181137,-14864.692374,6957.695718,9657.294709,-8809.940077,12902.052748,12867.385193,8483.895181,-150.583702,-3164.939960,0.295469,-0.190938,0.956594,192.000000,0.000000,0.000000,0.000000,0.000000,0.000000,0.000000,0.000000,0.000000,0.000000,1773823373.809170,0.000000
50.000000,-7944.972270,-2457.239027,-7244.513302,2276.011083,-10179.118535,13946.125084,-10398.143279,-14841.960650,6937.355630,9607.338561,-8831.755380,12886.071251,12825.386265,8437.582366,-133.082286,-3144.398706,0.295469,-0.190938,0.956594,192.000000,0.000000,0.000000,0.000000,0.000000,0.000000,0.000000,0.000000,0.000000,0.000000,1773823373.809188,0.000000
52.000000,-7931.360058,-2442.911558,-7240.668802,2275.921676,-10168.859085,13969.035622,-10389.604913,-14833.288173,6960.288520,9646.945852,-8792.304551,12921.543470,12876.281187,8475.289759,-152.774173,-3174.193582,0.294000,-0.194000,0.944000,192.000000,4.500000,24.000000,124.500000,120.000000,14.500000,64.000000,0.000000,0.000000,0.000000,1773823373.809206,0.000000
54.000000,-7957.019860,-2469.353672,-7276.051614,2261.549504,-10193.893038,13937.229089,-10417.410483,-14857.673926,6946.005755,9629.332677,-8825.854519,12895.011949,12839.870195,8461.945768,-134.244577,-3137.402610,0.294000,-0.194000,0.944000,192.000000,0.000000,0.000000,0.000000,0.000000,0.000000,0.000000,0.000000,0.000000,0.000000,1773823373.809223,0.000000
56.000000,-7928.767255,-2441.570454,-7234.633831,2296.686446,-10157.772619,13973.729488,-10376.663253,-14824.414530,6950.051421,9636.328773,-8813.292839,12914.100339,12859.360917,8447.104209,-145.867484,-3161.587198,0.294000,-0.194000,0.944000,192.000000,0.000000,0.000000,0.000000,0.000000,0.000000,0.000000,0.000000,0.000000,0.000000,1773823373.809240,0.000000
58.000000,-7952.884788,-2468.146678,-7262.327643,2252.787620,-10190.383815,13939.508967,-10411.263753,-14857.137484,6953.135962,9669.051727,-8803.636885,12900.890458,12869.888588,8483.559905,-141.128914,-3160.536666,0.294000,-0.194000,0.944000,192.000000,0.000000,0.000000,0.000000,0.000000,0.000000,0.000000,0.000000,0.000000,0.000000,1773823373.809261,0.000000
60.000000,-7946.581596,-2459.205980,-7257.253797,2282.649551,-10177.173934,13949.567252,-10396.958637,-14846.140426,6935.947470,9601.929438,-8831.285993,12897.314179,12833.432893,8428.306392,-140.212493,-3139.280157,0.294000,-0.194000,0.944000,192.000000,0.000000,0.000000,0.000000,0.000000,0.000000,0.000000,0.000000,0.000000,0.000000,1773823373.809278,0.000000
62.000000,-7941.217177,-2455.160314,-7242.993384,2277.620408,-10162.801762,13957.815046,-10389.649616,-14843.055885,6955.751116,9634.562985,-8801.647580,12916.871955,12875.565931,8465.410288,-145.062822,-3171.801945,0.292000,-0.190000,0.952000,192.000000,4.500000,16.000000,125.000000,8.000000,14.500000,96.000000,0.000000,0.000000,0.000000,1773823373.809296,0.000000
64.000000,-7961.356099,-2478.428480,-7269.703718,2242.215245,-10187.969826,13936.133854,-10420.942059,-14869.453295,6938.741438,9611.093654,-8832.470635,12877.242312,12838.104408,8441.404514,-127.628461,-3134.139256,0.292000,-0.190000,0.952000,192.000000,0.000000,0.000000,0.000000,0.000000,0.000000,0.000000,0.000000,0.000000,0.000000,1773823373.809313,0.000000
66.000000,-7923.492244,-2435.490779,-7227.324811,2296.597039,-10150.508303,13972.075459,-10376.596198,-14824.660400,6955.147619,9635.278241,-8808.643676,12888.753460,12859.562082,8456.581349,-133.685784,-3158.569712,0.292000,-0.190000,0.952000,192.000000,0.000000,0.000000,0.000000,0.000000,0.000000,0.000000,0.000000,0.000000,0.000000,1773823373.809331,0.000000
68.000000,-7948.101514,-2460.412974,-7259.779544,2258.174391,-10181.890152,13936.491482,-10409.207393,-14853.494150,6957.449848,9633.803026,-8798.764205,12913.675656,12872.615501,8456.804866,-139.854865,-3152.780611,0.292000,-0.190000,0.952000,192.000000,0.000000,0.000000,0.000000,0.000000,0.000000,0.000000,0.000000,0.000000,0.000000,1773823373.809348,0.000000
70.000000,-7933.215253,-2447.337204,-7247.933119,2270.557257,-10162.935872,13945.141607,-10394.522297,-14840.686600,6949.403220,9623.543575,-8828.939060,12874.314234,12855.158789,8457.721288,-124.521568,-3136.240320,0.292000,-0.190000,0.952000,192.000000,0.000000,0.000000,0.000000,0.000000,0.000000,0.000000,0.000000,0.000000,0.000000,1773823373.809365,0.000000
72.000000,-7930.778912,-2443.068021,-7236.064343,2277.821574,-10162.645300,13951.891834,-10385.380433,-14836.082141,6959.439154,9641.179102,-8793.600952,12908.579458,12890.049862,8463.353928,-138.849037,-3173.053643,0.300000,-0.186000,0.954000,192.000000,4.500000,48.000000,125.000000,24.000000,14.500000,104.000000,0.000000,0.000000,0.000000,1773823373.809382,0.000000
74.000000,-7956.081087,-2464.413937,-7261.768849,2238.393097,-10189.802669,13923.818043,-10415.443530,-14865.027650,6948.307985,9631.701962,-8830.056647,12870.581492,12856.455190,8451.708669,-125.482693,-3137.402610,0.300000,-0.186000,0.954000,192.000000,0.000000,0.000000,0.000000,0.000000,0.000000,0.000000,0.000000,0.000000,0.000000,1773823374.288443,0.000000
76.000000,-7932.388238,-2440.184646,-7236.690192,2298.698103,-10151.402372,13964.542921,-10376.685605,-14831.254164,6964.982386,9633.959488,-8818.724313,12895.727205,12875.588283,8443.907910,-135.339813,-3163.978835,0.300000,-0.186000,0.954000,192.000000,0.000000,0.000000,0.000000,0.000000,0.000000,0.000000,0.000000,0.000000,0.000000,1773823374.288504,0.000000
78.000000,-7968.575712,-2475.142774,-7260.204227,2252.966434,-10186.002873,13928.556613,-10411.554326,-14864.692374,6934.584014,9614.289953,-8809.336580,12902.365673,12858.846826,8435.593061,-136.412696,-3158.659119,0.300000,-0.186000,0.954000,192.000000,0.000000,0.000000,0.000000,0.000000,0.000000,0.000000,0.000000,0.000000,0.000000,1773823374.288555,0.000000
80.000000,-7952.974195,-2454.668576,-7250.302404,2269.305559,-10166.221579,13958.463247,-10394.812869,-14849.202615,6927.252642,9609.126700,-8841.098409,12869.799181,12842.306536,8433.447293,-127.092019,-3138.117866,0.300000,-0.186000,0.954000,192.000000,0.000000,0.000000,0.000000,0.000000,0.000000,0.000000,0.000000,0.000000,0.000000,1773823374.288603,0.000000
82.000000,-7939.809017,-2445.280843,-7238.455980,2263.047071,-10151.514131,13964.922901,-10389.537858,-14842.497092,6945.581072,9649.940985,-8804.575658,12895.056652,12879.142210,8473.389861,-137.798505,-3170.684358,0.292000,-0.190000,0.954000,192.000000,4.500000,16.000000,125.000000,8.000000,14.500000,104.000000,0.000000,0.000000,0.000000,1773823374.288620,0.000000
84.000000,-7974.141297,-2478.383777,-7270.687195,2252.117068,-10182.717166,13939.397209,-10419.288030,-14870.414420,6937.892072,9627.142206,-8833.230595,12877.063498,12853.728277,8445.472532,-124.454513,-3133.245186,0.292000,-0.190000,0.954000,192.000000,0.000000,0.000000,0.000000,0.000000,0.000000,0.000000,0.000000,0.000000,0.000000,1773823374.288637,0.000000
86.000000,-7944.860511,-2446.711355,-7232.175139,2284.258876,-10146.529692,13976.165828,-10384.285198,-14841.535967,6936.908595,9627.723351,-8826.189795,12887.032376,12857.013983,8432.486168,-134.266929,-3157.206256,0.292000,-0.190000,0.954000,192.000000,0.000000,0.000000,0.000000,0.000000,0.000000,0.000000,0.000000,0.000000,0.000000,1773823374.288671,0.000000
88.000000,-7972.531971,-2474.002835,-7262.104125,2249.770135,-10177.755079,13945.946270,-10417.142262,-14870.839104,6940.842502,9637.133436,-8819.283106,12890.899228,12870.357975,8446.612471,-130.064801,-3152.378279,0.292000,-0.190000,0.954000,192.000000,0.000000,0.000000,0.000000,0.000000,0.000000,0.000000,0.000000,0.000000,0.000000,1773823374.288689,0.000000
90.000000,-7955.768163,-2452.925140,-7244.692116,2274.401757,-10166.221579,13969.460305,-10399.752605,-14850.878996,6931.879453,9619.587316,-8843.802970,12866.312309,12837.813835,8420.840910,-121.951118,-3131.032363,0.292000,-0.190000,0.954000,192.000000,0.000000,0.000000,0.000000,0.000000,0.000000,0.000000,0.000000,0.000000,0.000000,1773823374.288752,0.000000
92.000000,-7950.649613,-2447.359556,-7237.316041,2274.848792,-10157.951433,13974.243578,-10392.041253,-14846.296888,6950.856084,9654.143113,-8801.178193,12902.611542,12879.790411,8471.780535,-138.625519,-3173.612436,0.290000,-0.182000,0.954000,192.000000,4.500000,8.000000,125.000000,40.000000,14.500000,104.000000,0.000000,0.000000,0.000000,1773823374.288804,0.000000
94.000000,-7976.555285,-2470.225390,-7264.451058,2246.283263,-10186.136983,13941.744142,-10420.316210,-14869.609758,6933.399371,9624.728218,-8834.102313,12869.463905,12845.569890,8437.470607,-126.063839,-3137.626128,0.290000,-0.182000,0.954000,192.000000,0.000000,0.000000,0.000000,0.000000,0.000000,0.000000,0.000000,0.000000,0.000000,1773823374.288842,0.000000
96.000000,-7950.560206,-2439.938776,-7228.777674,2287.835155,-10154.576320,13978.982148,-10380.932436,-14834.852795,6937.757961,9640.329735,-8817.494967,12885.355995,12860.657318,8438.409381,-137.172656,-3165.834029,0.290000,-0.182000,0.954000,192.000000,0.000000,0.000000,0.000000,0.000000,0.000000,0.000000,0.000000,0.000000,0.000000,1773823374.288861,0.000000
98.000000,-7986.099480,-2470.784184,-7261.902960,2248.607844,-10186.829887,13947.242671,-10417.678704,-14869.900330,6933.689944,9645.224767,-8812.532879,12890.161620,12870.045050,8442.924433,-137.127952,-3162.391861,0.290000,-0.182000,0.954000,192.000000,0.000000,0.000000,0.000000,0.000000,0.000000,0.000000,0.000000,0.000000,0.000000,1773823374.288880,0.000000
100.000000,-7980.466840,-2461.552913,-7249.676555,2267.115088,-10174.603483,13965.839322,-10400.937247,-14858.255071,6919.965973,9624.214128,-8845.211130,12855.583472,12830.907146,8430.966250,-125.482693,-3143.482285,0.290000,-0.182000,0.954000,192.000000,0.000000,0.000000,0.000000,0.000000,0.000000,0.000000,0.000000,0.000000,0.000000,1773823374.288898,0.000000
102.000000,-7971.861419,-2449.997061,-7238.545387,2273.686501,-10162.153561,13976.411697,-10392.532991,-14850.186092,6934.963993,9648.376363,-8810.588278,12893.559086,12871.542617,8458.011861,-144.951063,-3175.847611,0.300000,-0.182000,0.954000,192.000000,4.500000,48.000000,125.000000,40.000000,14.500000,104.000000,0.000000,0.000000,0.000000,1773823374.288917,0.000000
104.000000,-8000.203431,-2476.014492,-7268.004986,2247.222036,-10186.360501,13946.661526,-10423.825434,-14878.438697,6927.632621,9627.633944,-8840.047877,12861.976071,12844.854634,8438.409381,-127.024964,-3138.162570,0.300000,-0.182000,0.954000,192.000000,0.000000,0.000000,0.000000,0.000000,0.000000,0.000000,0.000000,0.000000,0.000000,1773823374.288935,0.000000
106.000000,-7964.217122,-2435.759000,-7227.481273,2283.767138,-10155.224521,13984.234808,-10385.000454,-14838.049094,6930.672458,9631.590203,-8825.563946,12874.962434,12852.297765,8435.749523,-134.490446,-3166.549285,0.300000,-0.182000,0.954000,192.000000,0.000000,0.000000,0.000000,0.000000,0.000000,0.000000,0.000000,0.000000,0.000000,1773823374.288954,0.000000
108.000000,-7992.872058,-2462.290521,-7260.427744,2243.377536,-10186.606370,13951.623613,-10419.802120,-14868.134542,6942.474180,9658.412297,-8807.436682,12881.153867,12869.285091,8470.953521,-142.246502,-3164.671739,0.300000,-0.182000,0.954000,192.000000,0.000000,0.000000,0.000000,0.000000,0.000000,0.000000,0.000000,0.000000,0.000000,1773823374.288972,0.000000
110.000000,-7992.246210,-2458.647187,-7249.944776,2263.248237,-10164.142867,13954.216415,-10406.033445,-14859.327955,6924.548081,9623.811796,-8841.277223,12857.483370,12837.769131,8435.660116,-126.510874,-3144.733983,0.300000,-0.182000,0.954000,192.000000,0.000000,0.000000,0.000000,0.000000,0.000000,0.000000,0.000000,0.000000,0.000000,1773823374.288990,0.000000
112.000000,-7994.839012,-2455.607349,-7242.792218,2270.087870,-10146.619099,13969.527360,-10399.305570,-14857.562167,6927.543214,9649.136323,-8815.617420,12882.182048,12867.116972,8450.635785,-130.891816,-3174.975893,0.296000,-0.188000,0.950000,192.000000,4.500000,32.000000,125.000000,16.000000,14.500000,88.000000,0.000000,0.000000,0.000000,1773823374.289009,0.000000
114.000000,-8015.894355,-2473.667559,-7266.753288,2240.985899,-10172.211846,13937.027924,-10426.485291,-14877.276406,6917.306115,9630.405561,-8842.886548,12857.058687,12837.612669,8423.254898,-115.111484,-3134.742753,0.296000,-0.188000,0.950000,192.000000,0.000000,0.000000,0.000000,0.000000,0.000000,0.000000,0.000000,0.000000,0.000000,1773823374.289027,0.000000
116.000000,-7981.338558,-2438.240044,-7225.693134,2271.183106,-10134.616212,13973.640081,-10387.749718,-14837.222080,6930.851272,9646.834093,-8822.345295,12873.934254,12859.271510,8446.165436,-124.029830,-3165.096422,0.296000,-0.188000,0.950000,192.000000,0.000000,0.000000,0.000000,0.000000,0.000000,0.000000,0.000000,0.000000,0.000000,1773823374.289046,0.000000
118.000000,-8010.149957,-2465.017434,-7258.617253,2238.996594,-10167.473277,13958.127970,-10421.299687,-14867.195769,6938.473217,9669.834038,-8810.253001,12865.887626,12875.185952,8469.277140,-122.956946,-3163.263579,0.296000,-0.188000,0.950000,192.000000,0.000000,0.000000,0.000000,0.000000,0.000000,0.000000,0.000000,0.000000,0.000000,1773823374.289065,0.000000
120.000000,-8009.658219,-2464.011605,-7249.631852,2270.289036,-10161.326547,13982.647834,-10404.155899,-14856.422228,6921.865871,9636.485235,-8841.858368,12856.879873,12839.490216,8433.760218,-123.828664,-3139.146047,0.296000,-0.188000,0.950000,192.000000,0.000000,0.000000,0.000000,0.000000,0.000000,0.000000,0.000000,0.000000,0.000000,1773823374.289083,0.000000
122.000000,-8002.237439,-2452.455753,-7241.294651,2268.612655,-10157.996137,13980.323253,-10396.690416,-14850.633127,6931.387714,9662.346204,-8808.509565,12884.953664,12874.649510,8463.957425,-143.252330,-3175.333521,0.296000,-0.187000,0.946000,192.000000,4.500000,32.000000,125.000000,24.000000,14.500000,56.000000,0.000000,0.000000,0.000000,1773823374.289107,0.000000
124.000000,-8025.840882,-2478.763757,-7268.608483,2244.428068,-10186.047576,13945.789808,-10426.842919,-14878.885732,6915.674438,9638.228671,-8841.456037,12853.437704,12840.250175,8431.100360,-129.349545,-3138.631956,0.296000,-0.187000,0.946000,192.000000,0.000000,0.000000,0.000000,0.000000,0.000000,0.000000,0.000000,0.000000,0.000000,1773823374.289126,0.000000
126.000000,-7991.463899,-2445.482009,-7227.011886,2276.949856,-10142.685192,13982.267854,-10388.532029,-14845.894557,6925.777426,9650.946814,-8825.139263,12866.893454,12867.005213,8445.360773,-138.558464,-3160.067279,0.296000,-0.187000,0.946000,192.000000,0.000000,0.000000,0.000000,0.000000,0.000000,0.000000,0.000000,0.000000,0.000000,1773823374.289145,0.000000
128.000000,-8016.989591,-2472.952303,-7256.918521,2243.444591,-10174.648187,13939.620726,-10420.919707,-14875.264749,6928.392581,9658.278186,-8816.220917,12870.715603,12877.935216,8449.831122,-133.574025,-3161.341329,0.296000,-0.187000,0.946000,192.000000,0.000000,0.000000,0.000000,0.000000,0.000000,0.000000,0.000000,0.000000,0.000000,1773823374.289163,0.000000
130.000000,-7997.655332,-2454.713280,-7241.652279,2263.047071,-10159.650166,13987.207590,-10404.021788,-14860.646708,6917.484929,9642.542558,-8843.892377,12848.430913,12849.190873,8438.699953,-123.158112,-3136.083858,0.296000,-0.187000,0.946000,192.000000,0.000000,0.000000,0.000000,0.000000,0.000000,0.000000,0.000000,0.000000,0.000000,1773823374.289181,0.000000
132.000000,-7990.078090,-2446.331375,-7236.600785,2272.211286,-10146.619099,13996.617674,-10393.985855,-14853.650612,6933.913461,9677.500686,-8808.978952,12883.478449,12890.832173,8477.726099,-136.747973,-3171.891352,0.294000,-0.187500,0.941000,192.000000,4.500000,16.000000,125.000000,16.000000,14.500000,32.000000,0.000000,0.000000,0.000000,1773823374.289200,0.000000
134.000000,-8009.680570,-2468.280788,-7265.859218,2245.053917,-10180.727861,13960.497255,-10424.071303,-14880.182133,6916.702618,9654.187817,-8844.071191,12856.052858,12852.387172,8444.444352,-121.168807,-3132.909910,0.294000,-0.187500,0.941000,192.000000,0.000000,0.000000,0.000000,0.000000,0.000000,0.000000,0.000000,0.000000,0.000000,1773823374.289218,0.000000
136.000000,-7970.520314,-2428.338221,-7223.726180,2279.609714,-10138.930099,14003.300846,-10382.854686,-14839.725475,6928.973726,9673.946759,-8825.608650,12871.922597,12868.189856,8460.224683,-128.768400,-3162.280102,0.294000,-0.187500,0.941000,192.000000,0.000000,0.000000,0.000000,0.000000,0.000000,0.000000,0.000000,0.000000,0.000000,1773823374.289237,0.000000
138.000000,-7992.894410,-2454.847390,-7253.386945,2249.256045,-10173.687062,13971.449610,-10416.248192,-14867.262824,6937.780313,9681.032262,-8813.941039,12879.321024,12880.460963,8470.417079,-128.209606,-3158.279140,0.294000,-0.187500,0.941000,192.000000,0.000000,0.000000,0.000000,0.000000,0.000000,0.000000,0.000000,0.000000,0.000000,1773823374.289255,0.000000
140.000000,-7976.845858,-2439.737611,-7235.639660,2261.236580,-10156.744439,13985.553561,-10398.970294,-14851.817769,6931.745342,9662.323852,-8837.924461,12856.790466,12855.650527,8454.502637,-123.962775,-3140.397744,0.294000,-0.187500,0.941000,192.000000,0.000000,0.000000,0.000000,0.000000,0.000000,0.000000,0.000000,0.000000,0.000000,1773823374.289274,0.000000
142.000000,-7974.297759,-2439.335279,-7228.241232,2267.517420,-10146.663802,13987.073480,-10389.627265,-14844.531100,6948.620909,9695.717358,-8799.770033,12888.082908,12896.598923,8489.684283,-134.423391,-3181.346140,0.294000,-0.187750,0.944500,192.000000,4.500000,24.000000,125.000000,16.000000,14.500000,80.000000,0.000000,0.000000,0.000000,1773823374.289292,0.000000
144.000000,-8002.259791,-2468.996044,-7257.857294,2237.096696,-10172.189495,13946.058028,-10419.600954,-14872.627243,6924.279860,9656.445343,-8835.711638,12854.443533,12856.924576,8444.600814,-115.044429,-3143.638747,0.294000,-0.187750,0.944500,192.000000,0.000000,0.000000,0.000000,0.000000,0.000000,0.000000,0.000000,0.000000,0.000000,1773823374.289311,0.000000
146.000000,-7961.981948,-2430.931023,-7219.300535,2276.212248,-10146.932023,13989.442764,-10378.674910,-14832.774083,6933.779351,9668.180009,-8818.478443,12867.564007,12872.727260,8449.853474,-127.919034,-3169.902047,0.294000,-0.187750,0.944500,192.000000,0.000000,0.000000,0.000000,0.000000,0.000000,0.000000,0.000000,0.000000,0.000000,1773823374.289330,0.000000
148.000000,-7994.257867,-2463.676329,-7253.029317,2240.069478,-10178.380928,13948.717886,-10414.594163,-14867.776915,6939.993136,9685.860239,-8807.213164,12870.380327,12883.500801,8464.247997,-128.991917,-3166.526933,0.294000,-0.187750,0.944500,192.000000,0.000000,0.000000,0.000000,0.000000,0.000000,0.000000,0.000000,0.000000,0.000000,1773823374.289348,0.000000
150.000000,-7984.221933,-2452.478105,-7237.405448,2257.168562,-10155.604500,13968.230959,-10398.679721,-14857.048077,6920.278897,9652.556140,-8841.388982,12845.547538,12846.531015,8437.157683,-116.743161,-3146.499770,0.294000,-0.187750,0.944500,192.000000,0.000000,0.000000,0.000000,0.000000,0.000000,0.000000,0.000000,0.000000,0.000000,1773823374.289368,0.000000
152.000000,-7973.806020,-2443.850332,-7229.358820,2264.343472,-10148.071962,13979.764459,-10390.074300,-14850.409609,6941.736572,9690.062367,-8804.262734,12879.589245,12890.273379,8473.389861,-127.047315,-3180.340312,0.294000,-0.188875,0.947250,192.000000,4.500000,24.000000,125.000000,8.000000,14.500000,88.000000,0.000000,0.000000,0.000000,1773823374.289386,0.000000
154.000000,-7996.180117,-2468.012568,-7257.253797,2237.342565,-10172.770640,13954.127008,-10418.259849,-14877.902255,6928.191415,9660.848637,-8836.046915,12846.978050,12855.315251,8442.231529,-114.820911,-3140.531855,0.294000,-0.188875,0.947250,192.000000,0.000000,0.000000,0.000000,0.000000,0.000000,0.000000,0.000000,0.000000,0.000000,1773823374.289408,0.000000
156.000000,-7961.512561,-2435.379021,-7217.802968,2272.524211,-10133.096294,13994.203686,-10378.160820,-14842.474740,6937.333278,9677.701852,-8819.506624,12860.277338,12875.945911,8454.413230,-122.487560,-3166.258713,0.294000,-0.188875,0.947250,192.000000,0.000000,0.000000,0.000000,0.000000,0.000000,0.000000,0.000000,0.000000,0.000000,1773823374.289427,0.000000
158.000000,-7992.134451,-2461.530562,-7251.621157,2240.896492,-10169.261416,13959.066744,-10412.358989,-14873.141333,6935.209863,9682.686291,-8815.237440,12863.943024,12886.250065,8462.370451,-121.280565,-3163.420041,0.294000,-0.188875,0.947250,192.000000,0.000000,0.000000,0.000000,0.000000,0.000000,0.000000,0.000000,0.000000,0.000000,1773823374.289445,0.000000
160.000000,-7973.783669,-2444.520884,-7234.499721,2257.101507,-10151.044744,13974.958834,-10395.170497,-14855.528159,6924.793950,9663.664957,-8842.819493,12844.474655,12856.298728,8443.393820,-113.546862,-3139.749544,0.294000,-0.188875,0.947250,192.000000,0.000000,0.000000,0.000000,0.000000,0.000000,0.000000,0.000000,0.000000,0.000000,1773823374.289464,0.000000
162.000000,-7963.054831,-2432.450942,-7224.486139,2264.477583,-10136.873738,13986.380575,-10386.274503,-14846.922737,6941.647165,9697.840774,-8804.061568,12875.901207,12895.324873,8468.517181,-126.644984,-3174.327692,0.296000,-0.191438,0.949625,192.000000,4.500000,40.000000,124.500000,120.000000,14.500000,96.000000,0.000000,0.000000,0.000000,1773823374.289482,0.000000
164.000000,-7991.240381,-2459.384794,-7254.526884,2238.370745,-10168.993195,13951.131874,-10414.728274,-14874.974176,6925.151578,9670.437535,-8833.722333,12846.687477,12863.339527,8443.751448,-107.891870,-3137.089686,0.296000,-0.191438,0.949625,192.000000,0.000000,0.000000,0.000000,0.000000,0.000000,0.000000,0.000000,0.000000,0.000000,1773823374.289501,0.000000
166.000000,-7958.428020,-2430.171064,-7218.495872,2279.117975,-10137.276070,13995.254218,-10377.132640,-14841.066580,6928.794912,9682.060442,-8821.361818,12860.053821,12878.225789,8452.312166,-124.476865,-3164.068242,0.296000,-0.191438,0.949625,192.000000,0.000000,0.000000,0.000000,0.000000,0.000000,0.000000,0.000000,0.000000,0.000000,1773823374.289520,0.000000
168.000000,-7991.598009,-2462.245817,-7253.386945,2243.511646,-10171.943625,13961.212511,-10413.610686,-14875.600025,6929.018429,9683.043919,-8816.578545,12862.847789,12884.730146,8452.379221,-124.655679,-3161.922474,0.296000,-0.191438,0.949625,192.000000,0.000000,0.000000,0.000000,0.000000,0.000000,0.000000,0.000000,0.000000,0.000000,1773823374.289539,0.000000
170.000000,-7976.108250,-2447.046631,-7236.556081,2256.430955,-10155.939776,13979.429183,-10398.456204,-14860.691412,6914.378037,9660.111029,-8846.932214,12835.399846,12851.403696,8432.039134,-117.078437,-3138.542549,0.296000,-0.191438,0.949625,192.000000,0.000000,0.000000,0.000000,0.000000,0.000000,0.000000,0.000000,0.000000,0.000000,1773823374.289556,0.000000
172.000000,-7969.536837,-2440.274053,-7232.309250,2259.962530,-10159.024317,13984.860657,-10391.258942,-14855.550510,6928.280822,9692.319893,-8813.561060,12862.758382,12888.932274,8467.153724,-128.321365,-3171.980759,0.297000,-0.194719,0.949813,192.000000,4.500000,40.000000,124.500000,104.000000,14.500000,88.000000,0.000000,0.000000,0.000000,1773823374.289574,0.000000
174.000000,-7989.452242,-2458.334262,-7258.103163,2236.716716,-10190.137945,13961.301918,-10417.119910,-14875.600025,6914.646258,9673.320910,-8844.004136,12841.233652,12850.979012,8444.287890,-117.346658,-3136.150913,0.297000,-0.194719,0.949813,192.000000,0.000000,0.000000,0.000000,0.000000,0.000000,0.000000,0.000000,0.000000,0.000000,1773823374.289593,0.000000
176.000000,-7961.356099,-2432.138018,-7220.351067,2272.747728,-10145.210939,13993.108451,-10379.099593,-14841.401856,6925.218633,9683.222733,-8825.318077,12857.371611,12870.805010,8460.045869,-125.102714,-3162.794192,0.297000,-0.194719,0.949813,192.000000,0.000000,0.000000,0.000000,0.000000,0.000000,0.000000,0.000000,0.000000,0.000000,1773823374.289612,0.000000
178.000000,-7997.230649,-2467.207905,-7251.867026,2236.314384,-10167.763849,13958.463247,-10412.873079,-14873.789534,6924.123397,9680.965207,-8819.886603,12861.864312,12883.523152,8454.256768,-121.302917,-3159.754355,0.297000,-0.194719,0.949813,192.000000,0.000000,0.000000,0.000000,0.000000,0.000000,0.000000,0.000000,0.000000,0.000000,1773823374.289630,0.000000
180.000000,-7991.732120,-2459.362442,-7238.455980,2255.693347,-10150.329489,13980.367956,-10397.316265,-14862.568958,6908.276011,9655.081887,-8850.888473,12832.225899,12853.303594,8429.446331,-111.579908,-3138.497846,0.297000,-0.194719,0.949813,192.000000,0.000000,0.000000,0.000000,0.000000,0.000000,0.000000,0.000000,0.000000,0.000000,1773823374.289674,0.000000
182.000000,-7986.680625,-2452.656919,-7232.488064,2264.097603,-10142.394619,13991.767346,-10390.767204,-14857.740981,6920.010676,9682.887457,-8817.316153,12860.433800,12891.748594,8455.061430,-126.622632,-3172.316035,0.298500,-0.193359,0.948906,192.000000,4.500000,48.000000,125.000000,0.000000,14.500000,80.000000,0.000000,0.000000,0.000000,1773823374.289692,0.000000
184.000000,-8015.559079,-2482.630608,-7261.344166,2232.179312,-10172.658881,13959.871407,-10421.299687,-14887.826429,6907.091368,9658.635814,-8850.776714,12831.376532,12855.918748,8428.060523,-112.317516,-3133.155779,0.298500,-0.193359,0.948906,192.000000,0.000000,0.000000,0.000000,0.000000,0.000000,0.000000,0.000000,0.000000,0.000000,1773823374.289735,0.000000
186.000000,-7987.664102,-2454.623873,-7221.803930,2265.841039,-10135.309116,13999.791622,-10380.395994,-14851.907176,6915.115644,9659.216959,-8834.862272,12839.043181,12872.660204,8438.878767,-121.459379,-3158.994396,0.298500,-0.193359,0.948906,192.000000,0.000000,0.000000,0.000000,0.000000,0.000000,0.000000,0.000000,0.000000,0.000000,1773823374.289758,0.000000
188.000000,-8017.883661,-2479.411957,-7254.638643,2239.488332,-10166.467448,13964.721735,-10412.426044,-14880.986796,6910.220612,9672.046861,-8829.564909,12848.386210,12877.264664,8450.747544,-122.375801,-3157.921512,0.298500,-0.193359,0.948906,192.000000,0.000000,0.000000,0.000000,0.000000,0.000000,0.000000,0.000000,0.000000,0.000000,1773823374.289777,0.000000
190.000000,-8000.561059,-2467.744347,-7235.751419,2251.155943,-10141.858177,13980.636177,-10395.170497,-14864.670022,6905.057359,9644.554215,-8855.157656,12825.945059,12852.364821,8434.274308,-110.976411,-3138.631956,0.298500,-0.193359,0.948906,192.000000,0.000000,0.000000,0.000000,0.000000,0.000000,0.000000,0.000000,0.000000,0.000000,1773823374.289795,0.000000
192.000000,-7993.028521,-2457.842524,-7228.375343,2259.560199,-10143.758076,13993.108451,-10386.162744,-14854.388220,6925.442150,9680.629931,-8815.304496,12853.772980,12896.107184,8456.558997,-125.482693,-3177.434585,0.298500,-0.193359,0.948906,192.000000,0.000000,0.000000,0.000000,0.000000,0.000000,0.000000,0.000000,0.000000,0.000000,1773823374.289813,0.000000
194.000000,-8018.822434,-2484.530507,-7257.901997,2232.291070,-10182.985387,13960.743125,-10414.616515,-14879.623339,6910.399426,9651.997346,-8846.753400,12823.754588,12859.696193,8438.163512,-111.736371,-3140.062468,0.300000,-0.192000,0.956000,192.000000,4.500000,48.000000,125.000000,0.000000,14.500000,112.000000,0.000000,0.000000,0.000000,1773823374.770316,0.000000
196.000000,-7990.346311,-2452.656919,-7220.596936,2267.606827,-10144.942718,13999.746919,-10373.981044,-14843.681734,6910.399426,9662.793238,-8833.521167,12837.746780,12867.318138,8441.762142,-125.929728,-3165.878733,0.300000,-0.192000,0.956000,192.000000,0.000000,0.000000,0.000000,0.000000,0.000000,0.000000,0.000000,0.000000,0.000000,1773823374.770377,0.000000
198.000000,-8016.788425,-2482.317684,-7249.609500,2234.168617,-10166.445096,13962.643023,-10408.112157,-14875.689432,6914.758016,9671.398660,-8825.139263,12846.128684,12885.311292,8446.456009,-122.711077,-3164.872904,0.300000,-0.192000,0.956000,192.000000,0.000000,0.000000,0.000000,0.000000,0.000000,0.000000,0.000000,0.000000,0.000000,1773823374.770425,0.000000
200.000000,-8004.182041,-2471.074757,-7234.097389,2248.630196,-10148.384887,13978.892741,-10392.287122,-14863.753601,6908.566583,9638.876872,-8852.564854,12818.300762,12861.484332,8416.124692,-108.495368,-3139.816599,0.300000,-0.192000,0.956000,192.000000,0.000000,0.000000,0.000000,0.000000,0.000000,0.000000,0.000000,0.000000,0.000000,1773823374.770473,0.000000
202.000000,-8002.684474,-2465.777393,-7228.844730,2255.715699,-10138.974802,13987.252293,-10386.363910,-14859.707935,6915.026237,9671.309253,-8821.942964,12847.335678,12897.157716,8453.161532,-122.800484,-3174.662968,0.300000,-0.192000,0.956000,192.000000,0.000000,0.000000,0.000000,0.000000,0.000000,0.000000,0.000000,0.000000,0.000000,1773823374.770521,0.000000
204.000000,-8023.091617,-2486.251591,-7258.527846,2229.653565,-10173.150620,13955.982203,-10416.494062,-14886.395918,6905.862022,9651.505608,-8853.682441,12816.512622,12868.592187,8425.557128,-105.343772,-3135.212140,0.298000,-0.192000,0.952000,192.000000,4.500000,40.000000,125.000000,0.000000,14.500000,96.000000,0.000000,0.000000,0.000000,1773823374.770569,0.000000
206.000000,-7994.034349,-2458.222503,-7222.429779,2265.192838,-10135.286765,13996.930599,-10377.154991,-14851.594252,6907.560755,9663.016756,-8840.606670,12830.817739,12879.388080,8442.857378,-114.150359,-3159.195561,0.298000,-0.192000,0.952000,192.000000,0.000000,0.000000,0.000000,0.000000,0.000000,0.000000,0.000000,0.000000,0.000000,1773823374.770593,0.000000
208.000000,-8021.750512,-2487.503289,-7257.298500,2238.348393,-10172.189495,13963.067706,-10411.442567,-14883.579598,6913.707484,9667.576512,-8832.470635,12836.629192,12886.652397,8440.018706,-117.369010,-3157.496829,0.298000,-0.192000,0.952000,192.000000,0.000000,0.000000,0.000000,0.000000,0.000000,0.000000,0.000000,0.000000,0.000000,1773823374.770608,0.000000
210.000000,-8005.389035,-2474.472222,-7239.819436,2252.027661,-10147.624927,13980.770288,-10396.265733,-14870.414420,6905.593801,9644.800084,-8859.806819,12811.908163,12858.288033,8417.666962,-110.395266,-3136.374430,0.298000,-0.192000,0.952000,192.000000,0.000000,0.000000,0.000000,0.000000,0.000000,0.000000,0.000000,0.000000,0.000000,1773823374.770624,0.000000
212.000000,-7994.928419,-2459.653015,-7230.990497,2264.030548,-10141.008811,13991.744994,-10384.888695,-14858.478589,6926.470331,9682.730995,-8821.473577,12843.066495,12900.488126,8455.508465,-126.443818,-3167.823335,0.298000,-0.192000,0.952000,192.000000,0.000000,0.000000,0.000000,0.000000,0.000000,0.000000,0.000000,0.000000,0.000000,1773823374.770641,0.000000
214.000000,-8009.568812,-2471.030053,-7257.410259,2239.801257,-10179.923198,13973.863599,-10411.867250,-14877.030537,6917.082598,9665.944834,-8850.039107,12826.637963,12869.821533,8438.364677,-114.999725,-3128.864244,0.296000,-0.194000,0.950000,192.000000,4.500000,32.000000,124.500000,120.000000,14.500000,88.000000,0.000000,0.000000,0.000000,1773823374.770653,0.000000
216.000000,-7971.637901,-2438.731782,-7213.846709,2274.222943,-10133.029238,14012.196840,-10371.052965,-14839.121978,6937.176816,9686.419032,-8825.295726,12846.620422,12892.307388,8458.570654,-130.847112,-3155.306358,0.296000,-0.194000,0.950000,192.000000,0.000000,0.000000,0.000000,0.000000,0.000000,0.000000,0.000000,0.000000,0.000000,1773823374.770665,0.000000
218.000000,-8008.697094,-2475.276884,-7248.961300,2238.124876,-10159.493704,13963.671203,-10407.553364,-14875.600025,6933.153502,9676.494858,-8821.048894,12843.290012,12896.241295,8455.553169,-110.931708,-3155.798096,0.296000,-0.194000,0.950000,192.000000,0.000000,0.000000,0.000000,0.000000,0.000000,0.000000,0.000000,0.000000,0.000000,1773823374.770686,0.000000
220.000000,-7989.273428,-2455.249721,-7233.516244,2258.196742,-10151.134151,13987.609921,-10390.566038,-14857.875092,6917.663743,9655.953605,-8850.352031,12819.708922,12863.093658,8433.313183,-103.823853,-3137.983756,0.296000,-0.194000,0.950000,192.000000,0.000000,0.000000,0.000000,0.000000,0.000000,0.000000,0.000000,0.000000,0.000000,1773823374.770698,0.000000
222.000000,-7987.261771,-2453.863913,-7227.704791,2262.801202,-10139.153616,13995.410680,-10384.553419,-14855.014068,6931.991211,9690.129422,-8815.058627,12855.449361,12900.532830,8462.750430,-123.381629,-3169.924399,0.296000,-0.194000,0.950000,192.000000,0.000000,0.000000,0.000000,0.000000,0.000000,0.000000,0.000000,0.000000,0.000000,1773823374.770710,0.000000
224.000000,-8015.424969,-2478.629646,-7256.650300,2232.559291,-10162.868817,13966.040488,-10415.398826,-14885.792421,6909.773577,9659.865160,-8853.727144,12820.714750,12861.149056,8430.899195,-101.119292,-3131.434695,0.294000,-0.188000,0.944000,192.000000,4.500000,24.000000,125.000000,16.000000,14.500000,64.000000,0.000000,0.000000,0.000000,1773823374.770722,0.000000
226.000000,-7977.337596,-2440.609329,-7216.305401,2268.187972,-10118.411197,14009.671093,-10377.624378,-14848.263842,6922.447017,9674.840829,-8838.036220,12833.924631,12881.846771,8460.917587,-107.556594,-3152.445334,0.294000,-0.188000,0.944000,192.000000,0.000000,0.000000,0.000000,0.000000,0.000000,0.000000,0.000000,0.000000,0.000000,1773823374.770737,0.000000
228.000000,-8004.092634,-2465.598579,-7251.107067,2237.834303,-10157.213826,13976.523456,-10411.777843,-14877.879903,6927.632621,9687.491916,-8828.424970,12842.686515,12892.285036,8452.133352,-106.416655,-3145.292776,0.294000,-0.188000,0.944000,192.000000,0.000000,0.000000,0.000000,0.000000,0.000000,0.000000,0.000000,0.000000,0.000000,1773823374.770754,0.000000
230.000000,-7989.496945,-2450.153524,-7236.466674,2251.066536,-10140.874701,13997.087061,-10394.723462,-14863.619490,6918.870737,9668.716451,-8856.431706,12820.804157,12864.144190,8439.214044,-96.961867,-3125.444427,0.294000,-0.188000,0.944000,192.000000,0.000000,0.000000,0.000000,0.000000,0.000000,0.000000,0.000000,0.000000,0.000000,1773823374.770772,0.000000
232.000000,-7982.143221,-2442.710393,-7230.699924,2261.728318,-10137.834863,13994.851887,-10385.134564,-14854.857606,6931.208900,9700.813556,-8822.434702,12854.890568,12902.097452,8459.062393,-117.592528,-3162.414213,0.294000,-0.188000,0.944000,192.000000,0.000000,0.000000,0.000000,0.000000,0.000000,0.000000,0.000000,0.000000,0.000000,1773823374.770789,0.000000
234.000000,-8002.930344,-2466.246780,-7255.800933,2233.296899,-10164.634605,13960.653718,-10413.543631,-14880.159781,6913.551022,9671.108087,-8855.045897,12826.816777,12865.105315,8428.462854,-105.522586,-3125.176206,0.304000,-0.190000,0.946000,192.000000,4.500000,64.000000,125.000000,8.000000,14.500000,72.000000,0.000000,0.000000,0.000000,1773823374.770807,0.000000
236.000000,-7960.953767,-2423.733762,-7216.439511,2274.737033,-10121.696904,14006.653608,-10371.991738,-14843.301754,6930.583052,9690.576457,-8836.315136,12843.155902,12886.205362,8448.646480,-117.458417,-3151.350099,0.304000,-0.190000,0.946000,192.000000,0.000000,0.000000,0.000000,0.000000,0.000000,0.000000,0.000000,0.000000,0.000000,1773823374.770825,0.000000
238.000000,-7988.960503,-2454.310948,-7248.938948,2242.394059,-10155.358631,13983.474849,-10405.921686,-14875.577673,6940.998964,9706.915582,-8823.976973,12853.370649,12903.170336,8465.477343,-123.627499,-3147.840875,0.304000,-0.190000,0.946000,192.000000,0.000000,0.000000,0.000000,0.000000,0.000000,0.000000,0.000000,0.000000,0.000000,1773823374.770842,0.000000
240.000000,-7976.868209,-2443.045669,-7233.024506,2259.582550,-10133.543328,14008.844079,-10392.577695,-14864.446505,6926.783255,9678.394756,-8854.688269,12825.430968,12875.118896,8440.778666,-109.009458,-3127.389029,0.304000,-0.190000,0.946000,192.000000,0.000000,0.000000,0.000000,0.000000,0.000000,0.000000,0.000000,0.000000,0.000000,1773823374.770859,0.000000
242.000000,-7965.066488,-2431.758038,-7222.407427,2265.014024,-10127.664820,14012.442709,-10384.173439,-14853.069467,6948.218578,9710.670675,-8816.176214,12854.421181,12918.704798,8482.330559,-117.436065,-3164.068242,0.304000,-0.190000,0.946000,192.000000,0.000000,0.000000,0.000000,0.000000,0.000000,0.000000,0.000000,0.000000,0.000000,1773823374.770875,0.000000
244.000000,-7986.591218,-2452.008718,-7251.375288,2237.946062,-10163.315852,13982.759593,-10414.482405,-14876.650557,6933.511130,9690.688216,-8847.178083,12831.756512,12881.556199,8459.174151,-102.706266,-3128.528968,0.302000,-0.190000,0.946000,192.000000,4.500000,56.000000,125.000000,8.000000,14.500000,72.000000,0.000000,0.000000,0.000000,1773823374.770891,0.000000
246.000000,-7959.635014,-2425.074866,-7215.254869,2264.097603,-10121.987477,14009.089948,-10376.752660,-14844.642859,6937.489741,9700.187707,-8834.325830,12844.295841,12894.855487,8469.165381,-112.473978,-3157.541532,0.302000,-0.190000,0.946000,192.000000,0.000000,0.000000,0.000000,0.000000,0.000000,0.000000,0.000000,0.000000,0.000000,1773823374.770908,0.000000
248.000000,-7989.519297,-2457.864876,-7245.675593,2227.753666,-10155.157465,13973.125991,-10409.162689,-14876.404688,6933.868758,9696.074986,-8829.296688,12845.882815,12900.912809,8449.160570,-110.462321,-3158.256788,0.302000,-0.190000,0.946000,192.000000,0.000000,0.000000,0.000000,0.000000,0.000000,0.000000,0.000000,0.000000,0.000000,1773823374.770924,0.000000
250.000000,-7975.348291,-2445.504361,-7229.135302,2248.429030,-10133.789198,13995.187163,-10393.024730,-14864.915891,6923.206976,9674.662015,-8857.504589,12821.362951,12867.005213,8428.351096,-101.633382,-3133.424000,0.302000,-0.190000,0.946000,192.000000,0.000000,0.000000,0.000000,0.000000,0.000000,0.000000,0.000000,0.000000,0.000000,1773823374.770944,0.000000
252.000000,-7968.754526,-2439.245872,-7222.675648,2257.302673,-10124.490872,14004.306675,-10383.949922,-14857.808037,6941.133075,9704.568649,-8823.574641,12853.527111,12912.245144,8457.609529,-117.503121,-3166.079899,0.302000,-0.190000,0.946000,192.000000,0.000000,0.000000,0.000000,0.000000,0.000000,0.000000,0.000000,0.000000,0.000000,1773823374.770960,0.000000
254.000000,-7987.686454,-2459.965940,-7246.256738,2230.078248,-10148.474294,13978.356299,-10412.291934,-14878.617511,6933.421723,9680.093489,-8850.128514,12831.063608,12884.037242,8434.810750,-99.264097,-3126.763180,0.298000,-0.190000,0.946000,192.000000,4.500000,40.000000,125.000000,8.000000,14.500000,72.000000,0.000000,0.000000,0.000000,1773823374.770976,0.000000
0.000000,-7943.564110,-2418.972840,-7208.594049,2270.110222,-10113.024427,14015.057864,-10370.963558,-14833.645801,6946.050459,9694.309198,-8827.866176,12847.492140,12903.237391,8454.055602,-108.830644,-3148.243207,0.298000,-0.190000,0.946000,192.000000,0.000000,0.000000,0.000000,0.000000,0.000000,0.000000,0.000000,0.000000,0.000000,1773823374.770993,0.000000
2.000000,-7965.222951,-2442.978614,-7241.920500,2236.940233,-10155.470390,13982.670186,-10402.770090,-14858.813865,6952.621872,9706.245030,-8814.700999,12857.259853,12910.792281,8478.597817,-116.139664,-3147.147971,0.298000,-0.190000,0.946000,192.000000,0.000000,0.000000,0.000000,0.000000,0.000000,0.000000,0.000000,0.000000,0.000000,1773823374.771008,0.000000
4.000000,-7952.102477,-2427.958241,-7225.849596,2252.519399,-10138.840692,13993.644892,-10387.034462,-14845.067542,6942.563587,9684.675596,-8839.600842,12834.952812,12878.717527,8444.667869,-111.378743,-3127.858416,0.298000,-0.190000,0.946000,192.000000,0.000000,0.000000,0.000000,0.000000,0.000000,0.000000,0.000000,0.000000,0.000000,1773823374.771026,0.000000
6.000000,-7945.866340,-2423.353782,-7220.753398,2258.375556,-10149.010736,13989.912151,-10379.166648,-14838.943164,6954.342956,9712.212945,-8804.620362,12864.971204,12911.485185,8471.802887,-128.455475,-3167.577465,0.298000,-0.190000,0.946000,192.000000,0.000000,0.000000,0.000000,0.000000,0.000000,0.000000,0.000000,0.000000,0.000000,1773823374.771041,0.000000
8.000000,-7979.930398,-2461.575265,-7251.665861,2226.993707,-10169.887265,13952.204758,-10414.281239,-14877.164647,6931.208900,9674.259683,-8843.557101,12833.969335,12869.150981,8428.574613,-115.782036,-3134.988622,0.297000,-0.188000,0.950000,192.000000,4.500000,32.000000,125.000000,24.000000,14.500000,104.000000,0.000000,0.000000,0.000000,1773823374.771057,0.000000
10.000000,-7944.257014,-2424.225500,-7210.516299,2261.728318,-10117.137148,13996.572971,-10373.712823,-14841.200690,6935.545139,9682.373367,-8833.163540,12838.193815,12887.412356,8440.733962,-116.050257,-3162.950654,0.297000,-0.188000,0.950000,192.000000,0.000000,0.000000,0.000000,0.000000,0.000000,0.000000,0.000000,0.000000,0.000000,1773823374.771074,0.000000
12.000000,-7961.333747,-2440.341108,-7238.500683,2236.135571,-10141.925233,13971.896645,-10403.261829,-14862.144275,6942.205959,9696.633780,-8820.780673,12851.694268,12906.634856,8455.933148,-112.473978,-3156.111021,0.297000,-0.188000,0.950000,192.000000,0.000000,0.000000,0.000000,0.000000,0.000000,0.000000,0.000000,0.000000,0.000000,1773823374.771091,0.000000
14.000000,-7935.316317,-2417.341163,-7215.880718,2253.815800,-10117.159500,13995.656549,-10385.671006,-14838.987868,6945.223444,9688.274227,-8836.896281,12839.579623,12890.832173,8446.612471,-101.007533,-3132.842855,0.297000,-0.188000,0.950000,192.000000,0.000000,0.000000,0.000000,0.000000,0.000000,0.000000,0.000000,0.000000,0.000000,1773823374.771106,0.000000
16.000000,-7926.912061,-2411.306192,-7205.062473,2258.643777,-10114.723160,14005.312503,-10377.333805,-14832.774083,6967.999872,9722.427693,-8796.819603,12873.733088,12941.235356,8485.057471,-115.536167,-3168.024500,0.297000,-0.188000,0.950000,192.000000,0.000000,0.000000,0.000000,0.000000,0.000000,0.000000,0.000000,0.000000,0.000000,1773823374.771123,0.000000
18.000000,-7954.695279,-2440.296404,-7235.617308,2233.632175,-10151.469428,13977.909264,-10406.569887,-14862.568958,6952.666575,9695.717358,-8829.028467,12840.317230,12904.690254,8460.045869,-96.403074,-3130.026535,0.298500,-0.188000,0.953000,192.000000,4.500000,48.000000,125.000000,16.000000,14.500000,112.000000,0.000000,0.000000,0.000000,1773823374.771140,0.000000
20.000000,-7918.887784,-2405.472387,-7201.508546,2271.160754,-10111.079825,14021.673980,-10368.013128,-14827.722589,6957.293386,9705.552126,-8817.942002,12851.023716,12915.664961,8466.013785,-113.144530,-3154.479343,0.298500,-0.188000,0.953000,192.000000,0.000000,0.000000,0.000000,0.000000,0.000000,0.000000,0.000000,0.000000,0.000000,1773823374.771154,0.000000
22.000000,-7944.547587,-2432.920329,-7235.550253,2242.528169,-10148.988384,13988.191067,-10402.591276,-14857.137484,6959.573264,9715.141024,-8810.208298,12857.997460,12921.208193,8477.636692,-113.278641,-3152.490038,0.298500,-0.188000,0.953000,192.000000,0.000000,0.000000,0.000000,0.000000,0.000000,0.000000,0.000000,0.000000,0.000000,1773823374.771171,0.000000
24.000000,-7928.633145,-2418.972840,-7220.284011,2257.012100,-10127.463654,14009.536983,-10384.911047,-14841.133635,6952.487761,9691.626989,-8835.286955,12833.812873,12890.966283,8456.670756,-105.410827,-3125.176206,0.298500,-0.188000,0.953000,192.000000,0.000000,0.000000,0.000000,0.000000,0.000000,0.000000,0.000000,0.000000,0.000000,1773823374.771187,0.000000
26.000000,-7926.621488,-2416.581204,-7215.388979,2271.563086,-10129.318849,14018.634143,-10376.886770,-14834.852795,6963.730689,9723.835853,-8801.200545,12868.145152,12926.371446,8506.559850,-122.867539,-3156.669814,0.298500,-0.188000,0.953000,192.000000,0.000000,0.000000,0.000000,0.000000,0.000000,0.000000,0.000000,0.000000,0.000000,1773823374.771205,0.000000
28.000000,-7949.263805,-2441.749268,-7243.730991,2237.923710,-10162.421782,13991.968512,-10407.329846,-14860.445542,6947.279805,9690.799974,-8834.906976,12837.389152,12888.217019,8477.591989,-112.362219,-3116.861357,0.297250,-0.189000,0.953500,192.000000,4.500000,32.000000,125.000000,8.000000,14.500000,104.000000,0.000000,0.000000,0.000000,1773823374.771221,0.000000
30.000000,-7917.300810,-2409.272183,-7203.967238,2275.742862,-10118.299439,14025.853756,-10367.186113,-14822.268763,6956.958110,9705.909754,-8818.299629,12849.235576,12906.210173,8475.222704,-120.073571,-3144.577520,0.297250,-0.189000,0.953500,192.000000,0.000000,0.000000,0.000000,0.000000,0.000000,0.000000,0.000000,0.000000,0.000000,1773823374.771237,0.000000
32.000000,-7940.568976,-2431.892148,-7232.152788,2239.890664,-10145.456808,13988.883971,-10401.540744,-14850.700182,6960.780258,9712.011780,-8807.459033,12856.566948,12919.822385,8468.181904,-114.351525,-3148.980814,0.297250,-0.189000,0.953500,192.000000,0.000000,0.000000,0.000000,0.000000,0.000000,0.000000,0.000000,0.000000,0.000000,1773823374.771254,0.000000
34.000000,-7925.638011,-2416.000058,-7213.712599,2249.121934,-10124.557927,14003.949047,-10385.067509,-14837.177376,6954.544122,9692.252838,-8831.062476,12831.197719,12894.073176,8445.539587,-102.147472,-3131.837026,0.297250,-0.189000,0.953500,192.000000,0.000000,0.000000,0.000000,0.000000,0.000000,0.000000,0.000000,0.000000,0.000000,1773823374.771268,0.000000
36.000000,-7919.156005,-2410.680343,-7206.716503,2261.258931,-10118.277087,14003.323198,-10375.679776,-14828.817824,6971.263226,9727.210966,-8793.220972,12860.344393,12933.144025,8477.346120,-112.608089,-3167.108079,0.297250,-0.189000,0.953500,192.000000,0.000000,0.000000,0.000000,0.000000,0.000000,0.000000,0.000000,0.000000,0.000000,1773823374.771284,0.000000
38.000000,-7941.463046,-2433.322660,-7232.085732,2233.453361,-10151.402372,13975.785849,-10404.290009,-14852.823598,6955.795819,9690.867030,-8826.569775,12839.557271,12897.850620,8441.695087,-100.336981,-3131.211177,0.295625,-0.188500,0.952750,192.000000,4.500000,24.000000,125.000000,16.000000,14.500000,96.000000,0.000000,0.000000,0.000000,1773823374.771302,0.000000
40.000000,-7901.833403,-2396.442282,-7193.819546,2273.619446,-10114.298476,14023.797396,-10362.224026,-14812.970437,6970.413860,9710.223640,-8806.788481,12858.109219,12914.323856,8464.717384,-111.579908,-3157.250960,0.295625,-0.188500,0.952750,192.000000,0.000000,0.000000,0.000000,0.000000,0.000000,0.000000,0.000000,0.000000,0.000000,1773823374.771316,0.000000
42.000000,-7928.141407,-2424.046686,-7227.950660,2242.975204,-10148.764866,13992.884933,-10395.617532,-14842.698257,6974.191305,9721.801844,-8796.886658,12869.620367,12926.483205,8477.726099,-111.959888,-3153.115887,0.295625,-0.188500,0.952750,192.000000,0.000000,0.000000,0.000000,0.000000,0.000000,0.000000,0.000000,0.000000,0.000000,1773823374.771334,0.000000
44.000000,-7911.846985,-2408.311058,-7212.729122,2262.443574,-10128.491834,14016.287210,-10379.904256,-14827.499071,6964.021261,9698.153698,-8822.904089,12843.155902,12893.469679,8457.765991,-102.549804,-3129.713610,0.295625,-0.188500,0.952750,192.000000,0.000000,0.000000,0.000000,0.000000,0.000000,0.000000,0.000000,0.000000,0.000000,1773823374.771352,0.000000
46.000000,-7899.128842,-2398.051607,-7204.928363,2268.500897,-10120.020523,14021.159890,-10370.360061,-14816.211440,6983.333168,9731.524853,-8782.268617,12878.181085,12933.993391,8489.013730,-118.173673,-3162.950654,0.295625,-0.188500,0.952750,192.000000,0.000000,0.000000,0.000000,0.000000,0.000000,0.000000,0.000000,0.000000,0.000000,1773823374.771367,0.000000
48.000000,-7922.419360,-2422.906747,-7234.164445,2236.649661,-10150.485951,13996.327102,-10401.876021,-14845.492225,6970.570322,9708.659018,-8811.996438,12850.509626,12904.556144,8462.593968,-103.712094,-3126.494959,0.295813,-0.189250,0.953375,192.000000,4.500000,32.000000,125.000000,8.000000,14.500000,104.000000,0.000000,0.000000,0.000000,1773823374.771384,0.000000
50.000000,-7894.278514,-2396.799910,-7200.189793,2274.848792,-10113.694979,14036.113207,-10365.845009,-14818.156042,6979.063985,9719.700780,-8799.971199,12862.892492,12923.063388,8482.867000,-117.257251,-3149.383145,0.295813,-0.189250,0.953375,192.000000,0.000000,0.000000,0.000000,0.000000,0.000000,0.000000,0.000000,0.000000,0.000000,1773823374.771397,0.000000
52.000000,-7930.711857,-2432.450942,-7236.332564,2237.431972,-10145.143884,13993.644892,-10402.434814,-14857.338650,6974.683043,9718.158510,-8800.597048,12862.825437,12926.237336,8479.916570,-112.228109,-3147.818523,0.295813,-0.189250,0.953375,192.000000,0.000000,0.000000,0.000000,0.000000,0.000000,0.000000,0.000000,0.000000,0.000000,1773823374.771415,0.000000
54.000000,-7913.255145,-2414.927174,-7217.981782,2251.938254,-10129.341201,14020.489338,-10385.000454,-14840.664249,6961.473162,9695.292675,-8831.576566,12832.561175,12892.039167,8437.716477,-104.673219,-3127.433732,0.295813,-0.189250,0.953375,192.000000,0.000000,0.000000,0.000000,0.000000,0.000000,0.000000,0.000000,0.000000,0.000000,1773823374.771428,0.000000
56.000000,-7907.220174,-2406.858195,-7210.873927,2264.052899,-10120.914593,14019.394102,-10376.059756,-14832.997600,6978.147564,9728.887347,-8794.271504,12869.821533,12932.182900,8477.033195,-119.023039,-3168.672701,0.295813,-0.189250,0.953375,192.000000,0.000000,0.000000,0.000000,0.000000,0.000000,0.000000,0.000000,0.000000,0.000000,1773823374.771445,0.000000
58.000000,-7936.545662,-2436.094276,-7241.227596,2236.940233,-10154.442210,13986.648796,-10407.754529,-14863.284214,6958.209808,9693.593942,-8829.095522,12840.808969,12890.295731,8444.042020,-103.443873,-3131.635860,0.296906,-0.188625,0.955688,192.000000,4.500000,40.000000,125.000000,16.000000,14.500000,120.000000,0.000000,0.000000,0.000000,1773823375.250496,0.000000
60.000000,-7898.100662,-2398.252773,-7201.776767,2270.825478,-10114.544346,14025.943163,-10366.560264,-14823.542812,6966.345843,9714.269306,-8812.756397,12853.482408,12905.338455,8459.576483,-110.775246,-3156.401593,0.296906,-0.188625,0.955688,192.000000,0.000000,0.000000,0.000000,0.000000,0.000000,0.000000,0.000000,0.000000,0.000000,1773823375.250570,0.000000
62.000000,-7935.808055,-2434.484951,-7239.797084,2238.862483,-10154.665727,13987.475811,-10401.049006,-14856.131656,6965.675290,9722.539451,-8805.805004,12862.825437,12914.301504,8466.930207,-114.440932,-3155.842800,0.296906,-0.188625,0.955688,192.000000,0.000000,0.000000,0.000000,0.000000,0.000000,0.000000,0.000000,0.000000,0.000000,1773823375.250623,0.000000
64.000000,-7919.379523,-2414.278974,-7219.166424,2253.949911,-10132.291631,14008.195878,-10380.932436,-14835.523347,6950.029069,9697.170221,-8836.516301,12841.077190,12880.505667,8455.575520,-108.875347,-3135.882692,0.296906,-0.188625,0.955688,192.000000,0.000000,0.000000,0.000000,0.000000,0.000000,0.000000,0.000000,0.000000,0.000000,1773823375.250679,0.000000
66.000000,-7913.590421,-2407.506395,-7211.589183,2268.210324,-10127.329544,14020.310524,-10370.851799,-14824.816862,6969.050404,9729.289678,-8794.226801,12876.437649,12923.421016,8479.961274,-123.024001,-3174.148878,0.296906,-0.188625,0.955688,192.000000,0.000000,0.000000,0.000000,0.000000,0.000000,0.000000,0.000000,0.000000,0.000000,1773823375.250732,0.000000
68.000000,-7936.120979,-2434.820227,-7239.350049,2237.767248,-10154.017526,13990.090965,-10401.697207,-14853.404743,6959.282691,9701.193535,-8824.602821,12850.330812,12890.563952,8451.775724,-110.507025,-3131.881730,0.300453,-0.190312,0.957844,192.000000,4.500000,64.000000,125.000000,0.000000,15.000000,0.000000,0.000000,0.000000,0.000000,1773823375.250780,0.000000
70.000000,-7897.988903,-2397.291648,-7200.569773,2271.920713,-10112.622096,14027.887765,-10361.933453,-14818.513670,6975.174782,9712.145890,-8808.777786,12860.165579,12909.697045,8456.447238,-120.945289,-3156.535704,0.300453,-0.190312,0.957844,192.000000,0.000000,0.000000,0.000000,0.000000,0.000000,0.000000,0.000000,0.000000,0.000000,1773823375.250815,0.000000
72.000000,-7931.047133,-2431.512169,-7235.393791,2238.437800,-10151.335317,13991.454421,-10397.003340,-14852.421266,6976.582942,9716.906812,-8802.206373,12864.859446,12920.001199,8493.595838,-117.011382,-3153.652329,0.300453,-0.190312,0.957844,192.000000,0.000000,0.000000,0.000000,0.000000,0.000000,0.000000,0.000000,0.000000,0.000000,1773823375.250833,0.000000
74.000000,-7916.697313,-2418.145826,-7220.932212,2252.944082,-10130.011753,14009.648741,-10382.161782,-14839.859586,6962.233122,9691.045843,-8833.185891,12839.736085,12880.952702,8442.209177,-105.500234,-3135.145084,0.300453,-0.190312,0.957844,192.000000,0.000000,0.000000,0.000000,0.000000,0.000000,0.000000,0.000000,0.000000,0.000000,1773823375.250851,0.000000
76.000000,-7908.337761,-2410.859157,-7214.204337,2262.465926,-10128.625945,14014.834346,-10373.019919,-14832.192937,6974.727747,9721.377161,-8798.361873,12872.123763,12912.848641,8470.662948,-122.107580,-3169.253846,0.300453,-0.190312,0.957844,192.000000,0.000000,0.000000,0.000000,0.000000,0.000000,0.000000,0.000000,0.000000,0.000000,1773823375.250869,0.000000
78.000000,-7932.567052,-2434.663765,-7241.294651,2234.749762,-10158.733744,13986.581741,-10401.004303,-14857.808037,6959.975595,9693.169259,-8829.833130,12845.301669,12875.945911,8448.065334,-111.289336,-3134.563939,0.300453,-0.190312,0.957844,192.000000,0.000000,0.000000,0.000000,0.000000,0.000000,0.000000,0.000000,0.000000,0.000000,1773823375.250884,0.000000
80.000000,-7896.066653,-2398.409235,-7197.976970,2271.071347,-10111.280991,14027.351323,-10360.704107,-14817.776062,6969.184514,9706.356788,-8812.354065,12857.438667,12897.940027,8470.595893,-117.301955,-3163.576503,0.300000,-0.188000,0.956000,192.000000,4.500000,48.000000,125.000000,16.000000,14.500000,112.000000,0.000000,0.000000,0.000000,1773823375.250902,0.000000
82.000000,-7923.089912,-2427.958241,-7230.297593,2237.029640,-10147.133189,13990.962683,-10396.444547,-14847.705048,6974.012491,9711.229469,-8799.926496,12862.847789,12905.874897,8466.147896,-112.876309,-3160.000224,0.300000,-0.188000,0.956000,192.000000,0.000000,0.000000,0.000000,0.000000,0.000000,0.000000,0.000000,0.000000,0.000000,1773823375.250919,0.000000
84.000000,-7909.790624,-2414.457788,-7209.801043,2251.848847,-10127.106026,14011.414529,-10380.775974,-14833.198766,6964.535351,9688.363634,-8824.424007,12836.383323,12875.901207,8444.667869,-103.734446,-3134.832160,0.300000,-0.188000,0.956000,192.000000,0.000000,0.000000,0.000000,0.000000,0.000000,0.000000,0.000000,0.000000,0.000000,1773823375.250937,0.000000
86.000000,-7903.085101,-2407.975782,-7201.396787,2259.962530,-10121.138110,14027.418378,-10371.790573,-14824.481586,6981.545029,9719.633725,-8787.655388,12866.424068,12919.777682,8472.004053,-115.849092,-3169.812640,0.300000,-0.188000,0.956000,192.000000,0.000000,0.000000,0.000000,0.000000,0.000000,0.000000,0.000000,0.000000,0.000000,1773823375.250956,0.000000
88.000000,-7931.896500,-2440.385811,-7233.762113,2234.325079,-10150.821227,13988.280474,-10403.306532,-14853.561205,6970.346805,9690.352939,-8817.852595,12840.876024,12888.149963,8447.193616,-103.108597,-3133.334593,0.300000,-0.188000,0.956000,192.000000,0.000000,0.000000,0.000000,0.000000,0.000000,0.000000,0.000000,0.000000,0.000000,1773823375.250973,0.000000
90.000000,-7897.988903,-2407.685209,-7198.312247,2272.345397,-10109.895183,14028.759483,-10366.895541,-14818.692484,6975.308892,9696.432614,-8806.564964,12853.236539,12902.566839,8463.845666,-109.165920,-3156.178076,0.296000,-0.194000,0.954000,192.000000,4.500000,32.000000,124.500000,120.000000,14.500000,104.000000,0.000000,0.000000,0.000000,1773823375.251000,0.000000
92.000000,-7921.927622,-2428.762904,-7231.348125,2242.125838,-10147.513169,13994.807183,-10398.433852,-14843.033533,6980.785070,9705.350960,-8796.171402,12864.747687,12910.077025,8473.635730,-108.137740,-3153.786439,0.296000,-0.194000,0.954000,192.000000,0.000000,0.000000,0.000000,0.000000,0.000000,0.000000,0.000000,0.000000,0.000000,1773823375.251017,0.000000
94.000000,-7910.483528,-2415.620079,-7217.870023,2258.710832,-10135.130302,14010.341646,-10381.558285,-14828.326086,6969.698604,9687.670730,-8821.361818,12844.899338,12874.783620,8465.432640,-102.728618,-3136.262672,0.296000,-0.194000,0.954000,192.000000,0.000000,0.000000,0.000000,0.000000,0.000000,0.000000,0.000000,0.000000,0.000000,1773823375.251036,0.000000
96.000000,-7907.086063,-2407.640506,-7211.835052,2267.517420,-10137.141959,14010.676922,-10371.768221,-14821.866431,6979.645131,9718.784358,-8788.638865,12877.219960,12908.110071,8473.166343,-120.610013,-3178.954503,0.296000,-0.194000,0.954000,192.000000,0.000000,0.000000,0.000000,0.000000,0.000000,0.000000,0.000000,0.000000,0.000000,1773823375.251053,0.000000
98.000000,-7928.364924,-2429.388753,-7241.317003,2240.918844,-10168.747326,13974.712965,-10402.256000,-14847.637993,6963.730689,9692.878687,-8822.322943,12847.223919,12869.061574,8452.088648,-105.701400,-3136.307375,0.296000,-0.194000,0.954000,192.000000,0.000000,0.000000,0.000000,0.000000,0.000000,0.000000,0.000000,0.000000,0.000000,1773823375.251070,0.000000
100.000000,-7894.367921,-2397.537517,-7201.083863,2277.709815,-10121.853366,14021.204593,-10361.285253,-14813.171603,6974.370119,9709.195460,-8804.843879,12862.803085,12892.888533,8462.057526,-117.637231,-3161.251922,0.298000,-0.192000,0.956000,192.000000,4.500000,40.000000,125.000000,0.000000,14.500000,112.000000,0.000000,0.000000,0.000000,1773823375.251088,0.000000
102.000000,-7931.561223,-2435.177855,-7234.991459,2242.662280,-10153.682250,13990.694462,-10396.265733,-14852.398914,6973.721918,9711.743559,-8800.373530,12865.105315,12901.337493,8468.561884,-114.530339,-3154.479343,0.298000,-0.192000,0.956000,192.000000,0.000000,0.000000,0.000000,0.000000,0.000000,0.000000,0.000000,0.000000,0.000000,1773823375.251106,0.000000
104.000000,-7924.989811,-2426.326564,-7220.865157,2257.950873,-10130.101160,14009.157003,-10381.066547,-14842.899423,6960.154409,9682.574532,-8831.867138,12834.796349,12870.603844,8434.207253,-105.276716,-3132.328764,0.298000,-0.192000,0.956000,192.000000,0.000000,0.000000,0.000000,0.000000,0.000000,0.000000,0.000000,0.000000,0.000000,1773823375.251123,0.000000
106.000000,-7918.060770,-2419.553986,-7212.349142,2263.069423,-10125.787273,14020.578744,-10370.829448,-14834.182243,6972.939607,9711.363579,-8797.177231,12865.820571,12909.205307,8457.833047,-120.565310,-3169.298550,0.298000,-0.192000,0.956000,192.000000,0.000000,0.000000,0.000000,0.000000,0.000000,0.000000,0.000000,0.000000,0.000000,1773823375.251140,0.000000
108.000000,-7942.379468,-2443.805628,-7241.004079,2237.431972,-10153.324622,13982.334910,-10399.640846,-14861.652537,6961.808439,9684.049747,-8828.268508,12834.237556,12876.437649,8445.226663,-104.293240,-3132.485227,0.298000,-0.192000,0.956000,192.000000,0.000000,0.000000,0.000000,0.000000,0.000000,0.000000,0.000000,0.000000,0.000000,1773823375.251158,0.000000
110.000000,-7904.917944,-2405.494738,-7203.721369,2270.378443,-10114.410235,14021.785739,-10361.419363,-14824.950972,6971.553799,9697.103166,-8813.426949,12846.553367,12888.641702,8459.308262,-111.311687,-3155.328710,0.306000,-0.188000,0.954000,192.000000,4.500000,72.000000,125.000000,16.000000,14.500000,104.000000,0.000000,0.000000,0.000000,1773823375.251175,0.000000
112.000000,-7933.371715,-2435.110800,-7239.394753,2239.801257,-10149.815398,13989.308654,-10395.148146,-14854.209406,6979.376910,9705.686236,-8803.905106,12853.281242,12898.878801,8443.438523,-108.920051,-3153.451163,0.306000,-0.188000,0.954000,192.000000,0.000000,0.000000,0.000000,0.000000,0.000000,0.000000,0.000000,0.000000,0.000000,1773823375.251192,0.000000
114.000000,-7917.680790,-2415.843596,-7222.653296,2257.950873,-10134.146826,14006.027759,-10378.473744,-14834.182243,6968.692776,9683.692120,-8831.956545,12836.070399,12868.301614,8421.734979,-102.058065,-3132.842855,0.306000,-0.188000,0.954000,192.000000,0.000000,0.000000,0.000000,0.000000,0.000000,0.000000,0.000000,0.000000,0.000000,1773823375.251209,0.000000
116.000000,-7911.690523,-2407.349933,-7215.836014,2264.365824,-10128.357724,14014.700236,-10370.851799,-14827.253202,6983.310817,9719.745483,-8794.495022,12871.497914,12908.087719,8458.034212,-117.816045,-3173.075995,0.306000,-0.188000,0.954000,192.000000,0.000000,0.000000,0.000000,0.000000,0.000000,0.000000,0.000000,0.000000,0.000000,1773823375.251227,0.000000
118.000000,-7939.049058,-2434.037916,-7247.776657,2236.828475,-10161.259492,13984.950064,-10400.691378,-14854.321164,6965.742346,9692.230486,-8828.827301,12843.602937,12866.759344,8437.135331,-109.009458,-3136.776762,0.306000,-0.188000,0.954000,192.000000,0.000000,0.000000,0.000000,0.000000,0.000000,0.000000,0.000000,0.000000,0.000000,1773823375.251244,0.000000
120.000000,-7900.268781,-2395.190584,-7205.710674,2276.525173,-10113.046779,14029.273573,-10359.050078,-14812.389292,6974.973616,9711.341227,-8811.147071,12856.857521,12882.293806,8451.753372,-119.246557,-3161.810715,0.298000,-0.196000,0.952000,192.000000,4.500000,40.000000,124.500000,112.000000,14.500000,96.000000,0.000000,0.000000,0.000000,1773823375.251261,0.000000
122.000000,-7931.941203,-2424.896052,-7239.551215,2243.824571,-10155.112762,13993.197858,-10392.734157,-14842.810016,6979.287503,9722.315934,-8801.133490,12864.367707,12891.301559,8460.112925,-118.911281,-3151.081878,0.298000,-0.196000,0.952000,192.000000,0.000000,0.000000,0.000000,0.000000,0.000000,0.000000,0.000000,0.000000,0.000000,1773823375.251283,0.000000
124.000000,-7916.183223,-2412.155558,-7221.334543,2259.135516,-10140.606480,14010.408701,-10374.495134,-14824.660400,6969.832715,9694.823288,-8827.195624,12843.893509,12864.680632,8435.458950,-110.372914,-3131.747619,0.298000,-0.196000,0.952000,192.000000,0.000000,0.000000,0.000000,0.000000,0.000000,0.000000,0.000000,0.000000,0.000000,1773823375.251300,0.000000
126.000000,-7913.322200,-2408.020485,-7214.830186,2264.499934,-10130.592898,14017.628314,-10368.661328,-14821.061769,6985.680102,9727.255670,-8789.979969,12873.889550,12905.293751,8469.433602,-125.437990,-3168.784460,0.298000,-0.196000,0.952000,192.000000,0.000000,0.000000,0.000000,0.000000,0.000000,0.000000,0.000000,0.000000,0.000000,1773823375.251317,0.000000
128.000000,-7942.938261,-2438.709431,-7245.675593,2236.873178,-10161.304195,13986.715852,-10401.004303,-14854.142350,6964.177723,9698.444271,-8829.207281,12841.278355,12862.601919,8439.079933,-107.064856,-3126.964346,0.298000,-0.196000,0.952000,192.000000,0.000000,0.000000,0.000000,0.000000,0.000000,0.000000,0.000000,0.000000,0.000000,1773823375.251335,0.000000
130.000000,-7904.761482,-2402.164328,-7206.582392,2273.753556,-10122.210994,14026.501957,-10362.536950,-14818.267801,6969.184514,9710.335399,-8818.187871,12851.627213,12877.018795,8442.142122,-114.865615,-3152.445334,0.294000,-0.196000,0.944000,192.000000,4.500000,24.000000,124.500000,112.000000,14.500000,64.000000,0.000000,0.000000,0.000000,1773823375.251352,0.000000
132.000000,-7936.657421,-2433.255605,-7238.858311,2239.689498,-10153.369326,13987.118183,-10397.025692,-14848.710877,6973.185476,9717.622068,-8808.442510,12856.343431,12888.261722,8452.222759,-117.167844,-3149.249035,0.294000,-0.196000,0.944000,192.000000,0.000000,0.000000,0.000000,0.000000,0.000000,0.000000,0.000000,0.000000,0.000000,1773823375.251386,0.000000
134.000000,-7923.872223,-2416.022410,-7221.133378,2255.201609,-10133.051590,14004.999579,-10380.686567,-14832.952897,6966.234084,9695.002102,-8832.962374,12829.878966,12858.668012,8437.157683,-101.029885,-3128.014878,0.294000,-0.196000,0.944000,192.000000,0.000000,0.000000,0.000000,0.000000,0.000000,0.000000,0.000000,0.000000,0.000000,1773823375.251403,0.000000
136.000000,-7920.251241,-2412.669648,-7212.639715,2260.856600,-10122.769788,14017.650666,-10373.355195,-14826.582650,6982.483802,9721.645382,-8797.601914,12861.350222,12898.543525,8453.697974,-111.870481,-3162.749489,0.294000,-0.196000,0.944000,192.000000,0.000000,0.000000,0.000000,0.000000,0.000000,0.000000,0.000000,0.000000,0.000000,1773823375.251420,0.000000
138.000000,-7936.411552,-2430.975727,-7237.047820,2239.398925,-10145.836788,13992.929637,-10401.071358,-14850.499016,6975.778279,9701.841736,-8826.726237,12838.283222,12867.608710,8454.167361,-94.190251,-3123.030439,0.294000,-0.196000,0.944000,192.000000,0.000000,0.000000,0.000000,0.000000,0.000000,0.000000,0.000000,0.000000,0.000000,1773823375.251438,0.000000
140.000000,-7913.880994,-2402.857232,-7199.563944,2277.598057,-10108.487023,14034.012143,-10360.413535,-14815.317370,6989.681064,9723.277059,-8806.922592,12857.237501,12891.390966,8455.173189,-104.561461,-3152.199465,0.298000,-0.196000,0.948000,192.000000,4.500000,40.000000,124.500000,112.000000,14.500000,80.000000,0.000000,0.000000,0.000000,1773823375.251455,0.000000
142.000000,-7941.753619,-2427.824131,-7231.370477,2248.719603,-10142.126398,14002.295018,-10393.695282,-14842.899423,6984.540163,9728.328553,-8800.597048,12862.020774,12900.219905,8473.009881,-105.544937,-3150.076050,0.298000,-0.196000,0.948000,192.000000,0.000000,0.000000,0.000000,0.000000,0.000000,0.000000,0.000000,0.000000,0.000000,1773823375.251471,0.000000
144.000000,-7930.778912,-2417.698791,-7214.830186,2263.471754,-10125.273183,14018.164756,-10378.920779,-14829.622487,6976.806459,9708.413149,-8827.240327,12839.803140,12870.782658,8443.170302,-96.783053,-3127.679602,0.298000,-0.196000,0.948000,192.000000,0.000000,0.000000,0.000000,0.000000,0.000000,0.000000,0.000000,0.000000,0.000000,1773823375.251489,0.000000
146.000000,-7930.913023,-2414.010753,-7211.231555,2269.216152,-10122.143939,14024.982038,-10371.432945,-14825.263897,6988.742291,9735.928146,-8793.489193,12871.810838,12903.595019,8471.758183,-113.837435,-3162.257750,0.298000,-0.196000,0.948000,192.000000,0.000000,0.000000,0.000000,0.000000,0.000000,0.000000,0.000000,0.000000,0.000000,1773823375.251507,0.000000
148.000000,-7947.207445,-2434.239082,-7237.472503,2244.808047,-10145.590919,13998.539924,-10400.579619,-14850.901348,6973.029014,9715.029265,-8828.335563,12844.161730,12865.395888,8447.104209,-98.884117,-3118.716552,0.298000,-0.196000,0.948000,192.000000,0.000000,0.000000,0.000000,0.000000,0.000000,0.000000,0.000000,0.000000,0.000000,1773823375.251523,0.000000
150.000000,-7922.173491,-2405.539442,-7200.547421,2279.676769,-10106.564773,14041.768198,-10359.832389,-14816.971399,6990.441023,9725.579289,-8809.448339,12856.611652,12885.668920,8464.493867,-104.539109,-3144.085782,0.296000,-0.196000,0.953000,192.000000,4.500000,24.000000,124.500000,112.000000,14.500000,120.000000,0.000000,0.000000,0.000000,1773823375.251540,0.000000
152.000000,-7949.174398,-2434.060268,-7231.012849,2246.685594,-10145.568567,14010.073425,-10392.801212,-14845.827502,6981.187401,9731.815425,-8805.581487,12861.037297,12888.351129,8470.171210,-107.109559,-3139.615433,0.296000,-0.196000,0.953000,192.000000,0.000000,0.000000,0.000000,0.000000,0.000000,0.000000,0.000000,0.000000,0.000000,1773823375.251558,0.000000
154.000000,-7952.236587,-2434.440247,-7218.182947,2259.359033,-10126.569584,14014.074387,-10379.904256,-14839.703124,6975.219485,9704.456890,-8833.431760,12833.544652,12864.412411,8444.913738,-103.957963,-3120.616450,0.296000,-0.196000,0.953000,192.000000,0.000000,0.000000,0.000000,0.000000,0.000000,0.000000,0.000000,0.000000,0.000000,1773823375.251579,0.000000
156.000000,-7947.855645,-2430.595747,-7211.343314,2263.181181,-10117.941811,14020.444634,-10372.505828,-14835.322182,6977.119383,9728.932050,-8805.000342,12856.499893,12896.084833,8470.372375,-106.081379,-3157.675643,0.296000,-0.196000,0.953000,192.000000,0.000000,0.000000,0.000000,0.000000,0.000000,0.000000,0.000000,0.000000,0.000000,1773823375.251597,0.000000
158.000000,-7978.365776,-2456.188495,-7240.042953,2235.777943,-10147.736686,13993.801355,-10400.981951,-14862.993641,6965.675290,9697.594905,-8838.147979,12825.207451,12861.618443,8445.696049,-92.938553,-3120.124712,0.296000,-0.196000,0.953000,192.000000,0.000000,0.000000,0.000000,0.000000,0.000000,0.000000,0.000000,0.000000,0.000000,1773823375.251614,0.000000
160.000000,-7944.458180,-2418.257584,-7199.519241,2269.462022,-10107.034160,14034.593288,-10361.151142,-14823.699275,6973.408994,9716.906812,-8821.294763,12842.820626,12881.153867,8451.038116,-101.901603,-3144.644576,0.296000,-0.195000,0.951500,192.000000,4.500000,32.000000,124.500000,120.000000,14.500000,88.000000,0.000000,0.000000,0.000000,1773823375.251632,0.000000
162.000000,-7972.353157,-2441.682213,-7231.705753,2237.879007,-10140.226500,14002.518535,-10393.203544,-14851.773066,6975.688872,9724.796978,-8811.370589,12850.464922,12889.692234,8465.499695,-99.867594,-3145.113962,0.296000,-0.195000,0.951500,192.000000,0.000000,0.000000,0.000000,0.000000,0.000000,0.000000,0.000000,0.000000,0.000000,1773823375.251649,0.000000
164.000000,-7962.853666,-2429.299346,-7219.188776,2253.301710,-10116.667761,14020.332875,-10378.607855,-14838.540833,6964.401241,9707.183803,-8840.450208,12831.175367,12859.070344,8440.085762,-91.619801,-3123.633936,0.296000,-0.195000,0.951500,192.000000,0.000000,0.000000,0.000000,0.000000,0.000000,0.000000,0.000000,0.000000,0.000000,1773823375.251666,0.000000
166.000000,-7954.047078,-2420.135131,-7210.695113,2259.180219,-10105.670703,14033.922736,-10369.734212,-14829.421321,6980.293331,9735.838739,-8804.016865,12859.606786,12899.303484,8487.382053,-107.221318,-3160.067279,0.296000,-0.195000,0.951500,192.000000,0.000000,0.000000,0.000000,0.000000,0.000000,0.000000,0.000000,0.000000,0.000000,1773823375.251684,0.000000
168.000000,-7978.142259,-2441.168122,-7238.523035,2239.980071,-10138.483064,14003.278494,-10397.271561,-14854.321164,6968.849238,9714.448120,-8835.733990,12832.181195,12872.168466,8471.780535,-90.122234,-3121.264651,0.296000,-0.195000,0.951500,192.000000,0.000000,0.000000,0.000000,0.000000,0.000000,0.000000,0.000000,0.000000,0.000000,1773823375.251702,0.000000
170.000000,-7947.363907,-2409.674514,-7197.284066,2277.151022,-10107.950581,14033.051018,-10357.507808,-14819.497147,6975.890038,9729.401437,-8818.925478,12848.229748,12884.104298,8460.537608,-104.248536,-3148.980814,0.295000,-0.193500,0.951750,192.000000,4.500000,24.000000,125.000000,0.000000,14.500000,96.000000,0.000000,0.000000,0.000000,1773823375.251718,0.000000
172.000000,-7974.700090,-2436.049573,-7229.068247,2247.065574,-10148.384887,13993.019044,-10388.666140,-14848.442656,6981.321511,9730.183748,-8809.470690,12851.783675,12894.408452,8460.559959,-108.227147,-3151.551265,0.295000,-0.193500,0.951750,192.000000,0.000000,0.000000,0.000000,0.000000,0.000000,0.000000,0.000000,0.000000,0.000000,1773823375.251736,0.000000
174.000000,-7959.612663,-2415.463616,-7213.332619,2264.544638,-10134.347991,14013.403835,-10371.432945,-14832.349400,6971.866724,9715.968039,-8833.431760,12832.427064,12866.357013,8453.854436,-104.270888,-3131.926433,0.295000,-0.193500,0.951750,192.000000,0.000000,0.000000,0.000000,0.000000,0.000000,0.000000,0.000000,0.000000,0.000000,1773823375.251754,0.000000
176.000000,-7951.297814,-2408.266355,-7204.101348,2266.399833,-10121.451035,14019.170585,-10365.085049,-14823.319295,6989.681064,9740.778475,-8795.724368,12862.668975,12906.456042,8469.813582,-113.748028,-3167.599817,0.295000,-0.193500,0.951750,192.000000,0.000000,0.000000,0.000000,0.000000,0.000000,0.000000,0.000000,0.000000,0.000000,1773823375.251770,0.000000
178.000000,-7976.868209,-2431.959204,-7229.805855,2239.711850,-10143.892186,13993.466078,-10393.851744,-14849.604946,6980.427442,9717.376198,-8822.457054,12835.601012,12878.002271,8449.674660,-91.284524,-3126.182035,0.295000,-0.193500,0.951750,192.000000,0.000000,0.000000,0.000000,0.000000,0.000000,0.000000,0.000000,0.000000,0.000000,1773823375.731455,0.000000
180.000000,-7946.626299,-2398.632753,-7195.898258,2275.921676,-10105.089558,14035.375599,-10358.826561,-14819.072463,6989.658712,9730.787245,-8811.080016,12851.113123,12897.247123,8455.217893,-99.331152,-3150.366622,0.295500,-0.195750,0.951875,192.000000,4.500000,32.000000,124.500000,104.000000,14.500000,96.000000,0.000000,0.000000,0.000000,1773823375.731527,0.000000
182.000000,-7980.958579,-2434.082619,-7229.515282,2242.885797,-10136.158483,13998.584628,-10393.941151,-14853.605909,6985.233067,9730.384914,-8808.330751,12853.840036,12902.388025,8461.051698,-97.453606,-3140.867131,0.295500,-0.195750,0.951875,192.000000,0.000000,0.000000,0.000000,0.000000,0.000000,0.000000,0.000000,0.000000,0.000000,1773823375.731590,0.000000
184.000000,-7968.955692,-2421.073904,-7215.344276,2256.229789,-10112.957372,14015.281381,-10379.434869,-14841.066580,6972.425517,9704.143966,-8836.873929,12825.162748,12875.990614,8434.609584,-80.980370,-3118.358924,0.295500,-0.195750,0.951875,192.000000,0.000000,0.000000,0.000000,0.000000,0.000000,0.000000,0.000000,0.000000,0.000000,1773823375.731650,0.000000
186.000000,-7964.641805,-2416.178872,-7209.152843,2262.153001,-10111.705674,14021.808090,-10370.293006,-14834.249298,6985.568343,9733.111827,-8802.854574,12851.828379,12916.827252,8473.948654,-98.772359,-3154.769916,0.295500,-0.195750,0.951875,192.000000,0.000000,0.000000,0.000000,0.000000,0.000000,0.000000,0.000000,0.000000,0.000000,1773823375.731709,0.000000
188.000000,-7988.267599,-2437.100105,-7235.594956,2237.968414,-10139.488892,13997.422337,-10399.752605,-14857.450409,6973.431346,9707.966114,-8832.291822,12827.487329,12880.192742,8441.136294,-84.422539,-3116.995468,0.295500,-0.195750,0.951875,192.000000,0.000000,0.000000,0.000000,0.000000,0.000000,0.000000,0.000000,0.000000,0.000000,1773823375.731764,0.000000
190.000000,-7955.544645,-2399.795043,-7195.406520,2276.838097,-10095.523011,14043.399876,-10358.044250,-14816.971399,6982.930837,9727.814463,-8813.918688,12843.982916,12899.236429,8461.297567,-90.256344,-3142.476456,0.294750,-0.194875,0.953938,192.000000,4.500000,24.000000,124.500000,120.000000,14.500000,112.000000,0.000000,0.000000,0.000000,1773823375.731785,0.000000
192.000000,-7984.132526,-2425.231329,-7227.235404,2246.953815,-10129.721180,14010.006369,-10392.957675,-14845.536929,6989.010512,9737.917452,-8805.380321,12853.862387,12910.524060,8478.597817,-92.200946,-3141.895311,0.294750,-0.194875,0.953938,192.000000,0.000000,0.000000,0.000000,0.000000,0.000000,0.000000,0.000000,0.000000,0.000000,1773823375.731803,0.000000
194.000000,-7965.960558,-2406.969953,-7211.209203,2265.796335,-10110.275162,14026.971343,-10375.322148,-14826.672057,6978.996930,9717.867937,-8831.598917,12830.907146,12880.215094,8450.434619,-84.601353,-3120.236471,0.294750,-0.194875,0.953938,192.000000,0.000000,0.000000,0.000000,0.000000,0.000000,0.000000,0.000000,0.000000,0.000000,1773823375.731818,0.000000
196.000000,-7962.361927,-2402.834881,-7203.475500,2270.803126,-10109.805776,14028.558317,-10366.515561,-14819.675961,6998.644113,9750.479132,-8791.566943,12866.245254,12920.358827,8483.783422,-104.404998,-3156.178076,0.294750,-0.194875,0.953938,192.000000,0.000000,0.000000,0.000000,0.000000,0.000000,0.000000,0.000000,0.000000,0.000000,1773823375.731836,0.000000
198.000000,-7987.105308,-2428.070000,-7231.325773,2241.499989,-10146.194416,13992.817878,-10394.142317,-14844.955783,6981.276808,9717.242088,-8824.602821,12834.930460,12883.299635,8447.104209,-89.541088,-3122.069314,0.294750,-0.194875,0.953938,192.000000,0.000000,0.000000,0.000000,0.000000,0.000000,0.000000,0.000000,0.000000,0.000000,1773823375.731852,0.000000
200.000000,-7951.364869,-2390.943753,-7195.160651,2277.642760,-10111.258639,14027.284268,-10354.155046,-14807.516612,6992.385625,9733.357696,-8805.380321,12847.447437,12897.068309,8473.568675,-104.159129,-3152.646500,0.295375,-0.192438,0.952969,192.000000,4.500000,32.000000,125.000000,8.000000,14.500000,96.000000,0.000000,0.000000,0.000000,1773823375.731869,0.000000
202.000000,-7978.052852,-2417.899956,-7226.430741,2247.289091,-10148.049611,13993.667244,-10385.872172,-14835.165719,6995.671331,9740.197330,-8796.976065,12853.638870,12904.779661,8469.411250,-105.209661,-3144.868093,0.295375,-0.192438,0.952969,192.000000,0.000000,0.000000,0.000000,0.000000,0.000000,0.000000,0.000000,0.000000,0.000000,1773823375.731886,0.000000
204.000000,-7972.844895,-2413.809587,-7212.729122,2255.067498,-10127.798930,14005.759538,-10374.405727,-14826.672057,6980.606256,9712.481166,-8826.301554,12828.694323,12871.676728,8451.999241,-91.150414,-3123.097494,0.295375,-0.192438,0.952969,192.000000,0.000000,0.000000,0.000000,0.000000,0.000000,0.000000,0.000000,0.000000,0.000000,1773823375.731901,0.000000
206.000000,-7963.121887,-2402.521956,-7203.877831,2261.750670,-10115.706636,14020.981076,-10365.174456,-14818.916001,6996.431291,9740.867882,-8793.936228,12859.696193,12909.831156,8468.651291,-102.169824,-3158.010919,0.295375,-0.192438,0.952969,192.000000,0.000000,0.000000,0.000000,0.000000,0.000000,0.000000,0.000000,0.000000,0.000000,1773823375.731917,0.000000
208.000000,-7989.966332,-2428.897015,-7231.504587,2233.743934,-10142.305212,13992.370843,-10394.634055,-14848.643821,6982.640264,9717.286791,-8825.139263,12833.008210,12876.460001,8444.086724,-86.389492,-3117.397799,0.295375,-0.192438,0.952969,192.000000,0.000000,0.000000,0.000000,0.000000,0.000000,0.000000,0.000000,0.000000,0.000000,1773823375.731934,0.000000
210.000000,-7956.505770,-2393.402445,-7190.578543,2273.150059,-10095.143031,14038.124864,-10354.847950,-14812.702216,6990.865706,9731.927184,-8810.409464,12841.814797,12894.542562,8463.309224,-94.749045,-3139.078991,0.295375,-0.192438,0.952969,192.000000,0.000000,0.000000,0.000000,0.000000,0.000000,0.000000,0.000000,0.000000,0.000000,1773823375.731950,0.000000
212.000000,-7983.126698,-2420.470407,-7222.273317,2244.450419,-10128.156558,14005.580724,-10386.498020,-14841.580670,6996.341884,9742.477207,-8799.747682,12850.040239,12910.009969,8468.204256,-91.552745,-3134.251015,0.300000,-0.186000,0.950000,192.000000,4.500000,48.000000,125.000000,24.000000,14.500000,88.000000,0.000000,0.000000,0.000000,1773823375.731965,0.000000
214.000000,-7958.428020,-2400.800872,-7202.626133,2264.410527,-10105.916572,14023.819747,-10368.169590,-14820.391216,6989.636360,9720.818367,-8824.245194,12829.789559,12881.287978,8448.355907,-80.846260,-3115.073218,0.300000,-0.186000,0.950000,192.000000,0.000000,0.000000,0.000000,0.000000,0.000000,0.000000,0.000000,0.000000,0.000000,1773823375.731980,0.000000
216.000000,-7947.363907,-2386.562811,-7194.423043,2272.613617,-10103.860212,14031.508748,-10356.949014,-14808.343626,7007.450701,9757.989318,-8782.380376,12867.675765,12922.549298,8493.059396,-99.889946,-3153.004128,0.300000,-0.186000,0.950000,192.000000,0.000000,0.000000,0.000000,0.000000,0.000000,0.000000,0.000000,0.000000,0.000000,1773823375.731996,0.000000
218.000000,-7973.113116,-2410.322715,-7223.659125,2244.986861,-10137.834863,13998.003483,-10385.559247,-14834.092836,6993.346750,9729.490844,-8814.052798,12842.865329,12888.842867,8458.682413,-90.636324,-3117.576613,0.300000,-0.186000,0.950000,192.000000,0.000000,0.000000,0.000000,0.000000,0.000000,0.000000,0.000000,0.000000,0.000000,1773823375.732020,0.000000
220.000000,-7941.261881,-2379.678473,-7184.789441,2280.436728,-10102.608514,14034.235660,-10345.057886,-14798.352396,7002.779186,9742.253690,-8797.959542,12856.432838,12909.093548,8474.149820,-101.879251,-3142.901140,0.300000,-0.186000,0.950000,192.000000,0.000000,0.000000,0.000000,0.000000,0.000000,0.000000,0.000000,0.000000,0.000000,1773823375.732037,0.000000
222.000000,-7969.514486,-2407.796968,-7218.853500,2250.105411,-10139.623003,13995.388328,-10377.669081,-14829.175452,7004.299105,9748.668641,-8791.321074,12864.166542,12912.759234,8480.497716,-101.208699,-3142.141180,0.294000,-0.190000,0.946000,192.000000,4.500000,24.000000,125.000000,8.000000,14.500000,72.000000,0.000000,0.000000,0.000000,1773823375.732053,0.000000
224.000000,-7957.891578,-2394.743549,-7204.123700,2264.835210,-10117.651238,14012.755634,-10363.676889,-14818.625429,6993.167936,9725.959268,-8819.618382,12837.523262,12882.494972,8456.938977,-91.731559,-3118.381276,0.294000,-0.190000,0.946000,192.000000,0.000000,0.000000,0.000000,0.000000,0.000000,0.000000,0.000000,0.000000,0.000000,1773823375.732069,0.000000
226.000000,-7949.822599,-2384.595857,-7197.619343,2269.730242,-10106.162442,14025.227907,-10357.932491,-14809.952952,7008.322419,9757.095248,-8785.509620,12866.446420,12921.007028,8485.124527,-105.544937,-3151.081878,0.294000,-0.190000,0.946000,192.000000,0.000000,0.000000,0.000000,0.000000,0.000000,0.000000,0.000000,0.000000,0.000000,1773823375.732087,0.000000
228.000000,-7977.292893,-2408.266355,-7226.855424,2242.841094,-10140.673535,13992.884933,-10389.001416,-14837.959687,6994.821965,9730.966059,-8817.159691,12841.770094,12887.658225,8461.655195,-90.077530,-3112.078084,0.294000,-0.190000,0.946000,192.000000,0.000000,0.000000,0.000000,0.000000,0.000000,0.000000,0.000000,0.000000,0.000000,1773823375.732101,0.000000
230.000000,-7944.301718,-2374.090537,-7188.186906,2278.805051,-10101.915610,14028.446559,-10349.148255,-14799.984074,7002.198041,9746.478170,-8801.357007,12857.818646,12903.505612,8477.770803,-99.353504,-3140.598910,0.294000,-0.190000,0.946000,192.000000,0.000000,0.000000,0.000000,0.000000,0.000000,0.000000,0.000000,0.000000,0.000000,1773823375.732115,0.000000
