Sample_index,EXG Channel 0,EXG Channel 1,EXG Channel 2,EXG Channel 3,EXG Channel 4,EXG Channel 5,EXG Channel 6,EXG Channel 7,EXG Channel 8,EXG Channel 9,EXG Channel 10,EXG Channel 11,EXG Channel 12,EXG Channel 13,EXG Channel 14,EXG Channel 15,Accel Channel 0,Accel Channel 1,Accel Channel 2,Not Used,Digital Channel 0 (D11),Digital Channel 1 (D12),Digital Channel 2 (D13),Digital Channel 3 (D17),Not Used,Digital Channel 4 (D18),Analog Channel 0,Analog Channel 1,Analog Channel 2,Timestamp,Marker Channel
90.000000,15706.906105,8110.889269,4462.615187,3786.765490,3568.299540,4161.268969,-18147.291916,-20676.637671,-12045.690363,-6816.745617,3938.712649,18750.163168,5553.648538,15479.231236,8345.493179,-4938.036792,-0.002000,-0.004000,1.004000,192.000000,0.000000,0.000000,0.000000,0.000000,0.000000,0.000000,0.000000,0.000000,0.000000,1771319070.852479,101.000000
92.000000,15633.815901,8038.648431,4384.920524,3713.652934,3501.512528,4079.707453,-18222.751406,-20750.063151,-11649.684507,-6419.398656,4335.769038,19147.353667,5952.157790,15872.666642,8744.091838,-4543.483799,-0.002000,-0.004000,1.004000,192.000000,0.000000,0.000000,0.000000,0.000000,0.000000,0.000000,0.000000,0.000000,0.000000,1771319070.852534,0.000000
94.000000,15461.595710,7862.762554,4210.375751,3536.202435,3320.150473,3899.954724,-18399.039614,-20926.060787,-12061.381288,-6837.935071,3918.752541,18731.275944,5536.392991,15460.723991,8362.100525,-4963.584836,-0.002000,-0.010000,1.004000,192.000000,127.500000,120.000000,127.500000,88.000000,15.500000,48.000000,0.000000,0.000000,0.000000,1771319070.852578,0.000000
96.000000,15817.279019,8218.490567,4572.898695,3896.132576,3677.197239,4267.082127,-18038.103645,-20567.918786,-11744.053572,-6524.518910,4235.789685,19043.440407,5850.345594,15763.456018,8612.417711,-4648.089963,-0.002000,-0.010000,1.004000,192.000000,0.000000,0.000000,0.000000,0.000000,0.000000,0.000000,0.000000,0.000000,0.000000,1771319070.852619,0.000000
98.000000,15410.141994,7812.828757,4163.414736,3491.186022,3269.389661,3861.465020,-18443.899565,-20970.808979,-11817.903735,-6591.641199,4167.102774,18976.899263,5782.284532,15703.530991,8606.025112,-4716.888632,-0.002000,-0.010000,1.004000,192.000000,0.000000,0.000000,0.000000,0.000000,0.000000,0.000000,0.000000,0.000000,0.000000,1771319070.852657,0.000000
100.000000,15702.346349,8106.128348,4454.680318,3785.759662,3558.509476,4163.124164,-18154.623288,-20679.342232,-12041.331773,-6816.633858,3942.400687,18755.862863,5557.828314,15480.080602,8345.560234,-4940.294318,-0.002000,-0.010000,1.004000,192.000000,0.000000,0.000000,0.000000,0.000000,0.000000,0.000000,0.000000,0.000000,0.000000,1771319070.852698,0.000000
102.000000,15662.850817,8062.743612,4407.920469,3735.937623,3515.549423,4108.787073,-18201.874876,-20721.676436,-11640.855568,-6415.822377,4340.753477,19154.662687,5953.118915,15877.136991,8736.224024,-4548.825866,-0.002000,-0.010000,1.004000,192.000000,0.000000,0.000000,0.000000,0.000000,0.000000,0.000000,0.000000,0.000000,0.000000,1771319070.852732,0.000000
104.000000,15442.104988,7846.982222,4190.549754,3519.125702,3299.050426,3891.416358,-18418.195059,-20940.388255,-12043.589299,-6819.941916,3938.332670,18751.839549,5554.542608,15471.989271,8373.231694,-4957.549865,0.001000,-0.010000,1.005000,192.000000,0.000000,16.000000,127.500000,88.000000,15.500000,56.000000,0.000000,0.000000,0.000000,1771319070.852746,0.000000
106.000000,15818.754234,8221.552756,4576.653788,3901.876974,3679.655931,4276.648674,-18033.320371,-20558.843977,-11756.369383,-6527.961079,4225.865510,19045.966154,5842.209559,15763.344260,8597.844374,-4660.025795,0.001000,-0.010000,1.005000,192.000000,0.000000,0.000000,0.000000,0.000000,0.000000,0.000000,0.000000,0.000000,0.000000,1771319070.852758,0.000000
108.000000,15399.144936,7804.022170,4157.580931,3483.877001,3264.047595,3857.307596,-18451.499158,-20974.027631,-11831.024209,-6602.884126,4155.658681,18973.322984,5771.309825,15690.052890,8592.681121,-4730.433790,0.001000,-0.010000,1.005000,192.000000,0.000000,0.000000,0.000000,0.000000,0.000000,0.000000,0.000000,0.000000,0.000000,1771319070.852770,0.000000
110.000000,15692.712747,8090.884458,4451.193446,3775.947246,3554.195589,4152.082402,-18162.222882,-20683.834932,-12031.966392,-6809.704817,3951.721364,18763.328345,5567.126640,15486.830829,8349.717659,-4935.868673,0.001000,-0.010000,1.005000,192.000000,0.000000,0.000000,0.000000,0.000000,0.000000,0.000000,0.000000,0.000000,0.000000,1771319070.852782,0.000000
112.000000,15652.703125,8056.775696,4415.140082,3745.884150,3525.115970,4119.046523,-18193.425917,-20717.161383,-11651.025611,-6429.434589,4327.118913,19141.005771,5946.860426,15868.486866,8723.639992,-4562.773354,0.001000,-0.010000,1.005000,192.000000,0.000000,0.000000,0.000000,0.000000,0.000000,0.000000,0.000000,0.000000,0.000000,1771319070.852795,0.000000
114.000000,15427.710465,7831.112484,4204.877222,3535.665993,3313.959040,3909.655381,-18400.604236,-20932.118110,-12040.393000,-6803.043998,3949.374431,18769.743296,5568.221875,15498.856068,8391.470717,-4928.626708,0.001500,-0.010000,1.002500,192.000000,0.000000,8.000000,127.500000,88.000000,15.500000,32.000000,0.000000,0.000000,0.000000,1771319070.852807,0.000000
116.000000,15788.937007,8196.563506,4575.044462,3909.878899,3686.540268,4280.850802,-18032.202784,-20565.258928,-11762.404354,-6524.317744,4227.161911,19048.044866,5849.607986,15778.811667,8607.992066,-4644.223111,0.001500,-0.010000,1.002500,192.000000,0.000000,0.000000,0.000000,0.000000,0.000000,0.000000,0.000000,0.000000,0.000000,1771319070.852818,0.000000
118.000000,15380.972967,7785.894905,4158.564408,3497.042179,3283.605371,3863.141401,-18447.945231,-20977.313337,-11841.306012,-6599.397254,4146.472114,18971.020755,5774.573180,15701.340521,8596.726787,-4724.935260,0.001500,-0.010000,1.002500,192.000000,0.000000,0.000000,0.000000,0.000000,0.000000,0.000000,0.000000,0.000000,0.000000,1771319070.852830,0.000000
120.000000,15678.966424,8082.010815,4458.860094,3792.576944,3575.742671,4179.843268,-18149.415332,-20678.448162,-12044.416314,-6808.587230,3937.975042,18761.741371,5567.014881,15494.989216,8353.718621,-4932.471208,0.001500,-0.010000,1.002500,192.000000,0.000000,0.000000,0.000000,0.000000,0.000000,0.000000,0.000000,0.000000,0.000000,1771319070.852842,0.000000
122.000000,15636.006371,8044.526940,4428.372315,3764.033766,3545.813685,4153.870541,-18173.868140,-20708.511258,-11626.304582,-6382.451222,4360.467715,19186.469220,5991.161584,15922.868660,8772.500905,-4507.162214,0.001500,-0.010000,1.002500,192.000000,0.000000,0.000000,0.000000,0.000000,0.000000,0.000000,0.000000,0.000000,0.000000,1771319070.852854,0.000000
124.000000,15368.187769,7775.099012,4162.431259,3497.802138,3276.631627,3880.754576,-18438.222222,-20976.195750,-12089.589189,-6845.177036,3901.966381,18728.392569,5536.862378,15466.669556,8367.397889,-4955.068821,0.001750,-0.010000,1.007250,192.000000,0.000000,8.000000,127.500000,88.000000,15.500000,80.000000,0.000000,0.000000,0.000000,1771319070.852866,0.000000
126.000000,15786.746536,8193.098985,4575.290331,3912.538756,3686.987303,4289.858555,-18028.782967,-20562.464960,-11792.489802,-6549.686974,4199.915135,19022.742691,5823.814073,15762.092562,8590.825926,-4665.367861,0.001750,-0.010000,1.007250,192.000000,0.000000,0.000000,0.000000,0.000000,0.000000,0.000000,0.000000,0.000000,0.000000,1771319070.852878,0.000000
128.000000,15366.779610,7774.897847,4152.216512,3492.482423,3269.300254,3870.897457,-18451.275641,-20982.521293,-11840.523701,-6590.054225,4150.897759,18979.022679,5778.775308,15715.444471,8605.287505,-4717.872109,0.001750,-0.010000,1.007250,192.000000,0.000000,0.000000,0.000000,0.000000,0.000000,0.000000,0.000000,0.000000,0.000000,1771319070.852890,0.000000
130.000000,15655.966479,8060.843713,4442.990356,3774.248513,3556.654281,4157.960911,-18163.452228,-20694.742584,-12050.630099,-6804.362751,3940.769010,18764.088305,5566.076108,15503.527582,8357.071383,-4928.850225,0.001750,-0.010000,1.007250,192.000000,0.000000,0.000000,0.000000,0.000000,0.000000,0.000000,0.000000,0.000000,0.000000,1771319070.852902,0.000000
132.000000,15634.754674,8039.453094,4420.035114,3762.089165,3531.732086,4130.781189,-18179.389021,-20713.071014,-11679.322920,-6435.424857,4316.144206,19137.205975,5936.042182,15869.693860,8729.473797,-4551.217503,0.001750,-0.010000,1.007250,192.000000,0.000000,0.000000,0.000000,0.000000,0.000000,0.000000,0.000000,0.000000,0.000000,1771319070.852914,0.000000
134.000000,15416.556944,7823.915222,4195.690655,3540.628080,3305.443025,3905.117977,-18403.711129,-20934.621505,-12048.014945,-6801.948762,3945.619338,18772.291395,5564.131506,15503.259361,8398.287999,-4922.815254,0.002875,-0.010000,1.010625,192.000000,0.000000,16.000000,127.500000,88.000000,15.500000,88.000000,0.000000,0.000000,0.000000,1771319070.852926,0.000000
136.000000,15807.556010,8213.148500,4583.649884,3927.112094,3696.531498,4298.553383,-18017.875316,-20545.879966,-11776.374194,-6524.720076,4216.075446,19048.491901,5834.051172,15777.694080,8594.782185,-4654.639024,0.002875,-0.010000,1.010625,192.000000,0.000000,0.000000,0.000000,0.000000,0.000000,0.000000,0.000000,0.000000,0.000000,1771319070.852939,0.000000
138.000000,15409.918476,7814.505138,4185.565315,3523.640755,3305.711246,3903.888631,-18416.138699,-20945.059770,-11800.983465,-6551.139838,4188.806318,19023.480299,5811.364151,15752.704829,8632.221357,-4681.684635,0.002875,-0.010000,1.010625,192.000000,0.000000,0.000000,0.000000,0.000000,0.000000,0.000000,0.000000,0.000000,0.000000,1771319070.852951,0.000000
140.000000,15677.491209,8082.100222,4457.094307,3793.113386,3576.413223,4175.864658,-18144.788521,-20678.112886,-12042.538767,-6796.852564,3946.602815,18777.476999,5570.769974,15508.646132,8363.307519,-4917.875519,0.002875,-0.010000,1.010625,192.000000,0.000000,0.000000,0.000000,0.000000,0.000000,0.000000,0.000000,0.000000,0.000000,1771319070.852963,0.000000
142.000000,15650.289136,8057.602710,4429.400495,3767.073604,3551.021642,4139.207797,-18173.778733,-20706.700767,-11650.578576,-6400.243211,4339.680593,19170.890054,5965.010043,15900.047529,8752.563149,-4522.271993,0.002875,-0.010000,1.010625,192.000000,0.000000,0.000000,0.000000,0.000000,0.000000,0.000000,0.000000,0.000000,0.000000,1771319070.852975,0.000000
144.000000,15393.601703,7802.770472,4170.880219,3505.267621,3287.852202,3884.688483,-18436.210565,-20967.210349,-12067.907997,-6811.112977,3924.407533,18755.706400,5546.697145,15485.400317,8384.184049,-4940.741353,0.000437,-0.009000,1.009313,192.000000,127.500000,120.000000,127.500000,96.000000,15.500000,64.000000,0.000000,0.000000,0.000000,1771319070.852987,0.000000
146.000000,15800.202286,8201.123262,4576.899657,3910.191823,3691.859983,4291.937267,-18032.180432,-20562.576719,-11784.778450,-6539.606338,4203.223193,19032.912735,5824.372867,15760.662050,8590.803574,-4665.591379,0.000437,-0.009000,1.009313,192.000000,0.000000,0.000000,0.000000,0.000000,0.000000,0.000000,0.000000,0.000000,0.000000,1771319070.852999,0.000000
148.000000,15422.569564,7828.139702,4197.948181,3534.056668,3319.971659,3912.292887,-18408.181478,-20940.768235,-11800.447023,-6553.710288,4186.705254,19017.400624,5814.560451,15745.529919,8636.378781,-4682.019911,0.000437,-0.009000,1.009313,192.000000,0.000000,0.000000,0.000000,0.000000,0.000000,0.000000,0.000000,0.000000,0.000000,1771319070.853010,0.000000
150.000000,15664.907177,8068.331548,4441.872769,3778.405938,3560.364671,4163.101812,-18165.441533,-20701.470459,-12047.925538,-6798.148966,3939.517312,18769.497427,5568.445393,15506.165088,8367.263778,-4918.344905,0.000437,-0.009000,1.009313,192.000000,0.000000,0.000000,0.000000,0.000000,0.000000,0.000000,0.000000,0.000000,0.000000,1771319070.853022,0.000000
152.000000,15620.360150,8022.868100,4395.179974,3732.897786,3511.548461,4108.250631,-18213.095452,-20746.464520,-11667.878827,-6426.126531,4317.105331,19145.856100,5948.715621,15878.165171,8738.503902,-4542.612081,0.000437,-0.009000,1.009313,192.000000,0.000000,0.000000,0.000000,0.000000,0.000000,0.000000,0.000000,0.000000,0.000000,1771319070.853034,0.000000
154.000000,15407.526840,7814.371027,4177.205763,3510.967316,3289.819156,3886.677788,-18430.108539,-20960.594232,-12074.390003,-6826.647440,3910.907079,18745.446950,5537.465875,15470.223483,8368.962511,-4957.594568,0.000437,-0.009000,1.009313,192.000000,0.000000,0.000000,127.500000,88.000000,15.500000,80.000000,0.000000,0.000000,0.000000,1771319070.853048,0.000000
156.000000,15809.880592,8215.093102,4575.849125,3906.816710,3685.467385,4280.113194,-18030.995790,-20560.587413,-11787.147735,-6539.159303,4199.915135,19030.386988,5826.071599,15748.569757,8587.115537,-4671.916923,0.000437,-0.009000,1.009313,192.000000,0.000000,0.000000,0.000000,0.000000,0.000000,0.000000,0.000000,0.000000,0.000000,1771319070.853060,0.000000
158.000000,15397.066223,7804.268039,4155.256349,3492.527126,3266.998025,3875.546619,-18447.140568,-20976.352212,-11824.631610,-6572.776326,4162.610073,18994.490086,5787.112509,15717.992570,8610.473110,-4709.065522,0.000437,-0.009000,1.009313,192.000000,0.000000,0.000000,0.000000,0.000000,0.000000,0.000000,0.000000,0.000000,0.000000,1771319070.853072,0.000000
160.000000,15685.314320,8086.302350,4449.405307,3783.055101,3563.315101,4167.192181,-18156.970222,-20691.009842,-12055.726296,-6808.430768,3930.151931,18759.483845,5554.788477,15489.825963,8342.855673,-4936.315708,0.000437,-0.009000,1.009313,192.000000,0.000000,0.000000,0.000000,0.000000,0.000000,0.000000,0.000000,0.000000,0.000000,1771319070.853084,0.000000
162.000000,15649.663287,8055.591053,4415.162434,3752.097935,3529.742781,4130.401210,-18189.916693,-20722.101119,-11647.471684,-6397.896278,4339.792352,19170.867702,5964.563008,15898.348796,8752.786666,-4521.310868,0.000437,-0.009000,1.009313,192.000000,0.000000,0.000000,0.000000,0.000000,0.000000,0.000000,0.000000,0.000000,0.000000,1771319070.853096,0.000000
164.000000,15418.658008,7825.233975,4181.139670,3516.756417,3295.921182,3889.650570,-18424.028864,-20954.983944,-12062.342413,-6811.694123,3926.553300,18760.221453,5548.641747,15480.706451,8381.099508,-4936.338059,-0.002781,-0.005500,1.007656,192.000000,127.500000,104.000000,127.500000,120.000000,15.500000,56.000000,0.000000,0.000000,0.000000,1771319070.853108,0.000000
166.000000,15834.691028,8235.567300,4591.294180,3927.872053,3711.060132,4307.248212,-18014.075519,-20545.455282,-11775.949511,-6526.709381,4209.928716,19042.993372,5832.844178,15766.920539,8596.615028,-4653.029698,-0.002781,-0.005500,1.007656,192.000000,0.000000,0.000000,0.000000,0.000000,0.000000,0.000000,0.000000,0.000000,0.000000,1771319070.853121,0.000000
168.000000,15390.248941,7794.790899,4143.834608,3479.339597,3271.960112,3859.520419,-18460.931594,-20987.505732,-11824.050465,-6572.373995,4165.113469,18996.233522,5791.158174,15722.351160,8620.732560,-4701.801205,-0.002781,-0.005500,1.007656,192.000000,0.000000,0.000000,0.000000,0.000000,0.000000,0.000000,0.000000,0.000000,0.000000,1771319070.853134,0.000000
170.000000,15698.613608,8102.574420,4450.433487,3786.452566,3571.406433,4158.184428,-18157.283146,-20680.593929,-12060.800142,-6816.902079,3923.379352,18756.399304,5548.462933,15475.297329,8338.698249,-4949.056202,-0.002781,-0.005500,1.007656,192.000000,0.000000,0.000000,0.000000,0.000000,0.000000,0.000000,0.000000,0.000000,0.000000,1771319070.853146,0.000000
172.000000,15674.317261,8076.959321,4425.868920,3755.316586,3543.086772,4128.546015,-18184.306405,-20707.505430,-11636.318163,-6394.811737,4348.330718,19179.339013,5967.848714,15886.524723,8758.106382,-4532.889072,-0.002781,-0.005500,1.007656,192.000000,0.000000,0.000000,0.000000,0.000000,0.000000,0.000000,0.000000,0.000000,0.000000,1771319070.853158,0.000000
174.000000,15418.009808,7818.997838,4171.014329,3498.495042,3286.064063,3869.422241,-18437.618725,-20965.824540,-12054.027564,-6814.130463,3931.090704,18759.260328,5552.307433,15469.798800,8387.581514,-4948.028022,-0.002781,-0.005500,1.007656,192.000000,0.000000,0.000000,0.000000,0.000000,0.000000,0.000000,0.000000,0.000000,0.000000,1771319070.853171,0.000000
176.000000,15808.204211,8210.600401,4562.639244,3896.490204,3676.191411,4280.984912,-18046.910232,-20576.814780,-11787.661825,-6549.306995,4194.930696,19021.245124,5818.047323,15737.729161,8585.126231,-4676.409623,-0.006000,-0.006000,1.004000,192.000000,127.500000,104.000000,127.500000,104.000000,15.500000,48.000000,0.000000,0.000000,0.000000,1771319070.853184,0.000000
178.000000,15448.966974,7853.553635,4192.516707,3534.280185,3314.271964,3914.125730,-18413.680007,-20938.644819,-11805.543221,-6559.007652,4179.910324,19012.237371,5803.764558,15732.185928,8626.186386,-4693.016969,-0.006000,-0.006000,1.004000,192.000000,0.000000,0.000000,0.000000,0.000000,0.000000,0.000000,0.000000,0.000000,0.000000,1771319070.853196,0.000000
180.000000,15695.260846,8094.594848,4441.626899,3779.948208,3558.308310,4158.698518,-18167.095562,-20695.055508,-12042.538767,-6797.232544,3940.210216,18773.051354,5562.231608,15493.290483,8360.044165,-4932.404152,-0.006000,-0.006000,1.004000,192.000000,0.000000,0.000000,0.000000,0.000000,0.000000,0.000000,0.000000,0.000000,0.000000,1771319070.853207,0.000000
182.000000,15692.042195,8094.103109,4440.330498,3780.685816,3555.804915,4152.551788,-18165.620347,-20695.971930,-11633.010105,-6388.888525,4351.147038,19181.350670,5972.676691,15899.108755,8759.514542,-4521.176758,-0.006000,-0.006000,1.004000,192.000000,0.000000,0.000000,0.000000,0.000000,0.000000,0.000000,0.000000,0.000000,0.000000,1771319070.853219,0.000000
184.000000,15418.412139,7822.931745,4168.689748,3511.369647,3286.108766,3887.303637,-18436.054103,-20969.914910,-12035.922651,-6786.794279,3948.033327,18778.907511,5574.569771,15501.895905,8405.082930,-4918.568423,-0.006000,-0.006000,1.004000,192.000000,0.000000,0.000000,0.000000,0.000000,0.000000,0.000000,0.000000,0.000000,0.000000,1771319070.853230,0.000000
186.000000,15836.814444,8239.724724,4585.236858,3923.893443,3705.271030,4299.648619,-18024.424377,-20553.703076,-11791.618084,-6545.328384,4189.834498,19018.719377,5813.889899,15744.948774,8575.693795,-4677.035472,-0.006000,-0.006000,1.004000,192.000000,0.000000,0.000000,127.500000,104.000000,15.500000,64.000000,0.000000,0.000000,0.000000,1771319070.853241,0.000000
188.000000,15443.870776,7847.965699,4184.358321,3523.953679,3310.293354,3897.876012,-18424.364141,-20947.987848,-11781.716261,-6535.314803,4199.155176,19030.185822,5823.523500,15750.424951,8642.793732,-4674.912056,-0.006000,-0.006000,1.004000,192.000000,0.000000,0.000000,0.000000,0.000000,0.000000,0.000000,0.000000,0.000000,0.000000,1771319070.853252,0.000000
190.000000,15697.048986,8100.741577,4438.631766,3773.756775,3556.900150,4149.824876,-18171.498856,-20694.474363,-12034.112160,-6789.029454,3944.881731,18779.019270,5563.505657,15497.760832,8358.881874,-4933.141760,-0.006000,-0.006000,1.004000,192.000000,0.000000,0.000000,0.000000,0.000000,0.000000,0.000000,0.000000,0.000000,0.000000,1771319070.853264,0.000000
192.000000,15680.285177,8087.196420,4430.383972,3763.497324,3548.652357,4133.999840,-18178.137324,-20703.973854,-11642.911928,-6399.282086,4339.010041,19171.426495,5956.739897,15884.736584,8744.069486,-4542.992061,-0.006000,-0.006000,1.004000,192.000000,0.000000,0.000000,0.000000,0.000000,0.000000,0.000000,0.000000,0.000000,0.000000,1771319070.853275,0.000000
194.000000,15417.540421,7823.982277,4172.690710,3504.530013,3292.255496,3885.001407,-18436.232917,-20967.143293,-12058.632023,-6813.459911,3926.061562,18759.014459,5545.601910,15477.420745,8383.938179,-4952.319557,-0.006000,-0.006000,1.004000,192.000000,0.000000,0.000000,0.000000,0.000000,0.000000,0.000000,0.000000,0.000000,0.000000,1771319070.853287,0.000000
196.000000,15831.159452,8236.886053,4586.801480,3922.395876,3710.099007,4306.287087,-18022.569182,-20555.670030,-11773.535523,-6528.944555,4209.526385,19038.523023,5836.509864,15764.394792,8605.443967,-4657.611806,0.002000,-0.008000,1.006000,192.000000,0.000000,8.000000,127.500000,96.000000,15.500000,56.000000,0.000000,0.000000,0.000000,1771319070.853298,0.000000
198.000000,15412.824203,7821.300068,4163.235922,3499.009132,3291.003798,3877.982960,-18445.486539,-20973.759410,-11800.357616,-6551.206893,4183.218382,19016.305389,5811.498262,15738.444416,8638.211624,-4687.294923,0.002000,-0.008000,1.006000,192.000000,0.000000,0.000000,0.000000,0.000000,0.000000,0.000000,0.000000,0.000000,0.000000,1771319070.853309,0.000000
200.000000,15672.529122,8082.837830,4429.847530,3761.552723,3551.289863,4125.684992,-18180.819533,-20713.562752,-12081.162582,-6832.995335,3900.021780,18732.281772,5527.362886,15453.370268,8327.097693,-4975.945351,0.002000,-0.008000,1.006000,192.000000,0.000000,0.000000,0.000000,0.000000,0.000000,0.000000,0.000000,0.000000,0.000000,1771319070.853320,0.000000
202.000000,15705.386186,8116.991295,4463.553961,3801.987028,3583.230505,4172.780117,-18141.771035,-20675.497732,-11632.026628,-6379.210219,4353.337509,19185.351632,5978.666959,15904.853154,8770.980986,-4519.433322,0.002000,-0.008000,1.006000,192.000000,0.000000,0.000000,0.000000,0.000000,0.000000,0.000000,0.000000,0.000000,0.000000,1771319070.853332,0.000000
204.000000,15406.833936,7819.757798,4157.402117,3499.567926,3277.771566,3877.334759,-18446.626478,-20975.078163,-12037.554328,-6780.155811,3950.983757,18787.088250,5573.698053,15507.617951,8411.631991,-4920.893004,0.002000,-0.008000,1.006000,192.000000,0.000000,0.000000,0.000000,0.000000,0.000000,0.000000,0.000000,0.000000,0.000000,1771319070.853343,0.000000
206.000000,15814.842679,8224.950221,4567.757793,3905.453253,3689.691864,4285.075281,-18041.590517,-20568.879911,-11809.499479,-6553.039736,4176.244638,19012.393834,5799.763596,15734.063474,8564.026185,-4693.307542,0.002000,-0.002000,1.002000,192.000000,0.000000,8.000000,127.500000,120.000000,15.500000,40.000000,0.000000,0.000000,0.000000,1771319070.853354,0.000000
208.000000,15430.482081,7838.667373,4177.764556,3514.945926,3303.051389,3888.242410,-18430.220298,-20955.028648,-11802.346921,-6550.715154,4180.402062,19015.120747,5807.162023,15734.622268,8629.181520,-4693.843984,0.002000,-0.002000,1.002000,192.000000,0.000000,0.000000,0.000000,0.000000,0.000000,0.000000,0.000000,0.000000,0.000000,1771319070.853366,0.000000
210.000000,15688.197695,8096.897077,4441.515141,3775.679025,3560.208209,4141.510027,-18166.514417,-20695.077860,-12047.031468,-6801.904059,3932.118885,18764.580043,5557.090706,15487.076698,8351.081115,-4943.647080,0.002000,-0.002000,1.002000,192.000000,0.000000,0.000000,0.000000,0.000000,0.000000,0.000000,0.000000,0.000000,0.000000,1771319071.333447,0.000000
212.000000,15700.357044,8108.676447,4455.306167,3791.101729,3576.614389,4159.167905,-18153.304536,-20680.638633,-11635.200576,-6389.827298,4348.598939,19177.349708,5972.855505,15894.169020,8756.675870,-4529.335145,0.002000,-0.002000,1.002000,192.000000,0.000000,0.000000,0.000000,0.000000,0.000000,0.000000,0.000000,0.000000,0.000000,1771319071.333517,0.000000
214.000000,15416.624000,7825.524548,4165.806373,3505.491138,3289.215659,3878.228829,-18441.954963,-20966.182168,-12020.030560,-6772.064480,3963.299568,18792.430316,5589.120756,15514.390530,8418.158700,-4915.305068,0.002000,-0.002000,1.002000,192.000000,0.000000,0.000000,0.000000,0.000000,0.000000,0.000000,0.000000,0.000000,0.000000,1771319071.333567,0.000000
216.000000,15833.618144,8242.272823,4579.425404,3916.405608,3702.253545,4290.350293,-18030.861679,-20553.859538,-11792.176878,-6547.049468,4189.387463,19013.243200,5810.067750,15739.249079,8569.457658,-4685.283266,0.002000,-0.006000,1.010000,192.000000,0.000000,8.000000,127.500000,104.000000,15.500000,72.000000,0.000000,0.000000,0.000000,1771319071.333619,0.000000
218.000000,15427.308134,7833.437065,4170.857867,3509.246231,3294.758891,3883.526192,-18434.802405,-20959.320183,-11790.992235,-6543.361431,4191.130899,19019.009950,5816.125073,15741.864233,8632.936613,-4689.261876,0.002000,-0.006000,1.010000,192.000000,0.000000,0.000000,0.000000,0.000000,0.000000,0.000000,0.000000,0.000000,0.000000,1771319071.333687,0.000000
220.000000,15669.735154,8078.613350,4425.667754,3760.457487,3545.992499,4132.703439,-18182.317100,-20711.305226,-12078.301558,-6834.135274,3904.022742,18734.047560,5523.741904,15458.377058,8323.990801,-4973.374900,0.002000,-0.006000,1.010000,192.000000,0.000000,0.000000,0.000000,0.000000,0.000000,0.000000,0.000000,0.000000,0.000000,1771319071.333721,0.000000
222.000000,15697.451317,8104.161394,4446.454876,3785.714958,3569.506534,4149.422544,-18161.440571,-20689.132296,-11629.143253,-6386.049853,4353.158695,19182.535312,5975.023624,15900.651026,8764.297815,-4524.104836,0.002000,-0.006000,1.010000,192.000000,0.000000,0.000000,0.000000,0.000000,0.000000,0.000000,0.000000,0.000000,0.000000,1771319071.333738,0.000000
224.000000,15443.468445,7858.761592,4183.643065,3526.188854,3306.806482,3891.304599,-18420.407882,-20941.461139,-12017.705979,-6766.253026,3963.768955,18797.750032,5578.414271,15517.430367,8412.749578,-4916.176786,0.002000,-0.006000,1.010000,192.000000,0.000000,0.000000,0.000000,0.000000,0.000000,0.000000,0.000000,0.000000,0.000000,1771319071.333755,0.000000
226.000000,15868.218645,8275.688681,4610.404922,3944.635861,3726.527539,4315.808930,-17998.071670,-20521.158936,-11770.562741,-6511.554898,4213.706161,19050.749427,5825.155178,15766.674670,8589.685987,-4670.262893,0.006000,-0.008000,1.006000,192.000000,0.000000,24.000000,127.500000,96.000000,15.500000,56.000000,0.000000,0.000000,0.000000,1771319071.333773,0.000000
228.000000,15445.524805,7851.363164,4192.315542,3524.803045,3307.655848,3891.394006,-18416.183402,-20942.332857,-11751.988441,-6507.486881,4226.826635,19058.617241,5841.717820,15773.469600,8660.161037,-4664.429088,0.006000,-0.008000,1.006000,192.000000,0.000000,0.000000,0.000000,0.000000,0.000000,0.000000,0.000000,0.000000,0.000000,1771319071.333790,0.000000
230.000000,15675.792477,8086.123536,4427.947632,3762.536199,3546.014851,4134.223358,-18182.160638,-20710.232343,-12060.576625,-6812.521137,3921.971193,18755.371124,5538.806980,15473.240968,8335.345487,-4960.477943,0.006000,-0.008000,1.006000,192.000000,0.000000,0.000000,0.000000,0.000000,0.000000,0.000000,0.000000,0.000000,0.000000,1771319071.333807,0.000000
232.000000,15685.001395,8094.661903,4432.999126,3768.146487,3557.235427,4142.381745,-18178.517303,-20704.107965,-11636.988716,-6389.693187,4342.988651,19175.226292,5965.121802,15894.616055,8745.254129,-4535.705392,0.006000,-0.008000,1.006000,192.000000,0.000000,0.000000,0.000000,0.000000,0.000000,0.000000,0.000000,0.000000,0.000000,1771319071.333825,0.000000
234.000000,15418.300381,7825.256327,4165.784021,3501.289010,3290.266191,3876.574800,-18444.637173,-20971.613642,-12035.497968,-6787.218963,3944.501751,18777.767572,5569.473573,15498.632550,8397.438633,-4931.264213,0.006000,-0.008000,1.006000,192.000000,0.000000,0.000000,0.000000,0.000000,0.000000,0.000000,0.000000,0.000000,0.000000,1771319071.333842,0.000000
236.000000,15836.233298,8245.916157,4593.395244,3931.873015,3716.201033,4308.656372,-18017.204764,-20549.545652,-11803.732729,-6547.563559,4180.580876,19010.940970,5804.233945,15740.321963,8570.977577,-4689.798318,0.004000,-0.014000,1.006000,192.000000,0.000000,16.000000,127.500000,72.000000,15.500000,56.000000,0.000000,0.000000,0.000000,1771319071.333859,0.000000
238.000000,15418.523898,7827.580908,4173.450669,3516.801121,3299.273944,3889.739977,-18433.014266,-20965.466912,-11768.774601,-6516.472282,4215.024914,19047.284907,5842.008393,15777.962301,8664.787849,-4652.135629,0.004000,-0.014000,1.006000,192.000000,0.000000,0.000000,0.000000,0.000000,0.000000,0.000000,0.000000,0.000000,0.000000,1771319071.333876,0.000000
240.000000,15660.637994,8072.108993,4412.167300,3755.405993,3535.710697,4126.936689,-18194.498801,-20723.352817,-12104.453099,-6852.754277,3878.541753,18712.522830,5501.479566,15443.200224,8301.326132,-4991.591572,0.004000,-0.014000,1.006000,192.000000,0.000000,0.000000,0.000000,0.000000,0.000000,0.000000,0.000000,0.000000,0.000000,1771319071.333893,0.000000
242.000000,15726.620344,8138.292508,4475.847420,3812.894680,3605.738712,4181.989036,-18132.785634,-20657.750447,-11621.566012,-6364.614530,4364.580436,19196.639263,5989.395796,15923.136881,8770.511600,-4510.291458,0.004000,-0.014000,1.006000,192.000000,0.000000,0.000000,0.000000,0.000000,0.000000,0.000000,0.000000,0.000000,0.000000,1771319071.333910,0.000000
244.000000,15439.266317,7855.319423,4183.620713,3518.902185,3312.506177,3889.069425,-18422.531298,-20950.178319,-12001.053929,-6745.063573,3986.053644,18816.301980,5611.651315,15534.574155,8443.483227,-4893.534469,0.004000,-0.014000,1.006000,192.000000,0.000000,0.000000,0.000000,0.000000,0.000000,0.000000,0.000000,0.000000,0.000000,1771319071.333927,0.000000
246.000000,15829.147795,8236.796646,4578.084299,3918.596079,3700.107777,4291.177308,-18026.458386,-20555.535919,-11799.843526,-6548.971718,4186.861716,19016.461851,5806.580878,15736.924498,8577.236066,-4686.356149,0.003000,-0.013000,1.006000,192.000000,0.000000,8.000000,127.500000,80.000000,15.500000,56.000000,0.000000,0.000000,0.000000,1771319071.333944,0.000000
248.000000,15429.208032,7846.065801,4174.568257,3519.215109,3301.978505,3882.185087,-18426.956943,-20952.525252,-11802.145756,-6538.466399,4189.700388,19031.079892,5806.737340,15747.742742,8637.406962,-4681.751690,0.003000,-0.013000,1.006000,192.000000,0.000000,0.000000,0.000000,0.000000,0.000000,0.000000,0.000000,0.000000,0.000000,1771319071.333961,0.000000
250.000000,15702.011073,8109.637572,4449.539417,3785.267924,3571.629950,4157.916207,-18157.931347,-20683.410249,-12054.228730,-6801.054692,3931.135408,18771.531435,5546.875959,15481.377003,8350.209397,-4944.317632,0.003000,-0.013000,1.006000,192.000000,0.000000,0.000000,0.000000,0.000000,0.000000,0.000000,0.000000,0.000000,0.000000,1771319071.333983,0.000000
252.000000,15711.801137,8118.175938,4454.546208,3787.011360,3576.457927,4164.197047,-18152.879852,-20678.716383,-11628.472701,-6384.932266,4355.706794,19192.392432,5974.867162,15904.920209,8762.621434,-4520.014467,0.003000,-0.013000,1.006000,192.000000,0.000000,0.000000,0.000000,0.000000,0.000000,0.000000,0.000000,0.000000,0.000000,1771319071.334002,0.000000
254.000000,15418.121567,7823.378780,4164.286454,3496.416330,3282.465432,3866.851791,-18442.223184,-20971.166607,-12007.602991,-6763.235541,3978.990493,18808.545924,5592.920553,15524.024132,8429.222814,-4905.045617,0.003000,-0.013000,1.006000,192.000000,0.000000,0.000000,0.000000,0.000000,0.000000,0.000000,0.000000,0.000000,0.000000,1771319071.334022,0.000000
0.000000,15840.413075,8247.816056,4582.465241,3922.686448,3700.532460,4295.088863,-18023.820880,-20551.490253,-11813.254573,-6572.061070,4175.328216,19003.900171,5785.614942,15714.818622,8559.287615,-4702.337647,0.002500,-0.011500,1.006000,192.000000,0.000000,8.000000,127.500000,88.000000,15.500000,56.000000,0.000000,0.000000,0.000000,1771319071.334039,0.000000
2.000000,15452.722067,7860.840304,4183.643065,3530.368630,3310.718037,3908.135463,-18420.273771,-20945.327991,-11785.583113,-6536.834721,4203.022027,19037.204270,5813.308753,15750.201434,8642.994898,-4675.582609,0.002500,-0.011500,1.006000,192.000000,0.000000,0.000000,0.000000,0.000000,0.000000,0.000000,0.000000,0.000000,0.000000,1771319071.334067,0.000000
4.000000,15694.076204,8097.791147,4426.874748,3767.833563,3550.239331,4148.394364,-18179.478428,-20706.097270,-12054.832227,-6807.201422,3930.017821,18765.340002,5541.355078,15486.920236,8344.085019,-4944.205874,0.002500,-0.011500,1.006000,192.000000,0.000000,0.000000,0.000000,0.000000,0.000000,0.000000,0.000000,0.000000,0.000000,1771319071.334085,0.000000
6.000000,15750.000268,8156.665642,4485.704540,3821.053066,3608.689142,4198.015237,-18120.134547,-20644.786435,-11612.692370,-6367.006167,4371.554181,19206.608141,5982.802031,15915.514936,8768.902274,-4506.066979,0.002500,-0.011500,1.006000,192.000000,0.000000,0.000000,0.000000,0.000000,0.000000,0.000000,0.000000,0.000000,0.000000,1771319071.334102,0.000000
8.000000,15426.861099,7833.101789,4159.369070,3496.326923,3281.169031,3872.484430,-18441.887908,-20969.981965,-12001.009226,-6753.110201,3990.367531,18821.532288,5598.352027,15531.154338,8438.342325,-4889.466451,0.002500,-0.011500,1.006000,192.000000,0.000000,0.000000,0.000000,0.000000,0.000000,0.000000,0.000000,0.000000,0.000000,1771319071.334119,0.000000
10.000000,15856.886310,8264.289291,4593.082320,3929.861358,3714.167024,4297.636962,-18012.130918,-20540.694361,-11813.187517,-6566.428431,4176.758728,19007.923485,5780.854020,15717.590239,8553.520865,-4699.364865,0.003250,-0.010750,1.007000,192.000000,0.000000,16.000000,127.500000,88.000000,15.500000,64.000000,0.000000,0.000000,0.000000,1771319071.334137,0.000000
12.000000,15463.205035,7871.792659,4194.483661,3534.973089,3323.726752,3899.954724,-18409.589637,-20935.001485,-11760.862084,-6509.565593,4228.458313,19063.624032,5835.995774,15770.094486,8667.827686,-4650.973338,0.003250,-0.010750,1.007000,192.000000,0.000000,0.000000,0.000000,0.000000,0.000000,0.000000,0.000000,0.000000,0.000000,1771319071.334154,0.000000
14.000000,15682.699166,8092.896115,4415.654172,3756.747098,3539.242272,4135.095076,-18188.799106,-20715.194430,-12064.264663,-6811.202384,3921.680620,18760.199101,5531.453256,15472.659823,8339.011173,-4951.626653,0.003250,-0.010750,1.007000,192.000000,0.000000,0.000000,0.000000,0.000000,0.000000,0.000000,0.000000,0.000000,0.000000,1771319071.334172,0.000000
16.000000,15741.596012,8148.820180,4474.103984,3818.259098,3595.032226,4198.842251,-18126.683608,-20657.728095,-11633.993582,-6378.383205,4354.052765,19194.448792,5964.227732,15910.508145,8755.155951,-4514.113607,0.003250,-0.010750,1.007000,192.000000,0.000000,0.000000,0.000000,0.000000,0.000000,0.000000,0.000000,0.000000,0.000000,1771319071.334190,0.000000
18.000000,15425.631753,7837.706248,4164.644082,3505.379379,3288.366293,3883.615599,-18438.311629,-20969.736096,-12004.786671,-6752.506703,3981.627999,18821.219363,5593.836974,15536.809330,8435.950689,-4888.035940,0.003250,-0.010750,1.007000,192.000000,0.000000,0.000000,0.000000,0.000000,0.000000,0.000000,0.000000,0.000000,0.000000,1771319071.334207,0.000000
20.000000,15861.021383,8269.005509,4600.391340,3938.243263,3723.621812,4312.143244,-18008.532287,-20540.001457,-11799.374139,-6550.111657,4187.554620,19022.139194,5800.836480,15738.489120,8572.676310,-4684.255085,-0.000375,-0.012375,1.007500,192.000000,127.500000,112.000000,127.500000,72.000000,15.500000,64.000000,0.000000,0.000000,0.000000,1771319071.334224,0.000000
22.000000,15459.360535,7871.971473,4199.445748,3536.694173,3325.961927,3913.544585,-18408.986140,-20938.756578,-11766.450020,-6516.315820,4218.020048,19053.319878,5837.225120,15768.552216,8662.440915,-4656.516571,-0.000375,-0.012375,1.007500,192.000000,0.000000,0.000000,0.000000,0.000000,0.000000,0.000000,0.000000,0.000000,0.000000,1771319071.334242,0.000000
24.000000,15687.840067,8100.003970,4428.685239,3767.386528,3553.122706,4146.181541,-18178.204379,-20707.483078,-12056.508607,-6807.536698,3928.296736,18765.071781,5546.518331,15481.913445,8348.555368,-4944.518798,-0.000375,-0.012375,1.007500,192.000000,0.000000,0.000000,0.000000,0.000000,0.000000,0.000000,0.000000,0.000000,0.000000,1771319071.334259,0.000000
26.000000,15719.378378,8129.284755,4452.780420,3797.717845,3575.250933,4169.449707,-18148.118931,-20674.760124,-11626.014009,-6373.488173,4360.557122,19202.651882,5976.096508,15917.794814,8757.167608,-4511.386694,-0.000375,-0.012375,1.007500,192.000000,0.000000,0.000000,0.000000,0.000000,0.000000,0.000000,0.000000,0.000000,0.000000,1771319071.334278,0.000000
28.000000,15418.255677,7828.609088,4150.316614,3491.588353,3272.697720,3859.073384,-18450.672144,-20975.368735,-12022.310438,-6771.662148,3966.451164,18811.183430,5580.157707,15512.021245,8408.815671,-4912.555803,-0.000375,-0.012375,1.007500,192.000000,0.000000,0.000000,0.000000,0.000000,0.000000,0.000000,0.000000,0.000000,0.000000,1771319071.334296,0.000000
30.000000,15842.312973,8249.872416,4580.185363,3916.003277,3698.073768,4285.477613,-18028.805319,-20556.385285,-11820.720055,-6574.363300,4164.107640,19005.487145,5779.870543,15710.549439,8542.412048,-4716.061618,-0.000375,-0.012375,1.007500,192.000000,0.000000,0.000000,127.500000,88.000000,15.500000,72.000000,0.000000,0.000000,0.000000,1771319071.334314,0.000000
32.000000,15464.121457,7871.032699,4200.205708,3537.252967,3327.459494,3902.793396,-18408.650864,-20935.783796,-11767.858180,-6516.338172,4217.729475,19057.142026,5837.895672,15770.697984,8660.317500,-4657.343585,-0.000375,-0.012375,1.007500,192.000000,0.000000,0.000000,0.000000,0.000000,0.000000,0.000000,0.000000,0.000000,0.000000,1771319071.334332,0.000000
34.000000,15665.287157,8068.577417,4395.872879,3734.931795,3520.332696,4113.838567,-18213.117804,-20736.674456,-12072.333643,-6827.005068,3909.163643,18749.023229,5527.608756,15463.316794,8331.031600,-4964.210685,-0.000375,-0.012375,1.007500,192.000000,0.000000,0.000000,0.000000,0.000000,0.000000,0.000000,0.000000,0.000000,0.000000,1771319071.334349,0.000000
36.000000,15740.478425,8153.312880,4472.114679,3815.442779,3595.568668,4189.476870,-18132.048027,-20653.883595,-11638.329820,-6389.559077,4348.084849,19187.832676,5959.153886,15902.863849,8740.604966,-4530.340973,-0.000375,-0.012375,1.007500,192.000000,0.000000,0.000000,0.000000,0.000000,0.000000,0.000000,0.000000,0.000000,0.000000,1771319071.334366,0.000000
38.000000,15425.877622,7837.750952,4160.263140,3508.039237,3282.398377,3876.798317,-18442.245536,-20965.444561,-12003.333807,-6740.302651,3988.691150,18835.859756,5598.329675,15543.604260,8434.698991,-4883.386777,-0.000375,-0.012375,1.007500,192.000000,0.000000,0.000000,0.000000,0.000000,0.000000,0.000000,0.000000,0.000000,0.000000,1771319071.334383,0.000000
40.000000,15859.836740,8266.747983,4599.452567,3944.322937,3723.800626,4319.921651,-18007.749976,-20534.011189,-11814.238049,-6567.814239,4169.986149,19012.192668,5785.078500,15723.111120,8548.625833,-4696.526193,-0.000375,-0.012375,1.007500,192.000000,0.000000,0.000000,127.500000,96.000000,15.500000,80.000000,0.000000,0.000000,0.000000,1771319071.334400,0.000000
42.000000,15457.751209,7870.160981,4200.920963,3543.913787,3329.314688,3914.975097,-18403.375853,-20929.324142,-11750.580281,-6496.735692,4235.923795,19081.818352,5853.072507,15794.770812,8677.796564,-4630.119160,-0.000375,-0.012375,1.007500,192.000000,0.000000,0.000000,0.000000,0.000000,0.000000,0.000000,0.000000,0.000000,0.000000,1771319071.334418,0.000000
44.000000,15652.881939,8063.369461,4399.918544,3737.636356,3524.087790,4113.771512,-18206.568743,-20733.120529,-12068.980881,-6810.151852,3919.847777,18767.753991,5534.470741,15474.805590,8341.536920,-4951.872522,-0.000375,-0.012375,1.007500,192.000000,0.000000,0.000000,0.000000,0.000000,0.000000,0.000000,0.000000,0.000000,0.000000,1771319071.334435,0.000000
46.000000,15710.437681,8118.198290,4457.451935,3801.495290,3582.738767,4169.427355,-18144.274431,-20673.821351,-11663.766106,-6414.369513,4324.973145,19166.732629,5939.059667,15875.594720,8728.959707,-4542.299156,-0.000375,-0.012375,1.007500,192.000000,0.000000,0.000000,0.000000,0.000000,0.000000,0.000000,0.000000,0.000000,0.000000,1771319071.334452,0.000000
48.000000,15378.178999,7792.108690,4126.176730,3471.337673,3250.904769,3833.391229,-18472.330984,-21002.973140,-12029.664162,-6774.791393,3960.684414,18804.835535,5574.234494,15516.022207,8419.052770,-4902.989257,-0.000375,-0.012375,1.007500,192.000000,0.000000,0.000000,0.000000,0.000000,0.000000,0.000000,0.000000,0.000000,0.000000,1771319071.334470,0.000000
50.000000,15825.549164,8235.477893,4574.776241,3910.035361,3690.094196,4273.452374,-18031.040493,-20558.463998,-11850.000840,-6598.190260,4137.799637,18980.028508,5752.333194,15694.053852,8526.676420,-4729.427961,-0.000375,-0.012375,1.007500,192.000000,0.000000,0.000000,127.500000,96.000000,15.500000,56.000000,0.000000,0.000000,0.000000,1771319071.334487,0.000000
52.000000,15467.943605,7880.062804,4219.428208,3555.000252,3335.439066,3932.789437,-18387.304948,-20911.353339,-11770.048651,-6512.270154,4220.322278,19064.361640,5833.380620,15772.620234,8660.920997,-4652.135629,-0.000375,-0.012375,1.007500,192.000000,0.000000,0.000000,0.000000,0.000000,0.000000,0.000000,0.000000,0.000000,0.000000,1771319071.334504,0.000000
54.000000,15650.847930,8060.977824,4408.434559,3743.537217,3524.892452,4125.662640,-18200.757289,-20730.751244,-12065.270491,-6810.487129,3925.368658,18765.004726,5538.248186,15478.672442,8346.431952,-4944.094115,-0.000375,-0.012375,1.007500,192.000000,0.000000,0.000000,0.000000,0.000000,0.000000,0.000000,0.000000,0.000000,0.000000,1771319071.334522,0.000000
56.000000,15732.565908,8139.074819,4487.135051,3827.713886,3612.891270,4204.452539,-18122.302666,-20654.375333,-11638.396876,-6392.531859,4348.218959,19181.462429,5967.826363,15906.127203,8751.266748,-4515.901746,-0.000375,-0.012375,1.007500,192.000000,0.000000,0.000000,0.000000,0.000000,0.000000,0.000000,0.000000,0.000000,0.000000,1771319071.334539,0.000000
58.000000,15385.890351,7799.887097,4147.880274,3493.398844,3274.530563,3872.775003,-18457.265908,-20989.964424,-11996.807098,-6741.040259,3989.272295,18829.735378,5612.299515,15563.340850,8448.713535,-4870.869800,-0.000375,-0.012375,1.007500,192.000000,0.000000,0.000000,0.000000,0.000000,0.000000,0.000000,0.000000,0.000000,0.000000,1771319071.334558,0.000000
60.000000,15806.952513,8221.306887,4561.767526,3904.670942,3687.054358,4284.695302,-18044.987982,-20573.082039,-11864.261253,-6605.588687,4123.606279,18967.019792,5745.873540,15696.601951,8516.327562,-4732.601909,-0.000375,-0.012375,1.007500,192.000000,0.000000,0.000000,0.000000,0.000000,0.000000,0.000000,0.000000,0.000000,0.000000,1771319071.334576,0.000000
62.000000,15448.877567,7862.606092,4201.010370,3545.746630,3327.884177,3921.010068,-18404.269922,-20928.474775,-11773.937854,-6504.737616,4215.494301,19064.607509,5835.951070,15780.488048,8654.506046,-4647.464114,-0.004000,-0.012000,1.008000,192.000000,127.500000,112.000000,127.500000,80.000000,15.500000,64.000000,0.000000,0.000000,0.000000,1771319071.334593,0.000000
64.000000,15634.352342,8036.815588,4392.967152,3728.606251,3518.164577,4106.171919,-18216.984655,-20744.721084,-12087.823401,-6842.874806,3899.954724,18741.736560,5521.462026,15456.946547,8326.315382,-4960.232074,-0.004000,-0.012000,1.008000,192.000000,0.000000,0.000000,0.000000,0.000000,0.000000,0.000000,0.000000,0.000000,0.000000,1771319071.334610,0.000000
66.000000,15713.589277,8123.518005,4474.282798,3812.827624,3604.710532,4195.958876,-18135.423140,-20664.992412,-11647.628146,-6401.785481,4339.166503,19176.433286,5965.434726,15898.058223,8744.695335,-4520.617964,-0.004000,-0.012000,1.008000,192.000000,0.000000,0.000000,0.000000,0.000000,0.000000,0.000000,0.000000,0.000000,0.000000,1771319071.334628,0.000000
68.000000,15367.405458,7777.065966,4128.478960,3466.956731,3256.269187,3849.395078,-18480.489371,-21012.830259,-12034.760360,-6782.346282,3953.218931,18791.983282,5581.990550,15517.810347,8419.097474,-4904.509175,-0.004000,-0.012000,1.008000,192.000000,0.000000,0.000000,0.000000,0.000000,0.000000,0.000000,0.000000,0.000000,0.000000,1771319071.334646,0.000000
70.000000,15835.294525,8243.770390,4593.954038,3933.504693,3720.492568,4315.786578,-18015.550734,-20549.411541,-11835.025172,-6578.431318,4152.842361,18993.551313,5777.903590,15719.423082,8542.456751,-4704.148138,-0.004000,-0.012000,1.008000,192.000000,0.000000,0.000000,0.000000,0.000000,0.000000,0.000000,0.000000,0.000000,0.000000,1771319071.334663,0.000000
72.000000,15433.007828,7845.708173,4192.203783,3534.056668,3324.062028,3914.662172,-18413.903524,-20948.345476,-11781.738613,-6520.517948,4205.883051,19048.804825,5834.542910,15778.297577,8659.669299,-4651.353318,-0.002000,-0.014000,1.010000,192.000000,127.500000,120.000000,127.500000,72.000000,15.500000,72.000000,0.000000,0.000000,0.000000,1771319071.334680,0.000000
74.000000,15643.136578,8051.388925,4407.451082,3741.011469,3536.314194,4129.641250,-18203.931237,-20739.669590,-12081.386099,-6830.938975,3901.474643,18740.663676,5530.559186,15471.653995,8333.378534,-4953.303034,-0.002000,-0.014000,1.010000,192.000000,0.000000,0.000000,0.000000,0.000000,0.000000,0.000000,0.000000,0.000000,0.000000,1771319071.813574,0.000000
76.000000,15712.404634,8119.517043,4476.652083,3814.705171,3608.242107,4196.629428,-18133.523242,-20671.362659,-11646.599966,-6393.716501,4338.004212,19175.807437,5970.553275,15906.060148,8750.529140,-4515.365304,-0.002000,-0.014000,1.010000,192.000000,0.000000,0.000000,0.000000,0.000000,0.000000,0.000000,0.000000,0.000000,0.000000,1771319071.813637,0.000000
78.000000,15373.328671,7779.904637,4132.658736,3472.611722,3263.332339,3857.218189,-18475.996670,-21011.779727,-12015.582563,-6766.744765,3968.261655,18806.713081,5602.107120,15537.479882,8436.800055,-4885.487841,-0.002000,-0.014000,1.010000,192.000000,0.000000,0.000000,0.000000,0.000000,0.000000,0.000000,0.000000,0.000000,0.000000,1771319071.813683,0.000000
80.000000,15833.372275,8240.194111,4590.668331,3932.297699,3717.698600,4317.641773,-18019.037607,-20552.697248,-11848.257404,-6598.749053,4132.994012,18973.747668,5765.453668,15704.514468,8528.241042,-4717.894461,-0.002000,-0.014000,1.010000,192.000000,0.000000,0.000000,0.000000,0.000000,0.000000,0.000000,0.000000,0.000000,0.000000,1771319071.813724,0.000000
82.000000,15456.991250,7868.484601,4217.707123,3555.536694,3345.966738,3935.561053,-18392.535256,-20922.640970,-11749.194473,-6497.629761,4235.096781,19077.929148,5867.019995,15801.990426,8684.390328,-4619.837358,0.002000,-0.008000,1.006000,192.000000,0.000000,8.000000,127.500000,96.000000,15.500000,56.000000,0.000000,0.000000,0.000000,1771319071.813768,0.000000
84.000000,15627.602116,8039.274280,4385.211096,3719.531443,3511.190833,4105.411959,-18226.618257,-20754.086465,-12087.733994,-6832.324783,3896.691370,18740.797787,5526.111189,15461.461599,8324.393132,-4964.680071,0.002000,-0.008000,1.006000,192.000000,0.000000,0.000000,0.000000,0.000000,0.000000,0.000000,0.000000,0.000000,0.000000,1771319071.813808,0.000000
86.000000,15714.237477,8121.796921,4470.997092,3809.519566,3602.207136,4193.142556,-18139.535861,-20666.378220,-11654.110152,-6405.115891,4331.253985,19169.057211,5960.405583,15891.933846,8730.121998,-4529.066924,0.002000,-0.008000,1.006000,192.000000,0.000000,0.000000,0.000000,0.000000,0.000000,0.000000,0.000000,0.000000,0.000000,1771319071.813844,0.000000
88.000000,15369.417115,7781.156335,4118.174805,3462.419327,3252.134115,3849.238616,-18490.257083,-21014.283122,-12011.961581,-6760.508628,3972.642597,18813.373901,5599.871945,15538.083379,8429.066352,-4883.990274,0.002000,-0.008000,1.006000,192.000000,0.000000,0.000000,0.000000,0.000000,0.000000,0.000000,0.000000,0.000000,0.000000,1771319071.813857,0.000000
90.000000,15850.650174,8258.790762,4599.921954,3943.004184,3730.953184,4316.725351,-18011.750938,-20537.140433,-11851.856035,-6592.579972,4132.971660,18976.988670,5757.317633,15697.540724,8517.132225,-4720.934298,0.002000,-0.008000,1.006000,192.000000,0.000000,0.000000,0.000000,0.000000,0.000000,0.000000,0.000000,0.000000,0.000000,1771319071.813877,0.000000
92.000000,15490.652977,7896.781909,4239.857702,3578.424880,3369.771346,3956.325824,-18371.770486,-20896.064746,-11724.048760,-6474.071023,4259.035499,19100.906742,5885.527240,15815.826156,8698.136651,-4606.091035,0.004000,-0.010000,1.012000,192.000000,0.000000,16.000000,127.500000,88.000000,15.500000,80.000000,0.000000,0.000000,0.000000,1771319071.813890,0.000000
94.000000,15625.545755,8029.886547,4374.772832,3712.289478,3498.919725,4096.292448,-18236.855356,-20760.881395,-12068.444439,-6820.701876,3915.578594,18751.459569,5539.343421,15479.097125,8335.189025,-4957.393403,0.004000,-0.010000,1.012000,192.000000,0.000000,0.000000,0.000000,0.000000,0.000000,0.000000,0.000000,0.000000,0.000000,1771319071.813902,0.000000
96.000000,15726.083902,8137.689011,4473.746356,3816.448607,3599.435520,4194.260144,-18134.841995,-20655.157644,-11648.410457,-6391.816603,4340.418201,19181.015394,5960.070307,15901.433337,8734.748809,-4530.564491,0.004000,-0.010000,1.012000,192.000000,0.000000,0.000000,0.000000,0.000000,0.000000,0.000000,0.000000,0.000000,0.000000,1771319071.813915,0.000000
98.000000,15398.630845,7806.927896,4141.241806,3482.446490,3265.656920,3855.698270,-18465.893682,-20985.270558,-12015.224935,-6760.128648,3972.575542,18816.592552,5593.121719,15525.722864,8422.941974,-4899.681199,0.004000,-0.010000,1.012000,192.000000,0.000000,0.000000,0.000000,0.000000,0.000000,0.000000,0.000000,0.000000,0.000000,1771319071.813927,0.000000
100.000000,15830.935935,8241.021125,4579.805384,3912.538756,3699.504280,4278.056834,-18031.286363,-20551.110274,-11835.159282,-6584.600399,4151.545960,18991.316139,5768.448802,15700.222933,8527.034047,-4730.545548,0.004000,-0.010000,1.012000,192.000000,0.000000,0.000000,0.000000,0.000000,0.000000,0.000000,0.000000,0.000000,0.000000,1771319071.813939,0.000000
102.000000,15465.194340,7872.843191,4215.807225,3551.111049,3338.747125,3918.260803,-18392.848181,-20916.069557,-11746.311098,-6497.026264,4242.651670,19081.840704,5861.744983,15789.629911,8675.516686,-4640.847998,0.004000,-0.010000,1.012000,192.000000,0.000000,0.000000,127.500000,80.000000,15.500000,72.000000,0.000000,0.000000,0.000000,1771319071.813952,0.000000
104.000000,15618.035569,8026.600841,4368.894323,3705.651010,3490.046083,4079.394529,-18239.291696,-20767.117532,-12098.842811,-6847.434562,3889.739977,18730.024246,5512.342514,15447.625869,8312.636115,-4980.818031,0.004000,-0.010000,1.012000,192.000000,0.000000,0.000000,0.000000,0.000000,0.000000,0.000000,0.000000,0.000000,0.000000,1771319071.813964,0.000000
106.000000,15734.890489,8141.734677,4486.531554,3826.551596,3610.745503,4191.823803,-18119.531050,-20649.502653,-11644.990640,-6394.901144,4345.022660,19180.836580,5965.680595,15896.985340,8739.755599,-4526.719991,0.004000,-0.010000,1.012000,192.000000,0.000000,0.000000,0.000000,0.000000,0.000000,0.000000,0.000000,0.000000,0.000000,1771319071.813977,0.000000
108.000000,15391.120659,7801.272905,4141.130047,3487.140356,3266.282769,3871.255084,-18462.362106,-20993.898331,-12001.120985,-6744.683593,3986.321865,18828.550736,5609.997286,15547.359353,8442.432695,-4873.082623,0.004000,-0.010000,1.012000,192.000000,0.000000,0.000000,0.000000,0.000000,0.000000,0.000000,0.000000,0.000000,0.000000,1771319071.813989,0.000000
110.000000,15829.617182,8240.551739,4578.665445,3923.200539,3702.432359,4306.555308,-18027.240697,-20557.033486,-11852.660698,-6600.000751,4131.362335,18973.457095,5754.635424,15696.937227,8514.047684,-4725.069371,0.004000,-0.010000,1.012000,192.000000,0.000000,0.000000,0.000000,0.000000,0.000000,0.000000,0.000000,0.000000,0.000000,1771319071.814001,0.000000
112.000000,15473.464486,7884.019063,4216.634240,3565.527924,3344.983261,3945.529931,-18385.583864,-20914.236714,-11742.868929,-6485.783337,4242.785781,19085.707555,5864.248379,15808.494783,8676.254293,-4616.641059,0.004000,-0.010000,1.012000,192.000000,0.000000,0.000000,127.500000,80.000000,15.500000,72.000000,0.000000,0.000000,0.000000,1771319071.814013,0.000000
114.000000,15615.755691,8025.080922,4360.914750,3708.176757,3486.246286,4082.523773,-18242.040961,-20769.933852,-12095.825326,-6839.656155,3890.835213,18735.768644,5509.995581,15455.761904,8307.003475,-4974.939522,0.004000,-0.010000,1.012000,192.000000,0.000000,0.000000,0.000000,0.000000,0.000000,0.000000,0.000000,0.000000,0.000000,1771319071.814026,0.000000
116.000000,15740.679591,8153.715212,4487.760900,3834.039430,3616.042866,4200.384522,-18115.418329,-20641.210156,-11650.489169,-6393.627094,4339.568834,19185.463391,5952.850694,15898.661721,8729.451445,-4526.988212,0.004000,-0.010000,1.012000,192.000000,0.000000,0.000000,0.000000,0.000000,0.000000,0.000000,0.000000,0.000000,0.000000,1771319071.814039,0.000000
118.000000,15381.710575,7794.366216,4125.394419,3469.907161,3252.178818,3838.062744,-18475.393173,-21000.112116,-11994.661331,-6734.804122,3994.368493,18845.292192,5605.884565,15555.450684,8445.338422,-4875.340149,0.004000,-0.010000,1.012000,192.000000,0.000000,0.000000,0.000000,0.000000,0.000000,0.000000,0.000000,0.000000,0.000000,1771319071.814051,0.000000
120.000000,15808.137156,8221.351590,4556.179590,3898.323047,3676.861963,4265.271636,-18046.262031,-20572.143265,-11887.015329,-6630.287365,4102.461529,18950.501853,5712.524737,15659.095724,8480.810640,-4769.325825,0.004000,-0.010000,1.012000,192.000000,0.000000,0.000000,0.000000,0.000000,0.000000,0.000000,0.000000,0.000000,0.000000,1771319071.814063,0.000000
122.000000,15494.609236,7902.459252,4237.309603,3575.206229,3359.511895,3945.596986,-18368.373021,-20892.421412,-11743.025391,-6489.940761,4245.602101,19089.909683,5858.638091,15799.889362,8670.107564,-4634.634213,0.004000,-0.010000,1.012000,192.000000,0.000000,0.000000,127.500000,112.000000,15.500000,56.000000,0.000000,0.000000,0.000000,1771319071.814077,0.000000
124.000000,15634.709970,8043.588167,4382.171259,3715.351667,3503.054798,4084.580134,-18226.573554,-20750.085503,-12061.358936,-6813.728132,3930.286042,18769.720944,5542.964404,15483.254550,8341.827493,-4950.374955,0.004000,-0.010000,1.012000,192.000000,0.000000,0.000000,0.000000,0.000000,0.000000,0.000000,0.000000,0.000000,0.000000,1771319071.814090,0.000000
126.000000,15740.366666,8151.547092,4483.491717,3827.199796,3604.308200,4193.634295,-18119.642808,-20645.121711,-11653.081972,-6403.081882,4336.596052,19178.087315,5947.553330,15887.239979,8722.768274,-4542.790895,0.004000,-0.010000,1.012000,192.000000,0.000000,0.000000,0.000000,0.000000,0.000000,0.000000,0.000000,0.000000,0.000000,1771319071.814102,0.000000
128.000000,15389.444278,7799.127138,4130.602375,3474.466917,3249.697775,3842.778962,-18470.766362,-20996.021747,-11998.438775,-6739.810913,3994.569659,18839.771311,5603.448224,15554.355449,8438.476436,-4882.336245,0.004000,-0.010000,1.012000,192.000000,0.000000,0.000000,0.000000,0.000000,0.000000,0.000000,0.000000,0.000000,0.000000,1771319071.814114,0.000000
130.000000,15829.013685,8238.450675,4569.031843,3911.331762,3688.596629,4275.687549,-18036.516671,-20560.721524,-11865.267082,-6612.942411,4122.466340,18963.354106,5732.820121,15673.981985,8494.087576,-4756.898255,0.004000,-0.010000,1.012000,192.000000,0.000000,0.000000,0.000000,0.000000,0.000000,0.000000,0.000000,0.000000,0.000000,1771319071.814126,0.000000
132.000000,15480.259416,7890.344607,4215.226080,3562.801011,3344.849151,3931.113056,-18385.650919,-20910.906304,-11738.264470,-6487.213848,4246.250301,19087.965082,5865.164800,15799.509382,8673.147401,-4626.118198,0.001000,-0.011000,1.007000,192.000000,127.500000,120.000000,127.500000,80.000000,15.500000,40.000000,0.000000,0.000000,0.000000,1771319071.814138,0.000000
134.000000,15630.798415,8042.627042,4371.442422,3715.910460,3498.472690,4090.570401,-18231.110958,-20757.729799,-12090.840887,-6836.549263,3895.909059,18739.121406,5512.923659,15453.437323,8313.910164,-4974.492487,0.001000,-0.011000,1.007000,192.000000,0.000000,0.000000,0.000000,0.000000,0.000000,0.000000,0.000000,0.000000,0.000000,1771319071.814151,0.000000
136.000000,15764.730068,8173.965892,4504.815281,3846.399945,3639.243977,4218.847062,-18100.353253,-20623.865202,-11629.724399,-6376.773879,4357.539637,19196.728670,5971.424993,15912.229229,8743.957727,-4515.119435,0.001000,-0.011000,1.007000,192.000000,0.000000,0.000000,0.000000,0.000000,0.000000,0.000000,0.000000,0.000000,0.000000,1771319071.814164,0.000000
138.000000,15376.860246,7785.894905,4115.090265,3455.333824,3251.642376,3836.296956,-18492.112278,-21014.484288,-11991.554438,-6738.961546,3991.932153,18831.478814,5608.030332,15549.907452,8439.392857,-4888.281809,0.001000,-0.011000,1.007000,192.000000,0.000000,0.000000,0.000000,0.000000,0.000000,0.000000,0.000000,0.000000,0.000000,1771319071.814176,0.000000
140.000000,15822.621086,8229.420570,4562.706299,3899.038303,3697.514975,4276.894543,-18048.385447,-20571.182140,-11859.947367,-6611.623658,4123.002782,18957.766170,5740.754991,15682.363889,8499.250829,-4755.691261,0.001000,-0.011000,1.007000,192.000000,0.000000,0.000000,0.000000,0.000000,0.000000,0.000000,0.000000,0.000000,0.000000,1771319071.814188,0.000000
142.000000,15489.848315,7898.614752,4225.060847,3567.628988,3362.082346,3939.427905,-18378.386602,-20902.971435,-11752.144903,-6501.496613,4234.850911,19069.189616,5854.055983,15795.664882,8662.351508,-4645.139533,0.001000,-0.011000,1.007000,192.000000,0.000000,0.000000,127.500000,88.000000,15.500000,64.000000,0.000000,0.000000,0.000000,1771319071.814201,0.000000
144.000000,15645.818787,8051.679498,4380.383120,3724.180606,3511.637868,4092.447948,-18223.041978,-20748.163253,-12066.522189,-6817.393818,3917.791416,18752.286583,5535.655384,15468.904730,8334.116141,-4964.121278,0.001000,-0.011000,1.007000,192.000000,0.000000,0.000000,0.000000,0.000000,0.000000,0.000000,0.000000,0.000000,0.000000,1771319071.814213,0.000000
146.000000,15756.795199,8160.688956,4492.119490,3837.347488,3621.519044,4203.267897,-18113.294913,-20637.030379,-11632.719533,-6382.339464,4354.142172,19187.095068,5967.267569,15905.322540,8734.838216,-4530.765656,0.001000,-0.011000,1.007000,192.000000,0.000000,0.000000,0.000000,0.000000,0.000000,0.000000,0.000000,0.000000,0.000000,1771319071.814226,0.000000
148.000000,15402.341235,7806.950248,4142.515855,3484.346388,3271.311912,3854.692442,-18465.580757,-20990.791439,-11974.567112,-6725.796369,4011.869909,18845.068675,5624.078885,15565.240749,8453.519160,-4872.099146,0.001000,-0.011000,1.007000,192.000000,0.000000,0.000000,0.000000,0.000000,0.000000,0.000000,0.000000,0.000000,0.000000,1771319071.814238,0.000000
150.000000,15803.711510,8208.789910,4546.166008,3886.141346,3671.028158,4253.559322,-18063.606985,-20592.751574,-11868.977471,-6622.128978,4115.582003,18946.724408,5731.926052,15669.176360,8493.014692,-4763.022633,0.001000,-0.011000,1.007000,192.000000,0.000000,0.000000,0.000000,0.000000,0.000000,0.000000,0.000000,0.000000,0.000000,1771319071.814250,0.000000
152.000000,15484.506248,7893.920886,4227.340725,3572.255799,3356.941445,3936.768047,-18376.062021,-20907.397080,-11753.418953,-6502.234221,4231.632260,19069.390782,5852.603120,15786.724184,8664.318462,-4638.858693,0.002500,-0.010500,1.011500,192.000000,0.000000,16.000000,127.500000,88.000000,15.500000,96.000000,0.000000,0.000000,0.000000,1771319071.814262,0.000000
154.000000,15622.081235,8031.138245,4366.815611,3708.042646,3490.783690,4079.550991,-18238.554089,-20770.693811,-12089.969169,-6839.387934,3889.851736,18730.337170,5508.252145,15448.475236,8317.464091,-4980.348644,0.002500,-0.010500,1.011500,192.000000,0.000000,0.000000,0.000000,0.000000,0.000000,0.000000,0.000000,0.000000,0.000000,1771319071.814275,0.000000
156.000000,15738.220899,8147.859055,4480.563638,3823.400000,3604.107035,4203.893745,-18126.236573,-20654.263574,-11633.591251,-6376.684472,4349.984747,19191.051327,5966.597017,15912.162174,8743.622451,-4521.579089,0.002500,-0.010500,1.011500,192.000000,0.000000,0.000000,0.000000,0.000000,0.000000,0.000000,0.000000,0.000000,0.000000,1771319071.814287,0.000000
158.000000,15397.245037,7805.475033,4134.446875,3469.616588,3260.448964,3850.043279,-18476.778981,-21000.872076,-12011.693360,-6753.289014,3974.028405,18811.384596,5591.691207,15538.284545,8426.004163,-4905.179728,0.002500,-0.010500,1.011500,192.000000,0.000000,0.000000,0.000000,0.000000,0.000000,0.000000,0.000000,0.000000,0.000000,1771319071.814299,0.000000
160.000000,15868.956252,8281.410728,4611.969544,3954.090649,3741.056173,4330.851654,-17998.250484,-20523.975256,-11834.958116,-6577.559600,4149.109620,18981.928406,5768.068822,15711.063529,8527.995173,-4732.668964,0.002500,-0.010500,1.011500,192.000000,0.000000,0.000000,0.000000,0.000000,0.000000,0.000000,0.000000,0.000000,0.000000,1771319071.814311,0.000000
162.000000,15490.898846,7904.761482,4224.546757,3574.826249,3364.295168,3945.060545,-18379.481838,-20901.607979,-11699.238324,-6436.028354,4285.790537,19126.365379,5907.499004,15854.517025,8719.616678,-4595.675122,0.003250,-0.012250,1.012750,192.000000,0.000000,16.000000,127.500000,72.000000,15.500000,88.000000,0.000000,0.000000,0.000000,1771319071.814323,0.000000
164.000000,15622.260049,8033.172254,4359.707756,3705.449844,3498.003304,4081.562648,-18248.299449,-20773.711297,-12092.629026,-6832.637707,3885.515497,18728.169051,5509.257973,15456.678326,8308.791615,-4994.184374,0.003250,-0.012250,1.012750,192.000000,0.000000,0.000000,0.000000,0.000000,0.000000,0.000000,0.000000,0.000000,0.000000,1771319071.814336,0.000000
166.000000,15748.994440,8161.963005,4493.393540,3838.576834,3637.299375,4215.829577,-18116.647675,-20645.904022,-11625.768140,-6372.191772,4348.554236,19185.150467,5976.476488,15918.130090,8743.376582,-4524.618927,0.003250,-0.012250,1.012750,192.000000,0.000000,0.000000,0.000000,0.000000,0.000000,0.000000,0.000000,0.000000,0.000000,1771319071.814348,0.000000
168.000000,15399.793136,7815.533318,4154.295224,3497.779786,3298.089301,3874.831364,-18456.014211,-20985.561131,-11988.179325,-6727.204529,3994.234382,18832.328180,5625.442341,15568.101772,8458.704765,-4874.244913,0.003250,-0.012250,1.012750,192.000000,0.000000,0.000000,0.000000,0.000000,0.000000,0.000000,0.000000,0.000000,0.000000,1771319071.814360,0.000000
170.000000,15830.064217,8244.463294,4581.168840,3928.699068,3719.889071,4304.118968,-18028.581801,-20554.843015,-11833.080570,-6575.167963,4149.154323,18986.532865,5775.444898,15722.507623,8541.897958,-4721.984830,0.003250,-0.012250,1.012750,192.000000,0.000000,0.000000,0.000000,0.000000,0.000000,0.000000,0.000000,0.000000,0.000000,1771319071.814372,0.000000
172.000000,15478.650091,7894.502031,4229.061810,3579.900095,3362.104697,3950.961405,-18377.157256,-20901.786792,-11731.827167,-6465.331491,4251.525313,19097.039890,5874.574885,15826.554993,8690.201782,-4624.017134,0.003625,-0.012125,1.012375,192.000000,0.000000,16.000000,127.500000,80.000000,15.500000,80.000000,0.000000,0.000000,0.000000,1771319071.814385,0.000000
174.000000,15579.076478,7996.068358,4337.847750,3686.741434,3465.481516,4065.514095,-18268.103095,-20796.733594,-12106.330646,-6838.113885,3880.776928,18728.370217,5495.444595,15456.723029,8311.429120,-4990.853964,0.003625,-0.012125,1.012375,192.000000,0.000000,0.000000,0.000000,0.000000,0.000000,0.000000,0.000000,0.000000,0.000000,1771319071.814398,0.000000
176.000000,15740.076094,8155.570406,4502.825976,3847.852808,3634.527759,4223.496225,-18103.862477,-20636.292772,-11657.239396,-6390.274333,4333.913843,19174.242815,5950.146133,15913.816203,8733.899442,-4530.743305,0.003625,-0.012125,1.012375,192.000000,0.000000,0.000000,0.000000,0.000000,0.000000,0.000000,0.000000,0.000000,0.000000,1771319071.814410,0.000000
178.000000,15371.406421,7785.917257,4134.580986,3479.518411,3270.261380,3852.814895,-18471.995708,-21005.320073,-11993.856668,-6729.193834,3996.044874,18834.049265,5619.317963,15566.693612,8465.320881,-4871.518001,0.003625,-0.012125,1.012375,192.000000,0.000000,0.000000,0.000000,0.000000,0.000000,0.000000,0.000000,0.000000,0.000000,1771319071.814423,0.000000
180.000000,15813.859202,8230.292288,4581.615875,3929.034344,3715.753998,4307.158805,-18026.659551,-20560.788579,-11859.209759,-6595.686864,4124.947384,18967.735048,5750.768572,15701.809907,8521.960201,-4740.849702,0.003625,-0.012125,1.012375,192.000000,0.000000,0.000000,0.000000,0.000000,0.000000,0.000000,0.000000,0.000000,0.000000,1771319071.814435,0.000000
182.000000,15439.176910,7856.168789,4206.978286,3558.241255,3343.083363,3930.375449,-18399.285483,-20931.067578,-11746.847540,-6471.277055,4247.569054,19094.022404,5873.144373,15827.270249,8698.986018,-4616.730465,-0.000187,-0.012063,1.008188,192.000000,127.500000,112.000000,127.500000,80.000000,15.500000,48.000000,0.000000,0.000000,0.000000,1771319071.814448,0.000000
184.000000,15588.531266,8007.758320,4358.523114,3704.801643,3490.291952,4083.395491,-18251.138121,-20781.400297,-12133.063332,-6857.358737,3862.895532,18707.247818,5480.446575,15438.640468,8303.181327,-5005.628467,-0.000187,-0.012063,1.008188,192.000000,0.000000,0.000000,0.000000,0.000000,0.000000,0.000000,0.000000,0.000000,0.000000,1771319071.814461,0.000000
186.000000,15745.619326,8160.376031,4513.487758,3857.709927,3651.537436,4238.606005,-18098.833334,-20628.760234,-11640.117960,-6372.147068,4353.628082,19192.191266,5972.587284,15922.622791,8755.580635,-4515.968801,-0.000187,-0.012063,1.008188,192.000000,0.000000,0.000000,0.000000,0.000000,0.000000,0.000000,0.000000,0.000000,0.000000,1771319071.814475,0.000000
188.000000,15375.139162,7790.901696,4145.175713,3491.007208,3289.170955,3873.736128,-18465.178426,-20997.474611,-11976.556418,-6712.988819,4012.808682,18854.992849,5636.931138,15586.564313,8480.542419,-4853.994233,-0.000187,-0.012063,1.008188,192.000000,0.000000,0.000000,0.000000,0.000000,0.000000,0.000000,0.000000,0.000000,0.000000,1771319071.814488,0.000000
190.000000,15821.369388,8236.461370,4600.883079,3948.882693,3745.280653,4332.796256,-18008.711101,-20546.684628,-11863.478942,-6596.268010,4129.820064,18973.144170,5754.054279,15709.543611,8531.012658,-4726.075199,-0.000187,-0.012063,1.008188,192.000000,0.000000,0.000000,0.000000,0.000000,0.000000,0.000000,0.000000,0.000000,0.000000,1771319071.814501,0.000000
192.000000,15477.308986,7893.585610,4249.781877,3597.513270,3396.705198,3974.184868,-18356.571300,-20892.086135,-11728.943792,-6460.145886,4265.562208,19108.685149,5894.512641,15845.643383,8720.868375,-4589.953076,-0.003094,-0.012031,1.009094,192.000000,127.500000,104.000000,127.500000,80.000000,15.500000,72.000000,0.000000,0.000000,0.000000,1771319071.814514,0.000000
194.000000,15569.174656,7986.591218,4339.099448,3687.568448,3479.317245,4067.078718,-18268.773647,-20803.886152,-12097.747576,-6832.145969,3890.052902,18735.902755,5516.745808,15473.062154,8340.285223,-4968.837496,-0.003094,-0.012031,1.009094,192.000000,0.000000,0.000000,0.000000,0.000000,0.000000,0.000000,0.000000,0.000000,0.000000,1771319072.295529,0.000000
196.000000,15734.108178,8156.889159,4503.831804,3854.401869,3642.932015,4232.727496,-18101.470840,-20636.672752,-11678.138277,-6400.131452,4313.216128,19164.676269,5942.390077,15902.729738,8725.584593,-4545.920139,-0.003094,-0.012031,1.009094,192.000000,0.000000,0.000000,0.000000,0.000000,0.000000,0.000000,0.000000,0.000000,0.000000,1771319072.295604,0.000000
198.000000,15373.909816,7796.959018,4141.241806,3489.107309,3274.955246,3869.265779,-18465.111371,-20999.821544,-11976.087031,-6698.638999,4017.234327,18867.286309,5643.614309,15602.836383,8490.287780,-4845.612329,-0.003094,-0.012031,1.009094,192.000000,0.000000,0.000000,0.000000,0.000000,0.000000,0.000000,0.000000,0.000000,0.000000,1771319072.295659,0.000000
200.000000,15797.877705,8210.734512,4564.919122,3914.282193,3695.860946,4288.249229,-18042.484587,-20580.301652,-11897.386539,-6626.778141,4093.654942,18937.291972,5717.710342,15672.037384,8496.367454,-4768.454107,-0.003094,-0.012031,1.009094,192.000000,0.000000,0.000000,0.000000,0.000000,0.000000,0.000000,0.000000,0.000000,0.000000,1771319072.295718,0.000000
202.000000,15482.673405,7901.296961,4249.826580,3605.336381,3382.981227,3981.583295,-18350.916308,-20888.353394,-11727.602688,-6459.900017,4264.399918,19106.092346,5886.242495,15841.754179,8714.364018,-4594.065797,-0.003094,-0.012031,1.009094,192.000000,0.000000,0.000000,0.000000,0.000000,0.000000,0.000000,0.000000,0.000000,0.000000,1771319072.295771,0.000000
204.000000,15553.059048,7969.469782,4321.240404,3674.693844,3447.711879,4043.832903,-18280.105982,-20818.303027,-12117.193594,-6844.551187,3874.697253,18719.921257,5494.237601,15455.314869,8321.889737,-4979.834554,-0.008000,-0.010000,1.012000,192.000000,127.500000,96.000000,127.500000,88.000000,15.500000,80.000000,0.000000,0.000000,0.000000,1771319072.295821,0.000000
206.000000,15736.321001,8152.150589,4498.087406,3855.027718,3627.688125,4224.144426,-18100.979102,-20636.918621,-11682.630978,-6413.877775,4312.098540,19155.757923,5931.996516,15890.346872,8719.169643,-4545.249587,-0.008000,-0.010000,1.012000,192.000000,0.000000,0.000000,0.000000,0.000000,0.000000,0.000000,0.000000,0.000000,0.000000,1771319072.295843,0.000000
208.000000,15362.063391,7779.681120,4119.672372,3475.495097,3249.362498,3842.622500,-18479.237673,-21011.444451,-11992.537915,-6715.916898,4004.493833,18852.265936,5624.034181,15583.747993,8473.903951,-4853.480143,-0.008000,-0.010000,1.012000,192.000000,0.000000,0.000000,0.000000,0.000000,0.000000,0.000000,0.000000,0.000000,0.000000,1771319072.295856,0.000000
210.000000,15817.726054,8228.884128,4574.820945,3930.084876,3700.957143,4304.141319,-18026.994828,-20557.882852,-11899.085271,-6629.080371,4096.024227,18939.348333,5713.932897,15676.194808,8490.868925,-4769.370528,-0.008000,-0.010000,1.012000,192.000000,0.000000,0.000000,0.000000,0.000000,0.000000,0.000000,0.000000,0.000000,0.000000,1771319072.295869,0.000000
212.000000,15490.921198,7902.079273,4243.501037,3597.401511,3373.548791,3978.074071,-18358.270032,-20887.012289,-11722.305324,-6455.295557,4271.396014,19114.943637,5889.841126,15846.090418,8714.207556,-4594.334018,-0.008000,-0.010000,1.012000,192.000000,0.000000,0.000000,0.000000,0.000000,0.000000,0.000000,0.000000,0.000000,0.000000,1771319072.295883,0.000000
214.000000,15576.416621,7989.362835,4330.695192,3681.511126,3462.844010,4064.083584,-18271.545264,-20799.996948,-12119.629934,-6854.341251,3873.043224,18714.109804,5489.744900,15446.195358,8311.831452,-4996.732473,-0.008000,-0.010000,1.002000,192.000000,127.500000,96.000000,127.500000,88.000000,15.500000,40.000000,0.000000,0.000000,0.000000,1771319072.295896,0.000000
216.000000,15769.826266,8182.146631,4520.796778,3873.624369,3657.415945,4258.968444,-18083.477686,-20610.789431,-11639.223890,-6373.868152,4354.879779,19195.454621,5973.056671,15928.300134,8753.904254,-4510.425569,-0.008000,-0.010000,1.002000,192.000000,0.000000,0.000000,0.000000,0.000000,0.000000,0.000000,0.000000,0.000000,0.000000,1771319072.295910,0.000000
218.000000,15375.228569,7790.789937,4124.947384,3479.563115,3265.187534,3861.934407,-18476.577816,-21005.945922,-11974.656519,-6707.155014,4012.115778,18858.099742,5635.053591,15591.526400,8476.742622,-4855.067117,-0.008000,-0.010000,1.002000,192.000000,0.000000,0.000000,0.000000,0.000000,0.000000,0.000000,0.000000,0.000000,0.000000,1771319072.295930,0.000000
220.000000,15806.617237,8221.575108,4563.756831,3914.684524,3701.001847,4290.238534,-18040.919964,-20571.137437,-11896.179544,-6621.413722,4097.320628,18945.003324,5719.744351,15677.781782,8499.630809,-4760.519238,-0.008000,-0.010000,1.002000,192.000000,0.000000,0.000000,0.000000,0.000000,0.000000,0.000000,0.000000,0.000000,0.000000,1771319072.295943,0.000000
222.000000,15499.548972,7911.668171,4249.781877,3596.172165,3379.650817,3974.475440,-18355.565471,-20881.379650,-11723.199394,-6452.881569,4267.976197,19113.468422,5888.030635,15842.022400,8709.871317,-4596.613895,-0.008000,-0.010000,1.002000,192.000000,0.000000,0.000000,0.000000,0.000000,0.000000,0.000000,0.000000,0.000000,0.000000,1771319072.295956,0.000000
224.000000,15579.210589,7995.777785,4337.937157,3688.820146,3463.671024,4067.726918,-18263.923319,-20795.370137,-12109.973980,-6846.406382,3880.799279,18723.609295,5492.829441,15449.302250,8317.709961,-4986.473022,-0.008000,-0.016000,1.012000,192.000000,127.500000,96.000000,127.500000,64.000000,15.500000,80.000000,0.000000,0.000000,0.000000,1771319072.295968,0.000000
226.000000,15752.838940,8166.232188,4510.291458,3859.028680,3637.142913,4233.330993,-18092.038404,-20625.608638,-11650.243300,-6386.385129,4341.334622,19182.378850,5958.729203,15910.463442,8742.124884,-4522.696677,-0.008000,-0.016000,1.012000,192.000000,0.000000,0.000000,0.000000,0.000000,0.000000,0.000000,0.000000,0.000000,0.000000,1771319072.295981,0.000000
228.000000,15367.606624,7781.581018,4120.924070,3469.415423,3248.714298,3848.746878,-18479.595301,-21009.924532,-11984.468935,-6714.195813,4007.645429,18852.511806,5628.817454,15579.970548,8473.121640,-4854.262454,-0.008000,-0.016000,1.012000,192.000000,0.000000,0.000000,0.000000,0.000000,0.000000,0.000000,0.000000,0.000000,0.000000,1771319072.295995,0.000000
230.000000,15826.175013,8238.294213,4579.492459,3924.228719,3702.611173,4302.889622,-18024.826708,-20554.753608,-11889.384614,-6627.292231,4101.142776,18942.008190,5717.956211,15669.243416,8491.852402,-4763.112040,-0.008000,-0.016000,1.012000,192.000000,0.000000,0.000000,0.000000,0.000000,0.000000,0.000000,0.000000,0.000000,0.000000,1771319072.296008,0.000000
232.000000,15509.629608,7924.900404,4267.640921,3615.752294,3390.714930,3992.893278,-18333.817224,-20863.654716,-11724.249926,-6457.106049,4272.535953,19112.887277,5885.482536,15838.513176,8708.507861,-4592.635285,-0.008000,-0.016000,1.012000,192.000000,0.000000,0.000000,0.000000,0.000000,0.000000,0.000000,0.000000,0.000000,0.000000,1771319072.296021,0.000000
234.000000,15585.625539,7993.006169,4338.361840,3682.963989,3462.486382,4066.654034,-18264.079781,-20795.280730,-12087.465774,-6822.758236,3909.968306,18748.419732,5520.545604,15479.544160,8343.012135,-4955.962891,-0.004000,-0.012000,1.000000,192.000000,127.500000,112.000000,127.500000,80.000000,15.500000,32.000000,0.000000,0.000000,0.000000,1771319072.296035,0.000000
236.000000,15758.113951,8172.714194,4513.532461,3859.878046,3642.932015,4239.701240,-18088.640939,-20617.562010,-11662.089725,-6397.762167,4332.483331,19171.247682,5946.949833,15896.962988,8729.227928,-4534.453694,-0.004000,-0.012000,1.000000,192.000000,0.000000,0.000000,0.000000,0.000000,0.000000,0.000000,0.000000,0.000000,0.000000,1771319072.296049,0.000000
238.000000,15373.798057,7788.487707,4129.060105,3475.450394,3262.997063,3858.268721,-18470.498141,-20998.659253,-11984.759508,-6714.642848,4015.647354,18855.328125,5630.158559,15581.088135,8476.273236,-4851.021451,-0.004000,-0.012000,1.000000,192.000000,0.000000,0.000000,0.000000,0.000000,0.000000,0.000000,0.000000,0.000000,0.000000,1771319072.296062,0.000000
240.000000,15840.055447,8240.998774,4578.508982,3923.580518,3709.719027,4301.056779,-18021.831575,-20551.311439,-11895.307826,-6632.589594,4100.025189,18936.286144,5710.580136,15661.017974,8489.952503,-4770.085784,-0.004000,-0.012000,1.000000,192.000000,0.000000,0.000000,0.000000,0.000000,0.000000,0.000000,0.000000,0.000000,0.000000,1771319072.296075,0.000000
242.000000,15501.135945,7918.306639,4255.593330,3602.050674,3388.457404,3973.201391,-18343.696695,-20871.678993,-11710.257734,-6451.071078,4283.935342,19120.576277,5895.898449,15840.368371,8719.259050,-4586.399148,-0.004000,-0.012000,1.000000,192.000000,0.000000,0.000000,0.000000,0.000000,0.000000,0.000000,0.000000,0.000000,0.000000,1771319072.296089,0.000000
244.000000,15603.797508,8024.767998,4351.169390,3695.458614,3476.925609,4066.095241,-18249.394685,-20777.220521,-12087.376367,-6823.875823,3908.202518,18748.531490,5517.394008,15470.290538,8340.374630,-4964.322444,-0.004000,-0.012000,1.000000,192.000000,127.500000,112.000000,127.500000,80.000000,15.500000,32.000000,0.000000,0.000000,0.000000,1771319072.296103,0.000000
246.000000,15730.733065,8140.259461,4490.890144,3837.325136,3617.339267,4211.247469,-18108.288122,-20635.175185,-11671.902141,-6409.809757,4322.335639,19165.927966,5932.957641,15886.278854,8716.062750,-4548.468238,-0.004000,-0.012000,1.000000,192.000000,0.000000,0.000000,0.000000,0.000000,0.000000,0.000000,0.000000,0.000000,0.000000,1771319072.296116,0.000000
248.000000,15385.197447,7799.954152,4138.157265,3485.508679,3266.908618,3862.046166,-18458.651717,-20984.890578,-11972.935435,-6705.143357,4024.342182,18870.393201,5637.489931,15588.084231,8477.748451,-4847.758096,-0.004000,-0.012000,1.000000,192.000000,0.000000,0.000000,0.000000,0.000000,0.000000,0.000000,0.000000,0.000000,0.000000,1771319072.296129,0.000000
250.000000,15813.903906,8225.263146,4562.214561,3910.281230,3687.613152,4284.449432,-18036.628429,-20563.604899,-11898.526478,-6635.472969,4096.739482,18939.035408,5706.199194,15659.989793,8483.671663,-4774.086746,-0.004000,-0.012000,1.000000,192.000000,0.000000,0.000000,0.000000,0.000000,0.000000,0.000000,0.000000,0.000000,0.000000,1771319072.296144,0.000000
252.000000,15541.592603,7953.331823,4286.215220,3638.282852,3415.860643,4015.312077,-18311.107851,-20836.564402,-11703.172231,-6435.111932,4292.786633,19134.680228,5904.682685,15853.779418,8720.287230,-4578.285465,-0.004000,-0.012000,1.000000,192.000000,0.000000,0.000000,0.000000,0.000000,0.000000,0.000000,0.000000,0.000000,0.000000,1771319072.296157,0.000000
254.000000,15611.978246,8023.896280,4354.052765,3706.545080,3483.675836,4086.614142,-18244.454949,-20767.966898,-12062.722392,-6794.416224,3932.632975,18776.515874,5541.779762,15499.928951,8362.391098,-4935.779266,-0.002000,-0.016000,1.000000,192.000000,127.500000,120.000000,127.500000,64.000000,15.500000,32.000000,0.000000,0.000000,0.000000,1771319072.296170,0.000000
0.000000,15770.630928,8185.745261,4514.426531,3865.086003,3646.843570,4238.270728,-18086.182247,-20608.733071,-11652.523178,-6387.189792,4338.898282,19182.177685,5950.816685,15905.590761,8727.059809,-4532.889072,-0.002000,-0.016000,1.000000,192.000000,0.000000,0.000000,0.000000,0.000000,0.000000,0.000000,0.000000,0.000000,0.000000,1771319072.296195,0.000000
2.000000,15372.054621,7787.392472,4115.738465,3462.687548,3247.127324,3832.072476,-18485.339699,-21009.075166,-11965.224083,-6697.432005,4028.700772,18870.460256,5641.379135,15591.861676,8482.397614,-4850.417954,-0.002000,-0.016000,1.000000,192.000000,0.000000,0.000000,0.000000,0.000000,0.000000,0.000000,0.000000,0.000000,0.000000,1771319072.296208,0.000000
4.000000,15836.076836,8246.765524,4577.749023,3925.011030,3705.986286,4300.877965,-18025.631371,-20550.953812,-11898.794699,-6635.517673,4091.062139,18928.820661,5702.131176,15655.385334,8475.960311,-4784.167383,-0.002000,-0.016000,1.000000,192.000000,0.000000,0.000000,0.000000,0.000000,0.000000,0.000000,0.000000,0.000000,0.000000,1771319072.296222,0.000000
6.000000,15531.981353,7946.849817,4273.742947,3625.899986,3409.445692,4003.644467,-18327.044645,-20850.690705,-11683.569751,-6417.118778,4304.230726,19147.264260,5917.713752,15875.751183,8734.793512,-4567.668386,-0.002000,-0.016000,1.000000,192.000000,0.000000,0.000000,0.000000,0.000000,0.000000,0.000000,0.000000,0.000000,0.000000,1771319072.296235,0.000000
8.000000,15577.288339,7991.329788,4318.982878,3667.720099,3455.311472,4044.011717,-18284.643386,-20809.943475,-12095.445346,-6827.206233,3892.243372,18734.874575,5509.526194,15464.479085,8328.081170,-4981.019197,0.001000,-0.015000,1.001000,192.000000,0.000000,16.000000,127.500000,72.000000,15.500000,40.000000,0.000000,0.000000,0.000000,1771319072.296249,0.000000
10.000000,15776.800010,8190.528535,4517.198147,3866.248294,3656.700689,4243.858664,-18088.193904,-20614.186897,-11656.032402,-6385.602818,4329.868177,19171.806475,5949.788505,15901.858020,8726.545718,-4540.689831,0.001000,-0.015000,1.001000,192.000000,0.000000,0.000000,0.000000,0.000000,0.000000,0.000000,0.000000,0.000000,0.000000,1771319072.296262,0.000000
12.000000,15382.358775,7801.630533,4125.729695,3473.885771,3270.887228,3850.892645,-18478.209493,-21005.230666,-11961.647804,-6686.367892,4025.750342,18870.013222,5651.057440,15608.849002,8493.126451,-4845.187646,0.001000,-0.015000,1.001000,192.000000,0.000000,0.000000,0.000000,0.000000,0.000000,0.000000,0.000000,0.000000,0.000000,1771319072.296276,0.000000
14.000000,15813.121595,8231.923965,4558.481819,3902.793396,3697.425568,4278.660331,-18049.279517,-20576.166579,-11907.333065,-6631.539062,4076.064119,18924.439719,5700.834775,15651.585537,8477.323768,-4795.030331,0.001000,-0.015000,1.001000,192.000000,0.000000,0.000000,0.000000,0.000000,0.000000,0.000000,0.000000,0.000000,0.000000,1771319072.296289,0.000000
16.000000,15540.519719,7952.661270,4280.917857,3628.246919,3422.230890,4007.958354,-18325.435320,-20850.489539,-11697.204315,-6428.138188,4289.813851,19133.182661,5911.947001,15862.094267,8730.680791,-4581.772337,0.001000,-0.015000,1.001000,192.000000,0.000000,0.000000,0.000000,0.000000,0.000000,0.000000,0.000000,0.000000,0.000000,1771319072.296302,0.000000
18.000000,15578.763554,7992.737948,4324.660221,3671.229323,3462.687548,4059.769697,-18283.034060,-20809.652902,-12088.337492,-6822.467664,3897.048998,18736.841528,5517.125787,15475.096163,8338.407676,-4975.543019,0.001000,-0.015000,1.001000,192.000000,0.000000,0.000000,127.500000,96.000000,15.500000,56.000000,0.000000,0.000000,0.000000,1771319072.296315,0.000000
20.000000,15790.255760,8206.219459,4532.978479,3880.776928,3670.804640,4261.807115,-18073.173532,-20598.317158,-11646.309393,-6381.199525,4338.920634,19177.662632,5957.566912,15913.838555,8735.397009,-4534.565453,0.001000,-0.015000,1.001000,192.000000,0.000000,0.000000,0.000000,0.000000,0.000000,0.000000,0.000000,0.000000,0.000000,1771319072.296328,0.000000
22.000000,15401.357758,7817.813196,4144.527512,3489.420234,3282.823060,3865.398927,-18459.165807,-20983.840046,-11938.334935,-6666.810115,4049.934930,18896.745908,5668.827077,15621.768310,8510.024370,-4825.540462,0.001000,-0.015000,1.001000,192.000000,0.000000,0.000000,0.000000,0.000000,0.000000,0.000000,0.000000,0.000000,0.000000,1771319072.296341,0.000000
24.000000,15807.667769,8225.888994,4549.496418,3897.987771,3683.120451,4285.343502,-18054.979212,-20577.842960,-11893.184411,-6627.113417,4093.096148,18939.080112,5709.753121,15662.649651,8486.398576,-4783.318017,0.001000,-0.015000,1.001000,192.000000,0.000000,0.000000,0.000000,0.000000,0.000000,0.000000,0.000000,0.000000,0.000000,1771319072.296354,0.000000
26.000000,15538.329248,7958.897407,4279.085014,3632.471398,3417.022934,4011.914612,-18321.814337,-20843.359332,-11708.469595,-6430.798045,4284.360025,19132.512108,5900.614667,15861.691935,8718.677904,-4589.461337,0.001000,-0.015000,1.001000,192.000000,0.000000,0.000000,0.000000,0.000000,0.000000,0.000000,0.000000,0.000000,0.000000,1771319072.296368,0.000000
28.000000,15564.614900,7983.149050,4304.566002,3651.448029,3440.715783,4025.437418,-18298.345005,-20818.168916,-12091.265570,-6818.354943,3900.647628,18746.564537,5514.667096,15471.408125,8335.703115,-4981.443880,-0.000500,-0.013500,1.002500,192.000000,127.500000,120.000000,127.500000,80.000000,15.500000,48.000000,0.000000,0.000000,0.000000,1771319072.296381,0.000000
30.000000,15779.236350,8188.561581,4518.651011,3866.292997,3657.617111,4252.933473,-18084.528218,-20608.643664,-11675.143144,-6407.351066,4317.708828,19162.329335,5933.784656,15883.708404,8708.060826,-4563.533314,-0.000500,-0.013500,1.002500,192.000000,0.000000,0.000000,0.000000,0.000000,0.000000,0.000000,0.000000,0.000000,0.000000,1771319072.296394,0.000000
32.000000,15397.222685,7813.499309,4139.386611,3488.190888,3281.057272,3871.389195,-18463.144417,-20986.969291,-11946.962708,-6682.366929,4040.435438,18889.012204,5664.222618,15614.705159,8502.894163,-4832.201282,-0.000500,-0.013500,1.002500,192.000000,0.000000,0.000000,0.000000,0.000000,0.000000,0.000000,0.000000,0.000000,0.000000,1771319072.296407,0.000000
34.000000,15834.601621,8250.073582,4580.878267,3929.704896,3723.040667,4315.920689,-18024.938467,-20551.244384,-11873.425469,-6611.131920,4107.133044,18956.358010,5733.870653,15684.979044,8505.419911,-4761.323900,-0.000500,-0.013500,1.002500,192.000000,0.000000,0.000000,0.000000,0.000000,0.000000,0.000000,0.000000,0.000000,0.000000,1771319072.296420,0.000000
36.000000,15528.025094,7942.424171,4269.697281,3619.350924,3415.793588,4006.639601,-18336.007695,-20859.027905,-11688.397728,-6424.494854,4292.138433,19143.308001,5922.117045,15872.107848,8735.151140,-4575.625607,-0.000500,-0.013500,1.002500,192.000000,0.000000,0.000000,0.000000,0.000000,0.000000,0.000000,0.000000,0.000000,0.000000,1771319072.296432,0.000000
38.000000,15550.332135,7963.881846,4297.391092,3642.954367,3435.977213,4032.947604,-18310.660817,-20833.837489,-12106.777681,-6844.528835,3877.558276,18726.805595,5503.357113,15452.051515,8320.101597,-4995.369017,-0.005250,-0.013750,1.002250,192.000000,127.500000,88.000000,127.500000,72.000000,15.500000,40.000000,0.000000,0.000000,0.000000,1771319072.296445,0.000000
40.000000,15783.170257,8196.809375,4529.402200,3873.959646,3669.575294,4259.951921,-18081.063697,-20604.173315,-11657.686431,-6401.673722,4326.984802,19170.979461,5953.700060,15895.957160,8718.923774,-4547.015375,-0.005250,-0.013750,1.002250,192.000000,0.000000,0.000000,0.000000,0.000000,0.000000,0.000000,0.000000,0.000000,0.000000,1771319072.296458,0.000000
42.000000,15379.564807,7793.494498,4123.449817,3472.142335,3267.109784,3859.475715,-18484.222112,-21008.896352,-11931.830577,-6678.835354,4048.079735,18894.466030,5679.332397,15620.762482,8508.325637,-4824.959317,-0.005250,-0.013750,1.002250,192.000000,0.000000,0.000000,0.000000,0.000000,0.000000,0.000000,0.000000,0.000000,0.000000,1771319072.296470,0.000000
44.000000,15796.335434,8210.890974,4545.003718,3894.366788,3687.769614,4281.297836,-18061.774142,-20589.532922,-11904.717911,-6650.560397,4071.414956,18922.003379,5704.791034,15649.149197,8473.903951,-4791.945790,-0.005250,-0.013750,1.002250,192.000000,0.000000,0.000000,0.000000,0.000000,0.000000,0.000000,0.000000,0.000000,0.000000,1771319072.296484,0.000000
46.000000,15519.732597,7938.467912,4268.378528,3619.306221,3410.496224,4000.023484,-18335.761826,-20860.704286,-11731.424836,-6466.784354,4253.224045,19106.718195,5887.158917,15831.114749,8701.981151,-4610.047294,-0.005250,-0.013750,1.002250,192.000000,0.000000,0.000000,0.000000,0.000000,0.000000,0.000000,0.000000,0.000000,0.000000,1771319072.296496,0.000000
48.000000,15574.695536,7989.429890,4323.430875,3675.632617,3459.133620,4058.160372,-18280.038927,-20805.674291,-12070.925483,-6809.570707,3914.393951,18767.418714,5539.969270,15494.631588,8358.323080,-4950.173789,-0.004625,-0.010875,1.002125,192.000000,127.500000,112.000000,127.500000,96.000000,15.500000,40.000000,0.000000,0.000000,0.000000,1771319072.296510,0.000000
50.000000,15763.456018,8178.436241,4510.693790,3863.007291,3647.111791,4244.640976,-18092.172514,-20616.690292,-11667.722364,-6409.429778,4319.161692,19171.493551,5938.970260,15886.748241,8714.475776,-4549.027032,-0.004625,-0.010875,1.002125,192.000000,0.000000,0.000000,0.000000,0.000000,0.000000,0.000000,0.000000,0.000000,0.000000,1771319072.296523,0.000000
52.000000,15391.522991,7809.543050,4142.761724,3492.191850,3275.938723,3870.405718,-18457.824702,-20984.756468,-11948.527330,-6683.305703,4041.061287,18894.130754,5659.014661,15610.167755,8501.150727,-4832.357744,-0.004625,-0.010875,1.002125,192.000000,0.000000,0.000000,0.000000,0.000000,0.000000,0.000000,0.000000,0.000000,0.000000,1771319072.296537,0.000000
54.000000,15778.588149,8191.154384,4536.018316,3879.189954,3664.769669,4258.186133,-18069.798418,-20600.172353,-11918.486585,-6654.449601,4072.577247,18922.897449,5691.447042,15640.722590,8472.585198,-4801.378226,-0.004625,-0.010875,1.002125,192.000000,0.000000,0.000000,0.000000,0.000000,0.000000,0.000000,0.000000,0.000000,0.000000,1771319072.296550,0.000000
56.000000,15516.581001,7927.694372,4271.574828,3618.948593,3403.120149,3993.854403,-18332.118491,-20861.017211,-11715.331580,-6455.295557,4273.899409,19126.208916,5896.837222,15842.245918,8711.681808,-4599.005532,-0.004625,-0.010875,1.002125,192.000000,0.000000,0.000000,0.000000,0.000000,0.000000,0.000000,0.000000,0.000000,0.000000,1771319072.296564,0.000000
58.000000,15553.170807,7965.737041,4304.633058,3657.460649,3434.077315,4033.998136,-18297.428584,-20825.254419,-12106.755329,-6845.400553,3883.615599,18736.774473,5503.491223,15455.873663,8326.673010,-4985.444842,-0.003313,-0.010437,1.004062,192.000000,127.500000,120.000000,127.500000,88.000000,15.500000,56.000000,0.000000,0.000000,0.000000,1771319072.776339,0.000000
60.000000,15768.976899,8187.153421,4520.282688,3875.412509,3655.940730,4250.184208,-18082.203636,-20609.180106,-11672.639748,-6411.284973,4315.250136,19166.911443,5937.316231,15889.743375,8705.803300,-4555.576093,-0.003313,-0.010437,1.004062,192.000000,0.000000,0.000000,0.000000,0.000000,0.000000,0.000000,0.000000,0.000000,0.000000,1771319072.776400,0.000000
62.000000,15358.129484,7775.501344,4110.262288,3466.152068,3251.329452,3840.476732,-18490.793525,-21019.289913,-11951.030725,-6680.668197,4039.653127,18894.868361,5664.960225,15610.145403,8496.389806,-4830.837826,-0.003313,-0.010437,1.004062,192.000000,0.000000,0.000000,0.000000,0.000000,0.000000,0.000000,0.000000,0.000000,0.000000,1771319072.776472,0.000000
64.000000,15783.840809,8196.943485,4530.408028,3884.263800,3668.100079,4263.997586,-18075.386354,-20602.385176,-11932.299964,-6671.414575,4051.588959,18904.323149,5677.723071,15622.617677,8447.148913,-4816.152730,-0.003313,-0.010437,1.004062,192.000000,0.000000,0.000000,0.000000,0.000000,0.000000,0.000000,0.000000,0.000000,0.000000,1771319072.776513,0.000000
66.000000,15525.566402,7948.459142,4278.906200,3636.829989,3420.956841,4015.625002,-18325.055340,-20851.271850,-11707.441414,-6442.219787,4277.743909,19133.115605,5903.542746,15855.254633,8712.933506,-4588.053177,-0.003313,-0.010437,1.004062,192.000000,0.000000,0.000000,0.000000,0.000000,0.000000,0.000000,0.000000,0.000000,0.000000,1771319072.776553,0.000000
68.000000,15534.171824,7956.461067,4286.863421,3646.731811,3426.611832,4025.057438,-18314.840593,-20842.599373,-12095.333588,-6824.121693,3893.137442,18753.471226,5516.254069,15474.179742,8337.580661,-4974.783060,0.000344,-0.011219,1.009031,192.000000,0.000000,16.000000,127.500000,80.000000,15.500000,88.000000,0.000000,0.000000,0.000000,1771319072.776595,0.000000
70.000000,15785.070155,8205.772424,4536.174778,3896.736073,3673.710367,4274.011168,-18065.350421,-20593.019795,-11685.939036,-6412.559022,4302.889622,19163.536330,5925.201586,15883.797811,8701.891744,-4564.047404,0.000344,-0.011219,1.009031,192.000000,0.000000,0.000000,0.000000,0.000000,0.000000,0.000000,0.000000,0.000000,0.000000,1771319072.776616,0.000000
72.000000,15344.092589,7763.811381,4096.627724,3451.735193,3234.185664,3825.076380,-18505.255104,-21032.991532,-11940.458350,-6666.787763,4047.878569,18908.815850,5673.386833,15631.312505,8516.126396,-4820.086637,0.000344,-0.011219,1.009031,192.000000,0.000000,0.000000,0.000000,0.000000,0.000000,0.000000,0.000000,0.000000,0.000000,1771319072.776628,0.000000
74.000000,15795.977807,8210.913326,4556.246645,3901.295829,3686.026178,4278.749738,-18051.134712,-20581.955681,-11951.500112,-6689.832412,4032.500569,18890.308605,5657.226522,15609.921886,8436.688296,-4840.829055,0.000344,-0.011219,1.009031,192.000000,0.000000,0.000000,0.000000,0.000000,0.000000,0.000000,0.000000,0.000000,0.000000,1771319072.776639,0.000000
76.000000,15513.541164,7927.962593,4276.827488,3622.055485,3410.004486,4006.237269,-18330.240945,-20860.525472,-11688.554190,-6424.852481,4302.241421,19159.378905,5927.079132,15877.226398,8746.617585,-4569.680043,0.000344,-0.011219,1.009031,192.000000,0.000000,0.000000,0.000000,0.000000,0.000000,0.000000,0.000000,0.000000,0.000000,1771319072.776650,0.000000
78.000000,15535.155301,7949.777895,4290.551459,3640.607433,3425.807169,4027.605537,-18314.974703,-20843.761664,-12128.838853,-6865.383013,3857.665224,18716.724958,5484.425185,15437.612288,8309.082187,-5015.284421,0.000344,-0.011219,1.009031,192.000000,0.000000,0.000000,0.000000,0.000000,0.000000,0.000000,0.000000,0.000000,0.000000,1771319072.776662,0.000000
80.000000,15787.059461,8202.598477,4540.086334,3892.958628,3675.856134,4276.648674,-18062.578805,-20593.064498,-11658.826370,-6395.638751,4324.459055,19181.797705,5952.582473,15908.071805,8725.785759,-4543.752020,0.004000,-0.008000,1.014000,192.000000,0.000000,16.000000,127.500000,96.000000,15.500000,88.000000,0.000000,0.000000,0.000000,1771319072.776673,0.000000
82.000000,15368.254825,7781.648073,4117.258384,3472.231742,3253.296405,3856.480581,-18481.785772,-21015.199544,-11938.536100,-6671.034595,4047.431534,18908.078242,5679.041824,15630.418435,8517.802777,-4817.985573,0.004000,-0.008000,1.014000,192.000000,0.000000,0.000000,0.000000,0.000000,0.000000,0.000000,0.000000,0.000000,0.000000,1771319072.776685,0.000000
84.000000,15791.686272,8199.737453,4546.389526,3898.703027,3676.616094,4279.442642,-18056.633241,-20589.689385,-11932.143501,-6674.588522,4050.203151,18910.134603,5678.237161,15631.603078,8453.742677,-4815.616288,0.004000,-0.008000,1.014000,192.000000,0.000000,0.000000,0.000000,0.000000,0.000000,0.000000,0.000000,0.000000,0.000000,1771319072.776697,0.000000
86.000000,15498.029053,7909.880031,4250.363022,3602.184785,3389.306770,3979.325769,-18355.364305,-20882.139609,-11721.232441,-6458.804781,4264.981063,19128.667608,5896.770167,15846.023362,8709.357227,-4600.167823,0.004000,-0.008000,1.014000,192.000000,0.000000,0.000000,0.000000,0.000000,0.000000,0.000000,0.000000,0.000000,0.000000,1771319072.776708,0.000000
88.000000,15524.471167,7943.206482,4276.693377,3629.990355,3418.095817,4015.960278,-18329.056302,-20856.904490,-12140.148835,-6869.674548,3844.321232,18708.901847,5478.300807,15427.643410,8298.040426,-5019.844177,0.004000,-0.008000,1.014000,192.000000,0.000000,0.000000,0.000000,0.000000,0.000000,0.000000,0.000000,0.000000,0.000000,1771319072.776720,0.000000
90.000000,15776.800010,8190.886163,4526.876453,3882.989750,3666.893085,4266.724499,-18075.431058,-20606.475545,-11679.009995,-6412.648429,4302.464938,19163.066943,5936.466865,15888.469325,8701.400006,-4564.159163,0.004000,-0.006000,1.012000,192.000000,0.000000,16.000000,127.500000,104.000000,15.500000,80.000000,0.000000,0.000000,0.000000,1771319072.776740,0.000000
92.000000,15362.421019,7779.345844,4113.458587,3474.936303,3252.424687,3852.390212,-18483.752726,-21016.183021,-11941.061847,-6670.811077,4045.151656,18909.531106,5675.957283,15630.418435,8513.578297,-4813.247003,0.004000,-0.006000,1.012000,192.000000,0.000000,0.000000,0.000000,0.000000,0.000000,0.000000,0.000000,0.000000,0.000000,1771319072.776753,0.000000
94.000000,15800.649321,8218.781140,4550.345784,3906.973172,3683.411024,4281.029616,-18050.911194,-20579.765210,-11937.753789,-6665.401955,4049.487895,18915.074338,5672.202190,15630.194918,8448.825294,-4817.315020,0.004000,-0.006000,1.012000,192.000000,0.000000,0.000000,0.000000,0.000000,0.000000,0.000000,0.000000,0.000000,0.000000,1771319072.776765,0.000000
96.000000,15549.058086,7964.105363,4301.794386,3655.806620,3438.949995,4028.544310,-18299.775517,-20830.641190,-11692.108118,-6421.387961,4296.586430,19161.681135,5918.160786,15873.717174,8733.519463,-4575.715014,0.004000,-0.006000,1.012000,192.000000,0.000000,0.000000,0.000000,0.000000,0.000000,0.000000,0.000000,0.000000,0.000000,1771319072.776777,0.000000
98.000000,15541.458492,7950.783724,4291.959619,3641.613262,3426.522425,4020.721200,-18311.130203,-20840.744178,-12090.125631,-6829.173187,3896.624314,18757.047505,5519.562128,15470.759925,8345.984917,-4975.297150,0.004000,-0.006000,1.012000,192.000000,0.000000,0.000000,0.000000,0.000000,0.000000,0.000000,0.000000,0.000000,0.000000,1771319072.776788,0.000000
100.000000,15773.424896,8184.068881,4519.120397,3871.702119,3654.443163,4251.190037,-18083.835314,-20610.722376,-11689.627074,-6429.233423,4295.558249,19152.874548,5916.238536,15874.499485,8695.968532,-4576.139698,0.004000,-0.006000,1.012000,192.000000,0.000000,0.000000,127.500000,96.000000,15.500000,72.000000,0.000000,0.000000,0.000000,1771319072.776800,0.000000
102.000000,15387.656139,7800.445890,4129.238919,3484.189926,3263.913484,3859.922750,-18469.469961,-20996.111154,-11924.186280,-6657.712955,4061.960168,18921.913972,5680.695853,15640.856700,8520.954373,-4811.749436,0.004000,-0.006000,1.012000,192.000000,0.000000,0.000000,0.000000,0.000000,0.000000,0.000000,0.000000,0.000000,0.000000,1771319072.776812,0.000000
104.000000,15801.185763,8214.422550,4549.496418,3902.011085,3679.298303,4279.397938,-18052.118188,-20582.492123,-11937.977307,-6672.934493,4046.515113,18907.899428,5665.295501,15625.210479,8445.025497,-4824.087599,0.004000,-0.006000,1.012000,192.000000,0.000000,0.000000,0.000000,0.000000,0.000000,0.000000,0.000000,0.000000,0.000000,1771319072.776823,0.000000
106.000000,15556.165940,7965.535875,4297.011113,3649.101096,3432.177416,4023.291650,-18304.558790,-20833.546917,-11702.166403,-6437.861197,4281.163726,19142.056303,5905.286182,15859.501464,8717.850890,-4591.294180,0.004000,-0.006000,1.012000,192.000000,0.000000,0.000000,0.000000,0.000000,0.000000,0.000000,0.000000,0.000000,0.000000,1771319072.776835,0.000000
108.000000,15539.111559,7957.556302,4287.645732,3636.204140,3424.533120,4012.540461,-18316.494622,-20844.767492,-12070.701965,-6804.608620,3913.455178,18772.939595,5536.191825,15491.859972,8358.010156,-4962.176676,0.004000,-0.006000,1.012000,192.000000,0.000000,0.000000,0.000000,0.000000,0.000000,0.000000,0.000000,0.000000,0.000000,1771319072.776846,0.000000
110.000000,15803.242124,8215.294268,4548.512941,3899.552393,3689.758919,4279.263828,-18054.442770,-20582.156847,-11682.072184,-6412.246098,4303.828395,19160.720010,5925.469807,15882.791982,8702.271724,-4569.434174,0.002000,-0.012000,1.010000,192.000000,0.000000,8.000000,127.500000,80.000000,15.500000,72.000000,0.000000,0.000000,0.000000,1771319072.776858,0.000000
112.000000,15398.697901,7812.426426,4146.740335,3500.551403,3290.087377,3880.821631,-18451.454455,-20982.118962,-11911.736359,-6647.140580,4074.879476,18937.001400,5698.510194,15656.391162,8540.735667,-4794.091558,0.002000,-0.012000,1.010000,192.000000,0.000000,0.000000,0.000000,0.000000,0.000000,0.000000,0.000000,0.000000,0.000000,1771319072.776870,0.000000
114.000000,15782.857333,8198.150480,4533.336107,3884.174393,3670.826992,4263.192923,-18066.088029,-20598.585379,-11928.321353,-6660.953958,4058.294482,18923.724463,5681.276999,15639.716761,8465.387936,-4808.419026,0.002000,-0.012000,1.010000,192.000000,0.000000,0.000000,0.000000,0.000000,0.000000,0.000000,0.000000,0.000000,0.000000,1771319072.776881,0.000000
116.000000,15536.630516,7951.633090,4285.924648,3636.964099,3426.187149,4016.586127,-18311.219610,-20841.928821,-11716.180946,-6449.797028,4269.496115,19135.373132,5891.159879,15848.526758,8711.435939,-4593.216430,0.002000,-0.012000,1.010000,192.000000,0.000000,0.000000,0.000000,0.000000,0.000000,0.000000,0.000000,0.000000,0.000000,1771319072.776893,0.000000
118.000000,15512.311818,7923.514595,4258.856685,3608.711494,3396.839308,3992.379188,-18339.986305,-20869.399115,-12104.788375,-6839.812617,3882.006274,18744.262307,5500.138462,15466.893073,8330.293993,-4984.640179,0.002000,-0.012000,1.010000,192.000000,0.000000,0.000000,0.000000,0.000000,0.000000,0.000000,0.000000,0.000000,0.000000,1771319072.776904,0.000000
120.000000,15781.315062,8191.668474,4531.100932,3882.833288,3671.676358,4263.014109,-18069.664308,-20602.496934,-11708.782519,-6448.053592,4278.615627,19134.546117,5898.759472,15852.125389,8678.690634,-4591.048311,0.004000,-0.010000,1.016000,192.000000,0.000000,16.000000,127.500000,88.000000,15.500000,96.000000,0.000000,0.000000,0.000000,1771319072.776916,0.000000
122.000000,15363.024516,7772.863838,4112.385704,3463.179286,3252.782315,3844.142418,-18487.999557,-21022.799137,-11925.214461,-6664.150258,4061.714299,18920.595219,5685.210906,15639.761465,8527.011696,-4808.553136,0.004000,-0.010000,1.016000,192.000000,0.000000,0.000000,0.000000,0.000000,0.000000,0.000000,0.000000,0.000000,0.000000,1771319072.776929,0.000000
124.000000,15765.758248,8176.916322,4515.387656,3863.610788,3651.850361,4245.199769,-18086.562227,-20618.724301,-11970.856723,-6706.663276,4016.675534,18873.522445,5637.512283,15590.386461,8422.629049,-4852.742535,0.004000,-0.010000,1.016000,192.000000,0.000000,0.000000,0.000000,0.000000,0.000000,0.000000,0.000000,0.000000,0.000000,1771319072.776941,0.000000
126.000000,15566.447743,7975.080070,4309.550441,3656.790096,3451.936358,4034.981613,-18291.594778,-20820.404091,-11703.440452,-6438.576453,4284.002398,19143.687981,5904.861498,15858.517988,8719.795492,-4590.467166,0.004000,-0.010000,1.016000,192.000000,0.000000,0.000000,0.000000,0.000000,0.000000,0.000000,0.000000,0.000000,0.000000,1771319072.776952,0.000000
128.000000,15545.906490,7952.840084,4293.010151,3637.612300,3429.450504,4012.875737,-18309.722043,-20840.297143,-12084.358881,-6824.278155,3902.167547,18761.540206,5522.154930,15474.179742,8349.672955,-4972.167906,0.004000,-0.010000,1.016000,192.000000,0.000000,0.000000,0.000000,0.000000,0.000000,0.000000,0.000000,0.000000,0.000000,1771319072.776964,0.000000
130.000000,15768.351050,8183.107756,4524.060133,3874.809012,3657.594759,4250.385374,-18074.939319,-20608.598960,-11687.101327,-6423.734894,4303.359008,19164.765676,5920.842996,15872.219607,8705.892707,-4566.170820,0.004000,-0.010000,1.016000,192.000000,0.000000,0.000000,127.500000,96.000000,15.500000,64.000000,0.000000,0.000000,0.000000,1771319072.776975,0.000000
132.000000,15375.519142,7793.338036,4126.646117,3479.540763,3259.465487,3855.877084,-18469.626423,-21002.369643,-11934.848062,-6667.860647,4055.388755,18921.444585,5672.850391,15631.670133,8518.093350,-4808.307267,0.004000,-0.010000,1.016000,192.000000,0.000000,0.000000,0.000000,0.000000,0.000000,0.000000,0.000000,0.000000,0.000000,1771319072.776987,0.000000
134.000000,15763.254853,8177.497468,4511.163176,3862.739070,3642.149704,4244.640976,-18087.970387,-20619.193687,-11962.698336,-6697.364950,4024.118665,18888.006376,5636.685268,15602.746976,8429.781607,-4839.666765,0.004000,-0.010000,1.016000,192.000000,0.000000,0.000000,0.000000,0.000000,0.000000,0.000000,0.000000,0.000000,0.000000,1771319072.776998,0.000000
136.000000,15572.303900,7980.399785,4309.975125,3659.382899,3445.454353,4037.552063,-18289.985453,-20818.772414,-11703.351045,-6439.045839,4282.705996,19142.279821,5894.691455,15859.009726,8715.615715,-4586.309741,0.004000,-0.010000,1.016000,192.000000,0.000000,0.000000,0.000000,0.000000,0.000000,0.000000,0.000000,0.000000,0.000000,1771319072.777010,0.000000
138.000000,15530.573193,7936.523311,4268.691453,3616.646363,3402.293134,3994.100272,-18332.856099,-20862.626536,-12072.065422,-6813.303448,3913.879861,18768.335136,5523.183110,15486.584960,8352.466923,-4957.706327,0.004000,-0.010000,1.016000,192.000000,0.000000,0.000000,0.000000,0.000000,0.000000,0.000000,0.000000,0.000000,0.000000,1771319072.777021,0.000000
140.000000,15777.179989,8182.146631,4520.327392,3865.220113,3653.325576,4239.343612,-18083.365927,-20613.739862,-11717.790272,-6462.805744,4268.870267,19124.018445,5878.352330,15835.585098,8667.112430,-4604.526413,-0.002000,-0.008000,1.016000,192.000000,127.500000,120.000000,127.500000,96.000000,15.500000,96.000000,0.000000,0.000000,0.000000,1771319072.777033,0.000000
142.000000,15383.342252,7790.186440,4124.388590,3470.287141,3260.203095,3846.824628,-18479.170618,-21007.018805,-11919.917097,-6660.551627,4067.928084,18925.669065,5677.700720,15635.805206,8522.988382,-4803.836918,-0.002000,-0.008000,1.016000,192.000000,0.000000,0.000000,0.000000,0.000000,0.000000,0.000000,0.000000,0.000000,0.000000,1771319072.777044,0.000000
144.000000,15780.286882,8183.152459,4516.639354,3861.174448,3651.492733,4248.239606,-18089.870285,-20617.517307,-11960.038478,-6701.343560,4025.571528,18881.077335,5635.902957,15603.484583,8429.915718,-4842.214864,-0.002000,-0.008000,1.016000,192.000000,0.000000,0.000000,0.000000,0.000000,0.000000,0.000000,0.000000,0.000000,0.000000,1771319072.777056,0.000000
146.000000,15566.850074,7970.028576,4297.480499,3643.289643,3437.072448,4026.376191,-18306.928075,-20832.876364,-11700.668836,-6439.939909,4285.276447,19138.904707,5894.669103,15856.260461,8719.013181,-4586.846183,-0.002000,-0.008000,1.016000,192.000000,0.000000,0.000000,0.000000,0.000000,0.000000,0.000000,0.000000,0.000000,0.000000,1771319072.777067,0.000000
148.000000,15530.707303,7938.758485,4265.584560,3612.176014,3402.583707,3989.696978,-18339.025180,-20866.582795,-12090.215038,-6833.487074,3893.249201,18746.810406,5500.943124,15460.768695,8332.372705,-4986.070691,-0.002000,-0.008000,1.016000,192.000000,0.000000,0.000000,0.000000,0.000000,0.000000,0.000000,0.000000,0.000000,0.000000,1771319072.777078,0.000000
150.000000,15798.816478,8206.890012,4533.827845,3882.632122,3672.816297,4257.984967,-18069.977232,-20597.333681,-11701.540554,-6441.437476,4282.862459,19140.469329,5894.825565,15851.968926,8683.205686,-4588.075529,-0.002000,-0.008000,1.016000,192.000000,0.000000,0.000000,127.500000,88.000000,15.500000,64.000000,0.000000,0.000000,0.000000,1771319072.777090,0.000000
152.000000,15400.351930,7809.543050,4131.563500,3484.838126,3272.943589,3860.682709,-18469.961699,-20995.641767,-11915.491452,-6650.180417,4073.560723,18933.469824,5686.082624,15645.170587,8529.448036,-4794.516241,-0.002000,-0.008000,1.016000,192.000000,0.000000,0.000000,0.000000,0.000000,0.000000,0.000000,0.000000,0.000000,0.000000,1771319072.777101,0.000000
154.000000,15791.529809,8197.122299,4521.042647,3875.725433,3656.745393,4258.476705,-18082.896541,-20610.431804,-11938.580804,-6678.209505,4044.525807,18902.959693,5656.421859,15619.801357,8447.528892,-4817.784407,-0.002000,-0.008000,1.016000,192.000000,0.000000,0.000000,0.000000,0.000000,0.000000,0.000000,0.000000,0.000000,0.000000,1771319072.777114,0.000000
156.000000,15575.924882,7985.875962,4306.979991,3665.931960,3446.750754,4044.615214,-18293.494677,-20822.303989,-11703.060472,-6436.318926,4281.074319,19143.777388,5893.685626,15860.730810,8715.772178,-4576.519677,-0.002000,-0.008000,1.016000,192.000000,0.000000,0.000000,0.000000,0.000000,0.000000,0.000000,0.000000,0.000000,0.000000,1771319072.777125,0.000000
158.000000,15533.545975,7941.597157,4267.685624,3622.636631,3403.567183,4002.929211,-18335.962991,-20865.107580,-12070.925483,-6800.965285,3913.365771,18779.645119,5524.680677,15499.079585,8356.311423,-4941.590719,-0.002000,-0.008000,1.016000,192.000000,0.000000,0.000000,0.000000,0.000000,0.000000,0.000000,0.000000,0.000000,0.000000,1771319072.777136,0.000000
160.000000,15766.629966,8174.792907,4505.597592,3859.006328,3642.932015,4238.695412,-18100.174439,-20630.526022,-11734.487025,-6466.896113,4248.776048,19110.540344,5863.801344,15831.517080,8658.797581,-4601.643038,-0.003000,-0.011000,1.010000,192.000000,127.500000,112.000000,127.500000,72.000000,15.500000,48.000000,0.000000,0.000000,0.000000,1771319072.777148,0.000000
162.000000,15391.791212,7799.484765,4131.451742,3485.955714,3272.831830,3863.879009,-18470.341679,-21000.693262,-11917.458405,-6651.521522,4067.056366,18929.245344,5686.283789,15647.137540,8527.346972,-4784.480308,-0.003000,-0.011000,1.010000,192.000000,0.000000,0.000000,0.000000,0.000000,0.000000,0.000000,0.000000,0.000000,0.000000,1771319072.777165,0.000000
164.000000,15781.560931,8184.091232,4513.867738,3866.024776,3650.866884,4249.357194,-18091.501962,-20619.663074,-11959.770257,-6703.712845,4019.961240,18881.122038,5635.500626,15594.521534,8430.295697,-4836.246948,-0.003000,-0.011000,1.010000,192.000000,0.000000,0.000000,0.000000,0.000000,0.000000,0.000000,0.000000,0.000000,0.000000,1771319072.777180,0.000000
166.000000,15574.069688,7977.516410,4304.186023,3655.985434,3444.113248,4037.373249,-18301.764822,-20829.255382,-11688.151859,-6428.026429,4293.725406,19153.880376,5909.376551,15869.358584,8723.952916,-4569.925913,-0.003000,-0.011000,1.010000,192.000000,0.000000,0.000000,0.000000,0.000000,0.000000,0.000000,0.000000,0.000000,0.000000,1771319072.777192,0.000000
168.000000,15535.825853,7945.061677,4274.078223,3622.681334,3411.166777,4005.879641,-18332.230250,-20860.905452,-12083.777736,-6822.199443,3900.871146,18758.142741,5512.364866,15477.666614,8340.732257,-4963.160153,-0.003000,-0.011000,1.010000,192.000000,0.000000,0.000000,0.000000,0.000000,0.000000,0.000000,0.000000,0.000000,0.000000,1771319072.777203,0.000000
170.000000,15793.586170,8196.474099,4529.446903,3878.206477,3669.776460,4259.706051,-18076.839218,-20603.659225,-11701.227629,-6442.577415,4281.230781,19138.435321,5892.456280,15854.695839,8684.949122,-4581.504116,-0.002500,-0.010500,1.006000,192.000000,127.500000,120.000000,127.500000,88.000000,15.500000,40.000000,0.000000,0.000000,0.000000,1771319072.777215,0.000000
172.000000,15417.763939,7822.328248,4160.933693,3512.911917,3299.072778,3889.516460,-18440.926783,-20968.126770,-11900.716949,-6646.470028,4086.390625,18945.159786,5698.353731,15655.407686,8541.741495,-4772.678587,-0.002500,-0.010500,1.006000,192.000000,0.000000,0.000000,0.000000,0.000000,0.000000,0.000000,0.000000,0.000000,0.000000,1771319072.777226,0.000000
174.000000,15742.020695,8148.641366,4485.413967,3838.375668,3619.395628,4222.892728,-18116.647675,-20646.820443,-11947.543853,-6689.407729,4042.111819,18899.830449,5652.376193,15619.488432,8450.211102,-4816.309192,-0.002500,-0.010500,1.006000,192.000000,0.000000,0.000000,0.000000,0.000000,0.000000,0.000000,0.000000,0.000000,0.000000,1771319072.777238,0.000000
176.000000,15568.347641,7980.019805,4311.048008,3666.557809,3449.924701,4044.570511,-18288.532589,-20820.359387,-11739.113836,-6473.400470,4251.391202,19109.847440,5862.974329,15827.985505,8687.005483,-4605.196965,-0.002500,-0.010500,1.006000,192.000000,0.000000,0.000000,0.000000,0.000000,0.000000,0.000000,0.000000,0.000000,0.000000,1771319072.777250,0.000000
178.000000,15492.351710,7899.285304,4234.716801,3589.824270,3373.526439,3969.870981,-18366.763695,-20899.551618,-12077.228675,-6810.174204,3907.844890,18769.005688,5521.394971,15488.060175,8355.886740,-4944.228225,-0.002500,-0.010500,1.006000,192.000000,0.000000,0.000000,0.000000,0.000000,0.000000,0.000000,0.000000,0.000000,0.000000,1771319073.255921,0.000000
180.000000,15756.079943,8164.108773,4504.904688,3857.866389,3641.009765,4238.561301,-18099.101555,-20629.967228,-11758.068115,-6501.071930,4225.172606,19084.120582,5841.181379,15806.505478,8634.992973,-4625.201777,-0.002250,-0.007250,1.007000,192.000000,127.500000,120.000000,127.500000,112.000000,15.500000,64.000000,0.000000,0.000000,0.000000,1771319073.255983,0.000000
182.000000,15409.337331,7814.236917,4151.098925,3498.316228,3285.102938,3871.702119,-18454.114312,-20983.169494,-11906.126071,-6647.252339,4080.333302,18941.494100,5696.364426,15653.619546,8534.007792,-4777.774784,-0.002250,-0.007250,1.007000,192.000000,0.000000,0.000000,0.000000,0.000000,0.000000,0.000000,0.000000,0.000000,0.000000,1771319073.256030,0.000000
184.000000,15748.100370,8151.345927,4491.963028,3830.016116,3621.407285,4202.843213,-18118.905201,-20646.306353,-11970.610854,-6714.732255,4016.250851,18870.326146,5630.292670,15579.098830,8422.696104,-4848.875683,-0.002250,-0.007250,1.007000,192.000000,0.000000,0.000000,0.000000,0.000000,0.000000,0.000000,0.000000,0.000000,0.000000,1771319073.256072,0.000000
186.000000,15587.905417,7989.139317,4322.715619,3668.144783,3458.619530,4045.330470,-18282.139991,-20806.031919,-11698.567772,-6448.947662,4288.003360,19138.457672,5900.033522,15846.693915,8712.844099,-4584.253381,-0.002250,-0.007250,1.007000,192.000000,0.000000,0.000000,0.000000,0.000000,0.000000,0.000000,0.000000,0.000000,0.000000,1771319073.256133,0.000000
188.000000,15536.295239,7941.038363,4274.189982,3625.072971,3412.820806,4003.935040,-18327.134052,-20854.132873,-12067.215093,-6814.175166,3918.439617,18777.409944,5531.296793,15486.517905,8355.953795,-4948.363298,-0.002250,-0.007250,1.007000,192.000000,0.000000,0.000000,0.000000,0.000000,0.000000,0.000000,0.000000,0.000000,0.000000,1771319073.256178,0.000000
190.000000,15778.766963,8186.482869,4521.467331,3872.037395,3657.751221,4248.485476,-18083.120058,-20610.588266,-11714.705731,-6456.100220,4272.111269,19134.032027,5889.438795,15844.279926,8677.394232,-4591.964733,-0.000125,-0.007625,1.005500,192.000000,0.000000,8.000000,127.500000,96.000000,15.500000,48.000000,0.000000,0.000000,0.000000,1771319073.256201,0.000000
192.000000,15417.808642,7827.402094,4161.559541,3507.949830,3298.625743,3884.174393,-18444.212490,-20969.646689,-11899.599361,-6640.144484,4088.826965,18947.774940,5705.439234,15663.141389,8542.188530,-4776.232514,-0.000125,-0.007625,1.005500,192.000000,0.000000,0.000000,0.000000,0.000000,0.000000,0.000000,0.000000,0.000000,0.000000,1771319073.256214,0.000000
194.000000,15760.974975,8163.125296,4504.524708,3847.741049,3635.958271,4223.138597,-18101.895523,-20629.251972,-11957.669193,-6705.165709,4029.617194,18879.289195,5639.881568,15590.475868,8436.017744,-4837.722163,-0.000125,-0.007625,1.005500,192.000000,0.000000,0.000000,0.000000,0.000000,0.000000,0.000000,0.000000,0.000000,0.000000,1771319073.256227,0.000000
196.000000,15561.373897,7964.328881,4305.817700,3656.901855,3443.308585,4028.656069,-18295.461630,-20823.645094,-11704.535688,-6454.401488,4285.187040,19135.060207,5896.591353,15844.414037,8718.342628,-4576.564381,-0.000125,-0.007625,1.005500,192.000000,0.000000,0.000000,0.000000,0.000000,0.000000,0.000000,0.000000,0.000000,0.000000,1771319073.256240,0.000000
198.000000,15504.823983,7908.337761,4246.563226,3603.212965,3387.742148,3976.554153,-18355.185491,-20883.346603,-12094.931256,-6836.638670,3895.059692,18753.404171,5510.353209,15464.769657,8340.687554,-4963.450725,-0.000125,-0.007625,1.005500,192.000000,0.000000,0.000000,0.000000,0.000000,0.000000,0.000000,0.000000,0.000000,0.000000,1771319073.256253,0.000000
200.000000,15776.710603,8181.833706,4521.847310,3879.189954,3664.792021,4253.425211,-18080.862532,-20610.565914,-11730.486063,-6468.036052,4253.782839,19118.676379,5878.553495,15835.786263,8666.486581,-4596.412730,0.002938,-0.006812,1.004750,192.000000,0.000000,24.000000,127.500000,104.000000,15.500000,48.000000,0.000000,0.000000,0.000000,1771319073.256267,0.000000
202.000000,15406.118680,7814.147510,4147.679108,3496.930420,3286.309932,3872.484430,-18454.561347,-20980.375526,-11906.327236,-6640.680926,4078.858087,18942.187004,5702.488804,15660.347421,8540.735667,-4778.266523,0.002938,-0.006812,1.004750,192.000000,0.000000,0.000000,0.000000,0.000000,0.000000,0.000000,0.000000,0.000000,0.000000,1771319073.256280,0.000000
204.000000,15764.886530,8167.528590,4509.263278,3854.357166,3642.619090,4236.281423,-18097.492230,-20625.206307,-11962.698336,-6701.745892,4024.699810,18879.982100,5640.350955,15598.164868,8436.800055,-4837.252776,0.002938,-0.006812,1.004750,192.000000,0.000000,0.000000,0.000000,0.000000,0.000000,0.000000,0.000000,0.000000,0.000000,1771319073.256292,0.000000
206.000000,15590.185295,7992.425024,4333.690325,3687.702559,3473.975178,4059.568531,-18269.421848,-20800.265169,-11693.136298,-6433.994345,4296.497023,19148.292440,5917.400827,15870.275005,8735.553472,-4559.688814,0.002938,-0.006812,1.004750,192.000000,0.000000,0.000000,0.000000,0.000000,0.000000,0.000000,0.000000,0.000000,0.000000,1771319073.256305,0.000000
208.000000,15520.939591,7932.321183,4262.902351,3624.178901,3406.405855,4002.437473,-18339.069884,-20869.712039,-12060.554273,-6797.992503,3921.926489,18783.333157,5548.217064,15507.170916,8375.288054,-4929.051391,0.002938,-0.006812,1.004750,192.000000,0.000000,0.000000,0.000000,0.000000,0.000000,0.000000,0.000000,0.000000,0.000000,1771319073.256318,0.000000
210.000000,15775.213036,8183.823011,4512.124301,3869.556352,3657.125373,4247.770220,-18090.965520,-20620.914772,-11732.989458,-6465.756174,4245.289176,19112.552001,5877.145335,15834.981601,8661.904474,-4604.571117,0.002938,-0.006812,1.004750,192.000000,0.000000,0.000000,127.500000,88.000000,15.500000,64.000000,0.000000,0.000000,0.000000,1771319073.256330,0.000000
212.000000,15382.068203,7786.274884,4120.409980,3472.499963,3262.505324,3853.485448,-18482.925711,-21014.081957,-11905.679036,-6643.832522,4074.745366,18938.007228,5701.527679,15659.721572,8533.203129,-4781.753395,0.002938,-0.006812,1.004750,192.000000,0.000000,0.000000,0.000000,0.000000,0.000000,0.000000,0.000000,0.000000,0.000000,1771319073.256342,0.000000
214.000000,15750.357896,8153.916377,4497.103929,3844.880026,3634.170131,4225.060847,-18111.953808,-20647.513348,-11980.669139,-6725.505796,4000.112891,18854.434056,5622.693076,15582.518647,8413.934221,-4850.261492,0.002938,-0.006812,1.004750,192.000000,0.000000,0.000000,0.000000,0.000000,0.000000,0.000000,0.000000,0.000000,0.000000,1771319073.256355,0.000000
216.000000,15595.303845,8001.879812,4345.022660,3701.359475,3483.295856,4075.080642,-18260.436447,-20796.554780,-11693.583333,-6437.950604,4288.115119,19144.224422,5912.014057,15876.265273,8727.372733,-4559.241779,0.002938,-0.006812,1.004750,192.000000,0.000000,0.000000,0.000000,0.000000,0.000000,0.000000,0.000000,0.000000,0.000000,1771319073.256368,0.000000
218.000000,15510.993065,7921.368828,4258.834333,3618.345096,3401.935506,3991.283952,-18346.982401,-20878.943310,-12063.214131,-6793.678617,3921.390047,18792.206799,5547.904140,15512.133004,8375.913903,-4923.686972,0.002938,-0.006812,1.004750,192.000000,0.000000,0.000000,0.000000,0.000000,0.000000,0.000000,0.000000,0.000000,0.000000,1771319073.256389,0.000000
220.000000,15787.417088,8195.132994,4523.300174,3876.910076,3669.552942,4257.627339,-18085.891674,-20610.096527,-11733.436493,-6461.732860,4246.317356,19118.341102,5872.272655,15836.367409,8660.429258,-4604.928744,0.002938,-0.006812,1.004750,192.000000,0.000000,0.000000,0.000000,0.000000,0.000000,0.000000,0.000000,0.000000,0.000000,1771319073.256401,0.000000
222.000000,15418.412139,7821.098902,4149.601358,3497.645676,3296.390569,3884.621428,-18456.505949,-20982.923625,-11889.630483,-6627.694562,4088.335227,18949.585432,5709.060217,15670.092782,8543.350821,-4773.438546,0.004000,-0.014000,1.008000,192.000000,0.000000,16.000000,127.500000,72.000000,15.500000,64.000000,0.000000,0.000000,0.000000,1771319073.256414,0.000000
224.000000,15750.581414,8145.445066,4486.866830,3834.687630,3627.464608,4220.881071,-18118.257000,-20652.922470,-11967.481609,-6710.775997,4014.418008,18867.107495,5632.751361,15591.258179,8428.127578,-4841.521959,0.004000,-0.014000,1.008000,192.000000,0.000000,0.000000,0.000000,0.000000,0.000000,0.000000,0.000000,0.000000,0.000000,1771319073.256426,0.000000
226.000000,15582.853923,7992.402672,4332.371573,3685.780309,3469.840106,4057.936854,-18271.165284,-20806.210733,-11698.724234,-6443.784409,4283.622418,19138.725893,5905.710865,15862.317784,8720.466044,-4570.618817,0.004000,-0.014000,1.008000,192.000000,0.000000,0.000000,0.000000,0.000000,0.000000,0.000000,0.000000,0.000000,0.000000,1771319073.256439,0.000000
228.000000,15509.540201,7922.486415,4265.875133,3622.055485,3404.751826,3995.128452,-18340.522747,-20875.098810,-12074.211189,-6808.810748,3912.650515,18773.431334,5534.426038,15496.911466,8364.425107,-4939.422600,0.004000,-0.014000,1.008000,192.000000,0.000000,0.000000,0.000000,0.000000,0.000000,0.000000,0.000000,0.000000,0.000000,1771319073.256452,0.000000
230.000000,15801.051653,8212.142672,4545.227235,3901.385236,3691.770576,4274.435851,-18060.902424,-20591.499876,-11713.766958,-6444.387906,4271.530124,19132.154480,5897.619533,15859.389706,8685.843192,-4577.704320,0.004000,-0.014000,1.008000,192.000000,0.000000,0.000000,0.000000,0.000000,0.000000,0.000000,0.000000,0.000000,0.000000,1771319073.256464,0.000000
232.000000,15395.591008,7801.407015,4125.550881,3484.771071,3275.692853,3860.369785,-18475.080249,-21005.029500,-11890.301036,-6623.850062,4091.553878,18954.525167,5717.330362,15673.557302,8557.097144,-4759.848685,0.002000,-0.014000,1.014000,192.000000,0.000000,8.000000,127.500000,72.000000,15.500000,88.000000,0.000000,0.000000,0.000000,1771319073.256477,0.000000
234.000000,15764.059515,8162.119468,4499.316752,3855.184180,3639.847474,4227.385429,-18106.745852,-20638.550298,-11968.554493,-6714.665200,4008.494795,18863.710030,5628.437475,15588.955949,8420.907965,-4846.171122,0.002000,-0.014000,1.014000,192.000000,0.000000,0.000000,0.000000,0.000000,0.000000,0.000000,0.000000,0.000000,0.000000,1771319073.256490,0.000000
