Sample_index,EXG Channel 0,EXG Channel 1,EXG Channel 2,EXG Channel 3,EXG Channel 4,EXG Channel 5,EXG Channel 6,EXG Channel 7,EXG Channel 8,EXG Channel 9,EXG Channel 10,EXG Channel 11,EXG Channel 12,EXG Channel 13,EXG Channel 14,EXG Channel 15,Accel Channel 0,Accel Channel 1,Accel Channel 2,Not Used,Digital Channel 0 (D11),Digital Channel 1 (D12),Digital Channel 2 (D13),Digital Channel 3 (D17),Not Used,Digital Channel 4 (D18),Analog Channel 0,Analog Channel 1,Analog Channel 2,Timestamp,Marker Channel
92.000000,17915.549030,9462.119277,5100.489271,4449.986452,4036.166255,4941.613071,-17157.668431,-19721.033540,-10821.462968,-7093.214344,5293.362474,20116.279437,6530.598584,16198.733890,8040.034239,-4195.645952,0.004000,-0.006000,1.014000,192.000000,0.000000,0.000000,0.000000,0.000000,0.000000,0.000000,0.000000,0.000000,0.000000,1771318657.674940,101.000000
94.000000,18084.528218,9630.785540,5271.502468,4623.637155,4202.753806,5113.229765,-16984.911798,-19551.294393,-10414.437701,-6688.491307,5700.074816,20521.449509,6937.690906,16597.332549,8406.133462,-3788.196002,0.002000,-0.006000,1.004000,192.000000,0.000000,8.000000,127.500000,104.000000,15.500000,48.000000,0.000000,0.000000,0.000000,1771318657.675000,0.000000
96.000000,17746.592193,9293.140089,4935.823969,4286.148165,3866.516515,4771.739813,-17320.120909,-19888.179885,-10697.544896,-6968.223389,5420.700362,20243.103235,6656.483609,16325.289467,8177.005729,-4063.100107,0.002000,-0.006000,1.004000,192.000000,0.000000,0.000000,0.000000,0.000000,0.000000,0.000000,0.000000,0.000000,0.000000,1771318657.675052,0.000000
98.000000,18134.059684,9679.668806,5321.413913,4668.586513,4251.011223,5151.652414,-16937.481396,-19503.036976,-10614.530517,-6891.400443,5499.736130,20321.401396,6730.758456,16396.211552,8211.628581,-3989.048778,0.002000,-0.006000,1.004000,192.000000,0.000000,0.000000,0.000000,0.000000,0.000000,0.000000,0.000000,0.000000,0.000000,1771318657.675092,0.000000
100.000000,17836.334447,9384.290503,5018.793645,4369.363710,3959.231551,4847.579282,-17239.140539,-19803.131497,-10493.965208,-6763.839038,5624.414161,20444.693618,6858.409269,16525.270525,8357.943101,-3868.438765,0.002000,-0.006000,1.004000,192.000000,0.000000,0.000000,0.000000,0.000000,0.000000,0.000000,0.000000,0.000000,0.000000,1771318657.675133,0.000000
102.000000,17939.599507,9489.969550,5125.478521,4473.858115,4062.451906,4962.042566,-17130.823985,-19699.039423,-10809.571840,-7076.830515,5305.074788,20128.707007,6545.082515,16203.584218,8053.914673,-4186.705254,0.002000,-0.006000,1.004000,192.000000,0.000000,0.000000,0.000000,0.000000,0.000000,0.000000,0.000000,0.000000,0.000000,1771318657.675175,0.000000
104.000000,18062.847026,9613.932325,5254.448087,4601.799500,4190.840327,5087.681721,-17002.793193,-19574.696669,-10418.908050,-6687.105499,5694.553935,20521.091881,6932.013563,16605.870915,8408.815671,-3791.973447,0.005000,-0.006000,1.003000,192.000000,0.000000,32.000000,127.500000,104.000000,15.500000,40.000000,0.000000,0.000000,0.000000,1771318657.675187,0.000000
106.000000,17736.869185,9286.188696,4925.944498,4274.547610,3862.716718,4760.854514,-17331.743816,-19903.267312,-10704.943324,-6972.067889,5409.569193,20236.062436,6650.426287,16321.489670,8173.429450,-4076.444099,0.005000,-0.006000,1.003000,192.000000,0.000000,0.000000,0.000000,0.000000,0.000000,0.000000,0.000000,0.000000,0.000000,1771318657.675198,0.000000
108.000000,18133.769111,9683.982692,5318.418779,4667.781850,4251.458258,5155.183989,-16940.118902,-19507.730843,-10632.523672,-6901.257563,5481.228886,20305.755175,6718.040313,16384.007500,8197.569334,-4007.310153,0.005000,-0.006000,1.003000,192.000000,0.000000,0.000000,0.000000,0.000000,0.000000,0.000000,0.000000,0.000000,0.000000,1771318657.675208,0.000000
110.000000,17833.272258,9382.614122,5014.725627,4363.328739,3955.051774,4857.861085,-17244.616716,-19812.496878,-10488.556086,-6757.692308,5624.280050,20447.711104,6862.074955,16525.382283,8360.155923,-3864.035471,0.005000,-0.006000,1.003000,192.000000,0.000000,0.000000,0.000000,0.000000,0.000000,0.000000,0.000000,0.000000,0.000000,1771318657.675218,0.000000
112.000000,17933.743350,9481.006501,5123.086884,4466.280874,4056.439287,4957.818086,-17136.501329,-19711.087014,-10819.205441,-7090.330969,5291.931962,20111.965550,6534.063105,16197.817468,8045.778638,-4189.923905,0.005000,-0.006000,1.003000,192.000000,0.000000,0.000000,0.000000,0.000000,0.000000,0.000000,0.000000,0.000000,0.000000,1771318657.675229,0.000000
114.000000,18057.795531,9604.432834,5247.362584,4590.176593,4177.228114,5072.102555,-17013.320865,-19587.191294,-10417.835166,-6699.108386,5689.927124,20507.524372,6929.309002,16594.426822,8407.541622,-3794.633304,0.005500,-0.006000,1.003500,192.000000,0.000000,24.000000,127.500000,104.000000,15.500000,48.000000,0.000000,0.000000,0.000000,1771318657.675239,0.000000
116.000000,17742.814749,9290.055548,4930.616013,4275.978121,3862.604959,4756.428868,-17329.173366,-19897.277045,-10712.207641,-6982.975541,5401.768434,20222.852555,6640.166836,16302.088356,8164.578159,-4088.201116,0.005500,-0.006000,1.003500,192.000000,0.000000,0.000000,0.000000,0.000000,0.000000,0.000000,0.000000,0.000000,0.000000,1771318657.675249,0.000000
118.000000,18140.564041,9689.391814,5331.516901,4675.403795,4262.008281,5159.319062,-16928.428939,-19496.867895,-10622.264221,-6895.602571,5493.187069,20312.728919,6729.998497,16389.126049,8211.874451,-3999.598801,0.005500,-0.006000,1.003500,192.000000,0.000000,0.000000,0.000000,0.000000,0.000000,0.000000,0.000000,0.000000,0.000000,1771318657.675259,0.000000
120.000000,17839.642506,9390.437232,5032.338802,4377.857373,3967.568751,4856.967015,-17225.461271,-19796.716547,-10484.912751,-6754.384250,5631.745533,20455.154235,6873.362586,16530.903164,8372.024700,-3858.179314,0.005500,-0.006000,1.003500,192.000000,0.000000,0.000000,0.000000,0.000000,0.000000,0.000000,0.000000,0.000000,0.000000,1771318657.675282,0.000000
122.000000,17926.523736,9475.753841,5120.225861,4461.430545,4050.180799,4937.232129,-17137.395398,-19711.064662,-10819.987752,-7087.738167,5297.184622,20123.610809,6541.014497,16195.135259,8054.093487,-4192.472004,0.005500,-0.006000,1.003500,192.000000,0.000000,0.000000,0.000000,0.000000,0.000000,0.000000,0.000000,0.000000,0.000000,1771318657.675292,0.000000
124.000000,18063.271709,9615.921630,5251.050621,4596.591544,4182.972513,5069.956788,-17006.481231,-19578.071782,-10415.465881,-6686.725520,5698.085511,20519.281390,6937.065057,16596.416127,8412.414302,-3796.667313,0.004750,-0.010000,1.005750,192.000000,0.000000,16.000000,127.500000,72.000000,15.500000,64.000000,0.000000,0.000000,0.000000,1771318657.675303,0.000000
126.000000,17753.275365,9310.149766,4936.829798,4287.846898,3872.350320,4761.525066,-17317.438700,-19883.173094,-10715.940382,-6975.733575,5402.394283,20230.452148,6639.540987,16304.345882,8163.035889,-4094.705474,0.004750,-0.010000,1.005750,192.000000,0.000000,0.000000,0.000000,0.000000,0.000000,0.000000,0.000000,0.000000,0.000000,1771318657.675313,0.000000
128.000000,18134.618477,9689.369463,5318.552890,4666.150172,4249.156028,5140.923576,-16937.481396,-19502.612293,-10617.816224,-6880.492792,5500.540793,20328.844527,6731.317250,16402.425337,8212.053265,-3999.062359,0.004750,-0.010000,1.005750,192.000000,0.000000,0.000000,0.000000,0.000000,0.000000,0.000000,0.000000,0.000000,0.000000,1771318657.675323,0.000000
130.000000,17843.062323,9399.109709,5029.142502,4378.684387,3966.942902,4854.485971,-17227.450577,-19796.470677,-10489.852487,-6754.406602,5628.191606,20450.706238,6860.152705,16524.398807,8362.167580,-3868.885800,0.004750,-0.010000,1.005750,192.000000,0.000000,0.000000,0.000000,0.000000,0.000000,0.000000,0.000000,0.000000,0.000000,1771318657.675333,0.000000
132.000000,17912.933876,9469.048318,5101.673913,4449.941748,4035.696868,4933.298222,-17155.723829,-19727.739063,-10820.412436,-7082.396100,5297.385788,20120.481565,6537.259404,16194.598817,8053.646452,-4190.505050,0.004750,-0.010000,1.005750,192.000000,0.000000,0.000000,0.000000,0.000000,0.000000,0.000000,0.000000,0.000000,0.000000,1771318657.675343,0.000000
134.000000,18077.710936,9633.490102,5262.137087,4613.511814,4194.193088,5097.449433,-16995.551228,-19564.325460,-10431.872062,-6694.392168,5683.311007,20507.010282,6918.513110,16585.709642,8398.869145,-3804.199851,0.001375,-0.011000,1.004875,192.000000,127.500000,120.000000,127.500000,80.000000,15.500000,48.000000,0.000000,0.000000,0.000000,1771318657.675353,0.000000
136.000000,17738.143234,9296.068167,4921.161225,4274.614665,3854.893607,4753.970176,-17335.074226,-19903.647292,-10711.157109,-6966.077622,5406.216431,20234.363703,6643.161970,16311.632551,8170.389613,-4079.305122,0.001375,-0.011000,1.004875,192.000000,0.000000,0.000000,0.000000,0.000000,0.000000,0.000000,0.000000,0.000000,0.000000,1771318657.675363,0.000000
138.000000,18129.164652,9687.111936,5313.344933,4661.925693,4243.836313,5146.511513,-16944.455140,-19514.056386,-10638.983326,-6895.982551,5476.266799,20304.168201,6707.557345,16390.623616,8197.837555,-4008.338333,0.001375,-0.011000,1.004875,192.000000,0.000000,0.000000,0.000000,0.000000,0.000000,0.000000,0.000000,0.000000,0.000000,1771318657.675373,0.000000
140.000000,17875.740573,9431.653849,5060.904331,4412.234355,3993.206202,4890.561687,-17196.605169,-19767.838093,-10471.121725,-6728.076247,5644.508379,20468.654688,6878.682301,16542.570775,8385.726319,-3839.113276,0.001375,-0.011000,1.004875,192.000000,0.000000,0.000000,0.000000,0.000000,0.000000,0.000000,0.000000,0.000000,0.000000,1771318657.675384,0.000000
142.000000,17922.321608,9477.564332,5108.155919,4456.848437,4038.803761,4936.449818,-17147.856015,-19719.357159,-10797.792470,-7060.290225,5316.563584,20140.732246,6552.078611,16223.678437,8072.198400,-4169.472059,0.001375,-0.011000,1.004875,192.000000,0.000000,0.000000,0.000000,0.000000,0.000000,0.000000,0.000000,0.000000,0.000000,1771318657.675394,0.000000
144.000000,18069.261976,9625.398770,5251.497656,4605.286372,4185.453556,5084.150146,-17004.894257,-19573.847303,-10439.002268,-6700.449491,5673.297426,20500.550628,6908.879508,16568.811723,8387.849735,-3812.224127,-0.002313,-0.011500,1.005437,192.000000,127.500000,104.000000,127.500000,80.000000,15.500000,56.000000,0.000000,0.000000,0.000000,1771318657.675404,0.000000
146.000000,17714.137460,9271.056565,4896.328437,4251.324147,3835.447590,4730.143217,-17359.795256,-19931.475214,-10716.521527,-6972.336110,5394.370007,20223.456052,6640.300946,16302.557743,8161.895950,-4086.815308,-0.002313,-0.011500,1.005437,192.000000,0.000000,0.000000,0.000000,0.000000,0.000000,0.000000,0.000000,0.000000,0.000000,1771318657.675414,0.000000
148.000000,18131.153957,9687.044881,5318.195262,4665.926655,4252.464086,5149.730164,-16942.443483,-19516.559782,-10645.510035,-6905.035008,5463.280435,20290.377175,6705.836261,16391.517686,8191.847288,-4014.641525,-0.002313,-0.011500,1.005437,192.000000,0.000000,0.000000,0.000000,0.000000,0.000000,0.000000,0.000000,0.000000,0.000000,1771318657.675424,0.000000
150.000000,17848.985535,9400.830793,5030.327145,4381.545410,3969.178077,4864.745422,-17230.602173,-19802.505648,-10478.855429,-6740.906148,5631.522016,20454.371924,6876.000092,16536.133472,8375.735089,-3852.121991,-0.002313,-0.011500,1.005437,192.000000,0.000000,0.000000,0.000000,0.000000,0.000000,0.000000,0.000000,0.000000,0.000000,1771318657.675434,0.000000
152.000000,17935.665600,9490.528344,5119.577661,4469.700690,4053.108877,4954.822952,-17141.083436,-19714.059796,-10819.808938,-7082.597266,5286.455785,20110.959722,6529.346887,16208.613361,8044.146960,-4196.137690,-0.002313,-0.011500,1.005437,192.000000,0.000000,0.000000,0.000000,0.000000,0.000000,0.000000,0.000000,0.000000,0.000000,1771318657.675444,0.000000
154.000000,18064.858683,9619.676723,5252.145857,4600.279582,4187.375806,5081.132660,-17010.593952,-19585.067878,-10405.094672,-6671.839258,5699.024284,20522.969427,6942.943566,16604.082776,8418.628087,-3783.613894,-0.003156,-0.013750,1.004719,192.000000,127.500000,112.000000,127.500000,64.000000,15.500000,48.000000,0.000000,0.000000,0.000000,1771318657.675454,0.000000
156.000000,17743.530004,9302.818394,4931.018344,4282.996569,3870.785698,4769.638749,-17328.860441,-19904.697824,-10718.041446,-6979.801593,5386.323379,20211.967255,6632.410780,16296.567475,8159.549017,-4094.169032,-0.003156,-0.013750,1.004719,192.000000,0.000000,0.000000,0.000000,0.000000,0.000000,0.000000,0.000000,0.000000,0.000000,1771318657.675465,0.000000
158.000000,18147.381323,9702.780509,5333.975593,4685.864411,4272.647711,5176.082870,-16925.836137,-19502.344072,-10604.069901,-6867.417022,5498.618543,20321.379044,6744.057744,16416.886916,8228.504149,-3980.197487,-0.003156,-0.013750,1.004719,192.000000,0.000000,0.000000,0.000000,0.000000,0.000000,0.000000,0.000000,0.000000,0.000000,1771318657.675475,0.000000
160.000000,17835.239212,9392.024206,5019.508901,4373.409375,3960.326786,4861.370309,-17240.258126,-19817.146041,-10484.510420,-6744.571834,5620.055571,20443.464272,6865.248902,16540.827339,8370.325967,-3857.464058,-0.003156,-0.013750,1.004719,192.000000,0.000000,0.000000,0.000000,0.000000,0.000000,0.000000,0.000000,0.000000,0.000000,1771318657.675485,0.000000
162.000000,17935.486786,9490.729510,5121.142283,4469.790097,4058.138020,4958.332176,-17139.094131,-19716.719653,-10807.090796,-7074.103603,5293.027197,20118.514612,6541.595643,16221.398559,8059.882588,-4182.950161,-0.003156,-0.013750,1.004719,192.000000,0.000000,0.000000,0.000000,0.000000,0.000000,0.000000,0.000000,0.000000,0.000000,1771318657.675495,0.000000
164.000000,18066.333898,9620.034351,5248.301357,4601.218355,4183.061920,5084.820698,-17010.079862,-19585.000823,-10405.295838,-6676.555476,5693.525755,20516.576829,6940.283709,16602.249933,8415.878822,-3787.525450,-0.004578,-0.013875,1.004359,192.000000,127.500000,104.000000,127.500000,72.000000,15.500000,48.000000,0.000000,0.000000,0.000000,1771318657.675505,0.000000
166.000000,17739.596097,9293.140089,4919.238975,4273.117098,3858.492238,4760.943921,-17337.510566,-19911.246885,-10717.415597,-6982.461450,5386.032806,20212.861325,6630.712048,16298.266208,8158.699651,-4094.258439,-0.004578,-0.013875,1.004359,192.000000,0.000000,0.000000,0.000000,0.000000,0.000000,0.000000,0.000000,0.000000,0.000000,1771318657.675515,0.000000
168.000000,18132.182137,9684.765003,5312.987305,4662.104507,4247.904330,5149.864274,-16945.751541,-19519.778433,-10624.432340,-6893.881487,5475.104508,20298.714375,6719.023790,16397.150325,8203.380788,-4006.304324,-0.004578,-0.013875,1.004359,192.000000,0.000000,0.000000,0.000000,0.000000,0.000000,0.000000,0.000000,0.000000,0.000000,1771318657.675525,0.000000
170.000000,17848.180872,9403.267134,5029.209558,4381.321893,3965.177115,4862.242027,-17228.143481,-19802.975035,-10475.927350,-6741.621404,5624.660030,20453.231985,6871.596798,16530.411426,8372.471735,-3857.598169,-0.004578,-0.013875,1.004359,192.000000,0.000000,0.000000,0.000000,0.000000,0.000000,0.000000,0.000000,0.000000,0.000000,1771318657.675535,0.000000
172.000000,17931.329361,9486.683844,5114.012076,4461.430545,4044.905787,4945.546978,-17143.519776,-19717.948999,-10817.707875,-7081.479678,5285.628770,20116.324141,6533.504311,16206.847573,8047.656184,-4193.678998,-0.004578,-0.013875,1.004359,192.000000,0.000000,0.000000,0.000000,0.000000,0.000000,0.000000,0.000000,0.000000,0.000000,1771318657.675545,0.000000
174.000000,18075.833389,9631.925479,5258.918435,4603.699398,4190.393292,5085.580657,-17000.423908,-19574.204931,-10411.531974,-6682.836316,5690.374159,20515.593352,6933.198206,16601.735842,8407.854546,-3795.862650,-0.004578,-0.013875,1.004359,192.000000,0.000000,0.000000,0.000000,0.000000,0.000000,0.000000,0.000000,0.000000,0.000000,1771318657.675555,0.000000
176.000000,17733.985810,9287.283932,4918.546071,4261.985929,3850.982052,4740.380316,-17339.723389,-19914.152612,-10705.345655,-6975.353596,5400.360274,20224.595991,6646.380621,16302.043653,8170.344909,-4088.111709,-0.002000,-0.014000,1.006000,192.000000,127.500000,120.000000,127.500000,72.000000,15.500000,56.000000,0.000000,0.000000,0.000000,1771318657.675565,0.000000
178.000000,18148.521262,9698.578381,5331.695715,4673.392138,4259.728403,5154.356975,-16927.557221,-19500.779450,-10616.765692,-6894.127356,5488.984941,20307.543314,6727.450398,16377.860770,8211.516823,-4001.878679,-0.002000,-0.014000,1.006000,192.000000,0.000000,0.000000,0.000000,0.000000,0.000000,0.000000,0.000000,0.000000,0.000000,1771318657.675575,0.000000
180.000000,17849.566680,9399.400282,5027.801398,4375.108108,3961.042042,4854.150695,-17229.976324,-19798.951721,-10478.721318,-6754.853637,5630.471484,20446.749979,6864.600702,16520.867231,8370.102450,-3862.806125,-0.002000,-0.014000,1.006000,192.000000,0.000000,0.000000,0.000000,0.000000,0.000000,0.000000,0.000000,0.000000,0.000000,1771318657.675586,0.000000
182.000000,17940.985315,9491.578876,5120.069399,4466.638501,4048.996156,4945.658737,-17136.344866,-19705.610836,-10810.912944,-7083.781908,5298.190450,20117.598190,6538.175826,16199.650311,8053.959376,-4191.779100,-0.002000,-0.014000,1.006000,192.000000,0.000000,0.000000,0.000000,0.000000,0.000000,0.000000,0.000000,0.000000,0.000000,1771318657.675596,0.000000
184.000000,18075.207540,9627.991572,5253.710479,4599.921954,4181.452594,5079.121003,-17005.698920,-19574.003765,-10414.705922,-6689.206563,5691.938781,20513.559343,6924.816301,16597.421956,8408.480395,-3798.366046,-0.002000,-0.014000,1.006000,192.000000,0.000000,0.000000,0.000000,0.000000,0.000000,0.000000,0.000000,0.000000,0.000000,1771318657.675606,0.000000
186.000000,17747.352153,9300.046778,4926.480940,4272.021863,3855.362994,4754.998357,-17332.257906,-19903.289664,-10696.114385,-6965.317662,5412.899603,20237.090616,6652.817923,16314.270057,8180.760822,-4077.494631,-0.002000,-0.014000,1.006000,192.000000,0.000000,0.000000,127.500000,88.000000,15.500000,72.000000,0.000000,0.000000,0.000000,1771318657.675616,0.000000
188.000000,18139.424102,9691.157602,5320.117512,4667.044242,4244.059830,5147.494989,-16936.587326,-19510.994197,-10633.775369,-6906.711388,5476.378557,20298.066175,6709.300781,16381.034718,8202.531421,-4009.768845,-0.002000,-0.014000,1.006000,192.000000,0.000000,0.000000,0.000000,0.000000,0.000000,0.000000,0.000000,0.000000,0.000000,1771318657.675627,0.000000
190.000000,17864.050611,9418.622782,5038.910215,4392.274248,3968.552228,4872.680291,-17216.386463,-19787.909959,-10474.675652,-6744.594186,5634.114818,20461.815055,6869.205161,16534.881775,8379.445479,-3849.126857,-0.002000,-0.014000,1.006000,192.000000,0.000000,0.000000,0.000000,0.000000,0.000000,0.000000,0.000000,0.000000,0.000000,1771318657.675638,0.000000
192.000000,17943.667524,9498.016178,5120.136454,4472.449955,4048.683232,4953.459496,-17134.959058,-19706.929589,-10803.983903,-7072.181353,5303.152538,20134.473757,6540.075724,16213.910724,8059.413202,-4181.407890,-0.002000,-0.014000,1.006000,192.000000,0.000000,0.000000,0.000000,0.000000,0.000000,0.000000,0.000000,0.000000,0.000000,1771318657.675650,0.000000
194.000000,18063.875206,9616.346314,5244.479209,4594.199907,4170.544943,5073.443660,-17013.499679,-19586.476038,-10415.331771,-6688.066624,5690.128289,20518.744948,6925.710371,16597.600770,8410.581459,-3795.035636,-0.002000,-0.014000,1.006000,192.000000,0.000000,0.000000,0.000000,0.000000,0.000000,0.000000,0.000000,0.000000,0.000000,1771318657.675660,0.000000
196.000000,17738.210289,9291.731929,4915.394475,4267.350348,3847.182256,4744.716554,-17341.332715,-19911.716272,-10715.739216,-6987.110613,5391.307818,20218.717482,6632.254318,16302.982426,8158.900816,-4095.063102,-0.002000,-0.014000,1.006000,192.000000,0.000000,0.000000,127.500000,96.000000,15.500000,64.000000,0.000000,0.000000,0.000000,1771318657.675670,0.000000
198.000000,18154.243309,9710.044826,5332.187454,4685.886763,4263.505848,5164.459963,-16924.495032,-19495.370328,-10620.632544,-6893.680321,5481.854735,20311.521925,6721.884814,16379.380689,8207.068826,-4000.403464,-0.002000,-0.014000,1.006000,192.000000,0.000000,0.000000,0.000000,0.000000,0.000000,0.000000,0.000000,0.000000,0.000000,1771318657.675680,0.000000
200.000000,17864.944680,9421.886137,5043.648785,4396.990466,3980.063376,4872.143849,-17214.128937,-19783.394907,-10464.058574,-6733.574776,5637.445228,20471.761581,6881.498621,16541.162615,8386.083947,-3843.360107,-0.002000,-0.014000,1.006000,192.000000,0.000000,0.000000,0.000000,0.000000,0.000000,0.000000,0.000000,0.000000,0.000000,1771318657.675690,0.000000
202.000000,17930.211774,9484.113393,5112.246288,4459.128315,4043.452924,4936.494522,-17146.581965,-19718.150165,-10800.072348,-7071.935483,5301.073825,20133.289115,6543.786114,16208.725120,8061.827190,-4184.470079,-0.002000,-0.014000,1.006000,192.000000,0.000000,0.000000,0.000000,0.000000,0.000000,0.000000,0.000000,0.000000,0.000000,1771318657.675750,0.000000
204.000000,18075.699279,9629.533843,5261.466534,4606.448663,4189.521574,5081.490288,-16998.814583,-19571.165093,-10411.666085,-6689.273618,5690.217696,20516.085090,6930.426589,16591.454040,8409.799148,-3798.053121,-0.002000,-0.014000,1.006000,192.000000,0.000000,0.000000,0.000000,0.000000,0.000000,0.000000,0.000000,0.000000,0.000000,1771318657.675769,0.000000
206.000000,17763.937147,9317.391731,4948.430353,4294.686531,3878.944085,4769.035252,-17309.570886,-19882.480190,-10689.431213,-6964.267130,5415.984144,20242.857366,6656.930644,16329.379836,8180.939636,-4075.795898,-0.002000,-0.010000,1.004000,192.000000,127.500000,120.000000,127.500000,88.000000,15.500000,48.000000,0.000000,0.000000,0.000000,1771318657.675781,0.000000
208.000000,18147.649544,9697.952533,5330.980460,4674.397966,4256.018013,5147.651452,-16928.138367,-19498.790145,-10604.829860,-6887.958275,5497.702121,20321.915486,6736.145226,16394.557523,8220.882204,-3996.044874,-0.002000,-0.010000,1.004000,192.000000,0.000000,0.000000,0.000000,0.000000,0.000000,0.000000,0.000000,0.000000,0.000000,1771318657.675793,0.000000
210.000000,17852.830035,9405.167032,5039.223139,4386.865126,3969.021615,4857.525809,-17220.409777,-19791.083907,-10462.426896,-6739.788561,5642.519074,20470.733401,6879.352853,16528.690342,8384.765194,-3851.987881,-0.002000,-0.010000,1.004000,192.000000,0.000000,0.000000,0.000000,0.000000,0.000000,0.000000,0.000000,0.000000,0.000000,1771318657.675804,0.000000
212.000000,17915.034940,9464.734431,5103.819681,4447.416001,4030.868892,4922.681144,-17157.511968,-19731.181232,-10809.750653,-7088.721644,5294.301247,20122.023835,6540.366297,16193.727099,8056.730992,-4194.394254,-0.002000,-0.010000,1.004000,192.000000,0.000000,0.000000,0.000000,0.000000,0.000000,0.000000,0.000000,0.000000,0.000000,1771318658.155129,0.000000
214.000000,18070.714840,9619.296744,5255.923302,4600.704265,4180.893800,5075.678834,-17007.420004,-19577.535340,-10428.452245,-6711.401845,5672.582170,20495.990872,6915.093293,16569.057592,8390.978979,-3818.124988,-0.002000,-0.010000,1.004000,192.000000,0.000000,0.000000,0.000000,0.000000,0.000000,0.000000,0.000000,0.000000,0.000000,1771318658.155190,0.000000
216.000000,17756.315202,9305.254734,4937.567405,4284.628246,3866.695329,4761.212142,-17323.518374,-19890.906798,-10686.078451,-6964.445944,5417.481711,20243.974953,6660.819848,16322.607258,8183.353625,-4075.550029,-0.002000,-0.016000,1.006000,192.000000,127.500000,120.000000,127.500000,64.000000,15.500000,56.000000,0.000000,0.000000,0.000000,1771318658.155228,0.000000
218.000000,18149.102408,9697.483146,5328.477064,4672.431013,4254.207522,5147.360879,-16933.703951,-19499.885380,-10605.589820,-6885.834859,5499.065578,20324.955323,6733.105389,16397.418546,8218.289401,-4000.381112,-0.002000,-0.016000,1.006000,192.000000,0.000000,0.000000,0.000000,0.000000,0.000000,0.000000,0.000000,0.000000,0.000000,1771318658.155264,0.000000
220.000000,17859.267337,9408.251573,5033.478741,4383.490012,3965.199466,4856.542332,-17228.456405,-19794.257855,-10472.798106,-6748.036355,5632.416085,20458.864624,6866.075917,16523.549440,8368.359014,-3870.249256,-0.002000,-0.016000,1.006000,192.000000,0.000000,0.000000,0.000000,0.000000,0.000000,0.000000,0.000000,0.000000,0.000000,1771318658.155318,0.000000
222.000000,17935.151510,9483.442841,5106.390131,4457.407231,4033.864025,4930.839530,-17152.259308,-19717.881944,-10805.526174,-7082.530210,5296.111738,20121.509745,6531.515006,16195.068204,8047.320908,-4201.032722,-0.002000,-0.016000,1.006000,192.000000,0.000000,0.000000,0.000000,0.000000,0.000000,0.000000,0.000000,0.000000,0.000000,1771318658.155354,0.000000
224.000000,18096.933436,9645.291823,5265.176924,4619.435027,4194.774234,5094.588410,-16993.561923,-19556.412942,-10399.931419,-6680.310569,5703.069950,20524.288180,6933.309964,16597.064328,8407.809843,-3796.086168,-0.002000,-0.016000,1.006000,192.000000,0.000000,0.000000,0.000000,0.000000,0.000000,0.000000,0.000000,0.000000,0.000000,1771318658.155391,0.000000
226.000000,17769.458028,9315.894165,4933.633498,4288.025712,3868.796393,4769.772860,-17324.300685,-19886.481152,-10673.405012,-6950.699622,5430.266908,20252.692134,6664.753755,16323.344865,8183.018349,-4069.917389,-0.002000,-0.016000,1.006000,192.000000,0.000000,0.000000,127.500000,80.000000,15.500000,56.000000,0.000000,0.000000,0.000000,1771318658.155428,0.000000
228.000000,18156.344373,9704.926277,5325.213709,4675.672016,4257.716746,5155.809838,-16933.726303,-19498.276055,-10597.677302,-6879.397557,5503.625334,20326.028207,6737.352221,16396.166849,8214.221384,-3994.681417,-0.002000,-0.016000,1.006000,192.000000,0.000000,0.000000,0.000000,0.000000,0.000000,0.000000,0.000000,0.000000,0.000000,1771318658.155464,0.000000
230.000000,17854.931099,9401.277828,5024.426284,4378.192649,3961.958463,4858.576341,-17235.586612,-19798.683500,-10467.970129,-6744.527131,5634.897129,20463.290270,6874.323711,16525.315228,8371.264740,-3859.542770,-0.002000,-0.016000,1.006000,192.000000,0.000000,0.000000,0.000000,0.000000,0.000000,0.000000,0.000000,0.000000,0.000000,1771318658.155500,0.000000
232.000000,17955.893929,9505.034626,5125.053838,4476.048586,4058.875627,4953.817124,-17134.757892,-19696.714842,-10801.614618,-7078.596303,5300.380921,20130.651609,6541.595643,16196.208143,8052.931196,-4191.555582,-0.002000,-0.016000,1.006000,192.000000,0.000000,0.000000,0.000000,0.000000,0.000000,0.000000,0.000000,0.000000,0.000000,1771318658.155538,0.000000
234.000000,18095.279407,9644.867139,5263.992281,4615.389361,4195.556545,5091.280352,-16996.422946,-19559.005744,-10391.817736,-6669.760545,5708.344961,20538.325076,6944.843464,16605.267418,8417.130520,-3789.402996,-0.002000,-0.016000,1.006000,192.000000,0.000000,0.000000,0.000000,0.000000,0.000000,0.000000,0.000000,0.000000,0.000000,1771318658.155575,0.000000
236.000000,17767.513426,9317.279973,4935.868673,4288.740967,3871.746823,4764.497848,-17322.534898,-19884.916530,-10667.593559,-6938.607328,5436.368935,20267.891320,6671.727499,16325.892964,8195.960009,-4060.149677,0.002000,-0.010000,1.004000,192.000000,0.000000,8.000000,127.500000,88.000000,15.500000,48.000000,0.000000,0.000000,0.000000,1771318658.155613,0.000000
238.000000,18145.906108,9694.510364,5312.428512,4661.433954,4244.328051,5141.728239,-16945.483320,-19507.082642,-10620.833709,-6898.664760,5480.893610,20308.772660,6717.526223,16380.520628,8202.263201,-4014.999153,0.002000,-0.010000,1.004000,192.000000,0.000000,0.000000,0.000000,0.000000,0.000000,0.000000,0.000000,0.000000,0.000000,1771318658.155649,0.000000
240.000000,17879.026279,9431.676201,5041.078334,4399.896193,3976.755318,4876.703605,-17213.413681,-19772.196683,-10465.779658,-6737.262814,5638.249891,20470.800456,6871.350929,16531.976048,8376.316235,-3858.358128,0.002000,-0.010000,1.004000,192.000000,0.000000,0.000000,0.000000,0.000000,0.000000,0.000000,0.000000,0.000000,0.000000,1771318658.155670,0.000000
242.000000,17959.917243,9512.656571,5123.690381,4481.591819,4055.902845,4961.103792,-17130.712227,-19690.143429,-10784.202610,-7049.337870,5321.413913,20159.775932,6555.274910,16222.762015,8074.567684,-4169.650873,0.002000,-0.010000,1.004000,192.000000,0.000000,0.000000,0.000000,0.000000,0.000000,0.000000,0.000000,0.000000,0.000000,1771318658.155680,0.000000
244.000000,18097.156953,9648.152846,5258.627863,4618.920936,4187.621675,5094.431948,-16996.065318,-19554.893023,-10395.773994,-6665.089031,5710.513080,20542.482500,6938.808493,16612.062348,8421.265593,-3783.569191,0.002000,-0.010000,1.004000,192.000000,0.000000,0.000000,0.000000,0.000000,0.000000,0.000000,0.000000,0.000000,0.000000,1771318658.155690,0.000000
246.000000,17748.022705,9298.728025,4908.532489,4268.333825,3842.801314,4741.296737,-17345.825415,-19904.675472,-10704.451585,-6969.788011,5403.623629,20236.621229,6631.516711,16293.482935,8163.617034,-4092.358541,0.002000,-0.011000,1.003000,192.000000,0.000000,8.000000,127.500000,80.000000,15.500000,40.000000,0.000000,0.000000,0.000000,1771318658.155718,0.000000
248.000000,18149.392980,9697.840774,5310.081579,4668.318292,4243.948071,5144.499856,-16947.226756,-19505.406261,-10624.745265,-6893.188583,5481.564162,20312.415995,6709.546651,16371.356412,8200.475061,-4017.144920,0.002000,-0.011000,1.003000,192.000000,0.000000,0.000000,0.000000,0.000000,0.000000,0.000000,0.000000,0.000000,0.000000,1771318658.155728,0.000000
250.000000,17895.320701,9446.182483,5054.668195,4416.950574,3993.541478,4896.417844,-17201.656664,-19759.165616,-10457.822437,-6721.393075,5645.760077,20480.903444,6879.151688,16547.622269,8384.496973,-3848.433953,0.002000,-0.011000,1.003000,192.000000,0.000000,0.000000,0.000000,0.000000,0.000000,0.000000,0.000000,0.000000,0.000000,1771318658.155739,0.000000
252.000000,17938.392513,9489.187239,5102.299762,4458.100135,4035.138075,4937.209777,-17153.667468,-19713.746871,-10792.897438,-7056.669242,5311.936773,20147.370714,6545.082515,16221.130338,8064.688213,-4180.893800,0.002000,-0.011000,1.003000,192.000000,0.000000,0.000000,0.000000,0.000000,0.000000,0.000000,0.000000,0.000000,0.000000,1771318658.155751,0.000000
254.000000,18085.221122,9634.004192,5250.514180,4608.281506,4186.079405,5086.072396,-17005.050719,-19566.404172,-10413.945963,-6686.904333,5690.396510,20517.850878,6916.367342,16579.428801,8400.791395,-3805.004514,0.002000,-0.011000,1.003000,192.000000,0.000000,0.000000,0.000000,0.000000,0.000000,0.000000,0.000000,0.000000,0.000000,1771318658.155761,0.000000
0.000000,17759.399743,9306.908763,4921.943536,4280.761395,3863.789602,4760.385127,-17332.637886,-19892.583179,-10698.304856,-6968.066927,5408.093978,20238.230555,6639.004545,16305.105842,8170.233151,-4084.334264,0.002000,-0.011000,1.003000,192.000000,0.000000,0.000000,127.500000,88.000000,15.500000,64.000000,0.000000,0.000000,0.000000,1771318658.155771,0.000000
2.000000,18156.009097,9704.099262,5320.966878,4678.130708,4258.521409,5156.055707,-16933.323971,-19495.906770,-10613.658799,-6887.690054,5491.734206,20320.216754,6722.823587,16395.272779,8213.863756,-3997.944772,0.002000,-0.011000,1.003000,192.000000,0.000000,0.000000,0.000000,0.000000,0.000000,0.000000,0.000000,0.000000,0.000000,1771318658.155787,0.000000
4.000000,17856.048686,9403.155375,5023.308697,4378.282056,3961.734946,4853.793067,-17232.747940,-19797.454154,-10474.608597,-6744.683593,5632.036106,20461.703296,6864.064260,16527.393940,8376.740918,-3856.882913,0.002000,-0.011000,1.003000,192.000000,0.000000,0.000000,0.000000,0.000000,0.000000,0.000000,0.000000,0.000000,0.000000,1771318658.155797,0.000000
6.000000,17949.076646,9497.211516,5118.616535,4469.678339,4053.064174,4945.032888,-17138.535337,-19704.649711,-10805.772043,-7076.919922,5301.364398,20128.885821,6533.683125,16192.654215,8061.737783,-4191.957914,0.002000,-0.011000,1.003000,192.000000,0.000000,0.000000,0.000000,0.000000,0.000000,0.000000,0.000000,0.000000,0.000000,1771318658.155807,0.000000
8.000000,18082.963596,9630.025581,5245.417982,4603.252364,4184.850059,5079.456279,-17009.297551,-19574.540207,-10414.594163,-6688.245438,5690.351807,20516.554477,6918.311944,16578.870008,8408.502747,-3803.663409,0.002000,-0.011000,1.003000,192.000000,0.000000,0.000000,0.000000,0.000000,0.000000,0.000000,0.000000,0.000000,0.000000,1771318658.155818,0.000000
10.000000,17754.169435,9302.125490,4916.534414,4275.642845,3858.268721,4753.947825,-17336.504738,-19902.507353,-10694.862687,-6962.993081,5411.089112,20241.672723,6643.609004,16314.404167,8178.570351,-4080.087433,0.002000,-0.011000,1.003000,192.000000,0.000000,0.000000,127.500000,96.000000,15.500000,40.000000,0.000000,0.000000,0.000000,1771318658.155828,0.000000
12.000000,18142.173367,9690.710567,5308.494605,4664.831420,4241.735249,5145.393925,-16945.103341,-19513.005854,-10632.300154,-6903.738606,5472.042319,20301.731861,6698.706055,16364.762648,8196.943485,-4018.664839,0.002000,-0.011000,1.003000,192.000000,0.000000,0.000000,0.000000,0.000000,0.000000,0.000000,0.000000,0.000000,0.000000,1771318658.155839,0.000000
14.000000,17880.143867,9429.128102,5047.068601,4402.556050,3983.371435,4882.693873,-17207.736338,-19774.051878,-10462.628062,-6731.160787,5644.173103,20472.879168,6868.467554,16538.167481,8389.280246,-3846.891683,0.002000,-0.011000,1.003000,192.000000,0.000000,0.000000,0.000000,0.000000,0.000000,0.000000,0.000000,0.000000,0.000000,1771318658.155849,0.000000
16.000000,17946.796769,9496.116280,5112.380399,4466.191467,4047.789162,4947.513932,-17140.971677,-19706.415499,-10800.295866,-7068.873294,5307.175852,20134.205536,6531.202082,16200.186753,8065.157600,-4183.866582,0.002000,-0.011000,1.003000,192.000000,0.000000,0.000000,0.000000,0.000000,0.000000,0.000000,0.000000,0.000000,0.000000,1771318658.155859,0.000000
18.000000,18099.861515,9647.325831,5263.701709,4615.054085,4204.519594,5095.303666,-16991.952597,-19556.412942,-10396.735119,-6665.357252,5710.714246,20537.632172,6935.433380,16611.749424,8428.172282,-3782.585714,0.002000,-0.011000,1.003000,192.000000,0.000000,0.000000,0.000000,0.000000,0.000000,0.000000,0.000000,0.000000,0.000000,1771318658.155869,0.000000
20.000000,17759.891481,9308.607496,4925.162187,4277.721557,3870.763346,4755.423040,-17331.654409,-19896.494734,-10700.472975,-6967.508133,5407.535184,20234.654276,6643.564301,16300.389624,8175.999901,-4087.687026,0.002000,-0.011000,1.003000,192.000000,0.000000,0.000000,127.500000,80.000000,15.500000,48.000000,0.000000,0.000000,0.000000,1771318658.155880,0.000000
22.000000,18147.023695,9695.158564,5317.524709,4666.954835,4253.805191,5148.098486,-16939.604812,-19506.613255,-10616.542174,-6889.120566,5490.303694,20316.506364,6720.700171,16376.743183,8215.607192,-4002.303362,0.002000,-0.011000,1.003000,192.000000,0.000000,0.000000,0.000000,0.000000,0.000000,0.000000,0.000000,0.000000,0.000000,1771318658.155890,0.000000
24.000000,17865.324660,9412.341942,5029.746000,4383.646474,3970.005091,4861.973806,-17224.522498,-19788.893436,-10471.635815,-6741.084962,5638.093428,20465.346630,6867.349966,16529.338542,8381.792412,-3856.100602,0.002000,-0.011000,1.003000,192.000000,0.000000,0.000000,0.000000,0.000000,0.000000,0.000000,0.000000,0.000000,0.000000,1771318658.155900,0.000000
26.000000,17942.684048,9489.187239,5106.278373,4461.363490,4041.195398,4939.132028,-17148.034829,-19710.863496,-10812.879898,-7079.490373,5297.072863,20128.125862,6525.256518,16189.815544,8054.294652,-4198.104644,0.002000,-0.011000,1.003000,192.000000,0.000000,0.000000,0.000000,0.000000,0.000000,0.000000,0.000000,0.000000,0.000000,1771318658.155910,0.000000
28.000000,18097.514581,9644.800084,5260.997148,4613.601221,4193.366074,5088.151108,-16996.914684,-19560.458608,-10409.207393,-6679.729423,5697.079682,20525.517526,6921.664705,16593.733918,8411.430825,-3803.059912,0.002000,-0.011000,1.003000,192.000000,0.000000,0.000000,0.000000,0.000000,0.000000,0.000000,0.000000,0.000000,0.000000,1771318658.155922,0.000000
30.000000,17766.172322,9313.703694,4927.665583,4282.035444,3858.961625,4756.160647,-17328.882793,-19891.487943,-10681.094012,-6948.307985,5426.221243,20254.122645,6651.029784,16316.371121,8187.265180,-4074.767718,-0.002000,-0.008500,1.003500,192.000000,127.500000,104.000000,127.500000,104.000000,15.500000,48.000000,0.000000,0.000000,0.000000,1771318658.155932,0.000000
32.000000,18152.902204,9700.455928,5315.155424,4666.753670,4244.216292,5145.349222,-16940.409474,-19503.238142,-10620.878413,-6893.657970,5485.900400,20312.751271,6708.116139,16375.849113,8202.240849,-4017.100217,-0.002000,-0.008500,1.003500,192.000000,0.000000,0.000000,0.000000,0.000000,0.000000,0.000000,0.000000,0.000000,0.000000,1771318658.155942,0.000000
34.000000,17877.148733,9426.043561,5036.764447,4390.061425,3974.698958,4866.265341,-17217.928734,-19778.768096,-10466.047879,-6737.329869,5642.049687,20469.302889,6865.561827,16533.898298,8383.133517,-3862.582608,-0.002000,-0.008500,1.003500,192.000000,0.000000,0.000000,0.000000,0.000000,0.000000,0.000000,0.000000,0.000000,0.000000,1771318658.155952,0.000000
36.000000,17938.124292,9488.114356,5104.311419,4453.875655,4040.860121,4932.247690,-17150.694686,-19713.813926,-10798.910057,-7071.331986,5309.656895,20138.027684,6535.180692,16189.212047,8068.018623,-4194.014274,-0.002000,-0.008500,1.003500,192.000000,0.000000,0.000000,0.000000,0.000000,0.000000,0.000000,0.000000,0.000000,0.000000,1771318658.155963,0.000000
38.000000,18090.585541,9640.866177,5257.063241,4608.840300,4195.511841,5089.603971,-16998.479307,-19564.079590,-10412.157823,-6685.585581,5694.218659,20521.695378,6921.351781,16584.815572,8411.676694,-3806.971467,-0.002000,-0.008500,1.003500,192.000000,0.000000,0.000000,0.000000,0.000000,0.000000,0.000000,0.000000,0.000000,0.000000,1771318658.155973,0.000000
40.000000,17756.002278,9302.706635,4929.252556,4280.269656,3868.014081,4759.848685,-17325.082996,-19894.572484,-10693.633341,-6967.172857,5414.397170,20239.325790,6652.192074,16310.514964,8185.991131,-4079.171011,-0.002000,-0.008500,1.003500,192.000000,0.000000,0.000000,127.500000,104.000000,15.500000,48.000000,0.000000,0.000000,0.000000,1771318658.155983,0.000000
42.000000,18148.253041,9698.913658,5327.538291,4679.918847,4260.264845,5156.256873,-16925.120881,-19497.046709,-10615.178718,-6888.584124,5492.561220,20318.160393,6724.499968,16382.755802,8220.770445,-4001.766920,-0.002000,-0.008500,1.003500,192.000000,0.000000,0.000000,0.000000,0.000000,0.000000,0.000000,0.000000,0.000000,0.000000,1771318658.155993,0.000000
44.000000,17855.154616,9402.931857,5033.277575,4388.385044,3970.206257,4868.053480,-17218.688693,-19791.486238,-10473.803934,-6743.454247,5635.500626,20463.603194,6869.853362,16527.304533,8383.111165,-3857.531113,-0.002000,-0.008500,1.003500,192.000000,0.000000,0.000000,0.000000,0.000000,0.000000,0.000000,0.000000,0.000000,0.000000,1771318658.156004,0.000000
46.000000,17933.564536,9482.168792,5113.877966,4466.705557,4047.029203,4949.369126,-17137.618916,-19710.729386,-10810.175337,-7080.384443,5300.425625,20125.600115,6531.269137,16197.571599,8061.715431,-4189.901553,-0.002000,-0.008500,1.003500,192.000000,0.000000,0.000000,0.000000,0.000000,0.000000,0.000000,0.000000,0.000000,0.000000,1771318658.156013,0.000000
48.000000,18080.817828,9631.344334,5262.584122,4619.479730,4200.339818,5102.322114,-16988.622187,-19559.877462,-10409.810890,-6679.483554,5699.560726,20523.014131,6926.805607,16595.186781,8419.075122,-3790.542935,-0.002000,-0.008500,1.003500,192.000000,0.000000,0.000000,0.000000,0.000000,0.000000,0.000000,0.000000,0.000000,0.000000,1771318658.156024,0.000000
50.000000,17739.417283,9286.926304,4923.418751,4281.878982,3867.187067,4768.588217,-17326.960543,-19897.992301,-10700.316513,-6970.257398,5410.731484,20237.090616,6645.441847,16308.816231,8184.359453,-4074.030110,-0.004000,-0.009250,1.002750,192.000000,127.500000,104.000000,127.500000,88.000000,15.500000,40.000000,0.000000,0.000000,0.000000,1771318658.156034,0.000000
52.000000,18132.025675,9682.507477,5318.329372,4673.079213,4260.488362,5161.218960,-16934.374503,-19504.556895,-10615.871622,-6890.729891,5490.504860,20318.339207,6723.963526,16396.770346,8222.849157,-3994.234382,-0.004000,-0.009250,1.002750,192.000000,0.000000,0.000000,0.000000,0.000000,0.000000,0.000000,0.000000,0.000000,0.000000,1771318658.156044,0.000000
54.000000,17838.480215,9387.866782,5028.226081,4384.808765,3977.135298,4872.009739,-17226.020065,-19799.264645,-10486.186801,-6752.417296,5622.737780,20452.807302,6860.152705,16525.359932,8378.238485,-3859.162791,-0.004000,-0.009250,1.002750,192.000000,0.000000,0.000000,0.000000,0.000000,0.000000,0.000000,0.000000,0.000000,0.000000,1771318658.156054,0.000000
56.000000,17907.703567,9453.983242,5102.165652,4457.854266,4049.174970,4945.256406,-17151.052314,-19727.046159,-10816.120901,-7087.827574,5292.915439,20125.086024,6535.001878,16189.681433,8071.773716,-4181.542001,-0.004000,-0.009250,1.002750,192.000000,0.000000,0.000000,0.000000,0.000000,0.000000,0.000000,0.000000,0.000000,0.000000,1771318658.156064,0.000000
58.000000,18072.614738,9618.402674,5261.332424,4615.568175,4205.056036,5101.360989,-16994.567751,-19566.091247,-10424.138358,-6695.621514,5682.886324,20515.034558,6916.054418,16596.572589,8416.392912,-3794.879174,-0.004000,-0.009250,1.002750,192.000000,0.000000,0.000000,0.000000,0.000000,0.000000,0.000000,0.000000,0.000000,0.000000,1771318658.156074,0.000000
60.000000,17738.433807,9284.087632,4924.983373,4280.806098,3871.992692,4765.548380,-17331.363837,-19900.898028,-10695.577943,-6965.652939,5411.022056,20243.393808,6648.861664,16316.773452,8190.103852,-4069.693872,-0.004000,-0.009250,1.002750,192.000000,0.000000,0.000000,0.000000,0.000000,0.000000,0.000000,0.000000,0.000000,0.000000,1771318658.156085,0.000000
62.000000,18123.196736,9668.537637,5311.579145,4662.909170,4254.542798,5154.155809,-16946.064466,-19518.392625,-10627.919212,-6902.084577,5475.126860,20306.716300,6715.380456,16379.201875,8215.160157,-4005.879641,-0.004000,-0.010000,1.008000,192.000000,127.500000,112.000000,127.500000,88.000000,15.500000,64.000000,0.000000,0.000000,0.000000,1771318658.156096,0.000000
64.000000,17850.214881,9392.560648,5039.670174,4394.420015,3990.322827,4884.794937,-17216.654684,-19789.631044,-10485.762118,-6755.323023,5621.374324,20451.846177,6867.238208,16530.411426,8386.441575,-3858.045203,-0.004000,-0.010000,1.008000,192.000000,0.000000,0.000000,0.000000,0.000000,0.000000,0.000000,0.000000,0.000000,0.000000,1771318658.156106,0.000000
66.000000,17917.672445,9460.979338,5105.898393,4459.620054,4049.867874,4952.632481,-17150.694686,-19723.380473,-10800.854659,-7075.824687,5303.644276,20132.238583,6551.586873,16209.418024,8080.625007,-4175.305864,-0.004000,-0.010000,1.008000,192.000000,0.000000,0.000000,0.000000,0.000000,0.000000,0.000000,0.000000,0.000000,0.000000,1771318658.156116,0.000000
68.000000,18062.914081,9606.310380,5250.849456,4604.660523,4193.276667,5096.197736,-17006.347121,-19578.831742,-10423.847785,-6699.376607,5680.271170,20505.691529,6923.855176,16575.383136,8413.710703,-3799.304819,-0.004000,-0.010000,1.008000,192.000000,0.000000,0.000000,0.000000,0.000000,0.000000,0.000000,0.000000,0.000000,0.000000,1771318658.156126,0.000000
70.000000,17730.767158,9269.402536,4922.390571,4272.960636,3866.717680,4763.983758,-17335.767130,-19909.995188,-10704.809213,-6982.282636,5405.657638,20229.021636,6649.375755,16307.788051,8190.930866,-4073.068985,-0.004000,-0.010000,1.008000,192.000000,0.000000,0.000000,0.000000,0.000000,0.000000,0.000000,0.000000,0.000000,0.000000,1771318658.156136,0.000000
72.000000,18125.230745,9663.441439,5314.551927,4663.199742,4256.532104,5154.804010,-16945.080989,-19518.638494,-10632.143692,-6919.228365,5473.584589,20290.645396,6715.581622,16380.699442,8213.863756,-4008.226574,-0.006000,-0.010000,1.014000,192.000000,127.500000,104.000000,127.500000,88.000000,15.500000,88.000000,0.000000,0.000000,0.000000,1771318658.156146,0.000000
74.000000,17842.369418,9384.268151,5028.159026,4380.494878,3975.190696,4872.367367,-17232.703237,-19802.326834,-10482.476411,-6760.016890,5624.078885,20445.610040,6870.389804,16527.013961,8381.278322,-3858.626349,-0.006000,-0.010000,1.014000,192.000000,0.000000,0.000000,0.000000,0.000000,0.000000,0.000000,0.000000,0.000000,0.000000,1771318658.156156,0.000000
76.000000,17929.362408,9468.511876,5115.979030,4466.392632,4060.462601,4960.924978,-17145.084398,-19714.797403,-10805.660284,-7085.905324,5298.749244,20120.839193,6545.507198,16204.411233,8069.225618,-4182.547829,-0.006000,-0.010000,1.014000,192.000000,0.000000,0.000000,0.000000,0.000000,0.000000,0.000000,0.000000,0.000000,0.000000,1771318658.635188,0.000000
78.000000,18088.395070,9627.902165,5270.250770,4620.306745,4213.259126,5112.559213,-16993.293702,-19559.452779,-10401.049006,-6682.612799,5704.478109,20522.030654,6949.425572,16615.415110,8431.346229,-3778.808269,-0.006000,-0.010000,1.014000,192.000000,0.000000,0.000000,0.000000,0.000000,0.000000,0.000000,0.000000,0.000000,0.000000,1771318658.635275,0.000000
80.000000,17743.284135,9282.992397,4925.564519,4275.933418,3870.651587,4765.593084,-17337.823491,-19903.580237,-10682.122193,-6959.506209,5424.433103,20243.907898,6670.811077,16331.033865,8199.066901,-4065.268226,-0.006000,-0.010000,1.014000,192.000000,0.000000,0.000000,0.000000,0.000000,0.000000,0.000000,0.000000,0.000000,0.000000,1771318658.635316,0.000000
82.000000,18148.610669,9688.028358,5335.584919,4685.640894,4276.089880,5174.853525,-16926.841966,-19496.845543,-10613.524689,-6897.971856,5491.063653,20311.991312,6733.552424,16391.607093,8223.139730,-3998.078882,-0.004000,-0.010000,1.010000,192.000000,127.500000,112.000000,127.500000,88.000000,15.500000,72.000000,0.000000,0.000000,0.000000,1771318658.635357,0.000000
84.000000,17857.590956,9398.573267,5037.345593,4393.011855,3986.590086,4880.413995,-17222.734359,-19791.285073,-10468.730088,-6747.566968,5635.455923,20457.501168,6879.933999,16541.319077,8392.007159,-3848.232788,-0.004000,-0.010000,1.010000,192.000000,0.000000,0.000000,0.000000,0.000000,0.000000,0.000000,0.000000,0.000000,0.000000,1771318658.635398,0.000000
86.000000,17918.991198,9459.347660,5101.696265,4452.221626,4046.917444,4940.316670,-17160.417695,-19727.761415,-10797.792470,-7077.568123,5307.198203,20126.158908,6552.704460,16210.870887,8075.037071,-4179.262123,-0.004000,-0.010000,1.010000,192.000000,0.000000,0.000000,0.000000,0.000000,0.000000,0.000000,0.000000,0.000000,0.000000,1771318658.635440,0.000000
88.000000,18066.870340,9607.226802,5252.458781,4603.699398,4196.562373,5091.928553,-17009.677530,-19578.295300,-10429.659239,-6710.172499,5676.024339,20495.946168,6918.580165,16577.998290,8404.032398,-3811.710037,-0.004000,-0.010000,1.010000,192.000000,0.000000,0.000000,0.000000,0.000000,0.000000,0.000000,0.000000,0.000000,0.000000,1771318658.635489,0.000000
90.000000,17727.034417,9267.949673,4906.140853,4262.634130,3852.747840,4753.031403,-17352.754456,-19920.165231,-10696.695530,-6973.386642,5409.770359,20232.620267,6657.712955,16323.076644,8184.024177,-4079.282770,-0.004000,-0.010000,1.010000,192.000000,0.000000,0.000000,0.000000,0.000000,0.000000,0.000000,0.000000,0.000000,0.000000,1771318658.635540,0.000000
92.000000,18136.138396,9675.041994,5317.211785,4668.675920,4256.085069,5162.381251,-16942.443483,-19512.804689,-10636.591689,-6916.121473,5466.923769,20289.684271,6709.524299,16379.425392,8198.955142,-4019.402447,0.002000,-0.010000,1.012000,192.000000,0.000000,8.000000,127.500000,88.000000,15.500000,80.000000,0.000000,0.000000,0.000000,1771318658.635594,0.000000
94.000000,17879.897997,9418.443968,5059.317357,4413.933088,4002.146900,4905.224431,-17201.053167,-19770.006212,-10453.150922,-6733.306555,5650.051612,20472.610947,6895.334351,16557.457037,8404.591191,-3834.709982,0.002000,-0.010000,1.012000,192.000000,0.000000,0.000000,0.000000,0.000000,0.000000,0.000000,0.000000,0.000000,0.000000,1771318658.635646,0.000000
96.000000,17941.633516,9482.168792,5121.701076,4478.328464,4062.831886,4968.591627,-17136.277811,-19705.096746,-10780.805144,-7055.194027,5324.185529,20150.164682,6570.697614,16236.329524,8092.113804,-4157.647986,0.002000,-0.010000,1.012000,192.000000,0.000000,0.000000,0.000000,0.000000,0.000000,0.000000,0.000000,0.000000,0.000000,1771318658.635659,0.000000
98.000000,18078.493247,9617.329790,5256.884427,4614.160015,4197.322333,5101.025713,-17002.033234,-19569.891044,-10409.989704,-6689.988874,5693.190478,20513.760509,6933.555834,16599.165392,8417.041113,-3790.833508,0.002000,-0.010000,1.012000,192.000000,0.000000,0.000000,0.000000,0.000000,0.000000,0.000000,0.000000,0.000000,0.000000,1771318658.635669,0.000000
100.000000,17724.709836,9264.462801,4904.576231,4259.214313,3850.780887,4749.566883,-17355.526072,-19923.160365,-10702.551687,-6981.768546,5401.813138,20225.624171,6647.744077,16307.519830,8175.351700,-4084.043692,0.002000,-0.010000,1.012000,192.000000,0.000000,0.000000,0.000000,0.000000,0.000000,0.000000,0.000000,0.000000,0.000000,1771318658.635679,0.000000
102.000000,18148.320097,9687.402509,5329.527596,4679.918847,4276.179287,5172.730109,-16931.468777,-19500.645340,-10624.544099,-6910.153557,5476.579723,20296.278035,6724.075284,16382.331119,8211.516823,-4008.874775,0.004000,-0.010000,1.008000,192.000000,0.000000,16.000000,127.500000,88.000000,15.500000,64.000000,0.000000,0.000000,0.000000,1771318658.635690,0.000000
104.000000,17858.820302,9399.333227,5040.318375,4396.118748,3993.340313,4883.900867,-17219.672170,-19786.568855,-10460.728164,-6742.157846,5642.541426,20462.798531,6890.618132,16562.709697,8397.192764,-3842.711907,0.004000,-0.010000,1.008000,192.000000,0.000000,0.000000,0.000000,0.000000,0.000000,0.000000,0.000000,0.000000,0.000000,1771318658.635700,0.000000
106.000000,17924.489728,9465.986129,5109.921707,4462.972815,4056.483991,4953.437144,-17151.499349,-19718.910124,-10807.962514,-7083.334873,5300.537384,20122.202649,6544.970756,16213.955428,8071.393737,-4184.425376,0.004000,-0.010000,1.008000,192.000000,0.000000,0.000000,0.000000,0.000000,0.000000,0.000000,0.000000,0.000000,0.000000,1771318658.635710,0.000000
108.000000,18086.249302,9626.382247,5266.898008,4621.044352,4216.500129,5113.185062,-16995.081841,-19560.838587,-10403.395939,-6688.692473,5701.102996,20515.839221,6938.137941,16598.830116,8427.859357,-3786.251400,0.004000,-0.010000,1.008000,192.000000,0.000000,0.000000,0.000000,0.000000,0.000000,0.000000,0.000000,0.000000,0.000000,1771318658.635720,0.000000
110.000000,17736.533908,9277.851495,4915.774455,4272.133621,3868.036433,4757.121772,-17344.059628,-19909.905781,-10681.228123,-6961.406107,5423.226109,20239.839880,6665.379604,16335.660676,8201.972628,-4064.508267,0.004000,-0.010000,1.008000,192.000000,0.000000,0.000000,0.000000,0.000000,0.000000,0.000000,0.000000,0.000000,0.000000,1771318658.635731,0.000000
112.000000,18116.602971,9660.267491,5301.766730,4657.544751,4245.132714,5141.795294,-16957.329745,-19525.299314,-10650.002736,-6929.130188,5454.406792,20274.507436,6694.615685,16362.885101,8192.897820,-4030.421857,0.004000,-0.010000,1.008000,192.000000,0.000000,0.000000,127.500000,80.000000,15.500000,24.000000,0.000000,0.000000,0.000000,1771318658.635741,0.000000
114.000000,17851.868910,9394.885229,5035.602157,4394.330608,3981.717406,4876.860067,-17222.287324,-19789.005195,-10476.195571,-6751.500875,5631.231443,20451.108569,6867.148801,16549.142188,8385.234581,-3853.664262,0.004000,-0.010000,1.008000,192.000000,0.000000,0.000000,0.000000,0.000000,0.000000,0.000000,0.000000,0.000000,0.000000,1771318658.635751,0.000000
116.000000,17923.707416,9467.394288,5110.905184,4466.325577,4052.080697,4949.391478,-17147.453683,-19717.591371,-10799.357092,-7076.696405,5306.013561,20127.477661,6547.295338,16211.094405,8078.613350,-4176.781079,0.004000,-0.010000,1.008000,192.000000,0.000000,0.000000,0.000000,0.000000,0.000000,0.000000,0.000000,0.000000,0.000000,1771318658.635761,0.000000
118.000000,18092.776012,9636.105256,5278.096232,4631.147341,4217.952993,5111.195756,-16982.363699,-19550.087398,-10414.571812,-6696.135604,5689.882420,20507.859648,6923.050514,16596.371424,8422.427883,-3795.259153,0.004000,-0.010000,1.008000,192.000000,0.000000,0.000000,0.000000,0.000000,0.000000,0.000000,0.000000,0.000000,0.000000,1771318658.635772,0.000000
120.000000,17743.462949,9284.087632,4924.178710,4275.240514,3864.482506,4756.965310,-17338.337581,-19902.641464,-10685.676120,-6960.400279,5420.141568,20241.203337,6656.416554,16328.172842,8201.324427,-4069.872686,0.004000,-0.010000,1.008000,192.000000,0.000000,0.000000,0.000000,0.000000,0.000000,0.000000,0.000000,0.000000,0.000000,1771318658.635782,0.000000
122.000000,18137.837128,9678.171239,5323.939660,4670.866391,4262.052984,5153.440553,-16941.370599,-19506.814421,-10618.240907,-6901.436377,5484.514592,20303.765870,6718.777921,16391.137706,8222.066846,-4006.483138,0.001000,-0.010000,1.008000,192.000000,127.500000,120.000000,127.500000,88.000000,15.500000,64.000000,0.000000,0.000000,0.000000,1771318658.635792,0.000000
124.000000,17863.044782,9404.451776,5049.661404,4397.191631,3994.368493,4875.943646,-17216.207649,-19782.612596,-10473.133382,-6755.703003,5632.058457,20449.543947,6865.561827,16532.870118,8387.223886,-3862.381442,0.001000,-0.010000,1.008000,192.000000,0.000000,0.000000,0.000000,0.000000,0.000000,0.000000,0.000000,0.000000,0.000000,1771318658.635804,0.000000
126.000000,17902.249742,9442.919128,5090.788614,4438.162379,4033.506397,4924.849263,-17172.509989,-19742.670029,-10801.659322,-7084.966550,5303.621924,20121.688559,6539.047544,16208.434547,8076.378176,-4185.341798,0.001000,-0.010000,1.008000,192.000000,0.000000,0.000000,0.000000,0.000000,0.000000,0.000000,0.000000,0.000000,0.000000,1771318658.635814,0.000000
128.000000,18075.296947,9614.938154,5261.667700,4610.494329,4209.749902,5098.656428,-17001.072109,-19570.986279,-10428.474597,-6720.387247,5672.358653,20485.619662,6908.253659,16574.176142,8405.172337,-3814.258136,0.001000,-0.010000,1.008000,192.000000,0.000000,0.000000,0.000000,0.000000,0.000000,0.000000,0.000000,0.000000,0.000000,1771318658.635824,0.000000
130.000000,17757.321031,9297.856307,4941.143685,4293.323075,3893.696236,4778.802965,-17319.629171,-19885.587083,-10678.143582,-6964.401241,5426.265946,20243.259697,6664.664348,16331.749121,8209.281648,-4061.267264,0.001000,-0.010000,1.008000,192.000000,0.000000,0.000000,0.000000,0.000000,0.000000,0.000000,0.000000,0.000000,0.000000,1771318658.635835,0.000000
132.000000,18133.545593,9675.265512,5319.044628,4667.312463,4268.378528,5149.149018,-16942.421131,-19508.915485,-10615.044608,-6905.236173,5487.934409,20305.598713,6721.571889,16382.979319,8228.392390,-4002.884508,0.001000,-0.010000,1.008000,192.000000,0.000000,0.000000,127.500000,80.000000,15.500000,56.000000,0.000000,0.000000,0.000000,1771318658.635845,0.000000
134.000000,17848.918480,9391.063081,5033.836369,4386.239277,3988.802909,4865.550085,-17226.869431,-19793.095564,-10469.713565,-6754.898340,5635.008888,20454.170758,6873.720214,16535.775845,8395.225810,-3857.240541,0.001000,-0.010000,1.008000,192.000000,0.000000,0.000000,0.000000,0.000000,0.000000,0.000000,0.000000,0.000000,0.000000,1771318658.635856,0.000000
136.000000,17929.921201,9468.355413,5113.632096,4463.464554,4061.468430,4947.536283,-17147.900718,-19713.702168,-10808.744825,-7093.348455,5293.720102,20114.826574,6529.928032,16208.725120,8067.035147,-4199.892783,0.001000,-0.010000,1.008000,192.000000,0.000000,0.000000,0.000000,0.000000,0.000000,0.000000,0.000000,0.000000,0.000000,1771318658.635866,0.000000
138.000000,18085.265825,9622.247174,5270.898970,4618.540957,4217.058923,5101.897431,-16991.952597,-19558.692820,-10394.410538,-6686.144374,5706.735636,20525.249305,6938.495569,16599.008930,8437.291794,-3785.469089,0.001000,-0.010000,1.008000,192.000000,0.000000,0.000000,0.000000,0.000000,0.000000,0.000000,0.000000,0.000000,0.000000,1771318658.635876,0.000000
140.000000,17738.053827,9275.906894,4921.742370,4270.814868,3866.047128,4749.566883,-17335.588316,-19902.708519,-10683.306835,-6974.593636,5420.678010,20239.683418,6654.270787,16320.014455,8200.631523,-4072.309026,0.001000,-0.010000,1.008000,192.000000,0.000000,0.000000,0.000000,0.000000,0.000000,0.000000,0.000000,0.000000,0.000000,1771318658.635886,0.000000
142.000000,18108.690454,9646.856445,5289.160346,4640.982108,4227.340725,5119.532957,-16963.543530,-19532.094244,-10637.798683,-6928.593746,5467.326101,20285.929178,6690.882944,16363.578005,8198.463404,-4027.940813,-0.000500,-0.014000,1.008000,192.000000,127.500000,120.000000,127.500000,56.000000,15.500000,64.000000,0.000000,0.000000,0.000000,1771318658.635897,0.000000
144.000000,17854.573471,9393.633532,5036.876206,4388.407396,3977.917609,4866.511210,-17219.135728,-19786.166523,-10485.873876,-6769.605788,5623.944774,20442.346685,6847.613376,16523.594144,8372.941121,-3868.796393,-0.000500,-0.014000,1.008000,192.000000,0.000000,0.000000,0.000000,0.000000,0.000000,0.000000,0.000000,0.000000,0.000000,1771318658.635907,0.000000
146.000000,17913.358559,9454.117352,5099.148166,4447.728926,4036.725049,4931.018344,-17160.954137,-19728.454319,-10804.922677,-7093.013178,5304.046607,20119.162812,6529.995087,16197.236323,8070.186743,-4189.298056,-0.000500,-0.014000,1.008000,192.000000,0.000000,0.000000,0.000000,0.000000,0.000000,0.000000,0.000000,0.000000,0.000000,1771318658.635917,0.000000
148.000000,18080.393145,9621.107235,5263.299377,4614.584698,4203.424359,5100.936306,-16997.205257,-19563.163169,-10420.427969,-6713.257040,5681.858144,20496.348500,6912.478139,16571.359822,8407.206345,-3811.106540,-0.000500,-0.014000,1.008000,192.000000,0.000000,0.000000,0.000000,0.000000,0.000000,0.000000,0.000000,0.000000,0.000000,1771318658.635927,0.000000
150.000000,17741.652458,9281.830106,4922.748199,4276.112232,3868.192895,4759.401650,-17334.671895,-19901.434469,-10679.931722,-6964.222427,5425.863615,20247.215956,6658.495266,16322.316685,8201.994980,-4065.447040,-0.000500,-0.014000,1.008000,192.000000,0.000000,0.000000,0.000000,0.000000,0.000000,0.000000,0.000000,0.000000,0.000000,1771318658.635937,0.000000
152.000000,18137.457149,9675.354919,5320.721009,4668.564161,4261.203618,5154.222864,-16937.995486,-19505.652130,-10628.634468,-6918.580165,5475.618598,20294.914579,6702.394092,16379.268930,8208.722855,-4020.184758,0.000750,-0.012000,1.006000,192.000000,0.000000,8.000000,127.500000,88.000000,15.500000,48.000000,0.000000,0.000000,0.000000,1771318658.635948,0.000000
154.000000,17860.295517,9398.170936,5043.805247,4393.011855,3990.635752,4878.737614,-17215.470042,-19782.009099,-10458.470638,-6747.298747,5646.207112,20466.419514,6877.944693,16548.225766,8399.182069,-3848.836285,0.000750,-0.012000,1.006000,192.000000,0.000000,0.000000,0.000000,0.000000,0.000000,0.000000,0.000000,0.000000,0.000000,1771318658.635958,0.000000
156.000000,17921.919277,9460.085268,5109.273506,4452.668661,4054.807610,4938.014440,-17151.186425,-19715.512659,-10791.176354,-7082.664321,5313.881375,20133.244411,6547.138875,16205.394710,8081.809650,-4186.034702,0.000750,-0.012000,1.006000,192.000000,0.000000,0.000000,0.000000,0.000000,0.000000,0.000000,0.000000,0.000000,0.000000,1771318658.635969,0.000000
158.000000,18071.899482,9610.199584,5258.761973,4604.638172,4205.592478,5090.118061,-17002.368510,-19567.566462,-10421.322038,-6716.743912,5684.540353,20498.315453,6916.501453,16582.870970,8409.039189,-3817.365029,0.000750,-0.012000,1.006000,192.000000,0.000000,0.000000,0.000000,0.000000,0.000000,0.000000,0.000000,0.000000,0.000000,1771318658.635980,0.000000
160.000000,17738.031475,9274.543437,4921.474149,4274.391147,3873.020872,4755.691261,-17335.744779,-19902.261484,-10682.233951,-6972.179648,5425.729504,20240.532785,6657.936473,16310.157336,8198.441052,-4073.113689,0.000750,-0.012000,1.006000,192.000000,0.000000,0.000000,0.000000,0.000000,0.000000,0.000000,0.000000,0.000000,0.000000,1771318658.635990,0.000000
162.000000,18128.382340,9667.420050,5316.273012,4666.373690,4260.913046,5147.718507,-16941.303544,-19508.334340,-10641.285556,-6930.627755,5465.202685,20284.900997,6695.420348,16358.995898,8199.938619,-4027.493778,0.004375,-0.009000,1.008000,192.000000,0.000000,32.000000,127.500000,104.000000,15.500000,72.000000,0.000000,0.000000,0.000000,1771318658.636001,0.000000
164.000000,17852.517110,9390.213715,5041.592424,4388.519155,3989.965199,4866.131230,-17216.855850,-19785.115991,-10465.220864,-6755.859465,5642.183798,20460.697467,6875.217780,16540.648525,8395.248162,-3853.060764,0.004375,-0.009000,1.008000,192.000000,0.000000,0.000000,0.000000,0.000000,0.000000,0.000000,0.000000,0.000000,0.000000,1771318658.636011,0.000000
166.000000,17900.260437,9436.213605,5093.873154,4437.558882,4038.848464,4915.416827,-17165.312727,-19735.159842,-10805.526174,-7098.042321,5303.063131,20119.095757,6538.108771,16196.185791,8073.807725,-4193.701350,0.004375,-0.009000,1.008000,192.000000,0.000000,0.000000,0.000000,0.000000,0.000000,0.000000,0.000000,0.000000,0.000000,1771318658.636021,0.000000
168.000000,18070.334860,9604.499889,5260.125430,4607.543899,4205.190147,5088.218163,-16998.054623,-19568.460532,-10423.154881,-6724.164691,5683.333359,20495.789706,6915.517976,16578.467676,8413.353075,-3813.900508,0.004375,-0.009000,1.008000,192.000000,0.000000,0.000000,0.000000,0.000000,0.000000,0.000000,0.000000,0.000000,0.000000,1771318658.636032,0.000000
170.000000,17724.374559,9261.601777,4913.628687,4265.584560,3856.435878,4742.794304,-17341.802101,-19912.856211,-10705.390359,-6997.057140,5403.735388,20221.489098,6639.026897,16292.477106,8183.577142,-4092.939686,0.004375,-0.009000,1.008000,192.000000,0.000000,0.000000,0.000000,0.000000,0.000000,0.000000,0.000000,0.000000,0.000000,1771318658.636042,0.000000
172.000000,18114.568962,9652.824360,5310.372151,4656.248350,4243.366926,5131.513492,-16947.785550,-19521.432462,-10636.792855,-6926.023296,5471.103546,20291.673576,6704.048121,16367.735430,8210.265125,-4024.520996,0.004375,-0.009000,1.008000,192.000000,0.000000,0.000000,127.500000,112.000000,15.500000,80.000000,0.000000,0.000000,0.000000,1771318658.636052,0.000000
174.000000,17862.418933,9399.176764,5054.444677,4402.980733,3991.596877,4876.256570,-17202.483678,-19775.236520,-10467.590149,-6761.939140,5638.853388,20457.992906,6872.312054,16528.131548,8393.460023,-3858.872218,0.004375,-0.009000,1.008000,192.000000,0.000000,0.000000,0.000000,0.000000,0.000000,0.000000,0.000000,0.000000,0.000000,1771318658.636062,0.000000
176.000000,17899.142849,9436.973564,5089.268695,4442.140990,4028.879586,4926.302126,-17165.156265,-19739.630191,-10814.623334,-7104.770196,5293.004846,20110.892667,6526.172939,16186.015747,8067.482181,-4198.417568,0.004375,-0.009000,1.008000,192.000000,0.000000,0.000000,0.000000,0.000000,0.000000,0.000000,0.000000,0.000000,0.000000,1771318658.636072,0.000000
178.000000,18074.045250,9611.630095,5260.818334,4613.198890,4205.793644,5102.053893,-16994.746565,-19567.298242,-10421.925535,-6713.055874,5681.902848,20497.667253,6915.540327,16581.462810,8416.012933,-3806.278563,0.004375,-0.009000,1.008000,192.000000,0.000000,0.000000,0.000000,0.000000,0.000000,0.000000,0.000000,0.000000,0.000000,1771318658.636082,0.000000
180.000000,17716.238524,9254.449219,4901.916373,4253.693432,3851.250273,4742.727249,-17350.876910,-19923.897973,-10696.807289,-6982.193229,5408.429254,20232.396750,6643.877225,16316.259362,8192.651950,-4080.221543,0.004375,-0.009000,1.008000,192.000000,0.000000,0.000000,0.000000,0.000000,0.000000,0.000000,0.000000,0.000000,0.000000,1771318658.636093,0.000000
182.000000,18129.522279,9668.001195,5319.648125,4664.205571,4260.488362,5151.898283,-16936.497919,-19508.982540,-10634.669439,-6927.431456,5468.130764,20291.762983,6702.885831,16372.138723,8208.476986,-4021.279993,0.004375,-0.009000,1.008000,192.000000,0.000000,0.000000,127.500000,104.000000,15.500000,56.000000,0.000000,0.000000,0.000000,1771318658.636103,0.000000
184.000000,17852.919442,9392.985331,5043.000584,4391.558992,3988.065301,4874.513134,-17215.157117,-19786.390041,-10473.289844,-6766.521247,5630.203263,20450.527424,6866.411193,16529.360894,8384.184049,-3864.571913,0.004375,-0.009000,1.008000,192.000000,0.000000,0.000000,0.000000,0.000000,0.000000,0.000000,0.000000,0.000000,0.000000,1771318658.636113,0.000000
186.000000,17896.684157,9435.140721,5089.849840,4435.010783,4038.624947,4919.238975,-17170.051297,-19744.793444,-10801.592267,-7090.263914,5301.006770,20125.421301,6545.306032,16200.186753,8076.177010,-4191.622638,0.004375,-0.009000,1.008000,192.000000,0.000000,0.000000,0.000000,0.000000,0.000000,0.000000,0.000000,0.000000,0.000000,1771318658.636123,0.000000
188.000000,18076.079258,9615.519299,5268.775555,4616.864576,4218.847062,5105.227841,-16989.225684,-19563.587852,-10435.515396,-6727.785674,5666.256626,20487.318395,6908.208955,16569.571682,8400.701988,-3825.746933,0.004375,-0.009000,1.008000,192.000000,0.000000,0.000000,0.000000,0.000000,0.000000,0.000000,0.000000,0.000000,0.000000,1771318658.636134,0.000000
190.000000,17732.734112,9274.677548,4922.837606,4276.469860,3874.518439,4765.593084,-17331.073264,-19906.195391,-10682.971559,-6966.524657,5421.035638,20246.008962,6660.730441,16327.725807,8203.470195,-4065.134116,0.004375,-0.009000,1.008000,192.000000,0.000000,0.000000,0.000000,0.000000,0.000000,0.000000,0.000000,0.000000,0.000000,1771318658.636145,0.000000
192.000000,18112.244381,9654.120762,5305.186546,4654.169637,4249.871284,5141.884701,-16950.356001,-19527.154508,-10640.056210,-6924.615136,5463.280435,20285.728012,6695.621514,16366.997822,8207.292343,-4017.614307,0.004375,-0.009000,1.008000,192.000000,0.000000,0.000000,0.000000,0.000000,0.000000,0.000000,0.000000,0.000000,0.000000,1771318658.636155,0.000000
194.000000,17864.855273,9405.323494,5054.310567,4406.936992,4000.917554,4891.500460,-17201.321387,-19775.102410,-10461.130495,-6747.343450,5644.106048,20465.257223,6877.028272,16545.767074,8401.417244,-3843.181293,0.004000,-0.010000,1.008000,192.000000,0.000000,16.000000,127.500000,88.000000,15.500000,64.000000,0.000000,0.000000,0.000000,1771318658.636165,0.000000
196.000000,17904.708434,9449.088210,5097.360027,4450.008804,4041.508322,4935.555748,-17156.886119,-19733.125834,-10815.584459,-7100.232792,5290.501450,20115.407719,6520.003858,16189.659082,8063.592978,-4198.685789,0.004000,-0.010000,1.008000,192.000000,0.000000,0.000000,0.000000,0.000000,0.000000,0.000000,0.000000,0.000000,0.000000,1771318659.115523,0.000000
198.000000,18052.565223,9596.766185,5244.188636,4599.363160,4189.007484,5082.160840,-17010.549249,-19586.565445,-10429.212204,-6710.708941,5676.784298,20500.237703,6905.951429,16582.826267,8410.022665,-3809.296049,0.004000,-0.010000,1.008000,192.000000,0.000000,0.000000,0.000000,0.000000,0.000000,0.000000,0.000000,0.000000,0.000000,1771318659.115615,0.000000
200.000000,17731.460062,9276.890370,4924.446931,4277.609799,3868.058785,4759.580464,-17331.363837,-19906.217743,-10699.847126,-6980.047462,5405.724693,20230.519203,6643.027859,16306.201077,8189.120375,-4081.160317,0.004000,-0.010000,1.008000,192.000000,0.000000,0.000000,0.000000,0.000000,0.000000,0.000000,0.000000,0.000000,0.000000,1771318659.115703,0.000000
202.000000,18113.205506,9655.908901,5308.114625,4655.398983,4246.473819,5138.777809,-16949.350172,-19524.338189,-10643.520730,-6927.096179,5463.593359,20283.291672,6692.335807,16359.241767,8207.404102,-4027.851406,0.004000,-0.010000,1.008000,192.000000,0.000000,0.000000,0.000000,0.000000,0.000000,0.000000,0.000000,0.000000,0.000000,1771318659.115790,0.000000
204.000000,17840.290706,9378.836677,5032.204691,4382.707701,3975.525972,4865.393623,-17224.164870,-19798.795259,-10474.496838,-6762.296768,5632.729010,20450.460368,6861.002071,16525.538746,8388.877915,-3864.258988,0.004000,-0.010000,1.008000,192.000000,0.000000,0.000000,127.500000,96.000000,15.500000,40.000000,0.000000,0.000000,0.000000,1771318659.115877,0.000000
206.000000,17903.635550,9445.489579,5095.638942,4446.030193,4038.692002,4932.582966,-17159.322460,-19735.271601,-10817.216136,-7108.122958,5288.400386,20104.924751,6521.389666,16185.769878,8061.491914,-4204.854870,0.004000,-0.010000,1.008000,192.000000,0.000000,0.000000,0.000000,0.000000,0.000000,0.000000,0.000000,0.000000,0.000000,1771318659.115966,0.000000
208.000000,18071.474799,9613.105311,5263.254674,4612.103654,4211.403932,5101.808024,-16993.785440,-19569.578119,-10413.409521,-6707.199717,5687.893115,20504.216314,6923.341086,16602.942837,8421.310296,-3802.188194,0.004000,-0.010000,1.008000,192.000000,0.000000,0.000000,0.000000,0.000000,0.000000,0.000000,0.000000,0.000000,0.000000,1771318659.116053,0.000000
210.000000,17725.492147,9265.513333,4913.583984,4263.505848,3863.856657,4751.466781,-17343.880814,-19917.840650,-10697.008454,-6985.903619,5406.819929,20228.060511,6646.626490,16303.474164,8190.528535,-4083.954285,0.004000,-0.010000,1.008000,192.000000,0.000000,0.000000,0.000000,0.000000,0.000000,0.000000,0.000000,0.000000,0.000000,1771318659.116086,0.000000
212.000000,18110.076262,9651.863235,5299.643314,4650.682765,4244.775086,5138.710754,-16957.217986,-19531.133119,-10636.524634,-6930.292479,5464.040394,20283.559893,6700.516546,16356.783075,8201.391483,-4031.137113,0.004000,-0.010000,1.008000,192.000000,0.000000,0.000000,0.000000,0.000000,0.000000,0.000000,0.000000,0.000000,0.000000,1771318659.116109,0.000000
214.000000,17854.417009,9396.829831,5040.541892,4398.577440,3995.039045,4882.582114,-17213.704254,-19786.792372,-10474.742708,-6762.140305,5628.012792,20449.342781,6861.560865,16523.504737,8383.513496,-3865.868314,0.002000,-0.010000,1.008000,192.000000,0.000000,8.000000,127.500000,88.000000,15.500000,64.000000,0.000000,0.000000,0.000000,1771318659.116132,0.000000
216.000000,17904.060233,9445.623689,5090.252172,4444.912606,4047.900921,4931.890062,-17165.536245,-19739.719598,-10805.459119,-7089.638065,5294.927096,20119.967475,6537.438218,16192.162477,8071.505495,-4196.808242,0.002000,-0.010000,1.008000,192.000000,0.000000,0.000000,0.000000,0.000000,0.000000,0.000000,0.000000,0.000000,0.000000,1771318659.116156,0.000000
218.000000,18080.281386,9622.023657,5266.182752,4622.363105,4219.897594,5114.325001,-16991.036176,-19563.386686,-10416.985800,-6704.226935,5681.522868,20507.569076,6918.311944,16581.954549,8415.990581,-3811.508871,0.002000,-0.010000,1.008000,192.000000,0.000000,0.000000,0.000000,0.000000,0.000000,0.000000,0.000000,0.000000,0.000000,1771318659.116179,0.000000
220.000000,17726.833251,9269.536647,4911.728789,4269.898447,3863.811954,4757.926435,-17342.360895,-19914.063205,-10689.006530,-6970.123287,5412.631382,20241.940944,6650.001603,16318.695702,8193.702482,-4080.065081,0.002000,-0.010000,1.008000,192.000000,0.000000,0.000000,0.000000,0.000000,0.000000,0.000000,0.000000,0.000000,0.000000,1771318659.116211,0.000000
222.000000,18127.890602,9671.085736,5314.127244,4668.094774,4262.879999,5157.016832,-16940.096550,-19511.955322,-10632.993058,-6920.211842,5466.946121,20292.589997,6700.941229,16378.374860,8206.711198,-4027.650240,0.002000,-0.010000,1.008000,192.000000,0.000000,0.000000,0.000000,0.000000,0.000000,0.000000,0.000000,0.000000,0.000000,1771318659.116234,0.000000
224.000000,17858.216805,9401.367235,5040.631299,4395.962286,3991.663932,4880.525754,-17214.486565,-19781.159732,-10460.214074,-6745.443552,5640.038030,20464.877244,6875.486001,16532.177214,8395.739901,-3859.542770,-0.004000,-0.012000,1.006000,192.000000,127.500000,112.000000,127.500000,80.000000,15.500000,56.000000,0.000000,0.000000,0.000000,1771318659.116258,0.000000
226.000000,17909.961094,9451.926881,5091.459166,4444.376164,4037.775581,4932.605318,-17163.234015,-19730.421273,-10799.401796,-7088.945161,5300.291514,20125.734225,6532.856111,16199.180925,8069.337376,-4203.334952,-0.004000,-0.012000,1.006000,192.000000,0.000000,0.000000,0.000000,0.000000,0.000000,0.000000,0.000000,0.000000,0.000000,1771318659.116282,0.000000
228.000000,18078.336785,9621.464863,5265.691014,4617.311611,4213.706161,5103.484405,-16989.717423,-19560.100980,-10412.873079,-6706.976200,5687.244914,20509.401919,6915.652086,16587.050746,8415.297677,-3813.542880,-0.004000,-0.012000,1.006000,192.000000,0.000000,0.000000,0.000000,0.000000,0.000000,0.000000,0.000000,0.000000,0.000000,1771318659.116306,0.000000
230.000000,17723.972228,9266.921492,4907.549013,4261.203618,3858.805163,4749.522179,-17348.440569,-19917.684188,-10694.013321,-6980.539200,5409.837414,20232.240287,6641.351478,16295.181667,8193.546020,-4087.172936,-0.004000,-0.012000,1.006000,192.000000,0.000000,0.000000,0.000000,0.000000,0.000000,0.000000,0.000000,0.000000,0.000000,1771318659.116330,0.000000
232.000000,18118.949904,9660.513361,5303.241945,4649.028736,4250.072449,5142.108219,-16955.787475,-19526.215735,-10625.639334,-6917.350819,5472.891685,20291.293596,6702.863479,16365.388497,8213.036741,-4026.711467,-0.004000,-0.012000,1.006000,192.000000,0.000000,0.000000,0.000000,0.000000,0.000000,0.000000,0.000000,0.000000,0.000000,1771318659.116353,0.000000
234.000000,17860.675497,9398.796785,5043.469971,4388.228582,3993.429720,4877.664730,-17215.715911,-19785.183046,-10476.217923,-6770.745727,5624.212995,20436.870508,6855.727059,16514.184059,8381.792412,-3880.843983,0.002000,-0.008000,1.008000,192.000000,0.000000,8.000000,127.500000,96.000000,15.500000,64.000000,0.000000,0.000000,0.000000,1771318659.116377,0.000000
236.000000,17904.104937,9444.684916,5090.676855,4435.055487,4035.629813,4927.442065,-17167.078515,-19736.791520,-10798.753595,-7091.403853,5305.566526,20117.575838,6534.621898,16197.035157,8075.864086,-4198.238754,0.002000,-0.008000,1.008000,192.000000,0.000000,0.000000,0.000000,0.000000,0.000000,0.000000,0.000000,0.000000,0.000000,1771318659.116400,0.000000
238.000000,18073.128828,9614.357008,5257.867903,4606.359256,4204.854870,5089.827489,-16999.440432,-19567.097076,-10419.846823,-6713.614668,5683.735691,20498.158991,6910.533537,16571.873912,8406.915773,-3823.578814,0.002000,-0.008000,1.008000,192.000000,0.000000,0.000000,0.000000,0.000000,0.000000,0.000000,0.000000,0.000000,0.000000,1771318659.116424,0.000000
240.000000,17723.905173,9265.714498,4904.486824,4258.744926,3861.979110,4739.508598,-17351.346296,-19920.321693,-10689.051233,-6975.532410,5412.810196,20236.174194,6646.224159,16307.877458,8189.902686,-4091.352712,0.002000,-0.008000,1.008000,192.000000,0.000000,0.000000,0.000000,0.000000,0.000000,0.000000,0.000000,0.000000,0.000000,1771318659.116448,0.000000
242.000000,18131.265716,9671.309253,5311.221517,4661.925693,4262.611778,5149.573702,-16946.198576,-19515.710415,-10632.635430,-6922.826996,5465.403851,20285.370384,6696.113252,16357.990069,8203.358436,-4035.138075,0.002000,-0.008000,1.008000,192.000000,0.000000,0.000000,0.000000,0.000000,0.000000,0.000000,0.000000,0.000000,0.000000,1771318659.116472,0.000000
244.000000,17862.463637,9400.942552,5041.793590,4391.737806,3992.602705,4874.468431,-17216.252353,-19785.004233,-10458.962376,-6747.879892,5644.418972,20459.579880,6872.490868,16535.261754,8396.253991,-3860.101564,0.002000,-0.012000,1.014000,192.000000,0.000000,8.000000,127.500000,80.000000,15.500000,88.000000,0.000000,0.000000,0.000000,1771318659.116495,0.000000
246.000000,17894.247817,9436.817102,5076.438794,4427.858225,4023.179891,4911.125292,-17178.321442,-19749.152034,-10811.628200,-7100.411606,5293.027197,20110.959722,6521.501424,16184.786401,8060.620196,-4211.225118,0.002000,-0.012000,1.014000,192.000000,0.000000,0.000000,0.000000,0.000000,0.000000,0.000000,0.000000,0.000000,0.000000,1771318659.116518,0.000000
248.000000,18077.263901,9620.883718,5260.773630,4611.790730,4210.956897,5093.515526,-16995.551228,-19565.063067,-10426.462940,-6713.569965,5676.471374,20495.543837,6904.811490,16572.767982,8401.908982,-3827.400962,0.002000,-0.012000,1.014000,192.000000,0.000000,0.000000,0.000000,0.000000,0.000000,0.000000,0.000000,0.000000,0.000000,1771318659.116542,0.000000
250.000000,17743.820577,9282.835935,4920.423617,4271.239551,3874.719605,4754.461915,-17336.616497,-19902.753222,-10673.472068,-6956.086392,5430.177501,20248.713523,6666.631301,16324.104825,8206.152404,-4074.588904,0.002000,-0.012000,1.014000,192.000000,0.000000,0.000000,0.000000,0.000000,0.000000,0.000000,0.000000,0.000000,0.000000,1771318659.116566,0.000000
252.000000,18123.956695,9661.228616,5303.912497,4648.604053,4252.106458,5134.776847,-16953.798169,-19521.454814,-10638.133960,-6930.404238,5459.704156,20276.139113,6690.748834,16355.821950,8193.903648,-4048.079735,0.002000,-0.012000,1.014000,192.000000,0.000000,0.000000,0.000000,0.000000,0.000000,0.000000,0.000000,0.000000,0.000000,1771318659.116592,0.000000
254.000000,17861.234291,9402.104843,5041.860645,4391.536640,3992.312132,4874.736652,-17214.128937,-19783.260796,-10454.357917,-6745.868235,5647.168237,20461.569185,6876.067147,16530.992571,8399.249124,-3859.587474,0.002000,-0.012000,1.014000,192.000000,0.000000,0.000000,127.500000,64.000000,15.500000,80.000000,0.000000,0.000000,0.000000,1771318659.116615,0.000000
0.000000,17924.176803,9467.483695,5103.015018,4451.998109,4051.276034,4937.008612,-17152.616936,-19720.050063,-10798.530078,-7084.832440,5305.521823,20123.364940,6533.593718,16194.509410,8074.947664,-4199.423397,0.002000,-0.012000,1.014000,192.000000,0.000000,0.000000,0.000000,0.000000,0.000000,0.000000,0.000000,0.000000,0.000000,1771318659.116639,0.000000
2.000000,18084.863494,9624.929383,5264.796944,4611.790730,4215.628411,5096.465957,-16992.399632,-19559.899814,-10402.680683,-6694.481575,5699.650133,20512.531163,6924.078694,16589.934121,8426.048866,-3811.754741,0.002000,-0.012000,1.014000,192.000000,0.000000,0.000000,0.000000,0.000000,0.000000,0.000000,0.000000,0.000000,0.000000,1771318659.116662,0.000000
4.000000,17735.237507,9270.676586,4912.511100,4260.890694,3867.768212,4749.142200,-17342.740875,-19912.453879,-10682.189248,-6971.307930,5421.616783,20236.084787,6650.649804,16316.035845,8199.290419,-4086.032997,0.002000,-0.012000,1.014000,192.000000,0.000000,0.000000,0.000000,0.000000,0.000000,0.000000,0.000000,0.000000,0.000000,1771318659.116686,0.000000
6.000000,18123.062625,9658.255834,5299.777424,4649.475771,4251.659423,5136.676745,-16954.803998,-19527.065102,-10645.040649,-6939.859025,5454.652662,20265.097352,6683.149240,16335.861842,8193.300151,-4051.276034,0.002000,-0.012000,1.014000,192.000000,0.000000,0.000000,0.000000,0.000000,0.000000,0.000000,0.000000,0.000000,0.000000,1771318659.116709,0.000000
8.000000,17867.090448,9405.971695,5045.101648,4398.644495,3997.877717,4879.698739,-17210.195030,-19780.355070,-10452.793295,-6741.174369,5650.118667,20465.391334,6878.727004,16541.117911,8403.518308,-3853.105468,0.002000,-0.012000,1.014000,192.000000,0.000000,0.000000,127.500000,80.000000,15.500000,64.000000,0.000000,0.000000,0.000000,1771318659.116733,0.000000
10.000000,17920.466414,9461.292262,5102.679742,4453.048641,4049.577302,4932.046525,-17154.136855,-19725.056854,-10804.073310,-7088.587533,5300.291514,20119.676902,6532.967869,16198.063338,8075.640568,-4201.502109,0.002000,-0.012000,1.014000,192.000000,0.000000,0.000000,0.000000,0.000000,0.000000,0.000000,0.000000,0.000000,0.000000,1771318659.116768,0.000000
12.000000,18085.154067,9625.242308,5262.941749,4614.607050,4207.537080,5092.532050,-16994.768917,-19563.833721,-10403.284181,-6689.407729,5696.744406,20516.643884,6927.565566,16587.520133,8425.110093,-3807.887889,0.002000,-0.012000,1.014000,192.000000,0.000000,0.000000,0.000000,0.000000,0.000000,0.000000,0.000000,0.000000,0.000000,1771318659.116791,0.000000
14.000000,17739.484339,9281.070147,4912.689914,4267.775031,3859.989805,4744.023650,-17344.238441,-19911.358644,-10681.183419,-6963.753040,5419.113388,20239.661066,6650.269824,16307.720996,8197.904610,-4085.429500,0.002000,-0.012000,1.014000,192.000000,0.000000,0.000000,0.000000,0.000000,0.000000,0.000000,0.000000,0.000000,0.000000,1771318659.116814,0.000000
16.000000,18131.645695,9674.617311,5304.448939,4657.097716,4245.959728,5131.379382,-16952.904100,-19519.890192,-10635.205881,-6920.345953,5463.638063,20283.671651,6689.765357,16351.441008,8198.105776,-4043.788200,0.002000,-0.012000,1.014000,192.000000,0.000000,0.000000,0.000000,0.000000,0.000000,0.000000,0.000000,0.000000,0.000000,1771318659.116837,0.000000
18.000000,17883.116649,9428.099922,5061.776049,4416.101207,4011.668743,4890.047597,-17195.576989,-19762.563081,-10439.359896,-6718.621459,5664.222618,20484.077392,6893.032121,16549.656278,8411.833157,-3848.188084,0.000000,-0.012000,1.013000,192.000000,127.500000,120.000000,127.500000,80.000000,15.500000,80.000000,0.000000,0.000000,0.000000,1771318659.116860,0.000000
20.000000,17918.097129,9461.292262,5101.472748,4453.674490,4052.058345,4933.342926,-17154.919166,-19724.542764,-10799.200630,-7080.965588,5304.136014,20126.538888,6535.404210,16199.940884,8074.880609,-4204.094911,0.000000,-0.012000,1.013000,192.000000,0.000000,0.000000,0.000000,0.000000,0.000000,0.000000,0.000000,0.000000,0.000000,1771318659.116883,0.000000
22.000000,18089.155029,9631.165520,5274.095270,4627.928689,4228.659478,5114.548518,-16985.068260,-19555.742390,-10402.635980,-6685.540877,5697.861993,20518.119099,6929.711333,16592.169296,8431.189767,-3799.215412,0.000000,-0.012000,1.013000,192.000000,0.000000,0.000000,0.000000,0.000000,0.000000,0.000000,0.000000,0.000000,0.000000,1771318659.116906,0.000000
24.000000,17735.371618,9276.577446,4917.942574,4268.378528,3872.417375,4754.774839,-17342.830282,-19912.967970,-10678.903541,-6960.087354,5423.986068,20238.252907,6662.384470,16313.152470,8209.594573,-4072.487840,0.000000,-0.012000,1.013000,192.000000,0.000000,0.000000,0.000000,0.000000,0.000000,0.000000,0.000000,0.000000,0.000000,1771318659.116929,0.000000
26.000000,18141.122835,9683.982692,5323.492625,4669.748803,4270.524296,5150.288957,-16935.603849,-19504.221619,-10629.126207,-6917.082598,5471.952912,20283.112858,6700.762415,16362.706287,8212.522651,-4033.171121,0.000000,-0.012000,1.013000,192.000000,0.000000,0.000000,0.000000,0.000000,0.000000,0.000000,0.000000,0.000000,0.000000,1771318659.116952,0.000000
28.000000,17861.547215,9405.815232,5040.586596,4393.302428,3990.501641,4868.701681,-17215.559449,-19780.645642,-10444.277280,-6727.092770,5661.518057,20478.310642,6888.561772,16555.110104,8414.448311,-3849.171561,-0.001000,-0.011000,1.010500,192.000000,127.500000,120.000000,127.500000,88.000000,15.500000,64.000000,0.000000,0.000000,0.000000,1771318659.116978,0.000000
30.000000,17920.734634,9462.633367,5102.836204,4454.099173,4051.432496,4933.767609,-17152.616936,-19719.223049,-10808.096624,-7086.665283,5300.783253,20121.576801,6530.196253,16186.954521,8072.511324,-4205.011333,-0.001000,-0.011000,1.010500,192.000000,0.000000,0.000000,0.000000,0.000000,0.000000,0.000000,0.000000,0.000000,0.000000,1771318659.117001,0.000000
32.000000,18095.525276,9631.389038,5270.071956,4621.178463,4223.026839,5106.636000,-16986.990510,-19552.076704,-10402.881849,-6688.446604,5704.411054,20515.861573,6934.941642,16588.436554,8429.535738,-3803.551650,-0.001000,-0.011000,1.010500,192.000000,0.000000,0.000000,0.000000,0.000000,0.000000,0.000000,0.000000,0.000000,0.000000,1771318659.117024,0.000000
34.000000,17738.523214,9276.018652,4912.108768,4262.276502,3867.879971,4744.984775,-17345.065456,-19908.654083,-10672.399184,-6955.527598,5435.005478,20246.567756,6666.228970,16317.756929,8208.946372,-4077.628741,-0.001000,-0.011000,1.010500,192.000000,0.000000,0.000000,0.000000,0.000000,0.000000,0.000000,0.000000,0.000000,0.000000,1771318659.117047,0.000000
36.000000,18148.320097,9690.710567,5324.721971,4675.180277,4270.814868,5151.451248,-16931.044093,-19495.437383,-10632.858948,-6920.122435,5473.830458,20292.701756,6700.538898,16357.878310,8209.438111,-4037.775581,-0.001000,-0.011000,1.010500,192.000000,0.000000,0.000000,0.000000,0.000000,0.000000,0.000000,0.000000,0.000000,0.000000,1771318659.117077,0.000000
38.000000,17866.263433,9409.123291,5038.574939,4393.660056,3984.846650,4864.767774,-17217.191126,-19779.192779,-10446.333640,-6728.657392,5664.133211,20484.524427,6888.405310,16546.951717,8410.089720,-3852.300805,-0.001000,-0.011000,1.010500,192.000000,0.000000,0.000000,127.500000,88.000000,15.500000,56.000000,0.000000,0.000000,0.000000,1771318659.117100,0.000000
40.000000,17933.005742,9474.859771,5103.886736,4458.815391,4050.001985,4941.523664,-17153.220433,-19715.870287,-10806.017912,-7086.575876,5304.113663,20122.984960,6528.944555,16180.964253,8063.660033,-4211.470987,-0.001000,-0.011000,1.010500,192.000000,0.000000,0.000000,0.000000,0.000000,0.000000,0.000000,0.000000,0.000000,0.000000,1771318659.117124,0.000000
42.000000,18099.995625,9642.386096,5270.653101,4624.307707,4224.613813,5117.588355,-16987.616359,-19549.953288,-10389.515506,-6673.202714,5716.123368,20529.384378,6942.720049,16610.073043,8435.749523,-3794.163918,-0.001000,-0.011000,1.010500,192.000000,0.000000,0.000000,0.000000,0.000000,0.000000,0.000000,0.000000,0.000000,0.000000,1771318659.117146,0.000000
44.000000,17748.670906,9294.637656,4921.541205,4275.844011,3880.285189,4765.034290,-17334.671895,-19897.992301,-10674.232027,-6950.476104,5434.066705,20251.574546,6667.011281,16329.737464,8210.220422,-4073.359558,-0.001000,-0.011000,1.010500,192.000000,0.000000,0.000000,0.000000,0.000000,0.000000,0.000000,0.000000,0.000000,0.000000,1771318659.117170,0.000000
46.000000,18116.044178,9661.139209,5295.441186,4647.017079,4242.070525,5131.491140,-16961.062486,-19526.752177,-10638.379829,-6917.082598,5469.091889,20288.544332,6700.784767,16356.581909,8208.432282,-4037.619118,-0.001000,-0.011000,1.010500,192.000000,0.000000,0.000000,0.000000,0.000000,0.000000,0.000000,0.000000,0.000000,0.000000,1771318659.117193,0.000000
48.000000,17881.596730,9426.848224,5056.322224,4415.765931,4009.232403,4895.523774,-17199.421489,-19763.054819,-10456.995422,-6733.820645,5652.510304,20473.840293,6881.923304,16536.535804,8400.120842,-3855.854732,-0.001500,-0.012500,1.008250,192.000000,127.500000,120.000000,127.500000,72.000000,15.500000,56.000000,0.000000,0.000000,0.000000,1771318659.117217,0.000000
50.000000,17914.006759,9459.459419,5090.319227,4444.845551,4045.196360,4932.717077,-17167.659660,-19733.103482,-10800.519383,-7078.305731,5308.762826,20130.137519,6540.008669,16194.017672,8078.501592,-4198.998713,-0.001500,-0.012500,1.008250,192.000000,0.000000,0.000000,0.000000,0.000000,0.000000,0.000000,0.000000,0.000000,0.000000,1771318659.117240,0.000000
52.000000,18079.052040,9622.224822,5261.645348,4609.801425,4215.159025,5100.019884,-16998.501658,-19567.767628,-10412.113120,-6696.068549,5693.838679,20508.306683,6926.202110,16585.396717,8423.836043,-3814.191081,-0.001500,-0.012500,1.008250,192.000000,0.000000,0.000000,0.000000,0.000000,0.000000,0.000000,0.000000,0.000000,0.000000,1771318659.117263,0.000000
54.000000,17737.807958,9280.019615,4923.575213,4269.987854,3871.210381,4751.846761,-17335.051875,-19905.301321,-10680.803440,-6961.808439,5428.523472,20243.974953,6664.351423,16322.562554,8210.578049,-4080.601523,-0.001500,-0.012500,1.008250,192.000000,0.000000,0.000000,0.000000,0.000000,0.000000,0.000000,0.000000,0.000000,0.000000,1771318659.117286,0.000000
56.000000,18122.503832,9662.457962,5307.175852,4653.789658,4247.054964,5129.524187,-16951.540643,-19520.583096,-10641.196149,-6927.453807,5469.091889,20283.559893,6701.634133,16344.981354,8208.454634,-4043.430572,-0.001500,-0.012500,1.008250,192.000000,0.000000,0.000000,0.000000,0.000000,0.000000,0.000000,0.000000,0.000000,0.000000,1771318659.117309,0.000000
58.000000,17869.705602,9407.961000,5045.481628,4394.509422,3991.574525,4874.602541,-17215.134766,-19779.952738,-10465.556141,-6746.270567,5646.542388,20462.530310,6876.692996,16526.790443,8396.410453,-3871.545657,0.002250,-0.013250,1.010125,192.000000,0.000000,24.000000,127.500000,72.000000,15.500000,80.000000,0.000000,0.000000,0.000000,1771318659.117333,0.000000
60.000000,17905.915428,9444.349640,5084.932457,4432.485036,4031.807665,4920.088341,-17175.192198,-19743.541747,-10806.911982,-7089.079271,5302.660799,20116.972341,6534.577195,16177.767954,8071.527847,-4213.281478,0.002250,-0.013250,1.010125,192.000000,0.000000,0.000000,0.000000,0.000000,0.000000,0.000000,0.000000,0.000000,0.000000,1771318659.596730,0.000000
62.000000,18088.462125,9625.130549,5269.244941,4614.852919,4216.254260,5100.958657,-16990.298568,-19560.548015,-10408.603896,-6695.375645,5699.314856,20510.832430,6933.667592,16584.748517,8428.306392,-3810.815967,0.002250,-0.013250,1.010125,192.000000,0.000000,0.000000,0.000000,0.000000,0.000000,0.000000,0.000000,0.000000,0.000000,1771318659.596834,0.000000
64.000000,17744.982868,9282.858286,4921.071818,4269.227894,3871.232733,4755.378336,-17337.018828,-19903.915513,-10684.022091,-6971.129116,5426.511815,20240.063398,6661.043365,16305.105842,8203.716064,-4085.071872,0.002250,-0.013250,1.010125,192.000000,0.000000,0.000000,0.000000,0.000000,0.000000,0.000000,0.000000,0.000000,0.000000,1771318659.596919,0.000000
66.000000,18132.584468,9669.297596,5312.093236,4656.047184,4260.108383,5145.326870,-16949.774855,-19515.866878,-10627.069846,-6917.529633,5482.190011,20293.215846,6713.100578,16361.141665,8217.037704,-4031.114761,0.002250,-0.013250,1.010125,192.000000,0.000000,0.000000,0.000000,0.000000,0.000000,0.000000,0.000000,0.000000,0.000000,1771318659.597005,0.000000
68.000000,17864.654108,9400.093186,5044.699317,4392.296599,4001.006961,4878.402338,-17215.939428,-19782.500837,-10465.533789,-6753.803105,5645.111876,20457.657630,6878.391728,16527.282182,8402.668941,-3865.957721,0.005125,-0.011625,1.011062,192.000000,0.000000,32.000000,127.500000,88.000000,15.500000,80.000000,0.000000,0.000000,0.000000,1771318659.597091,0.000000
70.000000,17903.501440,9440.527492,5082.384358,4433.267347,4035.316889,4918.367257,-17175.885102,-19744.905203,-10816.143252,-7100.836289,5293.407177,20110.691501,6530.375067,16183.355890,8073.047766,-4211.873318,0.005125,-0.011625,1.011062,192.000000,0.000000,0.000000,0.000000,0.000000,0.000000,0.000000,0.000000,0.000000,0.000000,1771318659.597178,0.000000
72.000000,18093.334805,9630.114988,5268.708500,4621.491387,4218.489435,5107.753588,-16989.248036,-19556.323535,-10418.192794,-6705.456281,5689.725958,20506.049157,6921.016505,16571.829208,8421.734979,-3814.056970,0.005125,-0.011625,1.011062,192.000000,0.000000,0.000000,0.000000,0.000000,0.000000,0.000000,0.000000,0.000000,0.000000,1771318659.597264,0.000000
74.000000,17742.434769,9281.606589,4919.931879,4274.301740,3868.930503,4764.363738,-17336.795311,-19903.312016,-10674.187323,-6956.198151,5437.285356,20255.486102,6667.972406,16323.881307,8218.065884,-4062.854238,0.005125,-0.011625,1.011062,192.000000,0.000000,0.000000,0.000000,0.000000,0.000000,0.000000,0.000000,0.000000,0.000000,1771318659.597294,0.000000
76.000000,18124.426082,9662.569721,5301.856137,4653.521437,4245.736211,5140.364783,-16954.625184,-19522.617104,-10642.157274,-6927.118531,5467.706080,20284.364555,6696.470880,16357.878310,8206.934715,-4038.088505,0.005125,-0.011625,1.011062,192.000000,0.000000,0.000000,0.000000,0.000000,0.000000,0.000000,0.000000,0.000000,0.000000,1771318659.597317,0.000000
78.000000,17854.148788,9395.064043,5032.696430,4387.893306,3981.248019,4866.310044,-17222.086158,-19790.346299,-10475.614426,-6756.395907,5636.864082,20453.969592,6866.344138,16518.430891,8393.258857,-3872.931465,0.005125,-0.011625,1.011062,192.000000,0.000000,0.000000,0.000000,0.000000,0.000000,0.000000,0.000000,0.000000,0.000000,1771318659.597341,0.000000
80.000000,17905.446041,9447.635346,5085.178326,4439.190559,4030.734781,4923.239937,-17168.889006,-19738.177328,-10819.518366,-7099.361074,5293.161308,20114.491298,6523.580137,16188.005053,8068.733879,-4216.075446,0.002000,-0.012000,1.008000,192.000000,0.000000,8.000000,127.500000,80.000000,15.500000,64.000000,0.000000,0.000000,0.000000,1771318659.597364,0.000000
82.000000,18088.596235,9630.249099,5270.094308,4625.917032,4220.210519,5109.295858,-16984.062431,-19556.569404,-10410.973181,-6693.699264,5698.130214,20517.448547,6926.716200,16580.904017,8431.033305,-3808.960773,0.002000,-0.012000,1.008000,192.000000,0.000000,0.000000,0.000000,0.000000,0.000000,0.000000,0.000000,0.000000,0.000000,1771318659.597377,0.000000
84.000000,17719.948914,9262.764068,4904.218603,4263.237627,3856.167657,4747.309357,-17349.155825,-19923.495641,-10695.220315,-6974.236008,5414.307763,20235.168366,6652.348537,16309.062101,8202.576125,-4086.278866,0.002000,-0.012000,1.008000,192.000000,0.000000,0.000000,0.000000,0.000000,0.000000,0.000000,0.000000,0.000000,0.000000,1771318659.597389,0.000000
86.000000,18116.133585,9658.278186,5301.319695,4659.958739,4247.859627,5148.411411,-16952.255899,-19526.372197,-10645.130056,-6926.067999,5463.436897,20280.542407,6693.922781,16356.648964,8207.873488,-4035.741572,0.002000,-0.012000,1.008000,192.000000,0.000000,0.000000,0.000000,0.000000,0.000000,0.000000,0.000000,0.000000,0.000000,1771318659.597402,0.000000
88.000000,17865.861102,9408.117462,5044.833427,4403.271306,4001.901031,4888.259457,-17211.938466,-19779.058669,-10475.837943,-6754.808933,5635.187702,20450.862700,6865.651234,16526.924554,8392.901229,-3868.528172,0.002000,-0.012000,1.008000,192.000000,0.000000,0.000000,0.000000,0.000000,0.000000,0.000000,0.000000,0.000000,0.000000,1771318659.597413,0.000000
90.000000,17910.721053,9449.356431,5086.742948,4438.162379,4047.364479,4929.945461,-17171.861788,-19737.350313,-10789.969360,-7072.583684,5316.071846,20132.663266,6553.598530,16215.140070,8092.404377,-4188.091062,0.002000,-0.012000,1.008000,192.000000,0.000000,0.000000,127.500000,104.000000,15.500000,56.000000,0.000000,0.000000,0.000000,1771318659.597424,0.000000
92.000000,18101.269674,9640.285032,5277.716253,4632.354335,4238.538949,5123.153940,-16979.994414,-19547.941631,-10411.263753,-6700.002456,5691.692912,20506.742061,6929.398409,16577.417144,8424.685410,-3813.118197,0.002000,-0.012000,1.008000,192.000000,0.000000,0.000000,0.000000,0.000000,0.000000,0.000000,0.000000,0.000000,0.000000,1771318659.597442,0.000000
94.000000,17724.709836,9264.663966,4903.346885,4254.252226,3866.315349,4742.749601,-17355.526072,-19924.389711,-10684.200905,-6969.497439,5421.505025,20238.096444,6661.244531,16313.130118,8209.348704,-4080.467413,0.002000,-0.012000,1.008000,192.000000,0.000000,0.000000,0.000000,0.000000,0.000000,0.000000,0.000000,0.000000,0.000000,1771318659.597452,0.000000
96.000000,18147.224861,9686.620198,5323.626736,4674.532077,4280.224953,5161.196609,-16937.503748,-19502.791107,-10630.132035,-6918.490758,5475.506839,20290.220712,6706.797386,16353.340906,8217.417683,-4033.126418,0.002000,-0.012000,1.008000,192.000000,0.000000,0.000000,0.000000,0.000000,0.000000,0.000000,0.000000,0.000000,0.000000,1771318659.597463,0.000000
98.000000,17867.783352,9405.971695,5040.698354,4393.302428,3995.754301,4879.765794,-17220.812109,-19784.333680,-10448.993498,-6735.340564,5657.382984,20473.214444,6890.461670,16535.395865,8414.649476,-3850.892645,0.002000,-0.012000,1.008000,192.000000,0.000000,0.000000,0.000000,0.000000,0.000000,0.000000,0.000000,0.000000,0.000000,1771318659.597474,0.000000
100.000000,17922.187498,9459.705288,5089.648675,4441.828065,4036.434476,4929.185501,-17168.240806,-19732.187060,-10800.385273,-7087.291132,5305.901802,20121.755614,6537.706439,16188.586198,8080.334435,-4202.530289,0.002000,-0.012000,1.008000,192.000000,0.000000,0.000000,127.500000,96.000000,15.500000,56.000000,0.000000,0.000000,0.000000,1771318659.597496,0.000000
102.000000,18103.080166,9646.789389,5278.096232,4635.371820,4220.903423,5121.231690,-16976.082859,-19541.101997,-10414.437701,-6699.622476,5690.485917,20507.323206,6915.339162,16583.921502,8417.041113,-3818.303802,0.002000,-0.012000,1.008000,192.000000,0.000000,0.000000,0.000000,0.000000,0.000000,0.000000,0.000000,0.000000,0.000000,1771318659.597507,0.000000
104.000000,17760.852606,9303.690112,4931.353620,4290.886735,3877.692387,4775.807831,-17324.591258,-19887.107001,-10657.401163,-6929.040781,5455.166752,20277.904901,6684.155069,16343.886118,8232.929794,-4048.213845,0.002000,-0.012000,1.008000,192.000000,0.000000,0.000000,0.000000,0.000000,0.000000,0.000000,0.000000,0.000000,0.000000,1771318659.597517,0.000000
106.000000,18137.837128,9679.110012,5310.662724,4664.093812,4252.709955,5150.735992,-16949.327820,-19511.441232,-10636.055247,-6921.508243,5472.221133,20287.985538,6700.203621,16349.339944,8207.962895,-4039.317851,0.002000,-0.012000,1.008000,192.000000,0.000000,0.000000,0.000000,0.000000,0.000000,0.000000,0.000000,0.000000,0.000000,1771318659.597528,0.000000
108.000000,17874.511227,9417.795768,5045.861607,4403.383065,3994.167327,4887.588905,-17213.637199,-19775.303575,-10443.942004,-6724.119988,5666.256626,20481.082258,6895.110833,16557.077057,8416.236450,-3845.662337,0.002000,-0.012000,1.008000,192.000000,0.000000,0.000000,0.000000,0.000000,0.000000,0.000000,0.000000,0.000000,0.000000,1771318659.597538,0.000000
110.000000,17906.384815,9446.473056,5076.215276,4435.726039,4027.091447,4924.201062,-17179.081402,-19743.787616,-10806.554354,-7082.150231,5302.079654,20123.342588,6532.990221,16189.480268,8073.517152,-4202.753806,-0.004000,-0.008000,1.010000,192.000000,127.500000,112.000000,127.500000,96.000000,15.500000,72.000000,0.000000,0.000000,0.000000,1771318659.597548,0.000000
112.000000,18086.830448,9626.918689,5256.929130,4614.249422,4206.039513,5095.571887,-17000.401557,-19562.514968,-10429.770998,-6712.072398,5678.080699,20496.728479,6906.487871,16558.954604,8405.731130,-3827.266851,-0.004000,-0.008000,1.010000,192.000000,0.000000,0.000000,0.000000,0.000000,0.000000,0.000000,0.000000,0.000000,0.000000,1771318659.597559,0.000000
114.000000,17756.963403,9296.604609,4925.095132,4278.906200,3877.401814,4756.697089,-17335.677723,-19894.952464,-10681.719861,-6961.428459,5427.584699,20245.807796,6657.422383,16302.803612,8201.503241,-4087.843488,-0.004000,-0.008000,1.010000,192.000000,0.000000,0.000000,0.000000,0.000000,0.000000,0.000000,0.000000,0.000000,0.000000,1771318659.597569,0.000000
116.000000,18138.641791,9678.372404,5306.326485,4654.996652,4256.263883,5140.878873,-16958.089704,-19517.275037,-10614.262296,-6900.899935,5491.868316,20306.045748,6719.649639,16364.650889,8225.441960,-4027.560833,-0.004000,-0.008000,1.010000,192.000000,0.000000,0.000000,0.000000,0.000000,0.000000,0.000000,0.000000,0.000000,0.000000,1771318659.597580,0.000000
118.000000,17884.994195,9426.043561,5051.673061,4403.025437,4008.271278,4889.131175,-17211.334969,-19772.084924,-10455.184931,-6736.748724,5650.364536,20465.368982,6883.487926,16535.217051,8403.115976,-3865.041299,-0.004000,-0.008000,1.010000,192.000000,0.000000,0.000000,0.000000,0.000000,0.000000,0.000000,0.000000,0.000000,0.000000,1771318659.597591,0.000000
120.000000,17910.430480,9449.781114,5077.377567,4429.691068,4032.008831,4920.043638,-17182.076535,-19745.374590,-10803.492165,-7082.485507,5301.453805,20119.475737,6538.868730,16188.049756,8077.965150,-4206.598306,-0.002000,-0.012000,1.008000,192.000000,127.500000,120.000000,127.500000,80.000000,15.500000,64.000000,0.000000,0.000000,0.000000,1771318659.597601,0.000000
122.000000,18107.729329,9645.940023,5273.201200,4626.833454,4232.123999,5113.229765,-16987.705766,-19548.053390,-10410.973181,-6695.107424,5692.832851,20510.877134,6927.029124,16568.141171,8422.025552,-3816.023924,-0.002000,-0.012000,1.008000,192.000000,0.000000,0.000000,0.000000,0.000000,0.000000,0.000000,0.000000,0.000000,0.000000,1771318659.597612,0.000000
124.000000,17756.739885,9297.096347,4917.450835,4270.636054,3871.545657,4753.299624,-17344.529014,-19899.333405,-10665.268977,-6945.111685,5441.085153,20261.141093,6675.504944,16314.180650,8215.249564,-4075.907657,-0.002000,-0.012000,1.008000,192.000000,0.000000,0.000000,0.000000,0.000000,0.000000,0.000000,0.000000,0.000000,0.000000,1771318659.597624,0.000000
126.000000,18145.459073,9686.396681,5308.382846,4657.768268,4255.526275,5135.648565,-16953.708762,-19510.591866,-10633.104817,-6917.417874,5471.528229,20291.293596,6700.181270,16340.041618,8204.945410,-4050.806648,-0.002000,-0.012000,1.008000,192.000000,0.000000,0.000000,0.000000,0.000000,0.000000,0.000000,0.000000,0.000000,0.000000,1771318659.597635,0.000000
128.000000,17897.712338,9437.107675,5061.507828,4412.077893,4008.025409,4888.773547,-17197.633350,-19758.159787,-10434.755437,-6719.269659,5671.039900,20489.039479,6900.989342,16539.642696,8421.064427,-3852.412564,-0.002000,-0.012000,1.008000,192.000000,0.000000,0.000000,0.000000,0.000000,0.000000,0.000000,0.000000,0.000000,0.000000,1771318659.597646,0.000000
130.000000,17922.343960,9460.688765,5086.340617,4436.240129,4025.660935,4920.602431,-17171.437105,-19731.047121,-10798.239505,-7079.982111,5311.802663,20131.836251,6538.868730,16193.302416,8079.909751,-4207.827652,0.004000,-0.004000,1.006000,192.000000,0.000000,16.000000,127.500000,112.000000,15.500000,56.000000,0.000000,0.000000,0.000000,1771318659.597656,0.000000
132.000000,18108.332826,9649.471599,5270.451936,4622.273698,4212.387408,5101.360989,-16986.588178,-19543.471282,-10400.333750,-6683.305703,5708.456720,20527.864459,6929.085485,16591.275226,8424.797168,-3814.906337,0.004000,-0.004000,1.006000,192.000000,0.000000,0.000000,0.000000,0.000000,0.000000,0.000000,0.000000,0.000000,0.000000,1771318659.597667,0.000000
134.000000,17771.492037,9312.809624,4932.001821,4286.751662,3879.368768,4763.894351,-17323.965409,-19880.289719,-10654.786009,-6936.103932,5454.675013,20275.222692,6680.087051,16320.237973,8216.434207,-4071.571418,0.004000,-0.004000,1.006000,192.000000,0.000000,0.000000,0.000000,0.000000,0.000000,0.000000,0.000000,0.000000,0.000000,1771318659.597677,0.000000
136.000000,18146.464902,9685.033224,5306.617058,4661.277492,4254.341633,5142.801123,-16948.724323,-19506.121517,-10628.478006,-6915.965011,5478.904304,20298.468506,6700.874174,16334.163110,8202.151442,-4044.145828,0.004000,-0.004000,1.006000,192.000000,0.000000,0.000000,0.000000,0.000000,0.000000,0.000000,0.000000,0.000000,0.000000,1771318659.597687,0.000000
138.000000,17863.357706,9400.227296,5024.694505,4378.818498,3979.370472,4864.298387,-17232.412664,-19790.614520,-10460.325832,-6745.912939,5647.838789,20465.860720,6877.184734,16513.021769,8392.208325,-3869.064613,0.004000,-0.004000,1.006000,192.000000,0.000000,0.000000,0.000000,0.000000,0.000000,0.000000,0.000000,0.000000,0.000000,1771318659.597698,0.000000
140.000000,17922.589829,9461.582835,5088.508736,4439.011745,4041.821246,4925.273946,-17168.643137,-19729.214278,-10805.816746,-7089.213382,5303.353703,20121.442690,6541.059201,16185.099326,8069.113859,-4210.956897,0.002000,-0.006000,1.008000,192.000000,0.000000,8.000000,127.500000,104.000000,15.500000,64.000000,0.000000,0.000000,0.000000,1771318659.597710,0.000000
142.000000,18102.275503,9644.241291,5271.636578,4626.118198,4228.234795,5115.599050,-16985.805867,-19547.047561,-10400.423157,-6684.937380,5707.048560,20522.321227,6942.071848,16576.456019,8430.407456,-3808.401979,0.002000,-0.006000,1.008000,192.000000,0.000000,0.000000,0.000000,0.000000,0.000000,0.000000,0.000000,0.000000,0.000000,1771318659.597720,0.000000
144.000000,17751.867205,9293.430661,4916.087379,4270.948979,3874.317273,4760.653348,-17339.969258,-19899.713385,-10668.442925,-6946.542197,5439.766400,20258.950622,6677.427194,16326.630572,8215.026047,-4071.392604,0.002000,-0.006000,1.008000,192.000000,0.000000,0.000000,0.000000,0.000000,0.000000,0.000000,0.000000,0.000000,0.000000,1771318659.597731,0.000000
146.000000,18141.771035,9677.701852,5313.568451,4661.590417,4264.377566,5150.803048,-16941.951745,-19504.109860,-10633.060114,-6923.609307,5473.316368,20288.834904,6703.869308,16345.316630,8205.660666,-4044.771677,0.002000,-0.006000,1.008000,192.000000,0.000000,0.000000,0.000000,0.000000,0.000000,0.000000,0.000000,0.000000,0.000000,1771318659.597742,0.000000
148.000000,17887.430535,9425.708285,5058.222122,4408.747483,4010.461749,4888.147698,-17196.135783,-19756.237537,-10441.550367,-6725.103465,5671.844563,20488.234817,6903.671551,16540.559118,8418.270459,-3855.497105,0.002000,-0.006000,1.008000,192.000000,0.000000,0.000000,0.000000,0.000000,0.000000,0.000000,0.000000,0.000000,0.000000,1771318659.597752,0.000000
150.000000,17912.464489,9453.826780,5083.904276,4435.144894,4031.762961,4914.075722,-17169.648966,-19730.175403,-10799.044168,-7079.892704,5313.680209,20132.707969,6547.094172,16180.383108,8079.842696,-4212.163891,0.000000,-0.009000,1.007000,192.000000,127.500000,120.000000,127.500000,80.000000,15.500000,56.000000,0.000000,0.000000,0.000000,1771318659.597763,0.000000
152.000000,18097.782802,9632.976011,5273.380014,4625.246480,4220.702257,5106.144262,-16982.274292,-19544.633573,-10406.972218,-6697.454357,5702.824080,20517.515602,6938.808493,16564.900168,8425.490072,-3818.527319,0.000000,-0.009000,1.007000,192.000000,0.000000,0.000000,0.000000,0.000000,0.000000,0.000000,0.000000,0.000000,0.000000,1771318659.597773,0.000000
154.000000,17739.909022,9278.611455,4914.098074,4269.697281,3863.521381,4751.086801,-17339.857500,-19900.830972,-10667.191227,-6955.684061,5442.940348,20260.627003,6684.132717,16315.946438,8215.920116,-4072.823116,0.000000,-0.009000,1.007000,192.000000,0.000000,0.000000,0.000000,0.000000,0.000000,0.000000,0.000000,0.000000,0.000000,1771318659.597784,0.000000
156.000000,18138.820605,9680.272303,5313.613154,4667.625388,4257.314415,5152.255911,-16940.565937,-19502.500534,-10635.898785,-6924.145749,5472.534057,20292.232369,6710.977162,16358.504159,8204.476023,-4043.765848,0.000000,-0.009000,1.007000,192.000000,0.000000,0.000000,0.000000,0.000000,0.000000,0.000000,0.000000,0.000000,0.000000,1771318659.597795,0.000000
158.000000,17865.347012,9406.932820,5039.558415,4395.872879,3989.316999,4872.881457,-17213.458385,-19775.951776,-10453.754420,-6736.189930,5656.243045,20477.573034,6890.439318,16525.270525,8405.351151,-3858.045203,0.000000,-0.009000,1.007000,192.000000,0.000000,0.000000,0.000000,0.000000,0.000000,0.000000,0.000000,0.000000,0.000000,1771318659.597806,0.000000
160.000000,17914.118518,9454.832608,5087.637018,4440.419905,4035.942738,4918.501367,-17165.379782,-19732.075302,-10804.945028,-7091.359149,5303.890145,20122.739091,6542.534416,16176.493904,8074.768850,-4210.621620,0.000000,-0.009000,1.007000,192.000000,0.000000,0.000000,127.500000,80.000000,15.500000,72.000000,0.000000,0.000000,0.000000,1771318659.597817,0.000000
162.000000,18082.896541,9627.611593,5257.085592,4613.534166,4207.894708,5093.448471,-16995.104193,-19563.252576,-10414.348294,-6702.572906,5692.452871,20510.407747,6932.192377,16568.878778,8419.075122,-3820.494273,0.000000,-0.009000,1.007000,192.000000,0.000000,0.000000,0.000000,0.000000,0.000000,0.000000,0.000000,0.000000,0.000000,1771318659.597828,0.000000
164.000000,17733.762292,9279.706690,4905.112672,4266.456278,3860.503895,4746.236473,-17346.160692,-19912.029196,-10686.391376,-6963.171895,5423.606089,20248.937040,6666.407784,16303.049481,8200.966799,-4084.691892,0.000000,-0.009000,1.007000,192.000000,0.000000,0.000000,0.000000,0.000000,0.000000,0.000000,0.000000,0.000000,0.000000,1771318659.597839,0.000000
166.000000,18154.489178,9699.293637,5323.872605,4680.008254,4278.861496,5165.152867,-16929.032436,-19492.688119,-10640.994983,-6917.775502,5469.293054,20293.975806,6706.417406,16354.413790,8204.632485,-4039.429610,0.000000,-0.009000,1.007000,192.000000,0.000000,0.000000,0.000000,0.000000,0.000000,0.000000,0.000000,0.000000,0.000000,1771318659.597849,0.000000
168.000000,17893.309044,9435.565404,5056.881017,4411.563803,4017.636659,4901.625800,-17196.940446,-19757.176311,-10434.375457,-6715.022828,5671.978673,20494.761526,6912.299325,16548.695153,8423.768988,-3839.984994,0.000000,-0.009000,1.007000,192.000000,0.000000,0.000000,0.000000,0.000000,0.000000,0.000000,0.000000,0.000000,0.000000,1771318659.597860,0.000000
170.000000,17908.798803,9449.691707,5072.638997,4426.070085,4029.885415,4917.897870,-17181.607149,-19743.318229,-10795.244371,-7079.423318,5309.165157,20128.975228,6548.345870,16184.585236,8081.407318,-4202.686751,-0.001000,-0.011500,1.004500,192.000000,127.500000,120.000000,127.500000,72.000000,15.500000,40.000000,0.000000,0.000000,0.000000,1771318659.597870,0.000000
172.000000,18094.251227,9636.395828,5260.036023,4616.216375,4217.461254,5100.556326,-16993.718385,-19557.172901,-10423.624268,-6709.054912,5680.986426,20499.611855,6917.909612,16564.989575,8409.240354,-3828.943232,-0.001000,-0.011500,1.004500,192.000000,0.000000,0.000000,0.000000,0.000000,0.000000,0.000000,0.000000,0.000000,0.000000,1771318659.597880,0.000000
174.000000,17753.565938,9298.996246,4919.238975,4273.720595,3876.306579,4757.501752,-17334.068398,-19897.031176,-10675.930759,-6951.101953,5433.440856,20257.497759,6671.213409,16320.863822,8210.913326,-4076.399395,-0.001000,-0.011500,1.004500,192.000000,0.000000,0.000000,0.000000,0.000000,0.000000,0.000000,0.000000,0.000000,0.000000,1771318659.597891,0.000000
176.000000,18146.196681,9687.335454,5311.065055,4661.009271,4263.125868,5144.611614,-16943.583422,-19505.518020,-10627.896861,-6909.907688,5477.160868,20300.077832,6709.770168,16351.619822,8212.768520,-4037.485008,-0.001000,-0.011500,1.004500,192.000000,0.000000,0.000000,0.000000,0.000000,0.000000,0.000000,0.000000,0.000000,0.000000,1771318659.597901,0.000000
178.000000,17877.327547,9418.578079,5042.955881,4396.923411,3998.794138,4880.190477,-17210.016216,-19772.107276,-10446.110123,-6730.579642,5660.400469,20479.517636,6894.127356,16524.354103,8410.983790,-3854.468924,-0.001000,-0.011500,1.004500,192.000000,0.000000,0.000000,0.000000,0.000000,0.000000,0.000000,0.000000,0.000000,0.000000,1771318659.597912,0.000000
180.000000,17920.265248,9464.108582,5089.112233,4443.616205,4041.217749,4926.995030,-17160.685916,-19725.392130,-10800.318217,-7080.183277,5308.695770,20129.779891,6546.021288,16186.708651,8080.043862,-4201.032722,-0.001000,-0.011500,1.004500,192.000000,0.000000,0.000000,127.500000,56.000000,15.500000,32.000000,0.000000,0.000000,0.000000,1771318660.077589,0.000000
182.000000,18096.218180,9639.234500,5261.667700,4618.228032,4214.153196,5101.629210,-16988.488077,-19552.948422,-10411.353160,-6693.386339,5697.102034,20517.962637,6928.794912,16576.612482,8421.310296,-3812.380590,-0.001000,-0.011500,1.004500,192.000000,0.000000,0.000000,0.000000,0.000000,0.000000,0.000000,0.000000,0.000000,0.000000,1771318660.077691,0.000000
184.000000,17747.933298,9291.888391,4911.862899,4268.534990,3865.287169,4754.931301,-17339.097540,-19902.194429,-10678.210637,-6952.353651,5431.071571,20256.782503,6665.603121,16306.782223,8203.984285,-4080.713282,-0.001000,-0.011500,1.004500,192.000000,0.000000,0.000000,0.000000,0.000000,0.000000,0.000000,0.000000,0.000000,0.000000,1771318660.077781,0.000000
186.000000,18133.120910,9674.907884,5301.990247,4651.934463,4250.430077,5137.526111,-16952.993507,-19516.336264,-10643.230157,-6926.984421,5463.369842,20283.805762,6692.112290,16345.562499,8196.518802,-4051.477200,-0.001000,-0.011500,1.004500,192.000000,0.000000,0.000000,0.000000,0.000000,0.000000,0.000000,0.000000,0.000000,0.000000,1771318660.077806,0.000000
188.000000,17885.038899,9428.949288,5052.924759,4406.132329,4007.511319,4890.986370,-17203.467155,-19764.060648,-10447.697097,-6731.138436,5662.300368,20477.640090,6895.311999,16520.174327,8407.787491,-3852.054936,-0.001000,-0.011500,1.004500,192.000000,0.000000,0.000000,0.000000,0.000000,0.000000,0.000000,0.000000,0.000000,0.000000,1771318660.077895,0.000000
190.000000,17917.985370,9464.197989,5089.358102,4438.408248,4044.771677,4928.783170,-17166.944404,-19728.834299,-10795.043206,-7074.148306,5315.110721,20138.139443,6551.206893,16195.962274,8083.374272,-4194.908344,0.000500,-0.011750,1.002250,192.000000,0.000000,8.000000,127.500000,80.000000,15.500000,32.000000,0.000000,0.000000,0.000000,1771318660.077978,0.000000
192.000000,18095.905256,9641.044991,5264.931055,4616.551652,4220.255222,5105.473710,-16992.265522,-19556.502349,-10417.276373,-6698.169613,5687.759005,20514.431061,6927.431456,16558.194644,8413.375427,-3820.471921,0.000500,-0.011750,1.002250,192.000000,0.000000,0.000000,0.000000,0.000000,0.000000,0.000000,0.000000,0.000000,0.000000,1771318660.078060,0.000000
194.000000,17757.991583,9302.013731,4921.362391,4274.547610,3882.498012,4764.028461,-17334.716598,-19896.382975,-10666.498323,-6943.614119,5436.480693,20266.103180,6678.902409,16314.627685,8212.209727,-4070.632645,0.000500,-0.011750,1.002250,192.000000,0.000000,0.000000,0.000000,0.000000,0.000000,0.000000,0.000000,0.000000,0.000000,1771318660.078142,0.000000
196.000000,18139.334695,9683.133326,5305.365360,4654.259044,4261.494191,5142.689364,-16950.333649,-19512.625875,-10625.661686,-6909.572412,5475.685653,20302.290654,6712.631191,16346.545976,8208.164061,-4036.412124,0.000500,-0.011750,1.002250,192.000000,0.000000,0.000000,0.000000,0.000000,0.000000,0.000000,0.000000,0.000000,0.000000,1771318660.078186,0.000000
198.000000,17887.810515,9432.637326,5053.081221,4403.561879,4013.479234,4889.734672,-17201.679015,-19762.205453,-10447.205358,-6729.819683,5660.244007,20482.870398,6895.423757,16525.426987,8408.927430,-3856.100602,0.000500,-0.011750,1.002250,192.000000,0.000000,0.000000,0.000000,0.000000,0.000000,0.000000,0.000000,0.000000,0.000000,1771318660.078209,0.000000
200.000000,17894.672500,9437.644117,5060.658462,4409.820367,4015.714409,4896.395492,-17192.805373,-19755.723447,-10817.216136,-7095.293056,5292.647218,20114.536001,6527.067009,16162.278195,8061.916597,-4224.345592,0.003250,-0.012875,1.003125,192.000000,0.000000,24.000000,127.500000,72.000000,15.500000,48.000000,0.000000,0.000000,0.000000,1771318660.078233,0.000000
202.000000,18116.290047,9654.523093,5279.839668,4628.845111,4232.459275,5117.364838,-16974.942920,-19539.336209,-10417.209317,-6701.321209,5691.312932,20505.758584,6921.843519,16556.227691,8412.190784,-3827.020982,0.003250,-0.012875,1.003125,192.000000,0.000000,0.000000,0.000000,0.000000,0.000000,0.000000,0.000000,0.000000,0.000000,1771318660.078256,0.000000
204.000000,17775.895330,9313.860156,4933.186463,4285.432909,3892.936277,4777.037177,-17318.310418,-19882.480190,-10642.805474,-6929.130188,5464.375670,20278.575454,6697.432005,16345.674258,8233.265070,-4054.740555,0.003250,-0.012875,1.003125,192.000000,0.000000,0.000000,0.000000,0.000000,0.000000,0.000000,0.000000,0.000000,0.000000,1771318660.078280,0.000000
206.000000,18141.838091,9682.149849,5302.794910,4654.169637,4253.156990,5144.522207,-16948.277288,-19511.620046,-10621.146634,-6912.165214,5484.469889,20297.999120,6719.336715,16351.105732,8216.009523,-4036.121552,0.003250,-0.012875,1.003125,192.000000,0.000000,0.000000,0.000000,0.000000,0.000000,0.000000,0.000000,0.000000,0.000000,1771318660.078303,0.000000
208.000000,17865.279956,9408.698608,5028.002563,4384.540544,3984.533725,4872.277960,-17223.337856,-19787.485276,-10464.997347,-6748.729259,5644.530731,20462.418552,6878.279969,16508.618475,8390.308427,-3875.770137,0.003250,-0.012875,1.003125,192.000000,0.000000,0.000000,0.000000,0.000000,0.000000,0.000000,0.000000,0.000000,0.000000,1771318660.078314,0.000000
210.000000,17897.220599,9437.889986,5059.809096,4413.754274,4010.685266,4904.308010,-17192.693614,-19755.812854,-10817.551412,-7096.254181,5291.820203,20110.758556,6528.855148,16159.484227,8060.888417,-4226.759580,0.003250,-0.012875,1.003125,192.000000,0.000000,0.000000,0.000000,0.000000,0.000000,0.000000,0.000000,0.000000,0.000000,1771318660.078326,0.000000
212.000000,18124.224916,9664.134343,5287.305151,4642.479675,4239.656537,5132.295803,-16964.728172,-19530.328456,-10409.565021,-6693.252229,5697.683179,20509.603084,6928.973726,16563.961394,8416.884651,-3822.125950,0.006000,-0.012000,1.010000,192.000000,0.000000,24.000000,127.500000,80.000000,15.500000,72.000000,0.000000,0.000000,0.000000,1771318660.078338,0.000000
214.000000,17754.437656,9292.894220,4913.829853,4269.473764,3871.277436,4757.501752,-17337.667029,-19902.015615,-10654.160160,-6935.075752,5453.512723,20267.444285,6690.704130,16320.707359,8227.811244,-4063.770659,0.006000,-0.012000,1.010000,192.000000,0.000000,0.000000,0.000000,0.000000,0.000000,0.000000,0.000000,0.000000,0.000000,1771318660.078350,0.000000
216.000000,18137.479500,9677.254817,5301.565564,4653.923768,4255.168647,5144.902187,-16951.473588,-19515.509250,-10637.821035,-6925.643316,5466.789659,20281.659994,6701.768244,16337.627630,8198.798680,-4051.790124,0.006000,-0.012000,1.010000,192.000000,0.000000,0.000000,0.000000,0.000000,0.000000,0.000000,0.000000,0.000000,0.000000,1771318660.078360,0.000000
218.000000,17881.104992,9422.735503,5044.185226,4399.672675,4003.800929,4886.896001,-17207.646931,-19770.967337,-10443.942004,-6726.198700,5666.502496,20478.780029,6904.118586,16533.697132,8409.776796,-3853.708965,0.006000,-0.012000,1.010000,192.000000,0.000000,0.000000,0.000000,0.000000,0.000000,0.000000,0.000000,0.000000,0.000000,1771318660.078371,0.000000
220.000000,17907.077719,9450.898701,5074.136564,4426.383010,4033.975784,4915.439178,-17177.025041,-19742.357104,-10810.600020,-7089.146327,5300.738549,20117.844059,6542.243843,16173.901102,8065.917559,-4217.014219,0.006000,-0.012000,1.010000,192.000000,0.000000,0.000000,0.000000,0.000000,0.000000,0.000000,0.000000,0.000000,0.000000,1771318660.078384,0.000000
222.000000,18114.188983,9658.077020,5279.504392,4629.694477,4242.361098,5122.461036,-16974.652347,-19537.302200,-10407.374550,-6691.955828,5700.968886,20517.023863,6941.937738,16575.070211,8420.930317,-3818.214395,0.006000,-0.010000,1.014000,192.000000,0.000000,24.000000,127.500000,88.000000,15.500000,88.000000,0.000000,0.000000,0.000000,1771318660.078395,0.000000
224.000000,17760.629089,9306.037045,4923.798731,4275.598142,3894.545602,4766.755374,-17330.179194,-19892.404365,-10655.948300,-6935.165159,5451.277548,20272.764000,6697.364950,16335.079531,8225.643125,-4069.090375,0.006000,-0.010000,1.014000,192.000000,0.000000,0.000000,0.000000,0.000000,0.000000,0.000000,0.000000,0.000000,0.000000,1771318660.078406,0.000000
226.000000,18145.459073,9690.710567,5311.065055,4665.367861,4275.978121,5153.351146,-16942.085855,-19505.518020,-10621.996000,-6902.151633,5482.122956,20304.168201,6727.986840,16344.579022,8218.803491,-4034.221653,0.006000,-0.010000,1.014000,192.000000,0.000000,0.000000,0.000000,0.000000,0.000000,0.000000,0.000000,0.000000,0.000000,1771318660.078416,0.000000
228.000000,17889.866875,9434.559576,5052.656538,4409.954478,4018.486025,4895.322608,-17199.734414,-19761.490197,-10442.086809,-6719.023790,5663.417955,20485.887883,6911.159386,16528.332714,8411.229659,-3855.362994,0.006000,-0.010000,1.014000,192.000000,0.000000,0.000000,0.000000,0.000000,0.000000,0.000000,0.000000,0.000000,0.000000,1771318660.078427,0.000000
230.000000,17921.293428,9465.941425,5090.721558,4440.509312,4049.711412,4928.313783,-17163.949271,-19725.950924,-10798.887706,-7077.434013,5309.276916,20132.551507,6557.621844,16178.237340,8074.210057,-4213.348533,0.006000,-0.010000,1.014000,192.000000,0.000000,0.000000,0.000000,0.000000,0.000000,0.000000,0.000000,0.000000,0.000000,1771318660.078437,0.000000
232.000000,18106.052948,9647.124666,5274.117622,4621.558442,4229.620603,5110.458149,-16980.687318,-19542.599564,-10388.375567,-6676.600179,5719.654944,20534.011189,6961.249645,16576.299557,8432.240299,-3810.346581,0.004000,-0.008000,1.006000,192.000000,0.000000,16.000000,127.500000,96.000000,15.500000,56.000000,0.000000,0.000000,0.000000,1771318660.078448,0.000000
234.000000,17742.010086,9283.886466,4912.265231,4258.879037,3873.266741,4746.281176,-17342.115026,-19904.474307,-10669.560512,-6956.019337,5441.219263,20254.144997,6688.021921,16304.770566,8204.051340,-4089.721035,0.004000,-0.008000,1.006000,192.000000,0.000000,0.000000,0.000000,0.000000,0.000000,0.000000,0.000000,0.000000,0.000000,1771318660.078458,0.000000
236.000000,18121.162727,9664.022584,5292.289590,4639.104562,4247.278481,5130.530015,-16961.442466,-19524.628761,-10633.954183,-6921.977630,5475.909171,20286.689137,6719.202604,16333.045522,8199.446881,-4053.399450,0.004000,-0.008000,1.006000,192.000000,0.000000,0.000000,0.000000,0.000000,0.000000,0.000000,0.000000,0.000000,0.000000,1771318660.078469,0.000000
