Sample_index,EXG Channel 0,EXG Channel 1,EXG Channel 2,EXG Channel 3,EXG Channel 4,EXG Channel 5,EXG Channel 6,EXG Channel 7,EXG Channel 8,EXG Channel 9,EXG Channel 10,EXG Channel 11,EXG Channel 12,EXG Channel 13,EXG Channel 14,EXG Channel 15,Accel Channel 0,Accel Channel 1,Accel Channel 2,Not Used,Digital Channel 0 (D11),Digital Channel 1 (D12),Digital Channel 2 (D13),Digital Channel 3 (D17),Not Used,Digital Channel 4 (D18),Analog Channel 0,Analog Channel 1,Analog Channel 2,Timestamp,Marker Channel
90.000000,8090.772699,21005.275369,740.043907,2229.921786,4185.386501,16553.321964,-7085.190068,-4427.701763,1738.496332,-5046.129828,3311.925031,-3066.905208,15865.335270,16613.135232,-12068.802067,2076.030025,0.002000,-0.010000,1.000000,192.000000,0.000000,0.000000,0.000000,0.000000,0.000000,0.000000,0.000000,0.000000,0.000000,1771417259.430540,101.000000
92.000000,8105.502499,21023.357931,776.544306,2262.532981,4327.655354,16594.292712,-7066.258140,-4414.715399,1721.263137,-5064.838238,3288.433348,-3067.016967,15834.981601,16601.087642,-12078.346262,2092.927944,0.002000,-0.010000,1.000000,192.000000,0.000000,0.000000,0.000000,0.000000,0.000000,0.000000,0.000000,0.000000,0.000000,1771417259.430600,0.000000
94.000000,8100.361598,21016.786518,767.313035,2271.563086,4341.513436,16603.903962,-7073.500106,-4423.186710,1746.162980,-5030.282441,3315.568366,-3076.605866,15868.956252,16640.493767,-12050.071305,2089.843403,-0.002000,-0.014000,0.998000,192.000000,127.500000,120.000000,127.500000,72.000000,15.500000,24.000000,0.000000,0.000000,0.000000,1771417259.430649,0.000000
96.000000,8089.722167,21005.185962,735.484151,2245.523303,4190.147423,16570.599862,-7095.561277,-4442.431562,1724.526492,-5055.763430,3280.476127,-3065.184124,15821.302333,16609.938933,-12066.857465,2118.811264,-0.002000,-0.014000,0.998000,192.000000,0.000000,0.000000,0.000000,0.000000,0.000000,0.000000,0.000000,0.000000,0.000000,1771417259.430693,0.000000
98.000000,8119.785264,21034.824375,795.990324,2294.361865,4443.660908,16650.820273,-7063.777097,-4416.592946,1743.279605,-5036.384468,3303.498424,-3086.619447,15892.135011,16638.012724,-12047.836131,2113.245680,-0.002000,-0.014000,0.998000,192.000000,0.000000,0.000000,0.000000,0.000000,0.000000,0.000000,0.000000,0.000000,0.000000,1771417259.430735,0.000000
100.000000,8103.334380,21016.853573,739.909797,2250.865370,4229.419438,16591.409336,-7092.342626,-4430.361620,1747.727602,-5032.696430,3307.655848,-3067.173429,15896.493601,16640.449064,-12046.718543,2125.092104,-0.002000,-0.014000,0.998000,192.000000,0.000000,0.000000,0.000000,0.000000,0.000000,0.000000,0.000000,0.000000,0.000000,1771417259.430769,0.000000
102.000000,8123.383894,21033.080939,791.810547,2263.494106,4372.224733,16626.233354,-7071.063765,-4412.882556,1741.536169,-5050.086087,3295.608258,-3062.993653,15853.466493,16611.928238,-12046.338564,2125.025049,-0.002000,-0.014000,0.998000,192.000000,0.000000,0.000000,0.000000,0.000000,0.000000,0.000000,0.000000,0.000000,0.000000,1771417259.430785,0.000000
104.000000,8136.169092,21043.966239,793.308114,2259.180219,4382.528887,16627.887383,-7064.157076,-4395.895230,1774.348530,-5023.331049,3336.422543,-3073.431918,15907.535363,16654.865939,-12022.869232,2095.565450,-0.004000,-0.016000,1.006000,192.000000,127.500000,112.000000,127.500000,64.000000,15.500000,56.000000,0.000000,0.000000,0.000000,1771417259.430800,0.000000
106.000000,8120.701685,21032.499794,753.879637,2228.379515,4223.607984,16580.814610,-7080.831478,-4407.428730,1759.842248,-5038.194959,3320.195177,-3045.738106,15884.334252,16623.662904,-12042.963450,2094.783139,-0.004000,-0.016000,1.006000,192.000000,0.000000,0.000000,0.000000,0.000000,0.000000,0.000000,0.000000,0.000000,0.000000,1771417259.430816,0.000000
108.000000,8137.353735,21053.711600,812.150635,2272.233638,4455.619091,16638.258593,-7046.365088,-4382.953570,1773.029777,-5021.051171,3335.126142,-3060.602017,15894.124316,16646.059352,-12044.215148,2075.180659,-0.004000,-0.016000,1.006000,192.000000,0.000000,0.000000,0.000000,0.000000,0.000000,0.000000,0.000000,0.000000,0.000000,1771417259.430831,0.000000
110.000000,8098.573458,21010.975064,742.480247,2218.947079,4211.068655,16560.854502,-7081.166754,-4417.598774,1756.668300,-5033.434037,3321.849206,-3057.539828,15883.730755,16637.073950,-12046.383267,2063.110717,-0.004000,-0.016000,1.006000,192.000000,0.000000,0.000000,0.000000,0.000000,0.000000,0.000000,0.000000,0.000000,0.000000,1771417259.430846,0.000000
112.000000,8114.085569,21029.035274,787.049626,2244.830399,4341.446381,16586.514304,-7063.665338,-4408.456911,1728.661564,-5062.714823,3296.859955,-3067.084022,15816.809632,16597.600770,-12070.634910,2075.873563,-0.004000,-0.016000,1.006000,192.000000,0.000000,0.000000,0.000000,0.000000,0.000000,0.000000,0.000000,0.000000,0.000000,1771417259.430862,0.000000
114.000000,8120.142891,21037.551288,778.041873,2252.184123,4349.224788,16582.826267,-7061.117239,-4403.025437,1763.396175,-5030.170683,3325.067857,-3071.733185,15877.360508,16641.946631,-12052.261776,2056.584007,-0.003000,-0.017000,1.008000,192.000000,127.500000,120.000000,127.500000,56.000000,15.500000,72.000000,0.000000,0.000000,0.000000,1771417259.430877,0.000000
116.000000,8107.804728,21027.627114,746.615320,2233.229844,4191.689693,16557.501740,-7075.310597,-4408.926297,1742.921977,-5048.208540,3303.788996,-3045.291072,15857.288642,16611.235334,-12078.860352,2060.853191,-0.003000,-0.017000,1.008000,192.000000,0.000000,0.000000,0.000000,0.000000,0.000000,0.000000,0.000000,0.000000,0.000000,1771417259.430892,0.000000
118.000000,8127.518967,21049.531823,810.317792,2286.047016,4422.471454,16620.913639,-7045.828646,-4388.474451,1754.634291,-5028.695468,3327.481845,-3060.087926,15903.556753,16630.234317,-12071.059593,2058.707423,-0.003000,-0.017000,1.008000,192.000000,0.000000,0.000000,0.000000,0.000000,0.000000,0.000000,0.000000,0.000000,0.000000,1771417259.430907,0.000000
120.000000,8091.331493,21011.735023,747.621149,2244.942158,4199.892783,16566.889473,-7081.099699,-4422.337344,1741.782038,-5038.396125,3312.841453,-3057.785697,15857.221586,16630.882517,-12067.751535,2079.203973,-0.003000,-0.017000,1.008000,192.000000,0.000000,0.000000,0.000000,0.000000,0.000000,0.000000,0.000000,0.000000,0.000000,1771417259.430922,0.000000
122.000000,8107.469452,21028.677646,787.451957,2271.585437,4346.475523,16601.221752,-7065.453478,-4412.904908,1732.304899,-5056.277520,3292.479014,-3063.060708,15837.932031,16617.225601,-12070.031413,2086.714159,-0.003000,-0.017000,1.008000,192.000000,0.000000,0.000000,0.000000,0.000000,0.000000,0.000000,0.000000,0.000000,0.000000,1771417259.430937,0.000000
124.000000,8115.449025,21032.253925,789.396559,2278.916809,4357.941968,16614.722206,-7065.408774,-4407.205213,1757.115335,-5030.014220,3321.245709,-3077.052900,15870.029136,16641.968982,-12047.120875,2087.876450,-0.002500,-0.017500,1.011000,192.000000,127.500000,120.000000,127.500000,56.000000,15.500000,88.000000,0.000000,0.000000,0.000000,1771417259.430952,0.000000
126.000000,8113.951458,21031.404559,752.940864,2248.630196,4216.008391,16582.356880,-7080.406795,-4411.206175,1750.230998,-5040.206616,3305.666543,-3050.096697,15880.892084,16642.125445,-12066.723355,2099.387598,-0.002500,-0.017500,1.011000,192.000000,0.000000,0.000000,0.000000,0.000000,0.000000,0.000000,0.000000,0.000000,0.000000,1771417259.430968,0.000000
128.000000,8140.974717,21060.193605,815.436341,2286.292885,4465.342100,16641.924279,-7049.427277,-4388.139175,1768.827649,-5021.900537,3329.068819,-3065.027662,15885.183619,16653.323669,-12042.516415,2090.424548,-0.002500,-0.017500,1.011000,192.000000,0.000000,0.000000,0.000000,0.000000,0.000000,0.000000,0.000000,0.000000,0.000000,1771417259.430983,0.000000
130.000000,8117.035999,21031.628076,752.694995,2232.179312,4248.038441,16577.640662,-7079.132745,-4412.301411,1769.140574,-5024.538043,3326.386610,-3052.868313,15890.838610,16646.171110,-12046.383267,2089.105796,-0.002500,-0.017500,1.011000,192.000000,0.000000,0.000000,0.000000,0.000000,0.000000,0.000000,0.000000,0.000000,0.000000,1771417259.430997,0.000000
132.000000,8131.631688,21045.150881,789.083635,2257.235617,4377.186820,16604.753328,-7061.340757,-4403.405416,1750.275701,-5051.203674,3305.554784,-3062.881894,15881.003842,16621.181860,-12056.016869,2086.334179,-0.002500,-0.017500,1.011000,192.000000,0.000000,0.000000,0.000000,0.000000,0.000000,0.000000,0.000000,0.000000,0.000000,1771417259.431012,0.000000
134.000000,8136.951403,21049.420065,790.648257,2253.324062,4383.780585,16594.650339,-7058.256216,-4396.901059,1784.652684,-5022.705200,3334.500293,-3072.828421,15900.449860,16659.448047,-12039.901261,2060.182638,-0.002500,-0.017500,1.011000,192.000000,0.000000,0.000000,127.500000,64.000000,15.500000,72.000000,0.000000,0.000000,0.000000,1771417259.431027,0.000000
136.000000,8128.547147,21038.847689,749.521047,2222.255137,4221.104589,16555.177159,-7074.751803,-4405.729998,1760.155172,-5042.486494,3315.523662,-3052.398926,15864.374145,16627.283886,-12066.812762,2065.435298,-0.002500,-0.017500,1.011000,192.000000,0.000000,0.000000,0.000000,0.000000,0.000000,0.000000,0.000000,0.000000,0.000000,1771417259.431042,0.000000
138.000000,8151.949424,21061.534710,814.810492,2264.321120,4448.622995,16607.770813,-7042.922919,-4382.283018,1777.768347,-5023.755732,3333.583872,-3064.558275,15906.462479,16638.660924,-12060.151942,2046.950405,-0.002500,-0.017500,1.011000,192.000000,0.000000,0.000000,0.000000,0.000000,0.000000,0.000000,0.000000,0.000000,0.000000,1771417259.431056,0.000000
140.000000,8113.862051,21021.592143,751.756221,2219.930556,4217.751827,16541.296725,-7075.221190,-4411.049713,1774.281475,-5033.344630,3329.560558,-3057.673938,15910.955180,16627.060369,-12060.375459,2040.244882,-0.002500,-0.017500,1.011000,192.000000,0.000000,0.000000,0.000000,0.000000,0.000000,0.000000,0.000000,0.000000,0.000000,1771417259.431071,0.000000
142.000000,8122.825101,21038.557117,791.676437,2251.357109,4346.386116,16569.594034,-7058.747954,-4402.131367,1744.933634,-5060.591407,3299.475110,-3064.982958,15855.187578,16611.302389,-12080.089698,2054.147667,-0.002500,-0.017500,1.011000,192.000000,0.000000,0.000000,0.000000,0.000000,0.000000,0.000000,0.000000,0.000000,0.000000,1771417259.431090,0.000000
144.000000,8123.741522,21039.518242,776.343140,2250.619501,4357.092602,16581.306348,-7065.140553,-4407.607544,1761.675091,-5024.493340,3331.549863,-3072.090813,15882.143781,16633.944706,-12064.063497,2047.911530,-0.000250,-0.015750,1.010500,192.000000,0.000000,8.000000,127.500000,72.000000,15.500000,72.000000,0.000000,0.000000,0.000000,1771417259.431105,0.000000
146.000000,8105.301333,21021.569791,740.110962,2232.514588,4193.790757,16559.602804,-7083.848963,-4425.757161,1736.127047,-5054.310567,3289.796804,-3059.886761,15866.497560,16622.835889,-12079.776773,2078.667531,-0.000250,-0.015750,1.010500,192.000000,0.000000,0.000000,0.000000,0.000000,0.000000,0.000000,0.000000,0.000000,0.000000,1771417259.431119,0.000000
148.000000,8133.419828,21046.715504,811.189510,2279.050920,4436.083667,16626.948610,-7054.210550,-4401.013780,1753.337890,-5039.759581,3309.466339,-3078.773985,15856.729848,16639.264421,-12054.161674,2077.035854,-0.000250,-0.015750,1.010500,192.000000,0.000000,0.000000,0.000000,0.000000,0.000000,0.000000,0.000000,0.000000,0.000000,1771417259.431133,0.000000
150.000000,8114.800824,21031.628076,755.421907,2238.571911,4238.360135,16570.331641,-7081.703196,-4414.737751,1753.024966,-5031.332973,3315.635421,-3061.496086,15870.722040,16648.942727,-12047.120875,2089.284609,-0.000250,-0.015750,1.010500,192.000000,0.000000,0.000000,0.000000,0.000000,0.000000,0.000000,0.000000,0.000000,0.000000,1771417259.431149,0.000000
152.000000,8131.586985,21049.867100,794.604515,2256.810934,4369.855448,16595.410299,-7060.133762,-4396.878707,1742.787867,-5044.498151,3303.788996,-3055.036432,15855.299336,16638.280945,-12046.584433,2088.278781,-0.000250,-0.015750,1.010500,192.000000,0.000000,0.000000,0.000000,0.000000,0.000000,0.000000,0.000000,0.000000,0.000000,1771417259.431163,0.000000
154.000000,8141.198235,21056.930251,791.542326,2250.574797,4376.225695,16596.103203,-7056.378669,-4387.714492,1763.016196,-5022.615793,3335.729639,-3066.480525,15908.742357,16666.891178,-12024.433854,2067.156382,0.001875,-0.014875,1.007250,192.000000,0.000000,16.000000,127.500000,72.000000,15.500000,48.000000,0.000000,0.000000,0.000000,1771417259.431178,0.000000
156.000000,8128.502444,21043.876832,754.729003,2225.987879,4215.427246,16560.049839,-7073.544809,-4401.438463,1758.992882,-5038.329069,3315.970697,-3036.663298,15849.420828,16639.666753,-12057.916767,2069.525667,0.001875,-0.014875,1.007250,192.000000,0.000000,0.000000,0.000000,0.000000,0.000000,0.000000,0.000000,0.000000,0.000000,1771417259.431193,0.000000
158.000000,8160.107811,21075.683364,817.760923,2274.558219,4445.605510,16615.057482,-7042.475884,-4375.532791,1764.066728,-5026.773218,3330.409924,-3056.712813,15891.307997,16656.452913,-12046.427971,2065.390595,0.001875,-0.014875,1.007250,192.000000,0.000000,0.000000,0.000000,0.000000,0.000000,0.000000,0.000000,0.000000,0.000000,1771417259.431206,0.000000
160.000000,8137.800770,21054.292745,755.243093,2235.308556,4219.942298,16553.992516,-7070.527324,-4397.571611,1770.504030,-5017.050209,3337.562482,-3036.596243,15870.185598,16661.191483,-12066.097506,2064.541228,0.001875,-0.014875,1.007250,192.000000,0.000000,0.000000,0.000000,0.000000,0.000000,0.000000,0.000000,0.000000,0.000000,1771417259.431221,0.000000
162.000000,8151.792962,21067.010888,796.035027,2263.829382,4360.624178,16588.168334,-7052.824742,-4384.585248,1750.856847,-5037.435000,3309.600450,-3042.519455,15885.697709,16630.301372,-12072.691270,2074.040720,0.001875,-0.014875,1.007250,192.000000,0.000000,0.000000,0.000000,0.000000,0.000000,0.000000,0.000000,0.000000,0.000000,1771417259.431235,0.000000
164.000000,8158.878465,21071.257719,793.486928,2265.706928,4372.448250,16584.346185,-7052.958852,-4383.646474,1785.971437,-5006.142557,3342.591625,-3050.677842,15892.179715,16669.774553,-12041.667049,2056.695766,0.001937,-0.011437,1.002625,192.000000,0.000000,8.000000,127.500000,96.000000,15.500000,24.000000,0.000000,0.000000,0.000000,1771417259.431250,0.000000
166.000000,8133.620993,21045.419102,759.691091,2229.050068,4220.255222,16553.813702,-7074.528286,-4406.489957,1761.496277,-5036.339764,3314.271964,-3038.116162,15866.318746,16635.799901,-12064.242311,2071.023234,0.001937,-0.011437,1.002625,192.000000,0.000000,0.000000,0.000000,0.000000,0.000000,0.000000,0.000000,0.000000,0.000000,1771417259.431265,0.000000
168.000000,8158.096154,21065.021582,828.422705,2272.814783,4454.166228,16620.466604,-7045.336908,-4386.708663,1773.029777,-5024.336877,3328.800598,-3063.932426,15901.478040,16650.842625,-12046.182102,2064.317711,0.001937,-0.011437,1.002625,192.000000,0.000000,0.000000,0.000000,0.000000,0.000000,0.000000,0.000000,0.000000,0.000000,1771417259.431280,0.000000
170.000000,8126.311973,21037.014846,751.979739,2236.716716,4231.788722,16560.318060,-7079.378614,-4420.593908,1770.995768,-5030.148331,3322.497406,-3058.299787,15913.615038,16658.486922,-12041.264718,2072.833726,0.001937,-0.011437,1.002625,192.000000,0.000000,0.000000,0.000000,0.000000,0.000000,0.000000,0.000000,0.000000,0.000000,1771417259.431294,0.000000
172.000000,8126.870767,21041.999285,800.460672,2262.085946,4370.548352,16591.208171,-7068.023928,-4420.705667,1747.973472,-5050.488418,3291.182612,-3065.117069,15862.228377,16625.719264,-12059.794314,2093.352627,0.001937,-0.011437,1.002625,192.000000,0.000000,0.000000,0.000000,0.000000,0.000000,0.000000,0.000000,0.000000,0.000000,1771417259.431317,0.000000
174.000000,8119.226470,21030.912820,789.508318,2261.750670,4368.760213,16579.473505,-7072.650739,-4424.304297,1759.708137,-5037.502055,3309.578098,-3090.888630,15879.930959,16649.076837,-12028.233651,2084.255467,-0.000031,-0.007719,1.003313,192.000000,127.500000,120.000000,127.500000,112.000000,15.500000,48.000000,0.000000,0.000000,0.000000,1771417259.431332,0.000000
176.000000,8119.315877,21029.750529,748.850494,2231.061725,4212.275650,16549.321002,-7088.028739,-4427.120617,1742.966681,-5056.165761,3286.958133,-3066.122897,15862.787171,16621.763005,-12057.693250,2098.225307,-0.000031,-0.007719,1.003313,192.000000,0.000000,0.000000,0.000000,0.000000,0.000000,0.000000,0.000000,0.000000,0.000000,1771417259.431347,0.000000
178.000000,8147.523778,21059.411294,808.954335,2272.121879,4453.182751,16620.757177,-7053.584701,-4398.286867,1766.815992,-5031.534139,3311.723865,-3079.712758,15900.494564,16660.789151,-12045.623308,2078.265199,-0.000031,-0.007719,1.003313,192.000000,0.000000,0.000000,0.000000,0.000000,0.000000,0.000000,0.000000,0.000000,0.000000,1771417259.431361,0.000000
180.000000,8127.183691,21038.221841,744.782477,2225.026754,4225.016144,16555.244214,-7080.719719,-4413.128425,1765.139611,-5029.500130,3318.831720,-3063.686557,15897.007692,16652.764875,-12050.272471,2073.794851,-0.000031,-0.007719,1.003313,192.000000,0.000000,0.000000,0.000000,0.000000,0.000000,0.000000,0.000000,0.000000,0.000000,1771417259.431376,0.000000
182.000000,8149.066049,21059.254832,790.156518,2253.458172,4362.591131,16592.616331,-7057.943291,-4392.520117,1756.131858,-5041.547721,3306.694723,-3053.717679,15853.175921,16630.770758,-12071.573683,2073.638388,-0.000031,-0.007719,1.003313,192.000000,0.000000,0.000000,0.000000,0.000000,0.000000,0.000000,0.000000,0.000000,0.000000,1771417259.431390,0.000000
184.000000,8157.336194,21067.547329,792.101120,2247.333795,4367.486163,16589.375328,-7058.591492,-4387.490974,1789.614772,-5008.400084,3346.883160,-3060.870237,15916.520764,16656.721134,-12047.679668,2049.073821,0.001984,-0.007859,1.002656,192.000000,0.000000,16.000000,127.500000,96.000000,15.500000,40.000000,0.000000,0.000000,0.000000,1771417259.431405,0.000000
186.000000,8140.728848,21049.420065,752.225608,2223.328021,4208.140577,16542.906051,-7074.193010,-4399.672675,1771.062824,-5032.249395,3319.703438,-3039.837246,15874.901816,16631.530718,-12073.630044,2059.310920,0.001984,-0.007859,1.002656,192.000000,0.000000,0.000000,0.000000,0.000000,0.000000,0.000000,0.000000,0.000000,0.000000,1771417259.431419,0.000000
188.000000,8164.131125,21073.135265,818.587937,2271.831306,4449.427658,16615.817441,-7041.514759,-4378.215000,1791.112338,-5018.883052,3338.992994,-3058.769173,15929.864756,16647.311049,-12066.566892,2048.559731,0.001984,-0.007859,1.002656,192.000000,0.000000,0.000000,0.000000,0.000000,0.000000,0.000000,0.000000,0.000000,0.000000,1771417259.431434,0.000000
190.000000,8127.518967,21035.271410,751.376242,2223.462131,4222.915080,16549.075132,-7077.232847,-4409.082760,1773.923847,-5028.628412,3334.634404,-3055.282301,15863.234206,16654.262442,-12061.202474,2057.723946,0.001984,-0.007859,1.002656,192.000000,0.000000,0.000000,0.000000,0.000000,0.000000,0.000000,0.000000,0.000000,0.000000,1771417259.431448,0.000000
192.000000,8146.853226,21054.225690,791.296457,2257.705004,4352.510494,16593.577456,-7057.250387,-4396.364617,1757.294149,-5050.421363,3308.594621,-3061.160810,15882.568465,16631.262497,-12065.002270,2062.753089,0.001984,-0.007859,1.002656,192.000000,0.000000,0.000000,0.000000,0.000000,0.000000,0.000000,0.000000,0.000000,0.000000,1771417259.431463,0.000000
194.000000,8142.248767,21047.721332,799.007809,2256.140382,4373.834059,16582.245121,-7059.664376,-4397.213983,1781.478737,-5022.258165,3338.948290,-3072.917828,15896.068918,16667.897006,-12039.208357,2057.187504,0.001984,-0.007859,1.002656,192.000000,0.000000,0.000000,0.000000,0.000000,0.000000,0.000000,0.000000,0.000000,0.000000,1771417259.431477,0.000000
196.000000,8129.575328,21036.009018,768.207105,2226.881948,4223.518577,16549.209243,-7076.137611,-4409.865071,1760.445745,-5051.740116,3312.863804,-3054.097659,15860.999031,16623.864069,-12058.028526,2066.910513,0.004000,-0.012000,1.004000,192.000000,0.000000,16.000000,127.500000,80.000000,15.500000,48.000000,0.000000,0.000000,0.000000,1771417259.431492,0.000000
198.000000,8146.026212,21056.796140,822.901824,2283.007179,4456.446106,16609.938933,-7047.706192,-4393.771815,1770.727547,-5029.611889,3331.102828,-3071.867296,15892.894971,16644.807654,-12040.705924,2056.136972,0.004000,-0.012000,1.004000,192.000000,0.000000,0.000000,0.000000,0.000000,0.000000,0.000000,0.000000,0.000000,0.000000,1771417259.431506,0.000000
200.000000,8109.995199,21020.631018,747.174114,2240.225940,4215.136673,16543.353086,-7086.352359,-4428.193501,1754.254312,-5046.487456,3313.489653,-3069.967397,15863.927110,16642.818349,-12047.813779,2094.000828,0.004000,-0.012000,1.004000,192.000000,0.000000,0.000000,0.000000,0.000000,0.000000,0.000000,0.000000,0.000000,0.000000,1771417259.431521,0.000000
202.000000,8137.241976,21050.805873,788.457786,2269.149097,4361.182971,16586.290787,-7064.559408,-4409.261573,1738.429277,-5061.664291,3296.859955,-3072.604903,15845.106941,16613.202287,-12062.767096,2103.589726,0.004000,-0.012000,1.004000,192.000000,0.000000,0.000000,0.000000,0.000000,0.000000,0.000000,0.000000,0.000000,0.000000,1771417259.431535,0.000000
204.000000,8139.879482,21058.181948,784.903858,2271.004292,4358.545465,16584.860275,-7062.860675,-4400.946725,1772.806260,-5022.571090,3332.041601,-3076.404700,15893.967854,16652.787227,-12039.118950,2078.734586,0.004000,-0.012000,1.004000,192.000000,0.000000,0.000000,0.000000,0.000000,0.000000,0.000000,0.000000,0.000000,0.000000,1771417259.431550,0.000000
206.000000,8134.693877,21049.151844,750.906855,2236.090867,4205.793644,16550.393885,-7077.165792,-4406.355847,1754.656643,-5042.687660,3311.343886,-3050.275511,15852.862996,16626.479224,-12065.762230,2088.479947,0.004000,-0.006000,1.008000,192.000000,0.000000,16.000000,127.500000,104.000000,15.500000,64.000000,0.000000,0.000000,0.000000,1771417259.431564,0.000000
208.000000,8164.578159,21079.170236,814.497568,2277.307484,4445.225530,16619.751348,-7045.068687,-4378.326759,1778.841231,-5021.744075,3338.903587,-3061.205514,15889.609264,16642.505424,-12054.027564,2066.552885,0.004000,-0.006000,1.008000,192.000000,0.000000,0.000000,0.000000,0.000000,0.000000,0.000000,0.000000,0.000000,0.000000,1771417259.431579,0.000000
210.000000,8139.745371,21054.337448,747.442335,2233.788637,4222.825673,16550.997383,-7073.365995,-4399.560916,1774.147364,-5019.106569,3335.081438,-3044.866388,15874.521837,16647.243994,-12060.867198,2061.054356,0.004000,-0.006000,1.008000,192.000000,0.000000,0.000000,0.000000,0.000000,0.000000,0.000000,0.000000,0.000000,0.000000,1771417259.911436,0.000000
212.000000,8156.263310,21067.122646,793.174004,2259.068460,4344.821494,16599.478316,-7053.696460,-4385.322855,1762.837382,-5032.562319,3322.028020,-3044.709926,15867.346927,16635.017590,-12080.089698,2068.676301,0.004000,-0.006000,1.008000,192.000000,0.000000,0.000000,0.000000,0.000000,0.000000,0.000000,0.000000,0.000000,0.000000,1771417259.911535,0.000000
214.000000,8146.093267,21055.700905,783.249829,2256.922693,4344.441515,16583.250950,-7059.709079,-4392.251896,1776.136670,-5017.206671,3345.989090,-3065.295883,15890.346872,16659.269233,-12065.404602,2069.190391,0.004000,-0.006000,1.008000,192.000000,0.000000,0.000000,0.000000,0.000000,0.000000,0.000000,0.000000,0.000000,0.000000,1771417259.911598,0.000000
216.000000,8125.820235,21033.729140,745.207160,2226.121989,4212.096836,16542.727237,-7081.323216,-4411.384989,1752.376765,-5049.527293,3313.601412,-3051.616615,15842.737656,16610.296561,-12070.456096,2068.855115,-0.002000,-0.006000,1.006000,192.000000,127.500000,120.000000,127.500000,104.000000,15.500000,56.000000,0.000000,0.000000,0.000000,1771417259.911640,0.000000
218.000000,8154.408116,21065.245100,811.122455,2274.021777,4457.742507,16607.904924,-7048.846131,-4386.909829,1764.089079,-5038.194959,3323.413828,-3072.448441,15870.610281,16627.976790,-12049.154884,2063.758917,-0.002000,-0.006000,1.006000,192.000000,0.000000,0.000000,0.000000,0.000000,0.000000,0.000000,0.000000,0.000000,0.000000,1771417259.911693,0.000000
220.000000,8145.109790,21050.291783,749.006957,2237.744896,4236.326127,16556.093580,-7077.724585,-4404.724169,1773.812088,-5026.035610,3330.029944,-3050.789601,15896.247732,16640.449064,-12055.279262,2067.737528,-0.002000,-0.006000,1.006000,192.000000,0.000000,0.000000,0.000000,0.000000,0.000000,0.000000,0.000000,0.000000,0.000000,1771417259.911736,0.000000
222.000000,8145.176845,21049.665934,794.649219,2256.542713,4371.017739,16590.269398,-7066.682824,-4406.557012,1766.659530,-5042.575901,3310.673333,-3056.846923,15869.805619,16617.180898,-12063.370593,2079.293380,-0.002000,-0.006000,1.006000,192.000000,0.000000,0.000000,0.000000,0.000000,0.000000,0.000000,0.000000,0.000000,0.000000,1771417259.911757,0.000000
224.000000,8142.159360,21049.330658,789.307152,2252.228827,4367.173239,16588.749479,-7071.734318,-4412.212004,1775.555524,-5031.064752,3324.374953,-3084.048996,15898.505258,16638.616221,-12029.865328,2080.723891,-0.002000,-0.006000,1.006000,192.000000,0.000000,0.000000,0.000000,0.000000,0.000000,0.000000,0.000000,0.000000,0.000000,1771417259.911777,0.000000
226.000000,8129.843549,21040.144091,761.009843,2229.653565,4214.667286,16555.266566,-7084.407757,-4423.477283,1759.596379,-5046.152180,3304.526604,-3061.071403,15865.558787,16611.928238,-12056.530959,2089.351665,-0.004000,-0.008000,1.008000,192.000000,127.500000,112.000000,127.500000,96.000000,15.500000,64.000000,0.000000,0.000000,0.000000,1771417259.911788,0.000000
228.000000,8158.856113,21066.675611,829.607347,2272.881838,4453.249807,16615.616276,-7051.081306,-4397.281038,1780.092928,-5025.789741,3326.788941,-3077.611694,15876.309976,16645.433503,-12039.476578,2065.636464,-0.004000,-0.008000,1.008000,192.000000,0.000000,0.000000,0.000000,0.000000,0.000000,0.000000,0.000000,0.000000,0.000000,1771417259.911799,0.000000
230.000000,8137.040810,21043.720370,751.756221,2225.674954,4225.686696,16559.982784,-7080.116222,-4414.983620,1776.762518,-5033.322279,3320.619860,-3066.458174,15912.229229,16630.770758,-12045.153921,2075.381824,-0.004000,-0.008000,1.008000,192.000000,0.000000,0.000000,0.000000,0.000000,0.000000,0.000000,0.000000,0.000000,0.000000,1771417259.911810,0.000000
232.000000,8158.744354,21066.340335,797.867870,2256.565065,4352.823419,16600.350034,-7058.345623,-4395.045864,1759.797544,-5041.659479,3311.880328,-3059.305615,15857.243938,16627.954439,-12070.903131,2079.472194,-0.004000,-0.008000,1.008000,192.000000,0.000000,0.000000,0.000000,0.000000,0.000000,0.000000,0.000000,0.000000,0.000000,1771417259.911820,0.000000
234.000000,8155.928034,21067.480274,780.589972,2257.548542,4361.741765,16594.940912,-7058.591492,-4391.246067,1786.440824,-5011.797549,3344.379764,-3063.373633,15871.459648,16650.015610,-12061.135419,2067.625769,-0.004000,-0.008000,1.008000,192.000000,0.000000,0.000000,0.000000,0.000000,0.000000,0.000000,0.000000,0.000000,0.000000,1771417259.911830,0.000000
236.000000,8132.436351,21040.524070,735.975890,2215.996649,4202.284420,16560.876854,-7081.479678,-4412.279059,1757.875294,-5041.972404,3312.193252,-3049.515551,15869.447991,16616.353883,-12076.446364,2072.878429,-0.006000,-0.004000,1.006000,192.000000,127.500000,104.000000,127.500000,112.000000,15.500000,56.000000,0.000000,0.000000,0.000000,1771417259.911841,0.000000
238.000000,8153.402287,21064.954527,797.398483,2264.678748,4443.258577,16624.512270,-7053.830570,-4392.520117,1769.364091,-5036.295061,3325.380781,-3076.985845,15877.584026,16630.815462,-12054.698116,2074.197182,-0.006000,-0.004000,1.006000,192.000000,0.000000,0.000000,0.000000,0.000000,0.000000,0.000000,0.000000,0.000000,0.000000,1771417259.911851,0.000000
240.000000,8132.346944,21043.452149,738.166361,2221.852806,4224.837330,16569.638737,-7079.848001,-4411.250879,1766.950103,-5031.489436,3323.503235,-3061.384328,15871.973738,16638.996200,-12053.692288,2074.577162,-0.006000,-0.004000,1.006000,192.000000,0.000000,0.000000,0.000000,0.000000,0.000000,0.000000,0.000000,0.000000,0.000000,1771417259.911861,0.000000
242.000000,8152.709383,21065.781542,786.580239,2256.140382,4365.228637,16612.352921,-7058.367975,-4393.771815,1754.813105,-5044.296985,3313.199081,-3060.914941,15871.750220,16620.980694,-12064.152904,2076.812336,-0.006000,-0.004000,1.006000,192.000000,0.000000,0.000000,0.000000,0.000000,0.000000,0.000000,0.000000,0.000000,0.000000,1771417259.911872,0.000000
244.000000,8140.840607,21051.454073,779.807661,2261.773021,4380.986617,16596.773755,-7061.027832,-4399.382102,1777.701292,-5021.073523,3341.295223,-3071.263799,15877.516970,16658.106942,-12037.688439,2067.402252,-0.006000,-0.004000,1.006000,192.000000,0.000000,0.000000,0.000000,0.000000,0.000000,0.000000,0.000000,0.000000,0.000000,1771417259.911882,0.000000
246.000000,8127.340153,21037.014846,742.323785,2232.335774,4228.123036,16552.763170,-7080.943236,-4415.318896,1754.544885,-5054.221160,3308.125235,-3054.812915,15863.278909,16610.341264,-12060.174294,2080.925057,-0.006000,-0.016000,1.000000,192.000000,127.500000,104.000000,127.500000,64.000000,15.500000,32.000000,0.000000,0.000000,0.000000,1771417259.911892,0.000000
248.000000,8143.679278,21052.526957,804.908670,2276.189897,4451.685184,16618.969037,-7053.651756,-4401.460815,1767.508896,-5036.384468,3321.893909,-3079.422185,15890.704500,16634.056465,-12042.941099,2078.108737,-0.006000,-0.016000,1.000000,192.000000,0.000000,0.000000,0.000000,0.000000,0.000000,0.000000,0.000000,0.000000,0.000000,1771417259.911903,0.000000
250.000000,8120.321705,21033.706788,750.258654,2236.135571,4229.553548,16569.728144,-7083.960722,-4423.030248,1758.031757,-5045.213407,3316.060104,-3074.258932,15897.767651,16633.944706,-12041.599994,2077.773461,-0.006000,-0.016000,1.000000,192.000000,0.000000,0.000000,0.000000,0.000000,0.000000,0.000000,0.000000,0.000000,0.000000,1771417259.911914,0.000000
252.000000,8142.181711,21049.978858,798.471367,2263.181181,4372.537657,16608.150793,-7062.704213,-4409.887422,1752.957911,-5052.008337,3306.270040,-3068.939217,15831.517080,16616.487994,-12046.293860,2071.403214,-0.006000,-0.016000,1.000000,192.000000,0.000000,0.000000,0.000000,0.000000,0.000000,0.000000,0.000000,0.000000,0.000000,1771417259.911925,0.000000
254.000000,8133.039848,21042.334562,784.836803,2257.079155,4357.539637,16601.400566,-7066.638120,-4412.346114,1775.220248,-5037.211482,3323.257366,-3087.468813,15905.568410,16645.545262,-12027.540747,2075.381824,-0.006000,-0.016000,1.000000,192.000000,0.000000,0.000000,0.000000,0.000000,0.000000,0.000000,0.000000,0.000000,0.000000,1771417259.911936,0.000000
0.000000,8121.752217,21032.186870,749.342233,2228.558329,4195.623600,16565.146037,-7081.658492,-4418.783417,1750.230998,-5049.236721,3306.784130,-3056.154019,15855.455799,16611.391796,-12071.037241,2079.583952,0.002000,-0.014000,1.002000,192.000000,0.000000,8.000000,127.500000,72.000000,15.500000,40.000000,0.000000,0.000000,0.000000,1771417259.911946,0.000000
2.000000,8148.149627,21055.164463,806.138016,2268.813821,4445.225530,16613.358750,-7053.294129,-4396.521079,1764.245542,-5040.340726,3321.268060,-3082.193802,15872.420773,16624.445215,-12050.071305,2058.483906,0.002000,-0.014000,1.002000,192.000000,0.000000,0.000000,0.000000,0.000000,0.000000,0.000000,0.000000,0.000000,0.000000,1771417259.911956,0.000000
4.000000,8126.736656,21032.879774,739.932148,2229.184178,4218.064751,16552.696115,-7082.865486,-4416.682353,1763.373824,-5044.028764,3323.145607,-3066.368767,15882.501409,16615.370407,-12055.681593,2057.813353,0.002000,-0.014000,1.002000,192.000000,0.000000,0.000000,0.000000,0.000000,0.000000,0.000000,0.000000,0.000000,0.000000,1771417259.911967,0.000000
6.000000,8155.503351,21061.892338,787.809585,2258.353205,4360.423012,16602.808726,-7061.787791,-4399.449158,1752.577931,-5054.824657,3308.214642,-3065.050014,15861.401363,16606.563819,-12070.009061,2071.112641,0.002000,-0.014000,1.002000,192.000000,0.000000,0.000000,0.000000,0.000000,0.000000,0.000000,0.000000,0.000000,0.000000,1771417259.911977,0.000000
8.000000,8154.050488,21061.825283,775.046739,2259.560199,4365.899189,16604.887438,-7065.386422,-4400.365579,1782.685731,-5019.933584,3340.468209,-3072.716662,15901.835668,16629.228488,-12046.383267,2067.424603,0.002000,-0.014000,1.002000,192.000000,0.000000,0.000000,0.000000,0.000000,0.000000,0.000000,0.000000,0.000000,0.000000,1771417259.911987,0.000000
10.000000,8143.969851,21050.627059,733.092515,2234.749762,4214.466121,16569.549330,-7084.430109,-4413.173129,1763.686748,-5040.228968,3310.762740,-3051.750726,15865.245863,16629.362599,-12067.349204,2085.551868,0.002000,-0.012000,1.003000,192.000000,0.000000,8.000000,127.500000,88.000000,15.500000,48.000000,0.000000,0.000000,0.000000,1771417259.911998,0.000000
12.000000,8157.894988,21066.072114,802.159405,2275.072309,4460.223551,16628.133253,-7056.065745,-4398.666847,1774.035606,-5029.254261,3329.672316,-3074.683616,15883.015499,16639.085607,-12051.680631,2084.344874,0.002000,-0.012000,1.003000,192.000000,0.000000,0.000000,0.000000,0.000000,0.000000,0.000000,0.000000,0.000000,0.000000,1771417259.912008,0.000000
14.000000,8132.168130,21040.389960,734.143047,2232.872216,4243.679851,16563.357897,-7086.061786,-4425.354829,1765.608998,-5037.703221,3320.463398,-3071.219095,15891.665625,16634.391741,-12037.263755,2095.252525,0.002000,-0.012000,1.003000,192.000000,0.000000,0.000000,0.000000,0.000000,0.000000,0.000000,0.000000,0.000000,0.000000,1771417259.912019,0.000000
16.000000,8152.687031,21062.697001,779.047701,2263.471754,4381.590114,16610.140098,-7064.894684,-4408.591021,1755.170733,-5047.582692,3298.558688,-3063.574799,15856.707496,16615.728034,-12050.250119,2092.726778,0.002000,-0.012000,1.003000,192.000000,0.000000,0.000000,0.000000,0.000000,0.000000,0.000000,0.000000,0.000000,0.000000,1771417259.912029,0.000000
18.000000,8136.683182,21044.659143,770.799908,2259.493143,4381.299541,16602.786374,-7072.136649,-4420.303335,1768.961760,-5030.282441,3324.039677,-3082.663188,15883.350776,16649.054485,-12025.484386,2079.651008,0.002000,-0.012000,1.003000,192.000000,0.000000,0.000000,0.000000,0.000000,0.000000,0.000000,0.000000,0.000000,0.000000,1771417259.912039,0.000000
20.000000,8121.327534,21027.381245,742.770820,2231.061725,4227.787760,16563.603766,-7091.090928,-4435.681335,1744.218379,-5064.592369,3292.076682,-3075.130650,15865.491732,16610.877706,-12036.973183,2088.122319,0.000000,-0.012000,1.002500,192.000000,127.500000,120.000000,127.500000,80.000000,15.500000,40.000000,0.000000,0.000000,0.000000,1771417259.912050,0.000000
22.000000,8142.628746,21053.845710,807.456768,2279.497955,4460.938807,16623.618200,-7057.339794,-4408.658076,1760.848076,-5049.080258,3315.098979,-3093.034398,15898.862886,16631.016628,-12026.400808,2082.757900,0.000000,-0.012000,1.002500,192.000000,0.000000,0.000000,0.000000,0.000000,0.000000,0.000000,0.000000,0.000000,0.000000,1771417259.912060,0.000000
24.000000,8125.037923,21036.836032,749.185771,2231.799332,4232.928661,16562.195606,-7081.725548,-4423.320821,1759.015233,-5049.214369,3317.132988,-3073.543677,15878.656909,16629.831985,-12035.475616,2075.940618,0.000000,-0.012000,1.002500,192.000000,0.000000,0.000000,0.000000,0.000000,0.000000,0.000000,0.000000,0.000000,0.000000,1771417259.912070,0.000000
26.000000,8137.800770,21050.604707,791.072940,2259.202571,4351.996404,16593.599807,-7058.278568,-4407.741655,1748.912245,-5059.250302,3303.341961,-3068.626293,15851.723057,16610.453023,-12062.632985,2065.547057,0.000000,-0.012000,1.002500,192.000000,0.000000,0.000000,0.000000,0.000000,0.000000,0.000000,0.000000,0.000000,0.000000,1771417259.912082,0.000000
28.000000,8131.676392,21043.049817,771.828088,2249.233693,4339.501779,16575.919578,-7062.212475,-4411.049713,1765.206667,-5042.151218,3325.380781,-3087.334703,15881.272063,16633.922354,-12053.021735,2044.089382,0.000000,-0.012000,1.002500,192.000000,0.000000,0.000000,0.000000,0.000000,0.000000,0.000000,0.000000,0.000000,0.000000,1771417259.912092,0.000000
30.000000,8125.261441,21035.561983,727.862206,2226.703134,4188.336931,16546.616441,-7077.076385,-4418.492844,1736.127047,-5070.359119,3295.809423,-3067.933389,15838.647287,16601.244104,-12085.185896,2058.461554,-0.003000,-0.013000,1.002250,192.000000,127.500000,104.000000,127.500000,72.000000,15.500000,40.000000,0.000000,0.000000,0.000000,1771417259.912102,0.000000
32.000000,8165.159305,21073.582300,805.646277,2275.005254,4439.168208,16615.102186,-7042.945271,-4383.087681,1775.130841,-5037.926738,3329.739372,-3075.175354,15891.017424,16641.678410,-12073.652395,2046.726888,-0.003000,-0.013000,1.002250,192.000000,0.000000,0.000000,0.000000,0.000000,0.000000,0.000000,0.000000,0.000000,0.000000,1771417259.912112,0.000000
34.000000,8127.116636,21037.774806,743.150800,2224.020925,4208.051170,16567.157694,-7076.204667,-4411.608507,1770.481678,-5038.262014,3335.573177,-3062.948950,15875.237092,16632.737712,-12065.672823,2058.126278,-0.003000,-0.013000,1.002250,192.000000,0.000000,0.000000,0.000000,0.000000,0.000000,0.000000,0.000000,0.000000,0.000000,1771417259.912123,0.000000
36.000000,8142.561691,21051.297611,781.327579,2258.934350,4362.635835,16600.730014,-7058.792658,-4400.343227,1748.465210,-5065.084108,3306.247688,-3069.967397,15869.358584,16591.677557,-12074.971148,2082.355569,-0.003000,-0.013000,1.002250,192.000000,0.000000,0.000000,0.000000,0.000000,0.000000,0.000000,0.000000,0.000000,0.000000,1771417259.912133,0.000000
38.000000,8147.926110,21055.075056,777.192506,2259.604902,4365.116878,16598.226619,-7059.306748,-4396.565783,1772.962722,-5035.602157,3341.205816,-3080.673883,15887.776421,16647.847491,-12048.149055,2073.548981,-0.003000,-0.013000,1.002250,192.000000,0.000000,0.000000,0.000000,0.000000,0.000000,0.000000,0.000000,0.000000,0.000000,1771417259.912143,0.000000
40.000000,8125.015572,21035.360817,738.792209,2233.609823,4219.852891,16558.865197,-7078.238675,-4414.067199,1756.198914,-5057.909198,3309.958078,-3059.238560,15870.520874,16609.514250,-12064.622291,2083.808432,-0.002500,-0.011500,1.001125,192.000000,127.500000,120.000000,127.500000,88.000000,15.500000,32.000000,0.000000,0.000000,0.000000,1771417259.912153,0.000000
42.000000,8138.448970,21045.620268,796.951449,2276.815745,4455.909664,16617.247953,-7054.992861,-4408.613373,1759.998710,-5052.768296,3315.411903,-3090.374540,15867.123409,16625.115767,-12040.705924,2087.943505,-0.002500,-0.011500,1.001125,192.000000,0.000000,0.000000,0.000000,0.000000,0.000000,0.000000,0.000000,0.000000,0.000000,1771417259.912163,0.000000
44.000000,8107.558859,21015.199544,741.005032,2232.156960,4229.486493,16556.808836,-7086.307655,-4435.793094,1748.018175,-5064.502962,3305.398322,-3091.000389,15871.459648,16612.732901,-12036.392037,2092.369150,-0.002500,-0.011500,1.001125,192.000000,0.000000,0.000000,0.000000,0.000000,0.000000,0.000000,0.000000,0.000000,0.000000,1771417259.912173,0.000000
46.000000,8120.567575,21030.555192,783.920382,2259.515495,4373.923465,16596.483182,-7070.862600,-4428.975812,1737.646966,-5074.471840,3285.952304,-3094.509613,15872.085496,16607.480241,-12047.165578,2088.815223,-0.002500,-0.011500,1.001125,192.000000,0.000000,0.000000,0.000000,0.000000,0.000000,0.000000,0.000000,0.000000,0.000000,1771417259.912183,0.000000
48.000000,8118.310048,21025.526050,785.172079,2268.791469,4369.050785,16592.482220,-7072.963664,-4430.808655,1758.389385,-5052.567131,3309.354581,-3106.288982,15866.274043,16621.450081,-12019.896450,2074.577162,-0.002500,-0.011500,1.001125,192.000000,0.000000,0.000000,0.000000,0.000000,0.000000,0.000000,0.000000,0.000000,0.000000,1771417259.912193,0.000000
50.000000,8120.589926,21030.868117,747.464686,2232.291070,4214.510824,16555.914766,-7083.290170,-4430.875710,1740.284472,-5069.979140,3291.875516,-3080.919752,15869.045659,16603.166354,-12048.573738,2084.076653,-0.000250,-0.011750,1.001562,192.000000,0.000000,8.000000,127.500000,80.000000,15.500000,40.000000,0.000000,0.000000,0.000000,1771417259.912205,0.000000
52.000000,8141.220586,21050.314134,803.299344,2264.499934,4448.824161,16608.530773,-7052.489466,-4405.372370,1760.848076,-5050.555474,3316.060104,-3093.079101,15882.814334,16614.565744,-12050.116009,2059.713252,-0.000250,-0.011750,1.001562,192.000000,0.000000,0.000000,0.000000,0.000000,0.000000,0.000000,0.000000,0.000000,0.000000,1771417259.912215,0.000000
54.000000,8123.763874,21035.673742,741.563826,2220.131722,4206.911231,16537.563984,-7077.344606,-4417.419960,1761.742146,-5050.801343,3313.780226,-3077.701101,15893.274950,16621.539488,-12060.375459,2058.148629,-0.000250,-0.011750,1.001562,192.000000,0.000000,0.000000,0.000000,0.000000,0.000000,0.000000,0.000000,0.000000,0.000000,1771417259.912225,0.000000
56.000000,8136.616127,21050.112969,781.238172,2250.418335,4338.495951,16577.126572,-7057.987995,-4406.534661,1745.313614,-5059.518523,3304.750121,-3071.219095,15883.529590,16605.110956,-12079.173276,2059.266217,-0.000250,-0.011750,1.001562,192.000000,0.000000,0.000000,0.000000,0.000000,0.000000,0.000000,0.000000,0.000000,0.000000,1771417259.912235,0.000000
58.000000,8130.089418,21047.207242,768.341216,2246.573835,4331.723372,16561.256833,-7062.324233,-4410.580326,1767.955931,-5041.033630,3326.543072,-3089.458119,15864.955290,16633.922354,-12056.128628,2044.938748,-0.000250,-0.011750,1.001562,192.000000,0.000000,0.000000,0.000000,0.000000,0.000000,0.000000,0.000000,0.000000,0.000000,1771417259.912247,0.000000
60.000000,8111.135138,21024.319056,725.805846,2216.287221,4175.484678,16525.672856,-7079.959760,-4427.746466,1733.713059,-5067.207523,3298.446929,-3071.666130,15858.182711,16606.273247,-12081.654320,2054.192371,-0.000250,-0.011750,1.001562,192.000000,0.000000,0.000000,127.500000,80.000000,15.500000,56.000000,0.000000,0.000000,0.000000,1771417259.912257,0.000000
62.000000,8128.234223,21042.759245,786.379073,2260.074289,4417.352905,16581.708679,-7051.483637,-4410.177995,1745.425373,-5066.402860,3309.131063,-3102.511537,15865.670546,16615.571572,-12066.790410,2061.009653,-0.000250,-0.011750,1.001562,192.000000,0.000000,0.000000,0.000000,0.000000,0.000000,0.000000,0.000000,0.000000,0.000000,1771417259.912268,0.000000
64.000000,8113.213851,21028.521184,729.516236,2223.953870,4195.377731,16527.840975,-7078.104565,-4426.964155,1746.252387,-5062.424250,3311.254479,-3086.015950,15846.537453,16598.696005,-12069.025584,2066.552885,-0.000250,-0.011750,1.001562,192.000000,0.000000,0.000000,0.000000,0.000000,0.000000,0.000000,0.000000,0.000000,0.000000,1771417259.912278,0.000000
66.000000,8122.579232,21035.450224,767.849477,2248.049050,4343.860369,16569.236406,-7062.927730,-4423.879614,1740.306823,-5076.103518,3291.249668,-3085.032473,15840.837758,16599.657130,-12079.687366,2078.108737,-0.000250,-0.011750,1.001562,192.000000,0.000000,0.000000,0.000000,0.000000,0.000000,0.000000,0.000000,0.000000,0.000000,1771417259.912288,0.000000
68.000000,8114.107920,21024.967256,759.333463,2251.982957,4338.719468,16558.664031,-7070.281454,-4433.580271,1753.784925,-5061.977215,3307.231165,-3107.540680,15876.622901,16615.258648,-12043.544596,2066.709348,-0.000250,-0.011750,1.001562,192.000000,0.000000,0.000000,0.000000,0.000000,0.000000,0.000000,0.000000,0.000000,0.000000,1771417259.912297,0.000000
70.000000,8094.728958,21001.162648,726.208177,2229.810027,4193.522536,16529.025618,-7091.336798,-4451.975757,1721.486654,-5090.051006,3278.531525,-3094.554316,15861.691935,16578.691194,-12065.941044,2090.849232,-0.002125,-0.011875,1.005781,192.000000,127.500000,112.000000,127.500000,80.000000,15.500000,72.000000,0.000000,0.000000,0.000000,1771417259.912308,0.000000
72.000000,8122.087493,21031.873945,799.633658,2279.609714,4437.424771,16595.007967,-7062.503047,-4426.517120,1744.017213,-5076.818773,3296.569383,-3119.834139,15867.861017,16605.379177,-12043.097561,2078.578124,-0.002125,-0.011875,1.005781,192.000000,0.000000,0.000000,0.000000,0.000000,0.000000,0.000000,0.000000,0.000000,0.000000,1771417259.912318,0.000000
74.000000,8104.161394,21014.238419,735.037116,2238.437800,4213.706161,16537.094597,-7091.984998,-4444.733792,1748.800486,-5062.692471,3296.703493,-3097.795319,15875.885293,16605.200363,-12046.673840,2078.488717,-0.002125,-0.011875,1.005781,192.000000,0.000000,0.000000,0.000000,0.000000,0.000000,0.000000,0.000000,0.000000,0.000000,1771417260.392771,0.000000
76.000000,8132.078723,21040.255849,793.643390,2261.281283,4350.074154,16575.986633,-7067.129858,-4424.125484,1748.509914,-5070.292064,3288.366293,-3095.090758,15866.251691,16606.608523,-12064.041145,2068.005749,-0.002125,-0.011875,1.005781,192.000000,0.000000,0.000000,0.000000,0.000000,0.000000,0.000000,0.000000,0.000000,0.000000,1771417260.392827,0.000000
78.000000,8123.383894,21031.426910,777.416024,2248.116106,4338.004212,16558.529920,-7068.560370,-4423.410228,1771.442803,-5048.342651,3316.685953,-3102.802110,15912.519802,16630.390779,-12049.937195,2039.507275,-0.002125,-0.011875,1.005781,192.000000,0.000000,0.000000,0.000000,0.000000,0.000000,0.000000,0.000000,0.000000,0.000000,1771417260.392869,0.000000
80.000000,8111.805691,21021.458032,744.223683,2213.359143,4181.430242,16512.977065,-7080.518553,-4427.657059,1740.664451,-5079.813907,3291.070854,-3084.116052,15851.790112,16590.224694,-12074.792334,2055.689938,-0.002125,-0.011875,1.005781,192.000000,0.000000,0.000000,0.000000,0.000000,0.000000,0.000000,0.000000,0.000000,0.000000,1771417260.392913,0.000000
82.000000,8142.226415,21053.666896,802.069998,2255.894513,4407.585193,16577.864179,-7047.147399,-4399.158585,1759.439917,-5055.718727,3321.938613,-3097.482395,15856.260461,16618.857279,-12068.824419,2047.039812,-0.002125,-0.011875,1.005781,192.000000,0.000000,0.000000,127.500000,48.000000,15.500000,80.000000,0.000000,0.000000,0.000000,1771417260.392954,0.000000
84.000000,8121.148720,21030.331675,730.857340,2210.274602,4208.386446,16530.545536,-7075.444707,-4419.856300,1763.396175,-5056.746907,3315.948345,-3085.434805,15891.799735,16612.755252,-12067.662128,2047.419792,-0.002125,-0.011875,1.005781,192.000000,0.000000,0.000000,0.000000,0.000000,0.000000,0.000000,0.000000,0.000000,0.000000,1771417260.392999,0.000000
86.000000,8129.329458,21040.211146,776.209030,2241.879969,4344.396811,16570.532807,-7058.770306,-4413.262536,1751.460344,-5067.095765,3306.582964,-3079.153964,15854.829950,16593.286883,-12078.323910,2059.579141,-0.002125,-0.011875,1.005781,192.000000,0.000000,0.000000,0.000000,0.000000,0.000000,0.000000,0.000000,0.000000,0.000000,1771417260.393041,0.000000
88.000000,8123.093322,21030.309323,767.760070,2233.833341,4347.324890,16570.041069,-7065.945216,-4420.996239,1762.837382,-5056.143410,3319.904604,-3102.824462,15889.296340,16615.213944,-12051.680631,2069.816240,-0.002125,-0.011875,1.005781,192.000000,0.000000,0.000000,0.000000,0.000000,0.000000,0.000000,0.000000,0.000000,0.000000,1771417260.393053,0.000000
90.000000,8108.765853,21021.458032,731.147913,2211.481596,4205.547774,16542.637830,-7087.022911,-4437.827103,1741.647928,-5082.339654,3292.747234,-3087.580572,15843.654077,16590.112935,-12065.538712,2094.649028,-0.002125,-0.011875,1.005781,192.000000,0.000000,0.000000,0.000000,0.000000,0.000000,0.000000,0.000000,0.000000,0.000000,1771417260.393072,0.000000
92.000000,8136.772589,21051.252908,790.447091,2260.767193,4438.810580,16617.270305,-7057.630367,-4418.738713,1757.428260,-5057.171590,3300.682104,-3107.406569,15888.692843,16621.338322,-12049.624270,2097.822976,-0.002125,-0.011875,1.005781,192.000000,0.000000,0.000000,127.500000,80.000000,15.500000,64.000000,0.000000,0.000000,0.000000,1771417260.393084,0.000000
94.000000,8115.538432,21028.923515,736.221759,2220.757570,4223.742094,16559.178121,-7088.006388,-4438.385896,1763.999672,-5050.399011,3303.364313,-3090.218078,15897.342968,16615.146889,-12046.472674,2102.807415,-0.002125,-0.011875,1.005781,192.000000,0.000000,0.000000,0.000000,0.000000,0.000000,0.000000,0.000000,0.000000,0.000000,1771417260.393095,0.000000
96.000000,8129.865900,21045.061474,788.569544,2258.777888,4369.162544,16604.283941,-7066.973396,-4425.019553,1743.905454,-5069.822677,3285.818194,-3091.872107,15846.895080,16598.606598,-12055.391020,2109.356476,-0.002125,-0.011875,1.005781,192.000000,0.000000,0.000000,0.000000,0.000000,0.000000,0.000000,0.000000,0.000000,0.000000,1771417260.393106,0.000000
98.000000,8119.159415,21035.986666,774.487945,2261.415394,4346.475523,16593.800973,-7070.750841,-4431.501559,1768.246504,-5043.782895,3311.947383,-3103.137386,15881.607340,16624.422863,-12042.225843,2090.290438,-0.002125,-0.011875,1.005781,192.000000,0.000000,0.000000,0.000000,0.000000,0.000000,0.000000,0.000000,0.000000,0.000000,1771417260.393117,0.000000
100.000000,8109.212888,21021.569791,741.049736,2228.312460,4193.835460,16548.583394,-7087.626408,-4441.716306,1737.132876,-5075.097689,3279.090319,-3088.787566,15861.088438,16588.168334,-12072.825381,2098.627639,-0.002125,-0.011875,1.005781,192.000000,0.000000,0.000000,0.000000,0.000000,0.000000,0.000000,0.000000,0.000000,0.000000,1771417260.393128,0.000000
102.000000,8126.177862,21048.905974,803.858138,2278.916809,4427.657059,16601.177049,-7053.808219,-4417.263498,1760.803373,-5051.404840,3301.598525,-3104.322029,15869.559749,16617.382064,-12062.901206,2058.729775,-0.002125,-0.011875,1.005781,192.000000,0.000000,0.000000,127.500000,80.000000,15.500000,48.000000,0.000000,0.000000,0.000000,1771417260.393139,0.000000
104.000000,8103.177917,21023.693207,732.198445,2233.699230,4192.650818,16545.275336,-7083.223114,-4437.022440,1745.514780,-5058.333881,3291.920220,-3093.906116,15859.702630,16595.633816,-12065.829285,2062.171943,-0.002125,-0.011875,1.005781,192.000000,0.000000,0.000000,0.000000,0.000000,0.000000,0.000000,0.000000,0.000000,0.000000,1771417260.393150,0.000000
106.000000,8118.801787,21039.048855,775.449070,2258.643777,4319.385209,16587.743650,-7061.787791,-4415.676524,1738.675146,-5068.235703,3282.823060,-3086.686502,15832.522909,16594.851505,-12090.751480,2074.063071,-0.002125,-0.011875,1.005781,192.000000,0.000000,0.000000,0.000000,0.000000,0.000000,0.000000,0.000000,0.000000,0.000000,1771417260.393162,0.000000
108.000000,8128.748313,21044.837957,764.496716,2251.558274,4331.768075,16586.715470,-7061.340757,-4409.216870,1761.988015,-5049.102610,3317.132988,-3094.710779,15862.474246,16618.499651,-12061.873026,2057.679243,-0.002125,-0.011875,1.005781,192.000000,0.000000,0.000000,0.000000,0.000000,0.000000,0.000000,0.000000,0.000000,0.000000,1771417260.393173,0.000000
110.000000,8108.899964,21026.129547,723.302451,2216.890719,4188.940428,16550.103313,-7081.703196,-4428.506425,1746.408850,-5072.616645,3290.020322,-3073.901304,15874.521837,16580.121706,-12083.643625,2063.378938,-0.002125,-0.011875,1.005781,192.000000,0.000000,0.000000,0.000000,0.000000,0.000000,0.000000,0.000000,0.000000,0.000000,1771417260.393184,0.000000
112.000000,8132.436351,21051.208204,789.195393,2260.476620,4411.519100,16609.849526,-7051.684803,-4405.729998,1747.727602,-5062.111326,3305.532432,-3101.081026,15853.444142,16600.908828,-12065.426953,2065.837630,-0.006000,-0.008000,1.010000,192.000000,127.500000,104.000000,127.500000,96.000000,15.500000,72.000000,0.000000,0.000000,0.000000,1771417260.393195,0.000000
114.000000,8116.678371,21035.919611,720.262613,2213.225032,4198.954010,16560.005136,-7081.882010,-4425.444236,1757.428260,-5050.242549,3307.320572,-3081.769119,15855.098171,16604.082776,-12067.483314,2080.478022,-0.006000,-0.008000,1.010000,192.000000,0.000000,0.000000,0.000000,0.000000,0.000000,0.000000,0.000000,0.000000,0.000000,1771417260.393206,0.000000
116.000000,8126.937822,21044.815605,772.275123,2245.813876,4346.699041,16601.534677,-7066.191085,-4421.845606,1746.006518,-5065.374680,3287.360464,-3083.557258,15845.978659,16600.394738,-12072.914788,2094.537269,-0.006000,-0.008000,1.010000,192.000000,0.000000,0.000000,0.000000,0.000000,0.000000,0.000000,0.000000,0.000000,0.000000,1771417260.393217,0.000000
118.000000,8123.227432,21039.697056,761.233361,2240.471809,4361.630006,16595.857334,-7069.677957,-4428.037039,1761.228056,-5047.694450,3308.169938,-3102.846814,15869.470342,16609.223677,-12040.437703,2089.128147,-0.006000,-0.008000,1.010000,192.000000,0.000000,0.000000,0.000000,0.000000,0.000000,0.000000,0.000000,0.000000,0.000000,1771417260.393228,0.000000
120.000000,8111.850394,21030.935172,738.747506,2217.538919,4215.807225,16556.294746,-7087.492298,-4441.515141,1744.665413,-5068.503924,3284.208868,-3081.925581,15866.028174,16609.156622,-12059.660203,2105.824900,-0.006000,-0.008000,1.010000,192.000000,0.000000,0.000000,0.000000,0.000000,0.000000,0.000000,0.000000,0.000000,0.000000,1771417260.393240,0.000000
122.000000,8138.024287,21052.504605,803.209937,2263.158830,4463.308092,16621.763005,-7060.625501,-4425.243071,1766.659530,-5045.951014,3298.491633,-3099.538755,15880.735622,16628.356770,-12033.508662,2088.256429,0.004000,-0.014000,1.012000,192.000000,0.000000,16.000000,127.500000,72.000000,15.500000,80.000000,0.000000,0.000000,0.000000,1771417260.393252,0.000000
124.000000,8112.364484,21026.084843,731.885520,2221.495178,4224.882033,16565.593072,-7093.080234,-4448.578292,1752.913207,-5057.663328,3292.233144,-3097.325933,15870.722040,16611.391796,-12038.314287,2102.986229,0.004000,-0.014000,1.012000,192.000000,0.000000,0.000000,0.000000,0.000000,0.000000,0.000000,0.000000,0.000000,0.000000,1771417260.393263,0.000000
126.000000,8129.172996,21046.112006,787.340198,2252.318234,4355.192704,16601.020587,-7068.917998,-4431.278042,1750.163943,-5062.558360,3278.620932,-3092.654418,15872.398421,16595.320892,-12065.158733,2106.383694,0.004000,-0.014000,1.012000,192.000000,0.000000,0.000000,0.000000,0.000000,0.000000,0.000000,0.000000,0.000000,0.000000,1771417260.393274,0.000000
128.000000,8124.769703,21044.256812,772.766861,2246.640890,4347.190779,16578.266511,-7069.074460,-4429.869882,1770.213457,-5039.826636,3306.180633,-3103.897346,15874.678299,16627.842680,-12048.774904,2081.617961,0.004000,-0.014000,1.012000,192.000000,0.000000,0.000000,0.000000,0.000000,0.000000,0.000000,0.000000,0.000000,0.000000,1771417260.393286,0.000000
130.000000,8114.398493,21030.331675,735.484151,2215.728428,4191.086196,16539.776807,-7086.687635,-4440.799885,1753.673166,-5058.915026,3284.678255,-3080.428014,15878.701613,16605.848563,-12067.326852,2071.067938,0.004000,-0.014000,1.012000,192.000000,0.000000,0.000000,0.000000,0.000000,0.000000,0.000000,0.000000,0.000000,0.000000,1771417260.393297,0.000000
132.000000,8141.444104,21060.998268,799.030161,2268.143269,4428.662888,16601.087642,-7053.562350,-4412.010838,1766.145440,-5045.593386,3303.252554,-3099.158776,15877.382860,16610.855354,-12058.922596,2057.388670,0.002000,-0.010000,1.004000,192.000000,0.000000,8.000000,127.500000,88.000000,15.500000,48.000000,0.000000,0.000000,0.000000,1771417260.393309,0.000000
134.000000,8113.258554,21037.327771,731.371430,2227.843073,4195.735359,16545.901185,-7082.463155,-4428.819350,1758.411736,-5038.440828,3308.393456,-3077.969322,15846.828025,16622.880593,-12069.450267,2057.343967,0.002000,-0.010000,1.004000,192.000000,0.000000,0.000000,0.000000,0.000000,0.000000,0.000000,0.000000,0.000000,0.000000,1771417260.393320,0.000000
136.000000,8125.037923,21043.653315,769.972893,2248.496085,4333.489160,16590.001177,-7064.335890,-4419.722190,1741.849094,-5057.708032,3290.377950,-3080.897400,15854.002935,16601.042938,-12080.044994,2066.463478,0.002000,-0.010000,1.004000,192.000000,0.000000,0.000000,0.000000,0.000000,0.000000,0.000000,0.000000,0.000000,0.000000,1771417260.393331,0.000000
138.000000,8117.572441,21036.947791,756.159515,2242.639928,4330.672840,16588.749479,-7068.247446,-4424.594870,1759.238751,-5046.912139,3313.847281,-3103.204441,15870.409116,16617.806747,-12052.731163,2065.547057,0.002000,-0.010000,1.004000,192.000000,0.000000,0.000000,0.000000,0.000000,0.000000,0.000000,0.000000,0.000000,0.000000,1771417260.393343,0.000000
140.000000,8110.241069,21029.392902,716.351058,2214.320268,4190.437995,16561.927386,-7087.604056,-4433.379106,1741.290300,-5070.962616,3286.175822,-3084.428976,15845.710438,16584.435592,-12072.445401,2093.129110,0.002000,-0.010000,1.004000,192.000000,0.000000,0.000000,0.000000,0.000000,0.000000,0.000000,0.000000,0.000000,0.000000,1771417260.393354,0.000000
142.000000,8139.901834,21060.640640,790.223573,2266.489240,4432.686202,16634.123520,-7054.434068,-4407.384027,1759.819896,-5046.755677,3305.890060,-3098.890555,15870.163246,16624.244049,-12052.574700,2088.211726,0.002000,-0.010000,1.002000,192.000000,0.000000,8.000000,127.500000,88.000000,15.500000,40.000000,0.000000,0.000000,0.000000,1771417260.393368,0.000000
144.000000,8121.416941,21043.832129,731.058506,2230.659393,4228.145388,16584.055613,-7083.424280,-4423.611393,1763.798507,-5041.055982,3314.741351,-3080.338607,15855.455799,16630.010799,-12045.131570,2088.189374,0.002000,-0.010000,1.002000,192.000000,0.000000,0.000000,0.000000,0.000000,0.000000,0.000000,0.000000,0.000000,0.000000,1771417260.393379,0.000000
146.000000,8129.016534,21049.017733,776.745472,2263.628216,4369.721338,16632.469491,-7068.649777,-4419.453969,1750.052184,-5054.936416,3295.071816,-3082.350264,15881.629691,16609.760119,-12054.318136,2109.468235,0.002000,-0.010000,1.002000,192.000000,0.000000,0.000000,0.000000,0.000000,0.000000,0.000000,0.000000,0.000000,0.000000,1771417260.393390,0.000000
148.000000,8119.360580,21041.552251,771.515163,2260.275455,4363.194628,16630.100206,-7074.818858,-4428.349963,1771.196934,-5039.334898,3315.724828,-3100.298715,15868.419810,16638.012724,-12024.210337,2108.931793,0.002000,-0.010000,1.002000,192.000000,0.000000,0.000000,0.000000,0.000000,0.000000,0.000000,0.000000,0.000000,0.000000,1771417260.393401,0.000000
150.000000,8100.607467,21019.356968,733.807770,2229.385344,4202.574992,16585.977863,-7094.823670,-4448.645347,1741.089134,-5068.749794,3280.632589,-3088.251124,15852.035982,16604.552162,-12059.324927,2136.715011,0.002000,-0.010000,1.002000,192.000000,0.000000,0.000000,0.000000,0.000000,0.000000,0.000000,0.000000,0.000000,0.000000,1771417260.393412,0.000000
152.000000,8121.863976,21039.361780,798.449015,2268.366786,4431.032173,16629.675523,-7063.531228,-4427.187673,1753.963739,-5053.885884,3297.821080,-3108.077122,15866.162284,16632.938878,-12056.262738,2117.693677,0.002000,-0.010000,1.002000,192.000000,0.000000,0.000000,127.500000,104.000000,15.500000,56.000000,0.000000,0.000000,0.000000,1771417260.393424,0.000000
154.000000,8107.022417,21024.363759,741.519122,2220.958736,4217.595365,16560.563929,-7087.447594,-4440.554016,1749.694556,-5059.071488,3294.893002,-3096.498918,15860.060258,16612.621142,-12054.407543,2093.844365,0.002000,-0.010000,1.002000,192.000000,0.000000,0.000000,0.000000,0.000000,0.000000,0.000000,0.000000,0.000000,0.000000,1771417260.393436,0.000000
156.000000,8128.614203,21047.743684,789.508318,2248.764306,4348.934215,16590.627025,-7062.190123,-4419.632783,1750.096887,-5066.827544,3289.014493,-3085.792433,15849.689048,16594.896209,-12074.568817,2076.231191,0.002000,-0.010000,1.002000,192.000000,0.000000,0.000000,0.000000,0.000000,0.000000,0.000000,0.000000,0.000000,0.000000,1771417260.393447,0.000000
158.000000,8131.363467,21051.252908,780.500565,2245.098620,4341.178160,16583.787392,-7062.637158,-4415.117731,1781.881068,-5035.021011,3314.920165,-3091.447424,15901.835668,16645.366448,-12052.619404,2052.337176,0.002000,-0.010000,1.002000,192.000000,0.000000,0.000000,0.000000,0.000000,0.000000,0.000000,0.000000,0.000000,0.000000,1771417260.393458,0.000000
160.000000,8116.097226,21037.394826,734.768895,2219.416466,4195.713007,16541.833167,-7082.485507,-4427.657059,1755.349547,-5059.227950,3293.641304,-3070.034453,15852.035982,16608.843697,-12073.205361,2062.440164,0.002000,-0.010000,1.002000,192.000000,0.000000,0.000000,0.000000,0.000000,0.000000,0.000000,0.000000,0.000000,0.000000,1771417260.393469,0.000000
162.000000,8139.700668,21059.433646,801.466501,2261.884780,4428.238205,16609.603656,-7053.405887,-4404.791225,1765.005501,-5048.186189,3312.305011,-3093.995523,15891.799735,16628.624991,-12058.006174,2065.882333,0.002000,-0.011000,1.002000,192.000000,0.000000,8.000000,127.500000,80.000000,15.500000,40.000000,0.000000,0.000000,0.000000,1771417260.393481,0.000000
164.000000,8126.088455,21047.251945,731.058506,2221.316364,4212.856795,16561.145075,-7083.714853,-4421.644440,1767.106565,-5046.442753,3315.925993,-3083.490203,15850.292546,16640.896099,-12054.429895,2069.883295,0.002000,-0.011000,1.002000,192.000000,0.000000,0.000000,0.000000,0.000000,0.000000,0.000000,0.000000,0.000000,0.000000,1771417260.393492,0.000000
166.000000,8130.871729,21054.583318,771.313998,2246.573835,4359.126611,16615.348055,-7066.548713,-4415.855338,1764.156135,-5050.890750,3301.084435,-3079.600999,15890.168058,16625.562802,-12067.796238,2084.523688,0.002000,-0.011000,1.002000,192.000000,0.000000,0.000000,0.000000,0.000000,0.000000,0.000000,0.000000,0.000000,0.000000,1771417260.393504,0.000000
168.000000,8121.171072,21044.256812,762.261541,2245.612710,4360.557122,16612.129404,-7072.583684,-4424.483111,1763.150306,-5047.046250,3313.154377,-3105.819596,15857.333345,16634.637610,-12039.990668,2093.620848,0.002000,-0.011000,1.002000,192.000000,0.000000,0.000000,0.000000,0.000000,0.000000,0.000000,0.000000,0.000000,0.000000,1771417260.393521,0.000000
170.000000,8112.833871,21036.120777,731.460837,2222.389248,4224.591461,16594.292712,-7089.548658,-4435.301356,1754.522533,-5064.994701,3290.266191,-3084.071348,15841.441255,16622.455910,-12055.569834,2108.663572,0.002000,-0.011000,1.002000,192.000000,0.000000,0.000000,0.000000,0.000000,0.000000,0.000000,0.000000,0.000000,0.000000,1771417260.393532,0.000000
172.000000,8128.748313,21057.109065,790.871774,2271.116051,4459.977682,16654.083628,-7062.503047,-4418.649306,1764.826687,-5040.810113,3302.738464,-3098.152947,15896.247732,16640.829043,-12037.822549,2107.590688,0.000000,-0.012500,1.005000,192.000000,127.500000,120.000000,127.500000,72.000000,15.500000,64.000000,0.000000,0.000000,0.000000,1771417260.393543,0.000000
174.000000,8104.183746,21029.057625,728.756276,2231.687573,4225.999621,16590.045880,-7092.677902,-4442.297452,1753.851980,-5051.047212,3293.082511,-3091.402720,15862.943633,16648.607451,-12036.548500,2116.509034,0.000000,-0.012500,1.005000,192.000000,0.000000,0.000000,0.000000,0.000000,0.000000,0.000000,0.000000,0.000000,0.000000,1771417260.393554,0.000000
176.000000,8113.236202,21036.053721,777.393672,2261.705966,4375.063404,16631.731883,-7074.930617,-4433.110885,1746.922940,-5063.899465,3279.313836,-3091.894459,15886.256502,16620.108976,-12052.597052,2118.096008,0.000000,-0.012500,1.005000,192.000000,0.000000,0.000000,0.000000,0.000000,0.000000,0.000000,0.000000,0.000000,0.000000,1771417260.393565,0.000000
178.000000,8112.073912,21032.946829,778.064224,2260.275455,4359.327776,16617.605581,-7076.942274,-4434.094362,1759.372861,-5048.029727,3304.928935,-3110.088779,15866.318746,16651.267308,-12038.291936,2125.248566,0.000000,-0.012500,1.005000,192.000000,0.000000,0.000000,0.000000,0.000000,0.000000,0.000000,0.000000,0.000000,0.000000,1771417260.393576,0.000000
180.000000,8095.600676,21016.965332,743.642538,2219.371762,4206.441844,16575.807819,-7090.710949,-4447.348946,1742.653756,-5074.203619,3276.966903,-3091.715645,15850.180787,16610.408319,-12064.510532,2124.153331,0.000000,-0.012500,1.005000,192.000000,0.000000,0.000000,0.000000,0.000000,0.000000,0.000000,0.000000,0.000000,0.000000,1771417260.393587,0.000000
182.000000,8124.792054,21046.022599,801.533556,2269.126745,4434.161417,16619.281962,-7052.780038,-4417.442312,1748.688727,-5063.318320,3295.898830,-3114.469721,15874.074802,16635.174052,-12057.648546,2100.393426,0.001000,-0.013250,1.003500,192.000000,0.000000,8.000000,127.500000,72.000000,15.500000,40.000000,0.000000,0.000000,0.000000,1771417260.393598,0.000000
184.000000,8099.042845,21020.206335,740.982680,2217.360105,4194.975399,16539.977973,-7079.825649,-4435.144894,1755.081326,-5058.937378,3300.123310,-3092.542659,15901.366282,16617.918505,-12071.037241,2076.231191,0.001000,-0.013250,1.003500,192.000000,0.000000,0.000000,0.000000,0.000000,0.000000,0.000000,0.000000,0.000000,0.000000,1771417260.393609,0.000000
186.000000,8124.970868,21043.094521,781.640504,2249.971300,4342.653375,16584.323834,-7058.546789,-4414.111902,1746.319443,-5076.729366,3282.443080,-3091.827404,15842.067104,16604.328645,-12078.949759,2072.386691,0.001000,-0.013250,1.003500,192.000000,0.000000,0.000000,0.000000,0.000000,0.000000,0.000000,0.000000,0.000000,0.000000,1771417260.393622,0.000000
188.000000,8126.781360,21040.702884,768.698844,2247.087925,4335.210244,16596.103203,-7058.859713,-4408.747483,1768.782946,-5049.862570,3323.838511,-3096.185994,15880.243883,16627.350942,-12057.648546,2057.813353,0.001000,-0.013250,1.003500,192.000000,0.000000,0.000000,0.000000,0.000000,0.000000,0.000000,0.000000,0.000000,0.000000,1771417260.393633,0.000000
190.000000,8109.861089,21025.123718,723.369506,2217.293050,4189.678036,16562.039144,-7080.786774,-4426.427713,1749.716908,-5075.678834,3295.004761,-3076.427052,15861.066086,16595.007967,-12080.782602,2079.405138,0.001000,-0.013250,1.003500,192.000000,0.000000,0.000000,0.000000,0.000000,0.000000,0.000000,0.000000,0.000000,0.000000,1771417260.393644,0.000000
192.000000,8120.545223,21039.048855,783.182774,2258.844943,4426.070085,16616.756215,-7057.831533,-4416.235318,1754.611940,-5061.150201,3303.252554,-3104.634953,15882.836686,16616.577401,-12053.245253,2083.651970,0.002500,-0.011625,1.003750,192.000000,0.000000,16.000000,127.500000,88.000000,15.500000,48.000000,0.000000,0.000000,0.000000,1771417260.393655,0.000000
194.000000,8103.937877,21021.435681,715.948727,2224.065629,4208.766426,16564.721354,-7088.587533,-4435.904853,1754.991919,-5067.051061,3297.888136,-3095.604848,15852.527720,16622.165337,-12048.171407,2099.745226,0.002500,-0.011625,1.003750,192.000000,0.000000,0.000000,0.000000,0.000000,0.000000,0.000000,0.000000,0.000000,0.000000,1771417260.874923,0.000000
196.000000,8119.897022,21036.299591,763.267370,2250.060707,4380.226657,16634.123520,-7070.393213,-4426.025382,1748.688727,-5073.354253,3283.739481,-3089.279305,15862.496598,16608.843697,-12060.330756,2111.278726,0.002500,-0.011625,1.003750,192.000000,0.000000,0.000000,0.000000,0.000000,0.000000,0.000000,0.000000,0.000000,0.000000,1771417260.874975,0.000000
198.000000,8123.003915,21043.474501,755.243093,2264.052899,4370.883628,16634.525852,-7073.500106,-4427.590004,1769.207629,-5045.995718,3305.420674,-3102.243316,15902.886200,16648.674506,-12029.060665,2116.061999,0.002500,-0.011625,1.003750,192.000000,0.000000,0.000000,0.000000,0.000000,0.000000,0.000000,0.000000,0.000000,0.000000,1771417260.875016,0.000000
200.000000,8120.522871,21037.081902,729.359773,2245.500951,4222.400990,16599.254799,-7093.147289,-4439.995222,1761.518629,-5056.031651,3279.604409,-3075.354168,15873.538360,16629.608468,-12057.223863,2137.653784,0.002500,-0.011625,1.003750,192.000000,0.000000,0.000000,0.000000,0.000000,0.000000,0.000000,0.000000,0.000000,0.000000,1771417260.875064,0.000000
202.000000,8121.953383,21043.183928,794.202184,2278.000388,4440.509312,16635.509328,-7065.274664,-4424.416056,1765.117260,-5049.259072,3295.608258,-3104.433787,15864.865883,16638.996200,-12040.616517,2131.708220,0.003250,-0.012813,1.003875,192.000000,0.000000,16.000000,127.500000,72.000000,15.500000,48.000000,0.000000,0.000000,0.000000,1771417260.875097,0.000000
204.000000,8104.899002,21019.334617,733.628957,2231.531111,4203.223193,16570.264586,-7090.979170,-4442.386859,1764.424356,-5061.127849,3293.574249,-3098.555279,15870.990261,16622.053578,-12047.143227,2117.738380,0.003250,-0.012813,1.003875,192.000000,0.000000,0.000000,0.000000,0.000000,0.000000,0.000000,0.000000,0.000000,0.000000,1771417260.875140,0.000000
206.000000,8112.409188,21031.650428,785.552059,2255.670995,4346.117895,16594.493877,-7066.883989,-4424.997202,1738.675146,-5078.942189,3284.477089,-3098.622334,15853.980583,16610.497726,-12066.499837,2095.990133,0.003250,-0.012813,1.003875,192.000000,0.000000,0.000000,0.000000,0.000000,0.000000,0.000000,0.000000,0.000000,0.000000,1771417260.875178,0.000000
208.000000,8130.871729,21047.341352,772.744509,2251.088888,4340.351145,16578.221807,-7067.867466,-4419.453969,1769.565257,-5047.292119,3315.031924,-3103.539718,15894.906628,16636.202232,-12049.736029,2062.395461,0.003250,-0.012813,1.003875,192.000000,0.000000,0.000000,0.000000,0.000000,0.000000,0.000000,0.000000,0.000000,0.000000,1771417260.875188,0.000000
210.000000,8117.974772,21035.651390,744.201332,2226.032582,4192.069673,16542.593127,-7079.669187,-4421.040943,1755.036623,-5070.046195,3291.048502,-3075.689444,15891.665625,16609.871877,-12084.738861,2058.506257,0.003250,-0.012813,1.003875,192.000000,0.000000,0.000000,0.000000,0.000000,0.000000,0.000000,0.000000,0.000000,0.000000,1771417260.875198,0.000000
212.000000,8140.751200,21056.147940,805.802739,2268.590303,4417.397608,16601.154697,-7047.907358,-4396.878707,1767.486545,-5049.996680,3318.272927,-3092.609715,15866.944595,16627.239183,-12074.278244,2051.599568,0.003250,-0.012813,1.003875,192.000000,0.000000,0.000000,0.000000,0.000000,0.000000,0.000000,0.000000,0.000000,0.000000,1771417260.875209,0.000000
214.000000,8124.166205,21036.388998,731.796113,2225.049105,4188.068710,16537.429874,-7078.417489,-4417.174091,1754.678995,-5062.156029,3313.221432,-3082.216153,15886.860000,16629.899040,-12069.182047,2049.409097,0.002000,-0.018000,1.008000,192.000000,0.000000,8.000000,127.500000,56.000000,15.500000,64.000000,0.000000,0.000000,0.000000,1771417260.875219,0.000000
216.000000,8139.857130,21053.599841,776.477251,2254.776925,4324.459055,16571.069249,-7057.429201,-4403.092492,1745.671242,-5069.286235,3301.464415,-3077.298770,15849.689048,16597.109031,-12090.304445,2058.573313,0.002000,-0.018000,1.008000,192.000000,0.000000,0.000000,0.000000,0.000000,0.000000,0.000000,0.000000,0.000000,0.000000,1771417260.875229,0.000000
218.000000,8143.455761,21056.282050,758.394689,2247.825533,4313.909032,16563.760229,-7062.435992,-4402.131367,1766.950103,-5049.571997,3328.644136,-3091.425072,15893.967854,16625.540450,-12063.996442,2052.739507,0.002000,-0.018000,1.008000,192.000000,0.000000,0.000000,0.000000,0.000000,0.000000,0.000000,0.000000,0.000000,0.000000,1771417260.875254,0.000000
220.000000,8132.235185,21047.140187,723.905948,2228.804198,4172.891876,16535.887603,-7081.457327,-4414.938917,1750.946254,-5068.280407,3301.486767,-3068.693348,15831.204156,16606.720281,-12083.598922,2077.102909,0.002000,-0.018000,1.008000,192.000000,0.000000,0.000000,0.000000,0.000000,0.000000,0.000000,0.000000,0.000000,0.000000,1771417260.875265,0.000000
222.000000,8157.135028,21075.638661,791.877603,2276.234600,4431.948594,16608.731938,-7053.562350,-4396.945762,1765.832515,-5044.162875,3316.104807,-3086.485337,15857.534511,16625.607506,-12063.325890,2078.108737,0.002000,-0.018000,1.008000,192.000000,0.000000,0.000000,0.000000,0.000000,0.000000,0.000000,0.000000,0.000000,0.000000,1771417260.875275,0.000000
224.000000,8127.988354,21043.005114,726.677564,2226.792541,4219.495263,16554.998345,-7088.498126,-4428.327611,1758.836419,-5050.354308,3303.476072,-3078.930447,15916.185488,16635.352866,-12042.002325,2094.045531,0.002000,-0.014000,1.010000,192.000000,0.000000,8.000000,127.500000,72.000000,15.500000,72.000000,0.000000,0.000000,0.000000,1771417260.875286,0.000000
226.000000,8150.362450,21065.960356,782.691036,2263.561161,4368.112012,16599.902999,-7067.711004,-4412.748446,1751.907379,-5063.877113,3289.550935,-3081.210325,15819.268324,16614.990427,-12047.254985,2100.013447,0.002000,-0.014000,1.010000,192.000000,0.000000,0.000000,0.000000,0.000000,0.000000,0.000000,0.000000,0.000000,0.000000,1771417260.875296,0.000000
228.000000,8149.960119,21063.255794,777.840707,2261.236580,4361.808820,16584.502647,-7073.634216,-4412.167300,1782.082234,-5038.239662,3319.077589,-3092.185031,15889.519857,16646.260517,-12025.774959,2087.630580,0.002000,-0.014000,1.010000,192.000000,0.000000,0.000000,0.000000,0.000000,0.000000,0.000000,0.000000,0.000000,0.000000,1771417260.875306,0.000000
230.000000,8142.896967,21054.784483,745.162457,2231.039373,4214.667286,16550.170368,-7091.649722,-4424.706629,1766.771289,-5059.831448,3295.451796,-3070.012101,15871.526703,16603.054595,-12054.966337,2095.029008,0.002000,-0.014000,1.010000,192.000000,0.000000,0.000000,0.000000,0.000000,0.000000,0.000000,0.000000,0.000000,0.000000,1771417260.875317,0.000000
232.000000,8163.572331,21074.655184,807.635582,2269.752594,4448.757106,16608.731938,-7062.547751,-4404.232431,1776.606056,-5045.995718,3311.589755,-3095.448386,15884.513066,16629.630820,-12047.053820,2073.906609,0.002000,-0.014000,1.010000,192.000000,0.000000,0.000000,0.000000,0.000000,0.000000,0.000000,0.000000,0.000000,0.000000,1771417260.875327,0.000000
234.000000,8152.821142,21062.093504,748.649329,2228.334812,4219.696429,16546.661144,-7082.306693,-4409.283925,1777.701292,-5039.446657,3313.713171,-3076.002368,15926.400235,16627.619163,-12053.647584,2069.480964,-0.002000,-0.014000,1.012000,192.000000,127.500000,120.000000,127.500000,72.000000,15.500000,80.000000,0.000000,0.000000,0.000000,1771417260.875338,0.000000
236.000000,8162.678261,21070.743629,794.693922,2253.257007,4359.484239,16586.871932,-7060.223169,-4395.649361,1772.918018,-5053.371793,3310.606278,-3069.587418,15854.584081,16616.353883,-12073.317119,2060.964949,-0.002000,-0.014000,1.012000,192.000000,0.000000,0.000000,0.000000,0.000000,0.000000,0.000000,0.000000,0.000000,0.000000,1771417260.875348,0.000000
238.000000,8163.393517,21075.169274,777.371320,2259.202571,4345.872026,16574.734935,-7062.793620,-4393.749463,1784.809147,-5037.032668,3335.796694,-3085.054825,15869.246825,16649.613279,-12049.557215,2059.445031,-0.002000,-0.014000,1.012000,192.000000,0.000000,0.000000,0.000000,0.000000,0.000000,0.000000,0.000000,0.000000,0.000000,1771417260.875358,0.000000
240.000000,8152.575273,21061.825283,731.594948,2232.603995,4187.398158,16540.827339,-7080.227981,-4407.741655,1770.906361,-5052.008337,3314.227261,-3058.053918,15843.542319,16619.125500,-12079.888532,2074.308941,-0.002000,-0.014000,1.012000,192.000000,0.000000,0.000000,0.000000,0.000000,0.000000,0.000000,0.000000,0.000000,0.000000,1771417260.875381,0.000000
242.000000,8173.876485,21084.802876,794.336294,2276.569876,4424.371353,16607.480241,-7050.902492,-4386.999236,1778.528306,-5040.050154,3327.258328,-3083.400796,15878.746316,16642.572480,-12060.978956,2069.637426,-0.002000,-0.014000,1.012000,192.000000,0.000000,0.000000,0.000000,0.000000,0.000000,0.000000,0.000000,0.000000,0.000000,1771417260.875391,0.000000
244.000000,8149.378973,21059.612460,729.002145,2232.894568,4211.426283,16551.019734,-7081.837306,-4410.334457,1781.098757,-5041.279500,3323.905566,-3069.296845,15874.834761,16635.956363,-12064.957567,2083.316694,-0.002000,-0.010000,1.010000,192.000000,127.500000,120.000000,127.500000,88.000000,15.500000,72.000000,0.000000,0.000000,0.000000,1771417260.875402,0.000000
246.000000,8160.465438,21069.357821,772.498640,2259.671957,4352.845770,16579.741726,-7061.631329,-4400.410283,1761.988015,-5056.501038,3305.621839,-3072.157868,15873.538360,16610.229505,-12061.560102,2086.244772,-0.002000,-0.010000,1.010000,192.000000,0.000000,0.000000,0.000000,0.000000,0.000000,0.000000,0.000000,0.000000,0.000000,1771417260.875414,0.000000
248.000000,8158.945520,21070.810684,764.362605,2257.190914,4349.068326,16588.145982,-7067.509838,-4405.260611,1783.758615,-5039.871340,3328.442970,-3091.000389,15894.146668,16640.203195,-12030.155901,2079.874525,-0.002000,-0.010000,1.010000,192.000000,0.000000,0.000000,0.000000,0.000000,0.000000,0.000000,0.000000,0.000000,0.000000,1771417260.875426,0.000000
250.000000,8140.930014,21055.455036,735.394744,2239.711850,4209.258164,16571.069249,-7085.771213,-4419.498672,1759.484620,-5057.372756,3302.157319,-3068.782755,15852.594775,16619.572535,-12053.736991,2101.913345,-0.002000,-0.010000,1.010000,192.000000,0.000000,0.000000,0.000000,0.000000,0.000000,0.000000,0.000000,0.000000,0.000000,1771417260.875438,0.000000
252.000000,8159.571369,21075.616309,805.713332,2285.778795,4440.531664,16627.350942,-7057.228036,-4401.974905,1774.326178,-5035.043363,3320.999839,-3088.586401,15878.411040,16648.316878,-12039.007192,2090.581011,-0.002000,-0.010000,1.010000,192.000000,0.000000,0.000000,0.000000,0.000000,0.000000,0.000000,0.000000,0.000000,0.000000,1771417260.875448,0.000000
254.000000,8147.724944,21059.657164,748.895198,2246.775001,4212.320353,16564.497836,-7080.876181,-4414.022495,1774.817917,-5040.273671,3318.161168,-3079.690406,15881.517933,16632.134215,-12044.192796,2086.960028,0.002000,-0.004000,1.012000,192.000000,0.000000,8.000000,127.500000,112.000000,15.500000,80.000000,0.000000,0.000000,0.000000,1771417260.875458,0.000000
0.000000,8162.722965,21079.572568,797.487890,2275.184068,4357.271416,16605.759156,-7059.127934,-4396.655190,1776.248428,-5042.084162,3314.204909,-3067.598113,15849.242014,16636.939840,-12067.639776,2074.934790,0.002000,-0.004000,1.012000,192.000000,0.000000,0.000000,0.000000,0.000000,0.000000,0.000000,0.000000,0.000000,0.000000,1771417260.875468,0.000000
2.000000,8159.414906,21075.146922,781.819318,2263.181181,4343.055706,16582.602749,-7063.553579,-4398.040998,1794.330990,-5023.196938,3335.461418,-3081.299732,15912.139822,16658.039887,-12050.205416,2053.298301,0.002000,-0.004000,1.012000,192.000000,0.000000,0.000000,0.000000,0.000000,0.000000,0.000000,0.000000,0.000000,0.000000,1771417260.875479,0.000000
4.000000,8130.111769,21049.107140,742.927282,2233.788637,4182.570181,16540.112083,-7081.233809,-4419.766893,1763.150306,-5055.875189,3309.533395,-3065.407642,15858.607395,16612.643494,-12081.989596,2057.656891,0.002000,-0.004000,1.012000,192.000000,0.000000,0.000000,0.000000,0.000000,0.000000,0.000000,0.000000,0.000000,0.000000,1771417260.875489,0.000000
6.000000,8149.602491,21065.513321,801.779425,2273.440632,4433.155588,16586.961339,-7051.930672,-4400.812614,1763.150306,-5056.255168,3316.194214,-3098.845851,15855.232281,16612.867011,-12059.704907,2065.949388,0.002000,-0.004000,1.012000,192.000000,0.000000,0.000000,0.000000,0.000000,0.000000,0.000000,0.000000,0.000000,0.000000,1771417260.875499,0.000000
8.000000,8142.740505,21057.019658,740.312128,2233.609823,4207.984115,16526.656333,-7075.265893,-4403.897155,1774.169716,-5046.465104,3324.464360,-3075.778851,15906.171907,16618.656113,-12066.723355,2061.054356,0.006000,-0.006000,1.012000,192.000000,0.000000,24.000000,127.500000,104.000000,15.500000,80.000000,0.000000,0.000000,0.000000,1771417260.875510,0.000000
10.000000,8159.079630,21073.269376,791.587030,2258.733184,4348.598939,16571.337470,-7053.763515,-4384.607599,1774.125013,-5057.931549,3324.240842,-3068.089851,15821.369388,16604.373348,-12074.412355,2069.726833,0.006000,-0.006000,1.012000,192.000000,0.000000,0.000000,0.000000,0.000000,0.000000,0.000000,0.000000,0.000000,0.000000,1771417260.875520,0.000000
12.000000,8164.064069,21076.577434,775.046739,2258.554370,4338.630061,16577.551255,-7058.703251,-4383.266495,1791.335856,-5032.472912,3350.168866,-3080.472717,15896.046566,16638.750331,-12046.137398,2074.063071,0.006000,-0.006000,1.012000,192.000000,0.000000,0.000000,0.000000,0.000000,0.000000,0.000000,0.000000,0.000000,0.000000,1771417260.875530,0.000000
14.000000,8157.246787,21067.301460,745.162457,2235.599129,4202.530289,16548.158711,-7074.841210,-4391.693102,1772.783908,-5055.606968,3331.795732,-3058.098621,15871.191427,16606.720281,-12066.477485,2090.648066,0.006000,-0.006000,1.012000,192.000000,0.000000,0.000000,0.000000,0.000000,0.000000,0.000000,0.000000,0.000000,0.000000,1771417260.875540,0.000000
16.000000,8177.922151,21093.810629,811.368324,2285.689388,4438.430600,16613.001122,-7045.515722,-4370.883628,1791.849946,-5033.121113,3349.453610,-3074.147174,15907.021273,16637.409227,-12051.680631,2089.485775,0.006000,-0.006000,1.012000,192.000000,0.000000,0.000000,0.000000,0.000000,0.000000,0.000000,0.000000,0.000000,0.000000,1771417260.875551,0.000000
18.000000,8151.435334,21068.575510,750.236303,2238.996594,4231.118170,16547.868138,-7076.137611,-4395.001161,1787.871335,-5034.529273,3345.586758,-3062.993653,15847.386819,16632.223622,-12036.839072,2089.083444,0.006000,-0.006000,1.012000,192.000000,0.000000,0.000000,127.500000,88.000000,15.500000,80.000000,0.000000,0.000000,0.000000,1771417260.875561,0.000000
20.000000,8169.540247,21085.987519,796.012675,2265.125783,4376.873896,16590.872895,-7056.915111,-4381.478355,1771.107527,-5047.269767,3327.839473,-3063.798316,15861.155493,16618.142023,-12042.851692,2084.680150,0.006000,-0.006000,1.012000,192.000000,0.000000,0.000000,0.000000,0.000000,0.000000,0.000000,0.000000,0.000000,0.000000,1771417260.875571,0.000000
22.000000,8167.461534,21084.936987,786.870812,2276.256952,4359.685404,16584.457944,-7059.284396,-4381.612466,1796.655571,-5022.682848,3352.269930,-3072.448441,15927.316657,16651.826102,-12026.087883,2066.038795,0.006000,-0.006000,1.012000,192.000000,0.000000,0.000000,0.000000,0.000000,0.000000,0.000000,0.000000,0.000000,0.000000,1771417260.875581,0.000000
24.000000,8138.605432,21058.472521,752.605588,2249.278396,4201.166833,16548.203414,-7077.210495,-4403.338361,1769.140574,-5042.710011,3323.682049,-3051.281339,15867.034002,16621.494785,-12056.195683,2075.717101,0.006000,-0.006000,1.012000,192.000000,0.000000,0.000000,0.000000,0.000000,0.000000,0.000000,0.000000,0.000000,0.000000,1771417260.875592,0.000000
26.000000,8160.934825,21080.265472,808.663763,2293.177222,4427.992335,16601.959360,-7050.746030,-4386.328684,1774.572048,-5037.300889,3333.807389,-3082.730244,15869.068011,16634.279982,-12049.132532,2066.731699,0.006000,-0.006000,1.012000,192.000000,0.000000,0.000000,0.000000,0.000000,0.000000,0.000000,0.000000,0.000000,0.000000,1771417260.875602,0.000000
28.000000,8143.969851,21061.266489,743.061393,2252.742917,4188.828670,16532.333676,-7078.730414,-4406.825233,1773.387405,-5035.825674,3329.761723,-3068.603941,15876.935825,16632.625953,-12057.805009,2055.756993,0.004000,-0.005000,1.009000,192.000000,0.000000,8.000000,127.500000,112.000000,15.500000,56.000000,0.000000,0.000000,0.000000,1771417260.875613,0.000000
30.000000,8161.203046,21077.225635,789.173041,2274.647626,4345.402640,16571.359822,-7057.898588,-4392.073082,1762.345643,-5050.577825,3311.433293,-3068.067499,15884.110735,16610.855354,-12078.234503,2063.490696,0.004000,-0.005000,1.009000,192.000000,0.000000,0.000000,0.000000,0.000000,0.000000,0.000000,0.000000,0.000000,0.000000,1771417260.875623,0.000000
32.000000,8163.527627,21081.003080,781.908725,2265.639873,4322.268584,16563.335545,-7056.803352,-4382.081852,1792.766368,-5024.582747,3348.716003,-3077.589342,15873.068973,16643.041866,-12061.582453,2057.478077,0.004000,-0.005000,1.009000,192.000000,0.000000,0.000000,0.000000,0.000000,0.000000,0.000000,0.000000,0.000000,0.000000,1771417260.875633,0.000000
34.000000,8147.501427,21063.076980,741.005032,2230.748800,4176.691672,16537.563984,-7073.455402,-4397.079873,1767.620655,-5047.895616,3323.369124,-3056.668109,15862.742467,16614.386930,-12082.436631,2073.079595,0.004000,-0.005000,1.009000,192.000000,0.000000,0.000000,0.000000,0.000000,0.000000,0.000000,0.000000,0.000000,0.000000,1771417260.875643,0.000000
36.000000,8171.864828,21088.088583,797.085559,2276.793394,4413.798978,16600.975883,-7043.124085,-4371.934160,1780.405853,-5035.982136,3339.596491,-3079.086909,15887.396441,16648.674506,-12065.672823,2069.972702,0.004000,-0.005000,1.009000,192.000000,0.000000,0.000000,0.000000,0.000000,0.000000,0.000000,0.000000,0.000000,0.000000,1771417260.875654,0.000000
38.000000,8150.742430,21068.955489,734.947709,2230.525283,4186.682902,16549.388057,-7070.639082,-4392.475413,1779.489431,-5043.760543,3341.541093,-3067.911037,15853.801769,16637.141006,-12069.785544,2078.712234,0.004000,-0.005000,1.009000,192.000000,0.000000,0.000000,127.500000,96.000000,15.500000,56.000000,0.000000,0.000000,0.000000,1771417260.875664,0.000000
40.000000,8158.319671,21076.756248,767.357739,2258.442612,4339.971166,16598.248970,-7056.333966,-4387.647437,1768.380614,-5055.718727,3322.095075,-3071.129688,15850.851339,16624.802843,-12076.312253,2096.861851,0.004000,-0.005000,1.009000,192.000000,0.000000,0.000000,0.000000,0.000000,0.000000,0.000000,0.000000,0.000000,0.000000,1771417260.875674,0.000000
42.000000,8154.944558,21073.045859,768.274160,2251.737088,4336.104314,16605.066252,-7059.977300,-4388.809727,1778.774175,-5037.211482,3343.195122,-3088.005255,15860.551996,16641.946631,-12046.405619,2100.438130,0.004000,-0.005000,1.009000,192.000000,0.000000,0.000000,0.000000,0.000000,0.000000,0.000000,0.000000,0.000000,0.000000,1771417260.875684,0.000000
44.000000,8143.701630,21062.920518,729.292718,2234.772114,4206.531251,16569.661089,-7078.730414,-4407.115806,1760.825725,-5050.801343,3315.970697,-3065.809973,15853.846473,16627.708569,-12068.176218,2122.544005,0.004000,-0.005000,1.009000,192.000000,0.000000,0.000000,0.000000,0.000000,0.000000,0.000000,0.000000,0.000000,0.000000,1771417260.875695,0.000000
46.000000,8167.327424,21088.781487,800.728893,2282.336626,4451.416964,16635.464625,-7048.264986,-4386.574553,1769.542905,-5040.564244,3328.353563,-3093.548488,15857.132179,16633.095340,-12046.763247,2113.625659,0.004000,-0.005000,1.009000,192.000000,0.000000,0.000000,0.000000,0.000000,0.000000,0.000000,0.000000,0.000000,0.000000,1771417260.875705,0.000000
48.000000,8142.852264,21060.595937,740.982680,2236.470847,4227.720705,16565.637775,-7078.484545,-4413.418998,1774.661455,-5043.492322,3330.454627,-3078.818688,15892.559694,16636.157529,-12044.013982,2102.673304,0.003000,-0.005500,1.007500,192.000000,0.000000,8.000000,127.500000,104.000000,15.500000,56.000000,0.000000,0.000000,0.000000,1771417260.875716,0.000000
50.000000,8150.496560,21070.006021,787.943696,2258.956702,4360.758288,16593.800973,-7061.005480,-4407.607544,1761.697443,-5060.613759,3311.299182,-3083.646665,15839.139025,16617.136194,-12049.132532,2094.269048,0.003000,-0.005500,1.007500,192.000000,0.000000,0.000000,0.000000,0.000000,0.000000,0.000000,0.000000,0.000000,0.000000,1771417260.875726,0.000000
52.000000,8147.099095,21063.859292,779.517088,2249.077231,4355.863256,16567.291804,-7065.140553,-4410.826196,1775.108489,-5048.320299,3328.554729,-3106.177223,15878.522799,16629.586116,-12018.734159,2065.122374,0.003000,-0.005500,1.007500,192.000000,0.000000,0.000000,0.000000,0.000000,0.000000,0.000000,0.000000,0.000000,0.000000,1771417260.875736,0.000000
54.000000,8139.186578,21055.410332,746.078878,2222.478655,4205.368961,16526.924554,-7077.054033,-4416.660001,1762.747975,-5066.849895,3308.952249,-3080.338607,15862.384839,16596.863162,-12055.525131,2058.372147,0.003000,-0.005500,1.007500,192.000000,0.000000,0.000000,0.000000,0.000000,0.000000,0.000000,0.000000,0.000000,0.000000,1771417260.875747,0.000000
56.000000,8163.281758,21081.137190,807.166196,2264.946969,4427.992335,16584.055613,-7045.962756,-4392.609524,1774.102661,-5050.399011,3330.029944,-3099.806976,15872.554883,16615.660979,-12047.880834,2045.184618,0.003000,-0.005500,1.007500,192.000000,0.000000,0.000000,0.000000,0.000000,0.000000,0.000000,0.000000,0.000000,0.000000,1771417260.875757,0.000000
58.000000,8139.521854,21056.952603,740.893273,2226.479617,4201.502109,16526.701036,-7076.048204,-4410.669733,1769.185277,-5049.728459,3330.342869,-3082.819651,15883.239017,16614.901020,-12067.170390,2057.634539,0.003500,-0.010750,1.007750,192.000000,0.000000,16.000000,127.500000,64.000000,15.500000,64.000000,0.000000,0.000000,0.000000,1771417261.353348,0.000000
60.000000,8163.639386,21080.041955,786.267315,2256.475658,4350.454134,16572.969147,-7053.428239,-4391.290771,1765.854867,-5057.685680,3320.798674,-3075.823554,15843.251746,16608.195497,-12082.280169,2063.624807,0.003500,-0.010750,1.007750,192.000000,0.000000,0.000000,0.000000,0.000000,0.000000,0.000000,0.000000,0.000000,0.000000,1771417261.353426,0.000000
62.000000,8158.923168,21074.878702,767.849477,2250.932425,4334.673802,16571.203360,-7059.485562,-4393.145966,1790.821766,-5035.177473,3341.049354,-3086.172412,15911.737491,16635.911660,-12061.224826,2067.491659,0.003500,-0.010750,1.007750,192.000000,0.000000,0.000000,0.000000,0.000000,0.000000,0.000000,0.000000,0.000000,0.000000,1771417261.353478,0.000000
64.000000,8143.187540,21059.210129,734.500675,2224.736181,4189.968609,16541.386132,-7074.260065,-4404.120672,1762.792678,-5060.926683,3317.311802,-3066.145249,15835.003952,16584.726165,-12079.307387,2090.178679,0.003500,-0.010750,1.007750,192.000000,0.000000,0.000000,0.000000,0.000000,0.000000,0.000000,0.000000,0.000000,0.000000,1771417261.353537,0.000000
66.000000,8165.986319,21081.785391,796.727931,2270.132574,4423.857263,16603.233409,-7046.096867,-4383.780585,1775.466117,-5045.615738,3333.449761,-3088.072310,15862.384839,16616.823270,-12063.437648,2088.524650,0.003500,-0.010750,1.007750,192.000000,0.000000,0.000000,0.000000,0.000000,0.000000,0.000000,0.000000,0.000000,0.000000,1771417261.353585,0.000000
68.000000,8144.685107,21060.841806,732.913701,2227.999536,4208.297039,16546.258813,-7077.702234,-4405.841757,1771.509859,-5051.985985,3327.906528,-3074.929485,15870.453819,16620.846584,-12061.113067,2097.107720,0.002750,-0.012375,1.004875,192.000000,0.000000,8.000000,127.500000,72.000000,15.500000,40.000000,0.000000,0.000000,0.000000,1771417261.353612,0.000000
70.000000,8163.617034,21082.567702,787.608419,2266.511591,4362.434669,16604.373348,-7055.685765,-4389.100300,1763.485582,-5060.502000,3317.065932,-3072.291979,15846.291583,16613.694026,-12072.199532,2103.388560,0.002750,-0.012375,1.004875,192.000000,0.000000,0.000000,0.000000,0.000000,0.000000,0.000000,0.000000,0.000000,0.000000,1771417261.353636,0.000000
72.000000,8154.676337,21075.258681,773.549172,2255.022795,4352.063459,16600.238276,-7065.542885,-4399.806786,1787.580763,-5033.679907,3342.345755,-3088.318180,15874.611244,16642.527776,-12043.790465,2101.421607,0.002750,-0.012375,1.004875,192.000000,0.000000,0.000000,0.000000,0.000000,0.000000,0.000000,0.000000,0.000000,0.000000,1771417261.353660,0.000000
74.000000,8136.861996,21054.806835,741.139143,2226.233748,4232.951013,16554.573662,-7084.899495,-4422.180882,1755.081326,-5066.380509,3306.851185,-3081.277380,15867.279871,16603.054595,-12051.568872,2106.696618,0.002750,-0.012375,1.004875,192.000000,0.000000,0.000000,0.000000,0.000000,0.000000,0.000000,0.000000,0.000000,0.000000,1771417261.353684,0.000000
76.000000,8159.549017,21081.673632,809.177853,2277.486298,4469.633635,16612.308218,-7053.763515,-4399.784434,1770.034643,-5049.594349,3321.983316,-3105.640782,15894.794869,16629.384950,-12023.696247,2094.537269,0.002750,-0.012375,1.004875,192.000000,0.000000,0.000000,0.000000,0.000000,0.000000,0.000000,0.000000,0.000000,0.000000,1771417261.353707,0.000000
78.000000,8134.023325,21055.030352,738.680451,2235.040335,4218.064751,16541.564946,-7083.893667,-4420.526853,1773.856792,-5053.058869,3323.391476,-3087.669979,15878.813372,16620.556011,-12043.298726,2098.113549,0.002375,-0.015188,1.006438,192.000000,0.000000,8.000000,127.500000,56.000000,15.500000,64.000000,0.000000,0.000000,0.000000,1771417261.353731,0.000000
80.000000,8155.637462,21079.483161,791.788196,2265.125783,4350.521189,16571.918615,-7057.160980,-4397.929239,1754.589588,-5067.699262,3307.521738,-3088.653456,15832.209984,16600.640607,-12071.126648,2094.246697,0.002375,-0.015188,1.006438,192.000000,0.000000,0.000000,0.000000,0.000000,0.000000,0.000000,0.000000,0.000000,0.000000,1771417261.353754,0.000000
82.000000,8171.775421,21095.241141,779.472384,2266.153963,4337.534826,16559.893377,-7054.143495,-4385.076986,1795.381522,-5023.666325,3349.990052,-3084.920714,15890.145706,16640.471416,-12062.007137,2059.579141,0.002375,-0.015188,1.006438,192.000000,0.000000,0.000000,0.000000,0.000000,0.000000,0.000000,0.000000,0.000000,0.000000,1771417261.353777,0.000000
84.000000,8145.288604,21065.222748,734.880654,2232.469884,4190.326237,16518.676760,-7075.377652,-4406.199384,1764.334949,-5057.484514,3319.211700,-3065.139421,15884.446011,16604.596866,-12086.482297,2074.241885,0.002375,-0.015188,1.006438,192.000000,0.000000,0.000000,0.000000,0.000000,0.000000,0.000000,0.000000,0.000000,0.000000,1771417261.353801,0.000000
86.000000,8170.769593,21091.620158,801.444149,2274.044129,4427.746466,16583.094488,-7045.918053,-4383.244143,1777.276609,-5047.225064,3335.930805,-3089.458119,15854.181749,16620.220735,-12066.209265,2063.557752,0.002375,-0.015188,1.006438,192.000000,0.000000,0.000000,0.000000,0.000000,0.000000,0.000000,0.000000,0.000000,0.000000,1771417261.353824,0.000000
88.000000,8143.075781,21069.335469,731.840817,2238.527207,4198.775196,16524.443510,-7075.578818,-4402.421940,1772.202763,-5046.375697,3332.332174,-3076.091775,15851.253671,16616.622104,-12068.355032,2075.717101,0.002188,-0.016594,1.006219,192.000000,0.000000,8.000000,127.500000,56.000000,15.500000,56.000000,0.000000,0.000000,0.000000,1771417261.353847,0.000000
90.000000,8158.632595,21082.813571,769.704672,2267.293902,4351.906997,16574.757287,-7056.155152,-4388.832079,1760.468097,-5054.511732,3316.551842,-3068.760403,15836.434464,16614.744558,-12085.767041,2100.460482,0.002188,-0.016594,1.006219,192.000000,0.000000,0.000000,0.000000,0.000000,0.000000,0.000000,0.000000,0.000000,0.000000,1771417261.353879,0.000000
92.000000,8161.739488,21086.501609,763.647349,2261.370690,4345.067363,16569.459923,-7060.200818,-4386.976884,1778.997693,-5031.645898,3339.171808,-3079.913924,15898.013520,16631.798939,-12051.770038,2097.599458,0.002188,-0.016594,1.006219,192.000000,0.000000,0.000000,0.000000,0.000000,0.000000,0.000000,0.000000,0.000000,0.000000,1771417261.353903,0.000000
94.000000,8140.594738,21065.625079,735.685317,2239.957719,4202.530289,16549.410409,-7078.261027,-4405.350018,1764.938446,-5046.330994,3319.837549,-3056.489296,15865.357621,16610.721244,-12072.646567,2106.070770,0.002188,-0.016594,1.006219,192.000000,0.000000,0.000000,0.000000,0.000000,0.000000,0.000000,0.000000,0.000000,0.000000,1771417261.353927,0.000000
96.000000,8162.275930,21087.127458,793.062245,2285.197650,4440.039926,16607.994331,-7052.690631,-4390.329646,1773.163888,-5043.045287,3327.034810,-3091.201555,15841.754179,16636.246936,-12049.288994,2113.469197,0.002188,-0.016594,1.006219,192.000000,0.000000,0.000000,0.000000,0.000000,0.000000,0.000000,0.000000,0.000000,0.000000,1771417261.353950,0.000000
98.000000,8144.819217,21066.563853,738.948672,2241.611748,4221.953955,16558.842845,-7079.713891,-4407.048751,1776.986036,-5034.417514,3336.690764,-3071.710834,15856.551034,16646.774608,-12055.033392,2111.211671,0.002188,-0.016594,1.006219,192.000000,0.000000,0.000000,0.000000,0.000000,0.000000,0.000000,0.000000,0.000000,0.000000,1771417261.353973,0.000000
100.000000,8143.031078,21064.283975,781.327579,2262.220056,4387.870954,16593.845677,-7064.782925,-4408.769835,1760.848076,-5061.954863,3310.874499,-3081.970284,15885.541247,16615.325703,-12059.436686,2114.273860,0.002188,-0.016594,1.006219,192.000000,0.000000,0.000000,127.500000,72.000000,15.500000,40.000000,0.000000,0.000000,0.000000,1771417261.353997,0.000000
102.000000,8139.052467,21060.215957,776.052567,2262.309463,4365.854486,16584.256778,-7067.062803,-4411.697914,1771.062824,-5043.827599,3331.773380,-3103.047979,15884.624825,16642.863052,-12034.849767,2106.204880,0.002188,-0.016594,1.006219,192.000000,0.000000,0.000000,0.000000,0.000000,0.000000,0.000000,0.000000,0.000000,0.000000,1771417261.354020,0.000000
104.000000,8122.534528,21041.440492,746.905893,2228.379515,4227.161911,16541.609650,-7085.368882,-4430.495731,1748.934597,-5067.274578,3300.704455,-3087.848793,15852.259499,16620.220735,-12058.363802,2116.509034,0.002188,-0.016594,1.006219,192.000000,0.000000,0.000000,0.000000,0.000000,0.000000,0.000000,0.000000,0.000000,0.000000,1771417261.354043,0.000000
106.000000,8156.620938,21079.013774,811.390675,2279.833231,4451.148743,16594.762098,-7049.673146,-4397.683370,1766.883047,-5054.243511,3320.463398,-3108.702971,15867.749258,16619.572535,-12052.015907,2100.058150,0.002188,-0.016594,1.006219,192.000000,0.000000,0.000000,0.000000,0.000000,0.000000,0.000000,0.000000,0.000000,0.000000,1771417261.354067,0.000000
108.000000,8134.224490,21053.890414,743.821352,2238.773076,4222.870376,16531.931345,-7076.115260,-4412.793149,1773.454460,-5052.120096,3323.123255,-3086.127709,15889.743375,16642.013686,-12067.885645,2083.584915,0.002188,-0.016594,1.006219,192.000000,0.000000,0.000000,0.000000,0.000000,0.000000,0.000000,0.000000,0.000000,0.000000,1771417261.354090,0.000000
110.000000,8154.318709,21077.560911,786.133204,2272.770080,4358.813686,16569.772848,-7051.751858,-4390.374349,1760.445745,-5065.777012,3314.964868,-3081.947932,15846.492749,16606.005026,-12081.944893,2077.751109,0.002188,-0.016594,1.006219,192.000000,0.000000,0.000000,127.500000,72.000000,15.500000,48.000000,0.000000,0.000000,0.000000,1771417261.354114,0.000000
112.000000,8152.999956,21076.443324,764.519067,2265.505763,4339.121799,16563.000269,-7056.557483,-4390.866088,1780.137632,-5039.290194,3342.189293,-3090.642761,15911.290456,16643.645363,-12067.796238,2069.436260,0.002188,-0.016594,1.006219,192.000000,0.000000,0.000000,0.000000,0.000000,0.000000,0.000000,0.000000,0.000000,0.000000,1771417261.354137,0.000000
114.000000,8148.261386,21072.062382,727.415172,2236.560254,4191.108548,16520.889583,-7073.880085,-4399.203288,1758.590550,-5058.311529,3318.071761,-3070.660302,15857.109828,16602.786374,-12097.546410,2089.642237,0.002188,-0.016594,1.006219,192.000000,0.000000,0.000000,0.000000,0.000000,0.000000,0.000000,0.000000,0.000000,0.000000,1771417261.354161,0.000000
116.000000,8160.666604,21089.317928,787.809585,2279.229734,4422.471454,16584.457944,-7044.375783,-4378.349111,1772.605094,-5040.184264,3337.026040,-3090.262781,15846.515101,16635.129349,-12077.988634,2076.454708,0.002188,-0.016594,1.006219,192.000000,0.000000,0.000000,0.000000,0.000000,0.000000,0.000000,0.000000,0.000000,0.000000,1771417261.354185,0.000000
118.000000,8144.260424,21071.682402,719.837930,2244.517475,4189.745091,16531.104330,-7072.091946,-4395.470547,1764.267893,-5043.894654,3331.326345,-3075.220057,15854.159397,16638.482110,-12088.292788,2081.752072,0.002188,-0.016594,1.006219,192.000000,0.000000,0.000000,0.000000,0.000000,0.000000,0.000000,0.000000,0.000000,0.000000,1771417261.354214,0.000000
120.000000,8164.712270,21089.966129,772.096309,2269.484373,4354.790372,16584.681461,-7051.550693,-4382.350073,1765.005501,-5050.980157,3320.195177,-3071.241447,15860.373182,16605.870915,-12094.216000,2087.831746,-0.004000,-0.016000,1.006000,192.000000,127.500000,112.000000,127.500000,64.000000,15.500000,56.000000,0.000000,0.000000,0.000000,1771417261.354237,0.000000
122.000000,8164.086421,21089.586149,762.619169,2259.336681,4352.242273,16578.646490,-7057.585664,-4387.625085,1787.021969,-5030.036572,3348.067802,-3086.395930,15895.331311,16651.043791,-12062.655337,2069.525667,-0.004000,-0.016000,1.006000,192.000000,0.000000,0.000000,0.000000,0.000000,0.000000,0.000000,0.000000,0.000000,0.000000,1771417261.354263,0.000000
124.000000,8145.333307,21072.598824,731.326727,2238.974242,4211.761559,16557.658202,-7074.863562,-4402.690161,1767.955931,-5049.884921,3318.295278,-3066.234656,15863.636537,16629.630820,-12087.599884,2080.701540,-0.004000,-0.016000,1.006000,192.000000,0.000000,0.000000,0.000000,0.000000,0.000000,0.000000,0.000000,0.000000,0.000000,1771417261.354286,0.000000
126.000000,8168.132087,21096.761059,801.779425,2279.006216,4445.449048,16613.671674,-7045.247501,-4382.908867,1779.735301,-5036.563282,3331.460456,-3091.089796,15867.413982,16648.652154,-12062.387116,2071.850249,-0.004000,-0.016000,1.006000,192.000000,0.000000,0.000000,0.000000,0.000000,0.000000,0.000000,0.000000,0.000000,0.000000,1771417261.354309,0.000000
128.000000,8149.021345,21077.806780,739.932148,2241.120010,4230.961708,16549.544519,-7074.572989,-4402.064312,1781.434033,-5034.350459,3330.074648,-3073.566028,15898.259389,16654.530663,-12062.632985,2070.643255,-0.004000,-0.016000,1.006000,192.000000,0.000000,0.000000,0.000000,0.000000,0.000000,0.000000,0.000000,0.000000,0.000000,1771417261.354332,0.000000
130.000000,8164.913436,21092.760097,797.309076,2271.563086,4377.566800,16588.615368,-7052.601224,-4389.145003,1775.242600,-5044.676965,3320.016363,-3068.335720,15878.925130,16634.816424,-12072.624215,2067.379900,-0.006000,-0.014000,1.008000,192.000000,127.500000,104.000000,127.500000,72.000000,15.500000,64.000000,0.000000,0.000000,0.000000,1771417261.354356,0.000000
132.000000,8150.496560,21072.643527,779.897068,2262.041242,4356.444401,16573.259720,-7063.307710,-4406.177033,1794.308638,-5031.511787,3336.981337,-3092.162680,15909.122337,16650.708515,-12050.384229,2068.318673,-0.006000,-0.014000,1.008000,192.000000,0.000000,0.000000,0.000000,0.000000,0.000000,0.000000,0.000000,0.000000,0.000000,1771417261.354378,0.000000
134.000000,8127.049580,21049.062437,742.480247,2230.547634,4203.960801,16536.066417,-7080.406795,-4427.120617,1754.634291,-5070.515581,3299.005723,-3086.351226,15842.089455,16619.930162,-12075.507590,2085.194240,-0.006000,-0.014000,1.008000,192.000000,0.000000,0.000000,0.000000,0.000000,0.000000,0.000000,0.000000,0.000000,0.000000,1771417261.354389,0.000000
136.000000,8158.319671,21079.460809,803.634620,2278.581533,4436.262481,16605.915619,-7046.163922,-4398.599791,1767.575952,-5057.484514,3316.149511,-3107.495976,15907.803584,16639.532642,-12058.721430,2072.207877,-0.006000,-0.014000,1.008000,192.000000,0.000000,0.000000,0.000000,0.000000,0.000000,0.000000,0.000000,0.000000,0.000000,1771417261.354400,0.000000
138.000000,8129.441217,21052.459902,742.323785,2234.861521,4213.214423,16538.949792,-7076.070556,-4420.325687,1774.616751,-5054.824657,3320.150473,-3089.301656,15856.863958,16638.370352,-12065.583416,2074.554810,-0.006000,-0.014000,1.008000,192.000000,0.000000,0.000000,0.000000,0.000000,0.000000,0.000000,0.000000,0.000000,0.000000,1771417261.354410,0.000000
140.000000,8155.056316,21079.393754,782.512222,2270.199629,4358.098430,16584.167371,-7051.193065,-4398.443329,1756.824762,-5063.988872,3303.677237,-3088.586401,15827.739635,16626.792148,-12078.525076,2077.549944,-0.006000,-0.012000,1.008000,192.000000,127.500000,104.000000,127.500000,80.000000,15.500000,64.000000,0.000000,0.000000,0.000000,1771417261.354421,0.000000
142.000000,8154.765744,21080.891321,766.933056,2267.204495,4350.342375,16572.499761,-7054.948158,-4397.057521,1782.886896,-5030.103627,3337.227206,-3090.285133,15889.966892,16663.270195,-12065.583416,2070.486792,-0.006000,-0.012000,1.008000,192.000000,0.000000,0.000000,0.000000,0.000000,0.000000,0.000000,0.000000,0.000000,0.000000,1771417261.354431,0.000000
144.000000,8149.311918,21074.454018,731.013802,2242.639928,4221.082237,16543.978935,-7071.823725,-4406.691123,1767.598303,-5052.365965,3314.070799,-3068.939217,15891.419755,16647.601622,-12077.742765,2078.578124,-0.006000,-0.012000,1.008000,192.000000,0.000000,0.000000,0.000000,0.000000,0.000000,0.000000,0.000000,0.000000,0.000000,1771417261.354442,0.000000
146.000000,8172.222456,21095.062327,793.933963,2285.264705,4451.282853,16614.923372,-7043.325251,-4383.646474,1782.059882,-5030.885939,3334.388534,-3087.893497,15870.677337,16660.677393,-12066.611596,2076.030025,-0.006000,-0.012000,1.008000,192.000000,0.000000,0.000000,0.000000,0.000000,0.000000,0.000000,0.000000,0.000000,0.000000,1771417261.354453,0.000000
148.000000,8149.557787,21066.966184,730.991451,2236.895530,4215.404894,16557.591147,-7074.684748,-4407.316972,1780.919943,-5040.988927,3333.740334,-3079.131613,15860.708459,16655.290622,-12064.845808,2077.639351,-0.006000,-0.012000,1.008000,192.000000,0.000000,0.000000,0.000000,0.000000,0.000000,0.000000,0.000000,0.000000,0.000000,1771417261.354464,0.000000
150.000000,8167.729755,21087.328623,773.258599,2268.120917,4365.027471,16588.034223,-7052.757687,-4391.693102,1771.107527,-5052.097744,3322.810331,-3075.622389,15870.498523,16644.472378,-12077.496895,2083.920191,-0.006000,-0.012000,1.008000,192.000000,0.000000,0.000000,127.500000,56.000000,15.500000,64.000000,0.000000,0.000000,0.000000,1771417261.354474,0.000000
152.000000,8153.849322,21073.738763,760.786326,2257.883818,4339.099448,16575.494894,-7057.831533,-4396.029341,1784.563277,-5037.546758,3338.970642,-3090.732168,15903.668511,16645.589965,-12053.401715,2071.134993,-0.006000,-0.012000,1.008000,192.000000,0.000000,0.000000,0.000000,0.000000,0.000000,0.000000,0.000000,0.000000,0.000000,1771417261.354485,0.000000
154.000000,8139.767723,21057.690210,735.014765,2232.648698,4193.075501,16536.401693,-7074.952969,-4410.110940,1760.736318,-5071.811983,3312.997915,-3077.298770,15826.063255,16620.310142,-12084.783564,2085.104833,-0.006000,-0.012000,1.008000,192.000000,0.000000,0.000000,0.000000,0.000000,0.000000,0.000000,0.000000,0.000000,0.000000,1771417261.354498,0.000000
156.000000,8157.313842,21078.007946,793.017542,2274.558219,4427.031210,16603.702796,-7047.393268,-4393.682408,1769.833478,-5051.918930,3327.772418,-3100.254011,15845.397514,16632.715360,-12071.573683,2070.375034,-0.006000,-0.012000,1.008000,192.000000,0.000000,0.000000,0.000000,0.000000,0.000000,0.000000,0.000000,0.000000,0.000000,1771417261.354508,0.000000
158.000000,8123.272136,21043.899184,728.488055,2228.714791,4196.495318,16547.398752,-7076.808164,-4421.465626,1768.470021,-5061.373718,3319.189348,-3092.721473,15862.563653,16634.659962,-12073.853561,2071.582028,-0.006000,-0.012000,1.008000,192.000000,0.000000,0.000000,0.000000,0.000000,0.000000,0.000000,0.000000,0.000000,0.000000,1771417261.354519,0.000000
160.000000,8140.751200,21065.401562,777.058396,2266.824516,4351.236445,16587.743650,-7053.383536,-4404.210079,1744.553655,-5080.484459,3298.849261,-3098.398816,15849.532586,16608.620180,-12080.961416,2087.675284,-0.006000,-0.012000,1.008000,192.000000,0.000000,0.000000,127.500000,56.000000,15.500000,56.000000,0.000000,0.000000,0.000000,1771417261.354530,0.000000
162.000000,8143.142836,21069.491931,769.794079,2263.382347,4338.250081,16584.927331,-7054.322309,-4402.198422,1777.857754,-5043.447619,3332.287470,-3097.258877,15882.546113,16648.428637,-12056.910939,2075.627694,-0.006000,-0.012000,1.008000,192.000000,0.000000,0.000000,0.000000,0.000000,0.000000,0.000000,0.000000,0.000000,0.000000,1771417261.354541,0.000000
164.000000,8127.831892,21052.772826,733.360736,2237.543730,4197.948181,16552.517301,-7071.309635,-4418.381085,1751.974434,-5072.706052,3301.240897,-3083.490203,15850.873691,16625.428692,-12083.084832,2093.464386,-0.006000,-0.012000,1.008000,192.000000,0.000000,0.000000,0.000000,0.000000,0.000000,0.000000,0.000000,0.000000,0.000000,1771417261.354552,0.000000
166.000000,8155.592758,21082.522998,794.760978,2284.884725,4432.507388,16614.722206,-7039.145474,-4392.676579,1769.252332,-5048.476761,3318.630555,-3098.108244,15886.167095,16649.836797,-12069.651433,2080.589781,-0.006000,-0.012000,1.008000,192.000000,0.000000,0.000000,0.000000,0.000000,0.000000,0.000000,0.000000,0.000000,0.000000,1771417261.354562,0.000000
168.000000,8148.596662,21074.364611,732.399611,2247.177332,4220.523443,16558.976955,-7068.917998,-4406.221736,1770.101699,-5043.000584,3320.977488,-3080.316255,15867.458685,16645.612317,-12069.696137,2083.204935,-0.006000,-0.012000,1.008000,192.000000,0.000000,0.000000,0.000000,0.000000,0.000000,0.000000,0.000000,0.000000,0.000000,1771417261.354572,0.000000
170.000000,8168.355604,21096.112859,778.891239,2274.558219,4366.525038,16602.495802,-7049.717849,-4389.010893,1772.403928,-5042.620604,3313.333191,-3073.096642,15854.919357,16636.224584,-12082.324872,2085.954200,-0.002000,-0.014000,1.009000,192.000000,0.000000,8.000000,127.500000,64.000000,15.500000,72.000000,0.000000,0.000000,0.000000,1771417261.354583,0.000000
172.000000,8161.471267,21088.177990,763.803812,2262.577684,4347.794276,16599.590075,-7054.277605,-4392.341303,1788.094853,-5019.777122,3341.004651,-3086.306523,15922.354570,16646.975773,-12055.189855,2072.811374,-0.002000,-0.014000,1.009000,192.000000,0.000000,0.000000,0.000000,0.000000,0.000000,0.000000,0.000000,0.000000,0.000000,1771417261.354594,0.000000
174.000000,8142.405229,21069.357821,732.667832,2239.756553,4202.507937,16567.694136,-7073.544809,-4410.513271,1771.107527,-5052.477724,3312.148549,-3072.247275,15849.577290,16628.736750,-12083.621273,2093.799662,-0.002000,-0.014000,1.009000,192.000000,0.000000,0.000000,0.000000,0.000000,0.000000,0.000000,0.000000,0.000000,0.000000,1771417261.354605,0.000000
176.000000,8160.800715,21085.361670,784.479175,2282.493089,4426.941803,16621.651247,-7049.002594,-4396.521079,1774.929675,-5040.921872,3324.576119,-3098.532927,15837.976734,16642.594831,-12068.891474,2085.395406,-0.002000,-0.014000,1.009000,192.000000,0.000000,0.000000,0.000000,0.000000,0.000000,0.000000,0.000000,0.000000,0.000000,1771417261.354616,0.000000
178.000000,8140.594738,21063.680478,715.993430,2232.805161,4194.327199,16551.176196,-7076.808164,-4415.989449,1772.918018,-5046.554511,3321.960964,-3088.832270,15882.344947,16634.436445,-12069.293805,2084.881316,-0.002000,-0.014000,1.009000,192.000000,0.000000,0.000000,0.000000,0.000000,0.000000,0.000000,0.000000,0.000000,0.000000,1771417261.833672,0.000000
180.000000,8149.960119,21075.146922,772.900972,2264.991673,4346.162599,16595.253837,-7055.708117,-4403.405416,1757.182390,-5058.110363,3306.784130,-3089.346360,15854.517025,16618.969037,-12086.079965,2079.114566,0.001000,-0.017000,1.010500,192.000000,0.000000,16.000000,127.500000,48.000000,15.500000,80.000000,0.000000,0.000000,0.000000,1771417261.833745,0.000000
182.000000,8146.406191,21072.911748,765.323730,2255.738050,4337.512474,16581.976900,-7060.223169,-4407.227565,1773.655626,-5041.637128,3326.677183,-3103.182090,15872.778401,16641.812520,-12056.799180,2069.883295,0.001000,-0.017000,1.010500,192.000000,0.000000,0.000000,0.000000,0.000000,0.000000,0.000000,0.000000,0.000000,0.000000,1771417261.833797,0.000000
184.000000,8130.804674,21054.002172,733.226625,2230.860559,4204.094911,16553.478426,-7076.606998,-4420.750370,1761.920960,-5064.324148,3301.643229,-3081.232677,15853.421790,16603.032244,-12074.412355,2076.722929,0.001000,-0.017000,1.010500,192.000000,0.000000,0.000000,0.000000,0.000000,0.000000,0.000000,0.000000,0.000000,0.000000,1771417261.833849,0.000000
186.000000,8147.635537,21071.592995,793.263411,2271.607789,4429.780475,16609.648360,-7049.047297,-4402.936030,1763.954969,-5055.249340,3315.925993,-3106.825424,15909.725834,16627.485052,-12062.074192,2076.365301,0.001000,-0.017000,1.010500,192.000000,0.000000,0.000000,0.000000,0.000000,0.000000,0.000000,0.000000,0.000000,0.000000,1771417261.833917,0.000000
188.000000,8133.419828,21057.734914,727.437523,2234.593300,4191.734396,16545.655316,-7072.561332,-4415.050675,1769.229981,-5054.332918,3316.931822,-3092.408549,15884.468363,16640.650230,-12070.701965,2083.875487,0.001000,-0.017000,1.010500,192.000000,0.000000,0.000000,0.000000,0.000000,0.000000,0.000000,0.000000,0.000000,0.000000,1771417261.833948,0.000000
190.000000,8147.255557,21073.604652,778.623018,2262.398870,4362.389965,16591.163467,-7050.522512,-4400.522041,1760.311635,-5059.809096,3310.405113,-3085.568915,15816.697874,16613.291694,-12076.647529,2067.826935,0.001000,-0.017000,1.010500,192.000000,0.000000,0.000000,127.500000,80.000000,15.500000,64.000000,0.000000,0.000000,0.000000,1771417261.833973,0.000000
192.000000,8130.894081,21057.824321,755.980701,2264.097603,4332.505683,16587.676595,-7057.004518,-4411.384989,1775.689635,-5046.129828,3324.866691,-3103.450311,15870.856150,16641.678410,-12061.381288,2076.901743,0.001000,-0.017000,1.010500,192.000000,0.000000,0.000000,0.000000,0.000000,0.000000,0.000000,0.000000,0.000000,0.000000,1771417261.833997,0.000000
194.000000,8126.557842,21055.052704,724.755314,2240.784733,4201.166833,16560.183949,-7070.281454,-4410.334457,1746.833533,-5071.834334,3295.563554,-3080.450366,15881.160305,16617.493822,-12077.474544,2095.297229,0.001000,-0.017000,1.010500,192.000000,0.000000,0.000000,0.000000,0.000000,0.000000,0.000000,0.000000,0.000000,0.000000,1771417261.834022,0.000000
196.000000,8147.233206,21077.560911,785.820280,2290.584420,4435.390763,16617.806747,-7041.917091,-4388.765024,1770.526382,-5043.224101,3327.638308,-3089.771043,15853.354735,16638.951497,-12063.884683,2081.886182,0.001000,-0.017000,1.010500,192.000000,0.000000,0.000000,0.000000,0.000000,0.000000,0.000000,0.000000,0.000000,0.000000,1771417261.834046,0.000000
198.000000,8125.954345,21056.080884,728.421000,2245.009213,4206.061865,16565.995403,-7070.952007,-4408.434559,1763.150306,-5053.125924,3320.709267,-3080.584476,15864.061220,16634.861128,-12067.125686,2092.726778,0.001000,-0.017000,1.010500,192.000000,0.000000,0.000000,0.000000,0.000000,0.000000,0.000000,0.000000,0.000000,0.000000,1771417261.834071,0.000000
200.000000,8157.671470,21085.227559,772.699806,2281.040225,4351.728183,16617.829098,-7050.902492,-4391.760158,1761.988015,-5049.393183,3311.500348,-3072.247275,15843.832891,16640.449064,-12081.699023,2084.613095,0.001500,-0.014500,1.009250,192.000000,0.000000,8.000000,127.500000,80.000000,15.500000,64.000000,0.000000,0.000000,0.000000,1771417261.834096,0.000000
202.000000,8150.116581,21072.196492,764.183791,2266.600998,4339.054744,16601.400566,-7058.390326,-4399.426806,1792.229926,-5023.979249,3339.328270,-3085.948895,15890.346872,16657.436390,-12059.369631,2083.361397,0.001500,-0.014500,1.009250,192.000000,0.000000,0.000000,0.000000,0.000000,0.000000,0.000000,0.000000,0.000000,0.000000,1771417261.834120,0.000000
204.000000,8112.610354,21043.250983,728.264538,2237.320213,4201.345647,16551.176196,-7073.947140,-4413.910736,1748.107582,-5070.940265,3304.146624,-3079.511592,15855.411095,16617.449119,-12081.967244,2088.301133,0.001500,-0.014500,1.009250,192.000000,0.000000,0.000000,0.000000,0.000000,0.000000,0.000000,0.000000,0.000000,0.000000,1771417261.834153,0.000000
206.000000,8148.909587,21077.762077,788.748358,2278.358016,4436.553053,16611.905886,-7045.180445,-4391.335474,1760.602207,-5049.482590,3323.324421,-3100.477529,15872.487828,16641.052561,-12063.996442,2077.661702,0.001500,-0.014500,1.009250,192.000000,0.000000,0.000000,0.000000,0.000000,0.000000,0.000000,0.000000,0.000000,0.000000,1771417261.834177,0.000000
208.000000,8124.613240,21051.476425,730.633823,2230.681745,4203.625524,16542.660182,-7075.802335,-4417.397608,1764.469059,-5049.571997,3324.419656,-3086.418281,15875.773534,16632.782415,-12059.906073,2076.208839,0.001500,-0.014500,1.009250,192.000000,0.000000,0.000000,0.000000,0.000000,0.000000,0.000000,0.000000,0.000000,0.000000,1771417261.834202,0.000000
210.000000,8139.052467,21073.783466,782.914553,2264.164658,4350.431782,16583.340357,-7053.428239,-4403.494823,1746.833533,-5063.295968,3305.912412,-3089.636933,15875.035927,16617.337360,-12074.859390,2086.200069,0.001750,-0.014250,1.010625,192.000000,0.000000,8.000000,127.500000,72.000000,15.500000,80.000000,0.000000,0.000000,0.000000,1771417261.834238,0.000000
212.000000,8144.103961,21080.153713,769.481155,2257.772059,4341.558140,16580.077002,-7056.579835,-4403.159547,1771.174582,-5030.662421,3335.260252,-3096.118938,15870.699688,16651.334363,-12061.470695,2073.526630,0.001750,-0.014250,1.010625,192.000000,0.000000,0.000000,0.000000,0.000000,0.000000,0.000000,0.000000,0.000000,0.000000,1771417261.834255,0.000000
214.000000,8108.274115,21046.335524,733.628957,2223.037448,4198.909306,16545.163577,-7078.216324,-4427.411190,1743.100791,-5062.915988,3302.604354,-3082.998464,15856.640441,16617.717340,-12078.770945,2078.891048,0.001750,-0.014250,1.010625,192.000000,0.000000,0.000000,0.000000,0.000000,0.000000,0.000000,0.000000,0.000000,0.000000,1771417261.834265,0.000000
216.000000,8133.866863,21069.693097,779.382977,2269.573780,4431.389800,16600.014758,-7052.489466,-4410.625030,1744.620710,-5055.696375,3304.928935,-3114.737942,15851.432485,16614.722206,-12060.263701,2086.445938,0.001750,-0.014250,1.010625,192.000000,0.000000,0.000000,0.000000,0.000000,0.000000,0.000000,0.000000,0.000000,0.000000,1771417261.834276,0.000000
218.000000,8123.003915,21058.226652,731.170265,2241.857617,4198.194051,16552.562005,-7074.975321,-4415.743579,1754.947216,-5054.645843,3307.007647,-3093.704950,15850.761932,16624.624029,-12067.550369,2095.341932,0.001750,-0.014250,1.010625,192.000000,0.000000,0.000000,0.000000,0.000000,0.000000,0.000000,0.000000,0.000000,0.000000,1771417261.834287,0.000000
220.000000,8150.585967,21092.357766,778.153631,2277.754519,4355.997366,16601.400566,-7048.443800,-4390.553163,1738.943367,-5056.702203,3310.807444,-3079.310427,15826.912621,16610.765947,-12083.017776,2095.476043,0.001875,-0.011125,1.011313,192.000000,0.000000,8.000000,127.500000,96.000000,15.500000,80.000000,0.000000,0.000000,0.000000,1771417261.834297,0.000000
222.000000,8149.244863,21087.395678,756.025404,2282.180164,4340.976994,16592.325758,-7050.164884,-4387.915658,1769.006463,-5020.626488,3339.082401,-3077.611694,15893.163191,16660.073895,-12062.632985,2076.722929,0.001875,-0.011125,1.011313,192.000000,0.000000,0.000000,0.000000,0.000000,0.000000,0.000000,0.000000,0.000000,0.000000,1771417261.834308,0.000000
224.000000,8138.516025,21075.906882,723.995355,2261.013062,4196.808242,16564.810761,-7063.642986,-4396.543431,1757.495315,-5043.760543,3312.305011,-3053.158886,15888.312863,16625.853375,-12088.113974,2091.720950,0.001875,-0.011125,1.011313,192.000000,0.000000,0.000000,0.000000,0.000000,0.000000,0.000000,0.000000,0.000000,0.000000,1771417261.834319,0.000000
226.000000,8169.428488,21104.450059,778.108928,2313.271441,4429.266385,16631.284849,-7034.675125,-4372.716471,1770.884010,-5024.158063,3338.367145,-3073.431918,15889.251636,16659.179826,-12070.120820,2089.485775,0.001875,-0.011125,1.011313,192.000000,0.000000,0.000000,0.000000,0.000000,0.000000,0.000000,0.000000,0.000000,0.000000,1771417261.834329,0.000000
228.000000,8136.549072,21070.095428,733.807770,2263.605864,4196.763539,16567.045935,-7065.811105,-4397.593963,1773.901495,-5028.695468,3335.506122,-3059.216208,15862.898929,16643.354791,-12075.351128,2098.582935,0.001875,-0.011125,1.011313,192.000000,0.000000,0.000000,0.000000,0.000000,0.000000,0.000000,0.000000,0.000000,0.000000,1771417261.834340,0.000000
230.000000,8156.889159,21089.519094,779.561791,2289.243315,4353.046936,16612.844659,-7044.465190,-4385.322855,1755.014271,-5048.409706,3312.014438,-3067.262836,15839.988391,16621.852412,-12089.142154,2098.739397,0.001937,-0.008563,1.011656,192.000000,0.000000,8.000000,127.500000,104.000000,15.500000,80.000000,0.000000,0.000000,0.000000,1771417261.834351,0.000000
232.000000,8146.406191,21081.338356,765.413137,2276.659283,4335.009078,16600.104165,-7052.333004,-4394.844698,1788.988923,-5014.055075,3346.436125,-3074.057767,15899.868715,16666.175922,-12071.953663,2084.680150,0.001937,-0.008563,1.011656,192.000000,0.000000,0.000000,0.000000,0.000000,0.000000,0.000000,0.000000,0.000000,0.000000,1771417261.834362,0.000000
234.000000,8113.705589,21046.156710,723.973003,2238.996594,4192.829632,16554.663069,-7076.696405,-4425.399533,1734.964756,-5066.358157,3292.054330,-3080.651531,15828.521946,16617.717340,-12074.904093,2103.008581,0.001937,-0.008563,1.011656,192.000000,0.000000,0.000000,0.000000,0.000000,0.000000,0.000000,0.000000,0.000000,0.000000,1771417261.834372,0.000000
236.000000,8147.948462,21079.125533,780.791137,2279.833231,4426.785341,16621.986523,-7047.885006,-4401.974905,1756.087155,-5049.907273,3312.439121,-3102.288020,15888.737546,16634.436445,-12059.459038,2097.063017,0.001937,-0.008563,1.011656,192.000000,0.000000,0.000000,0.000000,0.000000,0.000000,0.000000,0.000000,0.000000,0.000000,1771417261.834383,0.000000
238.000000,8119.941726,21049.084788,725.001183,2232.022850,4214.644934,16557.121761,-7080.183277,-4425.801864,1756.891818,-5053.215331,3304.772473,-3091.223906,15888.514029,16630.748407,-12056.687421,2106.271935,0.001937,-0.008563,1.011656,192.000000,0.000000,0.000000,0.000000,0.000000,0.000000,0.000000,0.000000,0.000000,0.000000,1771417261.834394,0.000000
