Sample_index,EXG Channel 0,EXG Channel 1,EXG Channel 2,EXG Channel 3,EXG Channel 4,EXG Channel 5,EXG Channel 6,EXG Channel 7,EXG Channel 8,EXG Channel 9,EXG Channel 10,EXG Channel 11,EXG Channel 12,EXG Channel 13,EXG Channel 14,EXG Channel 15,Accel Channel 0,Accel Channel 1,Accel Channel 2,Not Used,Digital Channel 0 (D11),Digital Channel 1 (D12),Digital Channel 2 (D13),Digital Channel 3 (D17),Not Used,Digital Channel 4 (D18),Analog Channel 0,Analog Channel 1,Analog Channel 2,Timestamp,Marker Channel
210.000000,11053.362316,27408.312548,-112.183405,2106.383694,4230.671135,14990.242122,-5382.344768,-3559.180028,2667.703052,-3959.633882,2949.491495,-2616.338744,14712.499346,17033.504490,-13144.524472,-572.852859,0.000000,-0.011375,1.003625,192.000000,0.000000,0.000000,0.000000,0.000000,0.000000,0.000000,0.000000,0.000000,0.000000,1771417704.136888,101.000000
212.000000,11034.452740,27397.471952,-162.117203,2065.524705,4045.442229,14934.318058,-5411.625554,-3579.922447,2649.240512,-3972.799059,2928.346745,-2559.028871,14703.290427,17023.066225,-13154.336888,-540.442829,0.000000,-0.011375,1.003625,192.000000,0.000000,0.000000,0.000000,0.000000,0.000000,0.000000,0.000000,0.000000,0.000000,1771417704.136951,0.000000
214.000000,11054.502255,27411.352385,-105.388475,2113.849177,4246.406763,15009.576381,-5379.103765,-3557.816572,2651.855666,-3970.206257,2931.319527,-2577.580819,14736.326305,17025.435510,-13148.525435,-539.258187,0.000000,-0.011375,1.003625,192.000000,0.000000,0.000000,0.000000,0.000000,0.000000,0.000000,0.000000,0.000000,0.000000,1771417704.136994,0.000000
216.000000,11034.050409,27399.483609,-146.158057,2086.512993,4138.358431,14978.529808,-5399.220335,-3569.014796,2656.013090,-3967.322882,2942.115419,-2605.140520,14702.150488,17039.427702,-13134.332077,-558.011300,0.002000,-0.012000,1.000000,192.000000,0.000000,8.000000,127.500000,80.000000,15.500000,32.000000,0.000000,0.000000,0.000000,1771417704.137044,0.000000
218.000000,11039.437179,27400.981176,-140.927749,2087.407063,4131.563500,14975.959358,-5399.712074,-3568.791278,2632.588462,-3984.466670,2917.796721,-2535.336022,14673.137924,17006.123603,-13143.138664,-529.758695,0.002000,-0.012000,1.000000,192.000000,0.000000,0.000000,0.000000,0.000000,0.000000,0.000000,0.000000,0.000000,0.000000,1771417704.137100,0.000000
220.000000,11046.925014,27407.932569,-111.311687,2107.568336,4239.768295,14994.019567,-5383.864687,-3556.251950,2650.000471,-3961.824353,2948.038631,-2614.260031,14694.908523,17036.700790,-13127.224222,-559.397108,0.002000,-0.012000,1.000000,192.000000,0.000000,0.000000,0.000000,0.000000,0.000000,0.000000,0.000000,0.000000,0.000000,1771417704.137137,0.000000
222.000000,11030.004743,27391.973423,-168.822726,2067.134031,4051.879531,14930.071226,-5410.396208,-3576.100299,2640.746849,-3978.722272,2927.050343,-2553.150362,14706.173802,17014.259638,-13140.344696,-548.891789,0.002000,-0.012000,1.000000,192.000000,0.000000,0.000000,0.000000,0.000000,0.000000,0.000000,0.000000,0.000000,0.000000,1771417704.137149,0.000000
224.000000,11056.670374,27412.447621,-109.747065,2105.199052,4236.527292,14985.995291,-5379.014358,-3549.859351,2644.971328,-3975.883600,2931.453637,-2571.322330,14715.382721,17007.665873,-13150.380629,-554.435021,0.002000,-0.012000,1.000000,192.000000,0.000000,0.000000,0.000000,0.000000,0.000000,0.000000,0.000000,0.000000,0.000000,1771417704.137161,0.000000
226.000000,11047.662621,27411.531199,-145.711022,2078.868697,4122.511044,14944.689267,-5395.577001,-3557.458944,2664.417346,-3959.879751,2951.369041,-2593.763482,14728.346733,17035.605554,-13139.674144,-574.372777,0.006000,-0.010000,1.000000,192.000000,0.000000,24.000000,127.500000,88.000000,15.500000,32.000000,0.000000,0.000000,0.000000,1771417704.137174,0.000000
228.000000,11050.076610,27410.503019,-136.502103,2082.020293,4126.377896,14953.764075,-5392.514812,-3556.184895,2641.998546,-3974.587199,2929.531387,-2522.372010,14720.545974,17033.482138,-13160.483618,-552.848047,0.006000,-0.010000,1.000000,192.000000,0.000000,0.000000,0.000000,0.000000,0.000000,0.000000,0.000000,0.000000,0.000000,1771417704.137185,0.000000
230.000000,11065.409907,27424.271694,-104.382647,2105.243755,4240.192978,14988.744556,-5374.409899,-3542.013889,2668.574771,-3953.598911,2961.941416,-2607.018066,14685.274921,17043.808644,-13146.893757,-587.605010,0.006000,-0.010000,1.000000,192.000000,0.000000,0.000000,0.000000,0.000000,0.000000,0.000000,0.000000,0.000000,0.000000,1771417704.137196,0.000000
232.000000,11040.822988,27402.009356,-164.732357,2067.402252,4057.959206,14929.601840,-5408.362199,-3569.707700,2651.207465,-3973.156687,2934.068791,-2547.361260,14701.636398,17011.890353,-13148.927766,-562.235780,0.006000,-0.010000,1.000000,192.000000,0.000000,0.000000,0.000000,0.000000,0.000000,0.000000,0.000000,0.000000,0.000000,1771417704.137208,0.000000
234.000000,11062.370069,27416.001548,-102.035713,2103.276801,4261.114211,14981.815515,-5380.802498,-3551.513380,2662.316282,-3965.870019,2944.261187,-2562.336929,14723.831680,17021.143975,-13151.677031,-557.161934,0.006000,-0.010000,1.000000,192.000000,0.000000,0.000000,0.000000,0.000000,0.000000,0.000000,0.000000,0.000000,0.000000,1771417704.137221,0.000000
236.000000,11046.209758,27401.852894,-145.465153,2072.073766,4149.981338,14943.884604,-5399.734426,-3568.031319,2656.594235,-3968.306359,2943.702393,-2604.648781,14711.538221,17028.832975,-13117.143585,-577.502021,0.004000,-0.012000,0.996000,192.000000,0.000000,16.000000,127.500000,80.000000,15.500000,16.000000,0.000000,0.000000,0.000000,1771417704.137235,0.000000
238.000000,11048.891967,27404.155124,-147.365051,2078.153441,4139.051335,14961.520131,-5397.163975,-3567.852505,2644.412535,-3981.940923,2919.271936,-2536.900644,14734.761683,17018.215897,-13152.101714,-545.762544,0.004000,-0.012000,0.996000,192.000000,0.000000,0.000000,0.000000,0.000000,0.000000,0.000000,0.000000,0.000000,0.000000,1771417704.137248,0.000000
240.000000,11047.528511,27406.569112,-122.755781,2094.894897,4238.270728,14986.397622,-5388.804422,-3563.560970,2653.219122,-3971.703824,2936.929814,-2627.872244,14701.792860,17022.440377,-13135.583775,-550.165838,0.004000,-0.012000,0.996000,192.000000,0.000000,0.000000,0.000000,0.000000,0.000000,0.000000,0.000000,0.000000,0.000000,1771417704.137259,0.000000
242.000000,11045.203930,27405.116249,-168.912133,2062.238999,4054.248816,14942.118817,-5413.212527,-3575.049767,2643.384355,-3978.521106,2924.748114,-2562.225170,14730.917183,17025.413159,-13146.424371,-535.570149,0.004000,-0.012000,0.996000,192.000000,0.000000,0.000000,0.000000,0.000000,0.000000,0.000000,0.000000,0.000000,0.000000,1771417704.137272,0.000000
244.000000,11072.696575,27431.915990,-96.425426,2109.401179,4248.932510,15003.250838,-5378.835544,-3548.138267,2659.946997,-3969.714519,2936.885111,-2571.411737,14688.471221,17035.493795,-13142.289298,-552.848047,0.004000,-0.012000,0.996000,192.000000,0.000000,0.000000,0.000000,0.000000,0.000000,0.000000,0.000000,0.000000,0.000000,1771417704.137284,0.000000
246.000000,11061.721869,27424.852839,-138.960795,2090.044569,4160.151382,14967.823323,-5394.794690,-3557.280130,2676.420233,-3949.933225,2955.146486,-2592.556488,14730.581907,17048.591918,-13135.360257,-577.479670,-0.002000,-0.014000,1.002000,192.000000,127.500000,120.000000,127.500000,72.000000,15.500000,40.000000,0.000000,0.000000,0.000000,1771417704.137295,0.000000
248.000000,11061.610110,27422.058871,-147.633272,2093.062054,4159.905512,14970.997270,-5397.700417,-3559.492953,2656.482477,-3967.993434,2926.402143,-2525.501254,14716.522660,17018.707635,-13150.470036,-561.676986,-0.002000,-0.014000,1.002000,192.000000,0.000000,0.000000,0.000000,0.000000,0.000000,0.000000,0.000000,0.000000,0.000000,1771417704.137307,0.000000
250.000000,11070.819029,27430.016092,-104.203833,2118.855967,4256.509752,14998.713434,-5378.097937,-3545.880740,2672.754547,-3948.055678,2954.542989,-2604.447616,14739.030867,17071.614214,-13140.009420,-551.171667,-0.002000,-0.014000,1.002000,192.000000,0.000000,0.000000,0.000000,0.000000,0.000000,0.000000,0.000000,0.000000,0.000000,1771417704.137319,0.000000
252.000000,11059.956081,27419.421365,-155.702252,2071.738490,4065.156468,14951.797122,-5403.400112,-3562.689252,2665.356119,-3958.270426,2940.461390,-2542.846208,14744.194119,17032.923345,-13155.074496,-553.987986,-0.002000,-0.014000,1.002000,192.000000,0.000000,0.000000,0.000000,0.000000,0.000000,0.000000,0.000000,0.000000,0.000000,1771417704.137331,0.000000
254.000000,11072.093078,27430.396072,-92.223298,2116.799607,4270.323130,15000.792146,-5371.750041,-3543.891435,2675.481460,-3956.996376,2945.714050,-2560.146458,14690.438174,17046.937888,-13155.812103,-560.291178,-0.002000,-0.014000,1.002000,192.000000,0.000000,0.000000,0.000000,0.000000,0.000000,0.000000,0.000000,0.000000,0.000000,1771417704.137344,0.000000
0.000000,11046.232110,27407.083202,-137.597339,2079.293380,4157.223303,14972.003099,-5396.269905,-3572.121688,2676.017901,-3959.589179,2947.256320,-2600.737226,14721.775320,17033.817415,-13129.682914,-570.707091,-0.002000,-0.014000,1.003000,192.000000,127.500000,120.000000,127.500000,72.000000,15.500000,48.000000,0.000000,0.000000,0.000000,1771417704.137355,0.000000
2.000000,11055.396325,27414.503981,-136.055068,2077.371130,4139.520721,14981.368480,-5397.409844,-3574.312159,2651.587445,-3984.109042,2914.466311,-2540.879254,14742.450683,17016.539516,-13151.162940,-536.106591,-0.002000,-0.014000,1.003000,192.000000,0.000000,0.000000,0.000000,0.000000,0.000000,0.000000,0.000000,0.000000,0.000000,1771417704.137367,0.000000
4.000000,11070.126125,27431.536011,-104.404998,2107.948316,4249.111324,15002.312064,-5379.036710,-3557.905979,2685.986779,-3945.798152,2947.524541,-2616.226985,14755.392343,17063.299365,-13131.605164,-562.258132,-0.002000,-0.014000,1.003000,192.000000,0.000000,0.000000,0.000000,0.000000,0.000000,0.000000,0.000000,0.000000,0.000000,1771417704.137379,0.000000
6.000000,11042.544072,27405.764449,-163.771232,2065.167077,4067.861029,14960.223730,-5409.390379,-3581.799994,2671.435794,-3965.959426,2934.337012,-2556.234903,14723.317590,17011.979760,-13143.742161,-558.458335,-0.002000,-0.014000,1.003000,192.000000,0.000000,0.000000,0.000000,0.000000,0.000000,0.000000,0.000000,0.000000,0.000000,1771417704.137390,0.000000
8.000000,11060.805447,27424.070528,-113.703324,2121.292308,4270.233723,15015.924277,-5379.461393,-3561.772831,2651.028651,-3973.469612,2921.752980,-2581.671188,14701.077604,17037.818377,-13153.196949,-517.219367,-0.002000,-0.014000,1.003000,192.000000,0.000000,0.000000,0.000000,0.000000,0.000000,0.000000,0.000000,0.000000,0.000000,1771417704.137402,0.000000
10.000000,11058.145590,27426.775089,-142.693537,2091.251563,4146.472114,14984.005986,-5397.409844,-3567.763098,2668.440660,-3949.150914,2944.775277,-2597.876203,14757.828684,17043.875700,-13137.908356,-535.771315,-0.002000,-0.013000,1.002500,192.000000,127.500000,120.000000,127.500000,80.000000,15.500000,40.000000,0.000000,0.000000,0.000000,1771417704.137414,0.000000
12.000000,11049.294299,27412.805249,-140.883045,2090.916287,4140.593605,14977.032241,-5400.159109,-3575.407395,2652.816791,-3975.928304,2915.650954,-2535.268967,14710.264171,17046.066170,-13141.216414,-514.425399,-0.002000,-0.013000,1.002500,192.000000,0.000000,0.000000,0.000000,0.000000,0.000000,0.000000,0.000000,0.000000,0.000000,1771417704.137426,0.000000
14.000000,11073.210665,27433.882944,-94.905507,2110.295249,4268.691453,15016.416015,-5376.242742,-3547.490066,2673.335692,-3948.033327,2952.531332,-2614.483549,14737.868576,17037.483101,-13118.261173,-556.290216,-0.002000,-0.013000,1.002500,192.000000,0.000000,0.000000,0.000000,0.000000,0.000000,0.000000,0.000000,0.000000,0.000000,1771417704.137438,0.000000
16.000000,11052.267081,27419.957807,-161.558409,2075.426528,4071.884343,14940.934174,-5405.791748,-3567.383119,2663.098593,-3962.807830,2940.707259,-2549.641138,14710.063006,17018.484118,-13134.600298,-558.793611,-0.002000,-0.013000,1.002500,192.000000,0.000000,0.000000,0.000000,0.000000,0.000000,0.000000,0.000000,0.000000,0.000000,1771417704.137451,0.000000
18.000000,11083.403061,27449.551517,-104.002667,2122.253433,4264.042290,15016.974809,-5374.007568,-3541.768019,2662.964483,-3953.062469,2940.841370,-2560.325272,14719.942477,17042.556947,-13152.325231,-542.655652,-0.002000,-0.013000,1.002500,192.000000,0.000000,0.000000,0.000000,0.000000,0.000000,0.000000,0.000000,0.000000,0.000000,1771417704.137462,0.000000
20.000000,11058.994956,27423.556438,-131.718830,2087.384711,4146.405059,14968.493875,-5395.577001,-3563.583322,2677.917800,-3946.312242,2952.173704,-2592.355322,14760.734410,17032.990400,-13126.933649,-563.040443,-0.005000,-0.013500,1.005250,192.000000,127.500000,96.000000,127.500000,72.000000,15.500000,64.000000,0.000000,0.000000,0.000000,1771417704.137475,0.000000
22.000000,11060.134895,27429.211429,-138.022022,2084.255467,4145.868617,14989.325701,-5395.845222,-3564.969130,2654.582578,-3969.200429,2920.590689,-2531.379763,14727.184442,17020.115795,-13146.692592,-548.824733,-0.005000,-0.013500,1.005250,192.000000,0.000000,0.000000,0.000000,0.000000,0.000000,0.000000,0.000000,0.000000,0.000000,1771417704.137487,0.000000
24.000000,11079.469154,27444.477671,-101.767493,2118.364229,4265.115173,15013.353826,-5374.029919,-3543.377345,2679.482422,-3941.596024,2952.106649,-2608.962668,14787.310635,17047.854310,-13127.581850,-574.551591,-0.005000,-0.013500,1.005250,192.000000,0.000000,0.000000,0.000000,0.000000,0.000000,0.000000,0.000000,0.000000,0.000000,1771417704.137499,0.000000
26.000000,11063.308843,27433.435909,-154.092926,2079.159269,4080.154488,14960.916634,-5402.349580,-3559.403546,2675.302646,-3949.106210,2943.657690,-2537.884121,14704.676235,17053.308136,-13150.402981,-543.348556,-0.005000,-0.013500,1.005250,192.000000,0.000000,0.000000,0.000000,0.000000,0.000000,0.000000,0.000000,0.000000,0.000000,1771417704.137511,0.000000
28.000000,11077.323386,27441.370778,-97.364199,2114.050342,4279.241476,15019.053521,-5376.488611,-3543.556159,2666.160782,-3954.537684,2942.428344,-2561.912246,14722.490576,17021.814528,-13133.058027,-535.771315,-0.005000,-0.013500,1.005250,192.000000,0.000000,0.000000,0.000000,0.000000,0.000000,0.000000,0.000000,0.000000,0.000000,1771417704.137523,0.000000
30.000000,11065.342851,27432.675950,-132.545845,2086.110662,4150.718945,14975.691137,-5393.922972,-3555.894322,2679.460070,-3953.308338,2950.765544,-2596.378636,14733.040599,17044.635659,-13117.076530,-542.946225,-0.003500,-0.011750,1.002625,192.000000,127.500000,120.000000,127.500000,88.000000,15.500000,32.000000,0.000000,0.000000,0.000000,1771417704.137534,0.000000
32.000000,11059.263177,27425.456336,-137.731449,2090.178679,4150.070745,14971.220788,-5396.761644,-3562.935121,2653.085012,-3971.346196,2927.944413,-2524.338964,14725.798634,17005.855382,-13138.087170,-520.147445,-0.003500,-0.011750,1.002625,192.000000,0.000000,0.000000,0.000000,0.000000,0.000000,0.000000,0.000000,0.000000,0.000000,1771417704.137546,0.000000
34.000000,11085.057090,27451.809043,-107.288373,2105.221403,4286.796366,15013.286771,-5374.678120,-3542.326813,2680.756471,-3948.569768,2953.380698,-2610.147311,14767.350527,17046.468502,-13112.025036,-535.525445,-0.003500,-0.011750,1.002625,192.000000,0.000000,0.000000,0.000000,0.000000,0.000000,0.000000,0.000000,0.000000,0.000000,1771417704.137558,0.000000
36.000000,11065.767534,27437.369816,-153.310615,2088.792871,4081.987331,14948.332602,-5400.024998,-3557.458944,2675.056776,-3950.447315,2942.249530,-2540.991013,14728.123215,17039.807682,-13137.371914,-525.020126,-0.003500,-0.011750,1.002625,192.000000,0.000000,0.000000,0.000000,0.000000,0.000000,0.000000,0.000000,0.000000,0.000000,1771417704.137570,0.000000
38.000000,11084.855924,27445.818775,-98.638248,2123.460427,4279.040310,15017.466547,-5373.225257,-3541.119819,2672.173401,-3950.536722,2947.412783,-2558.872409,14765.942367,17045.775598,-13140.143530,-532.820884,-0.003500,-0.011750,1.002625,192.000000,0.000000,0.000000,0.000000,0.000000,0.000000,0.000000,0.000000,0.000000,0.000000,1771417704.137581,0.000000
40.000000,11059.173770,27431.245438,-133.439914,2088.167022,4148.059088,14980.608521,-5394.772338,-3560.878761,2675.906143,-3948.905045,2952.218408,-2594.344627,14715.516831,17041.327601,-13117.769434,-554.099745,-0.002750,-0.011875,1.002312,192.000000,127.500000,120.000000,127.500000,80.000000,15.500000,40.000000,0.000000,0.000000,0.000000,1771417704.137593,0.000000
42.000000,11060.872502,27427.043310,-136.815028,2083.115528,4138.894873,14967.309233,-5394.101786,-3560.744650,2658.449430,-3974.497792,2922.356477,-2530.888025,14715.360369,16972.081896,-13138.847129,-546.969539,-0.002750,-0.011875,1.002312,192.000000,0.000000,0.000000,0.000000,0.000000,0.000000,0.000000,0.000000,0.000000,0.000000,1771417704.137605,0.000000
44.000000,11079.357395,27445.818775,-92.379760,2113.759770,4269.160839,15000.814498,-5369.112536,-3538.549368,2680.667064,-3946.200484,2957.001681,-2609.364999,14751.212567,17070.474275,-13126.017228,-559.240646,-0.002750,-0.011875,1.002312,192.000000,0.000000,0.000000,0.000000,0.000000,0.000000,0.000000,0.000000,0.000000,0.000000,1771417704.137617,0.000000
46.000000,11057.877369,27425.635150,-152.952987,2065.994092,4071.727880,14960.022564,-5395.800518,-3559.492953,2663.992663,-3954.627091,2943.680041,-2544.723754,14730.872480,17026.418987,-13137.327211,-563.308664,-0.002750,-0.011875,1.002312,192.000000,0.000000,0.000000,0.000000,0.000000,0.000000,0.000000,0.000000,0.000000,0.000000,1771417704.137628,0.000000
48.000000,11083.112488,27445.438796,-97.453606,2110.451711,4280.046139,15012.951495,-5367.413803,-3539.532845,2671.301683,-3957.465763,2943.724745,-2561.286397,14764.221283,17032.476310,-13147.385496,-552.713937,-0.002750,-0.011875,1.002312,192.000000,0.000000,0.000000,0.000000,0.000000,0.000000,0.000000,0.000000,0.000000,0.000000,1771417704.137640,0.000000
50.000000,11069.030889,27433.279447,-140.927749,2078.019330,4160.911341,14970.438477,-5388.782071,-3556.989557,2683.259867,-3946.580463,2958.812172,-2591.617714,14730.313686,17030.598763,-13123.960867,-555.619664,-0.002750,-0.011875,1.002312,192.000000,0.000000,0.000000,127.500000,80.000000,15.500000,64.000000,0.000000,0.000000,0.000000,1771417704.137651,0.000000
52.000000,11067.108639,27427.490345,-153.042394,2095.811319,4160.598416,14976.764021,-5392.872440,-3564.902075,2657.689471,-3968.976911,2922.982326,-2524.629536,14748.150378,17012.672664,-13153.509874,-525.511864,-0.002750,-0.011875,1.002312,192.000000,0.000000,0.000000,0.000000,0.000000,0.000000,0.000000,0.000000,0.000000,0.000000,1771417704.137663,0.000000
54.000000,11074.440011,27437.302761,-100.761664,2115.145578,4279.755566,15020.796957,-5375.751004,-3551.267511,2682.701073,-3949.463838,2944.551759,-2613.589479,14747.301012,17040.299420,-13124.542013,-535.659556,-0.002750,-0.011875,1.002312,192.000000,0.000000,0.000000,0.000000,0.000000,0.000000,0.000000,0.000000,0.000000,0.000000,1771417704.137674,0.000000
56.000000,11065.588721,27431.983046,-152.282435,2075.314769,4093.207907,14985.727070,-5401.544917,-3564.611502,2661.176343,-3955.878789,2940.483742,-2544.544941,14703.715110,17025.211993,-13121.412769,-539.749925,-0.002750,-0.011875,1.002312,192.000000,0.000000,0.000000,0.000000,0.000000,0.000000,0.000000,0.000000,0.000000,0.000000,1771417704.137686,0.000000
58.000000,11074.685881,27434.017054,-98.191213,2107.680095,4282.102499,15030.587021,-5377.159164,-3554.799086,2669.446489,-3962.472554,2939.164989,-2571.523496,14746.876329,17040.657048,-13117.657675,-528.954033,-0.002750,-0.011875,1.002312,192.000000,0.000000,0.000000,0.000000,0.000000,0.000000,0.000000,0.000000,0.000000,0.000000,1771417704.137698,0.000000
60.000000,11062.727697,27429.859630,-142.112391,2092.011522,4161.447783,14966.705736,-5396.761644,-3569.014796,2672.821602,-3953.464801,2947.435134,-2599.709046,14736.706285,17034.040932,-13112.606181,-544.130867,0.000625,-0.011938,1.004156,192.000000,0.000000,16.000000,127.500000,80.000000,15.500000,56.000000,0.000000,0.000000,0.000000,1771417704.137709,0.000000
62.000000,11050.277776,27417.879095,-145.018118,2093.017351,4142.918187,14972.271320,-5400.762606,-3580.615351,2650.559264,-3974.944827,2911.940564,-2539.448743,14711.605276,16996.266484,-13127.872423,-523.187282,0.000625,-0.011938,1.004156,192.000000,0.000000,0.000000,0.000000,0.000000,0.000000,0.000000,0.000000,0.000000,0.000000,1771417704.137739,0.000000
64.000000,11071.109601,27434.106461,-117.503121,2116.933717,4267.596217,15010.224582,-5379.684911,-3562.532790,2668.820640,-3951.788420,2934.962861,-2617.970421,14742.808311,17043.026333,-13117.948248,-549.361175,0.000625,-0.011938,1.004156,192.000000,0.000000,0.000000,0.000000,0.000000,0.000000,0.000000,0.000000,0.000000,0.000000,1771417704.137752,0.000000
66.000000,11057.676203,27425.478688,-164.173563,2069.860944,4065.894075,14968.158599,-5404.540051,-3573.507497,2657.622416,-3966.406461,2926.379791,-2555.720813,14737.399189,17014.147879,-13135.360257,-553.406841,0.000625,-0.011938,1.004156,192.000000,0.000000,0.000000,0.000000,0.000000,0.000000,0.000000,0.000000,0.000000,0.000000,1771417704.137764,0.000000
68.000000,11087.985168,27459.386284,-98.146510,2126.902595,4241.690545,15008.883477,-5367.749079,-3538.638775,2670.787593,-3947.630995,2942.875378,-2558.537133,14736.169843,17039.293592,-13151.878196,-546.187228,0.000625,-0.011938,1.004156,192.000000,0.000000,0.000000,0.000000,0.000000,0.000000,0.000000,0.000000,0.000000,0.000000,1771417704.137775,0.000000
70.000000,11069.723793,27441.661351,-138.446705,2084.747205,4156.999786,14970.527884,-5391.419577,-3557.861275,2678.856573,-3934.890501,2957.716937,-2585.001598,14736.594526,17050.983554,-13129.548804,-570.081242,0.000625,-0.011938,1.004156,192.000000,0.000000,0.000000,0.000000,0.000000,0.000000,0.000000,0.000000,0.000000,0.000000,1771417704.137788,0.000000
72.000000,11071.355471,27439.716749,-138.424353,2085.775386,4143.700498,14968.248006,-5391.106652,-3558.598883,2660.528143,-3964.975949,2930.693678,-2523.154321,14733.353523,16998.926341,-13147.944289,-545.762544,0.000625,-0.011938,1.004156,192.000000,0.000000,0.000000,127.500000,80.000000,15.500000,64.000000,0.000000,0.000000,0.000000,1771417704.137800,0.000000
74.000000,11088.588666,27458.648677,-103.309763,2111.882223,4270.233723,14999.473393,-5373.627588,-3543.489104,2678.722463,-3938.980870,2953.023070,-2608.202709,14757.918091,17067.836770,-13124.564365,-559.017129,0.000625,-0.011938,1.004156,192.000000,0.000000,0.000000,0.000000,0.000000,0.000000,0.000000,0.000000,0.000000,0.000000,1771417704.617740,0.000000
76.000000,11069.567331,27444.947057,-156.752784,2071.894952,4072.756061,14964.671727,-5401.299048,-3565.662034,2672.307512,-3942.579501,2939.053230,-2542.935615,14731.207756,17039.159481,-13138.087170,-539.302890,0.000625,-0.011938,1.004156,192.000000,0.000000,0.000000,0.000000,0.000000,0.000000,0.000000,0.000000,0.000000,0.000000,1771417704.617808,0.000000
78.000000,11077.189276,27446.086996,-96.246612,2113.983287,4273.027691,15025.647286,-5374.499306,-3551.133400,2662.495096,-3948.413306,2933.577053,-2563.655682,14730.671314,17030.196432,-13133.616821,-527.568224,0.000625,-0.011938,1.004156,192.000000,0.000000,0.000000,0.000000,0.000000,0.000000,0.000000,0.000000,0.000000,0.000000,1771417704.617849,0.000000
80.000000,11068.606206,27439.850860,-132.299975,2083.607266,4171.975454,14999.071062,-5393.744158,-3561.012871,2677.113137,-3942.579501,2948.820942,-2593.428206,14769.183370,17040.142958,-13108.471108,-538.699393,0.000625,-0.011938,1.004156,192.000000,0.000000,0.000000,0.000000,0.000000,0.000000,0.000000,0.000000,0.000000,0.000000,1771417704.617891,0.000000
82.000000,11064.784058,27433.681778,-130.109504,2080.567429,4192.628466,15004.882515,-5399.667370,-3568.098374,2656.326015,-3971.927341,2923.854044,-2532.407943,14695.824944,17010.705711,-13108.247591,-518.672230,-0.004000,-0.008000,1.008000,192.000000,127.500000,112.000000,127.500000,96.000000,15.500000,64.000000,0.000000,0.000000,0.000000,1771417704.617950,0.000000
84.000000,11089.862715,27455.966467,-95.151376,2109.043552,4312.880851,15037.896042,-5379.841373,-3548.160618,2681.851707,-3940.009050,2954.364175,-2610.527290,14764.042469,17047.206109,-13088.019262,-536.464219,-0.004000,-0.008000,1.008000,192.000000,0.000000,0.000000,0.000000,0.000000,0.000000,0.000000,0.000000,0.000000,0.000000,1771417704.617992,0.000000
86.000000,11061.096020,27434.218220,-153.914112,2080.388615,4109.412922,14959.039087,-5407.199908,-3569.595941,2670.631131,-3957.376356,2935.856931,-2551.652795,14723.183480,17037.863080,-13103.039635,-524.059000,-0.004000,-0.008000,1.008000,192.000000,0.000000,0.000000,0.000000,0.000000,0.000000,0.000000,0.000000,0.000000,0.000000,1771417704.618034,0.000000
88.000000,11077.524552,27448.188060,-99.621725,2115.033819,4282.482479,15027.793053,-5379.170821,-3545.813685,2672.799250,-3952.414269,2938.494437,-2567.299016,14725.798634,17028.028313,-13111.890925,-517.040553,-0.004000,-0.008000,1.008000,192.000000,0.000000,0.000000,0.000000,0.000000,0.000000,0.000000,0.000000,0.000000,0.000000,1771417704.618096,0.000000
90.000000,11059.978433,27434.866421,-140.257196,2096.168947,4136.883216,14971.041974,-5396.716940,-3559.560008,2662.696262,-3950.782591,2950.050288,-2600.781930,14732.705323,17043.920403,-13102.279675,-530.317489,-0.004000,-0.008000,1.008000,192.000000,0.000000,0.000000,0.000000,0.000000,0.000000,0.000000,0.000000,0.000000,0.000000,1771417704.618150,0.000000
92.000000,11066.572197,27440.722578,-139.363127,2093.263220,4127.339021,14978.149829,-5390.413748,-3551.379270,2650.894541,-3958.002205,2927.095047,-2517.924013,14711.448814,17011.935057,-13150.872368,-531.770352,-0.004000,-0.012000,1.008000,192.000000,127.500000,112.000000,127.500000,80.000000,15.500000,64.000000,0.000000,0.000000,0.000000,1771417704.618188,0.000000
94.000000,11078.440974,27451.071435,-105.790807,2113.513900,4249.536008,14995.807707,-5372.934684,-3541.611557,2675.436756,-3936.812751,2959.728594,-2595.506918,14758.499236,17033.348028,-13142.669278,-561.542876,-0.004000,-0.012000,1.008000,192.000000,0.000000,0.000000,0.000000,0.000000,0.000000,0.000000,0.000000,0.000000,0.000000,1771417704.618229,0.000000
96.000000,11055.284566,27432.072453,-157.937426,2057.768650,4049.644357,14933.982782,-5402.394283,-3565.662034,2664.260884,-3965.110059,2937.086277,-2544.656699,14704.139793,17006.704748,-13150.648850,-553.540951,-0.004000,-0.012000,1.008000,192.000000,0.000000,0.000000,0.000000,0.000000,0.000000,0.000000,0.000000,0.000000,0.000000,1771417704.618243,0.000000
98.000000,11081.301997,27453.887755,-97.118330,2107.054246,4249.446601,14991.292654,-5368.933722,-3540.918653,2665.825506,-3959.410365,2938.449733,-2560.951121,14720.411863,17009.118737,-13151.900548,-559.821792,-0.004000,-0.012000,1.008000,192.000000,0.000000,0.000000,0.000000,0.000000,0.000000,0.000000,0.000000,0.000000,0.000000,1771417704.618254,0.000000
100.000000,11064.180561,27442.600124,-140.592473,2083.450804,4137.442009,14962.548311,-5387.262152,-3553.905017,2672.665140,-3947.519237,2961.449678,-2586.946200,14721.931782,17036.700790,-13144.613879,-575.222144,-0.004000,-0.012000,1.008000,192.000000,0.000000,0.000000,0.000000,0.000000,0.000000,0.000000,0.000000,0.000000,0.000000,1771417704.618265,0.000000
102.000000,11067.466267,27449.640924,-141.620653,2090.312790,4145.332175,14978.775678,-5388.290332,-3553.100354,2664.529105,-3965.847667,2928.659669,-2515.219452,14711.292352,17002.368510,-13163.255234,-545.606082,-0.002000,-0.012000,1.008000,192.000000,127.500000,120.000000,127.500000,80.000000,15.500000,64.000000,0.000000,0.000000,0.000000,1771417704.618276,0.000000
104.000000,11084.386538,27462.716694,-103.689743,2110.742284,4269.451412,15020.171108,-5372.420594,-3541.231578,2678.878925,-3932.945899,2961.315568,-2592.601191,14763.841303,17035.024409,-13139.651792,-558.726556,-0.002000,-0.012000,1.008000,192.000000,0.000000,0.000000,0.000000,0.000000,0.000000,0.000000,0.000000,0.000000,0.000000,1771417704.618286,0.000000
106.000000,11067.533322,27449.886793,-148.728508,2077.237019,4068.866857,14969.589111,-5399.354446,-3564.231523,2670.117041,-3951.386088,2945.535236,-2539.605205,14718.087282,17042.154615,-13136.187272,-537.246530,-0.002000,-0.012000,1.008000,192.000000,0.000000,0.000000,0.000000,0.000000,0.000000,0.000000,0.000000,0.000000,0.000000,1771417704.618297,0.000000
108.000000,11071.578988,27451.876098,-98.079455,2119.325354,4288.025712,15022.272172,-5374.745175,-3557.302482,2675.369701,-3950.693184,2940.237873,-2558.961816,14719.294276,17015.734853,-13131.426350,-535.190169,-0.002000,-0.012000,1.008000,192.000000,0.000000,0.000000,0.000000,0.000000,0.000000,0.000000,0.000000,0.000000,0.000000,1771417704.618308,0.000000
110.000000,11062.884159,27444.701188,-137.798505,2093.062054,4193.343722,14988.565742,-5394.034731,-3566.757270,2677.649579,-3941.886597,2941.757791,-2591.707121,14745.311707,17032.342199,-13106.973542,-535.637204,-0.002000,-0.012000,1.008000,192.000000,0.000000,0.000000,0.000000,0.000000,0.000000,0.000000,0.000000,0.000000,0.000000,1771417704.618319,0.000000
112.000000,11057.542093,27438.666217,-141.575949,2091.408025,4173.897704,14992.633759,-5396.202850,-3572.367558,2648.234683,-3969.893333,2921.663573,-2532.832626,14719.853070,16991.773783,-13125.234917,-499.360323,-0.004000,-0.014000,1.006000,192.000000,127.500000,112.000000,127.500000,72.000000,15.500000,56.000000,0.000000,0.000000,0.000000,1771417704.618330,0.000000
114.000000,11088.566314,27466.918822,-103.041542,2128.936604,4272.312435,15016.237201,-5372.621759,-3546.216017,2690.457128,-3932.990603,2949.625605,-2604.581726,14792.228018,17045.820301,-13114.751949,-530.026916,-0.004000,-0.014000,1.006000,192.000000,0.000000,0.000000,0.000000,0.000000,0.000000,0.000000,0.000000,0.000000,0.000000,1771417704.618342,0.000000
116.000000,11047.461456,27430.910162,-161.647816,2072.453746,4083.931933,14936.910860,-5410.351504,-3582.604657,2681.337617,-3952.593082,2935.096971,-2543.941443,14712.119366,17022.976818,-13132.409827,-526.942376,-0.004000,-0.014000,1.006000,192.000000,0.000000,0.000000,0.000000,0.000000,0.000000,0.000000,0.000000,0.000000,0.000000,1771417704.618353,0.000000
118.000000,11074.574122,27449.752682,-97.610068,2106.450749,4270.814868,14984.765945,-5375.281617,-3555.536694,2654.582578,-3964.372452,2928.883186,-2571.009406,14744.127064,16999.753356,-13115.936591,-538.833504,-0.004000,-0.014000,1.006000,192.000000,0.000000,0.000000,0.000000,0.000000,0.000000,0.000000,0.000000,0.000000,0.000000,1771417704.618364,0.000000
120.000000,11067.354508,27444.187098,-133.350507,2087.787043,4153.512913,14953.115875,-5387.329207,-3558.196552,2675.481460,-3951.900178,2952.598387,-2594.478738,14712.119366,17025.346103,-13119.199946,-566.549667,-0.004000,-0.014000,1.006000,192.000000,0.000000,0.000000,0.000000,0.000000,0.000000,0.000000,0.000000,0.000000,0.000000,1771417704.618374,0.000000
122.000000,11073.411831,27449.238592,-135.876255,2079.360435,4151.791829,14950.456017,-5385.786937,-3557.302482,2665.467878,-3963.701899,2935.007564,-2518.415751,14714.823927,16985.582350,-13151.252347,-557.497210,-0.004000,-0.008000,1.008000,192.000000,127.500000,112.000000,127.500000,96.000000,15.500000,64.000000,0.000000,0.000000,0.000000,1771417704.618386,0.000000
124.000000,11085.861753,27463.543709,-105.232013,2104.394389,4257.560284,14981.435535,-5367.123230,-3541.656261,2687.305532,-3943.339460,2956.442887,-2602.726531,14765.964719,16999.261618,-13120.518699,-587.359141,-0.004000,-0.008000,1.008000,192.000000,0.000000,0.000000,0.000000,0.000000,0.000000,0.000000,0.000000,0.000000,0.000000,1771417704.618397,0.000000
126.000000,11060.961909,27439.470880,-158.652682,2057.902760,4070.923218,14931.144110,-5397.141623,-3565.080889,2676.464936,-3951.520199,2945.378774,-2539.515798,14721.663561,17004.849554,-13145.329135,-581.860612,-0.004000,-0.008000,1.008000,192.000000,0.000000,0.000000,0.000000,0.000000,0.000000,0.000000,0.000000,0.000000,0.000000,1771417704.618408,0.000000
128.000000,11081.994901,27461.353238,-98.750007,2099.812281,4273.005339,14996.321797,-5367.771431,-3545.098429,2665.825506,-3959.723289,2934.225253,-2562.068708,14720.031884,16997.361719,-13141.506987,-573.568114,-0.004000,-0.008000,1.008000,192.000000,0.000000,0.000000,0.000000,0.000000,0.000000,0.000000,0.000000,0.000000,0.000000,1771417704.618419,0.000000
130.000000,11061.118372,27440.387301,-140.547769,2072.051414,4155.993957,14960.804875,-5391.330170,-3567.651339,2675.369701,-3947.452181,2951.614911,-2591.796528,14752.598375,16996.154725,-13116.025998,-592.276525,-0.004000,-0.008000,1.008000,192.000000,0.000000,0.000000,0.000000,0.000000,0.000000,0.000000,0.000000,0.000000,0.000000,1771417704.618430,0.000000
132.000000,11056.648023,27436.766319,-133.506970,2085.954200,4137.732582,14968.560930,-5394.682931,-3574.133345,2648.435849,-3966.719385,2915.896823,-2529.412810,14689.477049,17022.663894,-13138.623612,-520.370963,-0.006000,-0.008000,1.002000,192.000000,127.500000,104.000000,127.500000,96.000000,15.500000,40.000000,0.000000,0.000000,0.000000,1771417704.618441,0.000000
134.000000,11072.227189,27447.338694,-105.209661,2112.485720,4270.971331,15012.705626,-5376.108632,-3557.414241,2675.794384,-3946.245187,2939.500265,-2611.264898,14742.584794,17016.539516,-13094.613027,-562.436946,-0.006000,-0.008000,1.002000,192.000000,0.000000,0.000000,0.000000,0.000000,0.000000,0.000000,0.000000,0.000000,0.000000,1771417704.618452,0.000000
136.000000,11042.477017,27421.254208,-158.809144,2066.038795,4076.444099,14945.046895,-5407.982219,-3582.627008,2670.206448,-3962.137277,2926.424495,-2549.931711,14754.811198,16993.696033,-13121.345713,-541.694527,-0.006000,-0.008000,1.002000,192.000000,0.000000,0.000000,0.000000,0.000000,0.000000,0.000000,0.000000,0.000000,0.000000,1771417704.618463,0.000000
138.000000,11059.330232,27442.063682,-106.863690,2114.072694,4279.889677,14992.969035,-5378.410861,-3562.063403,2646.401840,-3967.702862,2919.808378,-2571.836421,14684.872590,16983.302472,-13115.578963,-538.989966,-0.006000,-0.008000,1.002000,192.000000,0.000000,0.000000,0.000000,0.000000,0.000000,0.000000,0.000000,0.000000,0.000000,1771417704.618474,0.000000
140.000000,11054.770476,27442.533069,-140.815990,2090.603362,4159.749050,14956.759209,-5392.067777,-3564.566799,2666.406651,-3940.925472,2940.863721,-2590.164851,14730.805425,17029.168252,-13118.641152,-571.556457,-0.006000,-0.008000,1.002000,192.000000,0.000000,0.000000,0.000000,0.000000,0.000000,0.000000,0.000000,0.000000,0.000000,1771417704.618484,0.000000
142.000000,11049.629575,27433.011226,-142.246502,2086.535345,4143.052297,14938.855462,-5394.839393,-3570.154735,2650.089878,-3969.736870,2913.460483,-2525.210682,14705.302084,16994.612455,-13141.037600,-559.531219,-0.006000,-0.008000,1.002000,192.000000,0.000000,0.000000,127.500000,88.000000,15.500000,56.000000,0.000000,0.000000,0.000000,1771417704.618495,0.000000
144.000000,11069.097944,27453.105444,-108.897699,2120.018258,4255.503923,14978.932140,-5374.678120,-3552.452153,2671.636960,-3949.665004,2939.232044,-2608.895613,14720.233049,17014.885487,-13125.771359,-580.027769,-0.006000,-0.008000,1.002000,192.000000,0.000000,0.000000,0.000000,0.000000,0.000000,0.000000,0.000000,0.000000,0.000000,1771417704.618506,0.000000
146.000000,11050.791866,27434.777014,-166.855772,2071.179696,4070.520886,14936.754398,-5405.344713,-3574.893305,2656.080145,-3958.181019,2928.950242,-2549.149400,14714.533355,17006.637693,-13146.044391,-567.466088,-0.006000,-0.008000,1.002000,192.000000,0.000000,0.000000,0.000000,0.000000,0.000000,0.000000,0.000000,0.000000,0.000000,1771417704.618522,0.000000
148.000000,11079.491506,27456.704075,-101.700437,2099.275839,4279.844973,15006.290675,-5373.851105,-3548.317081,2667.814811,-3964.260693,2929.553739,-2570.316502,14735.454587,16994.187772,-13133.125083,-568.471917,-0.006000,-0.008000,1.002000,192.000000,0.000000,0.000000,0.000000,0.000000,0.000000,0.000000,0.000000,0.000000,0.000000,1771417704.618534,0.000000
150.000000,11059.844322,27441.683703,-142.045336,2080.880354,4168.220361,14957.228596,-5396.783995,-3568.746575,2686.947904,-3943.585329,2949.804419,-2595.439863,14724.323419,17002.435565,-13124.497309,-588.454376,-0.006000,-0.008000,1.002000,192.000000,0.000000,0.000000,0.000000,0.000000,0.000000,0.000000,0.000000,0.000000,0.000000,1771417704.618545,0.000000
152.000000,11065.342851,27444.164746,-134.535150,2082.199106,4148.036736,14954.054648,-5394.973504,-3565.885552,2662.629206,-3969.893333,2915.539195,-2533.570234,14727.765587,17004.290760,-13147.139626,-556.066699,0.000000,-0.009000,1.004000,192.000000,0.000000,24.000000,127.500000,88.000000,15.500000,56.000000,0.000000,0.000000,0.000000,1771417704.618556,0.000000
154.000000,11080.050299,27456.748778,-102.013362,2095.990133,4273.854706,15006.044806,-5376.041576,-3551.602787,2692.200564,-3942.981832,2950.832600,-2613.544776,14751.078457,17013.432624,-13127.671257,-582.397054,0.000000,-0.009000,1.004000,192.000000,0.000000,0.000000,0.000000,0.000000,0.000000,0.000000,0.000000,0.000000,0.000000,1771417704.618567,0.000000
156.000000,11056.558616,27438.912086,-163.592418,2066.284664,4085.742424,14940.733008,-5404.025960,-3573.932180,2678.364835,-3953.397745,2932.168893,-2552.591569,14736.661582,17007.844687,-13139.160054,-553.786821,0.000000,-0.009000,1.004000,192.000000,0.000000,0.000000,0.000000,0.000000,0.000000,0.000000,0.000000,0.000000,0.000000,1771417704.618578,0.000000
158.000000,11085.481773,27467.879947,-99.197042,2110.786988,4286.170517,15010.783376,-5369.559570,-3548.361784,2674.721500,-3955.498809,2931.408934,-2566.606112,14732.392398,16983.905969,-13128.274754,-553.853876,0.000000,-0.009000,1.004000,192.000000,0.000000,0.000000,0.000000,0.000000,0.000000,0.000000,0.000000,0.000000,0.000000,1771417704.618589,0.000000
160.000000,11063.666470,27449.864441,-145.040470,2087.340008,4159.592588,14976.987538,-5391.084300,-3566.623159,2691.887640,-3931.873015,2948.329204,-2590.388368,14771.083268,17028.095368,-13127.403036,-559.978254,0.000000,-0.009000,1.004000,192.000000,0.000000,0.000000,0.000000,0.000000,0.000000,0.000000,0.000000,0.000000,0.000000,1771417704.618600,0.000000
162.000000,11066.862770,27448.255116,-134.959833,2085.775386,4145.600396,14959.352012,-5390.011417,-3565.237351,2659.075279,-3962.874885,2918.936660,-2529.435161,14689.052366,16983.011899,-13144.368010,-537.671213,0.002000,-0.010500,1.006000,192.000000,0.000000,16.000000,127.500000,80.000000,15.500000,64.000000,0.000000,0.000000,0.000000,1771417704.618611,0.000000
164.000000,11076.608131,27460.190947,-106.550766,2107.903613,4260.443659,14997.104108,-5373.314664,-3554.821438,2686.433814,-3937.751524,2947.546893,-2606.146348,14727.810291,17019.981685,-13130.889908,-577.993760,0.002000,-0.010500,1.006000,192.000000,0.000000,0.000000,0.000000,0.000000,0.000000,0.000000,0.000000,0.000000,0.000000,1771417704.618622,0.000000
166.000000,11054.010517,27441.549592,-173.114261,2071.693787,4069.917389,14927.456072,-5406.976391,-3579.721281,2668.217143,-3962.025519,2925.128093,-2554.804391,14713.751044,16996.981740,-13157.510836,-551.931626,0.002000,-0.010500,1.006000,192.000000,0.000000,0.000000,0.000000,0.000000,0.000000,0.000000,0.000000,0.000000,0.000000,1771417704.618633,0.000000
168.000000,11074.104735,27455.541784,-111.468150,2120.666459,4264.221104,14982.888399,-5376.779184,-3557.257778,2664.126773,-3960.416193,2922.915271,-2573.937484,14730.403093,17008.515240,-13143.295126,-554.524428,0.002000,-0.010500,1.006000,192.000000,0.000000,0.000000,0.000000,0.000000,0.000000,0.000000,0.000000,0.000000,0.000000,1771417704.618643,0.000000
170.000000,11062.884159,27447.830432,-150.293130,2092.682075,4140.034812,14954.278166,-5395.532298,-3568.612465,2683.081053,-3943.048888,2942.651861,-2598.412645,14699.021244,16986.096440,-13138.824777,-569.701263,0.002000,-0.010500,1.006000,192.000000,0.000000,0.000000,0.000000,0.000000,0.000000,0.000000,0.000000,0.000000,0.000000,1771417704.618654,0.000000
172.000000,11069.656738,27453.619534,-152.170676,2093.777310,4144.952195,14946.365648,-5394.705283,-3563.717432,2667.725404,-3966.562923,2919.875433,-2531.044487,14702.619875,16992.086708,-13158.606071,-554.837353,0.002000,-0.011250,1.006000,192.000000,0.000000,8.000000,127.500000,80.000000,15.500000,56.000000,0.000000,0.000000,0.000000,1771417704.618666,0.000000
174.000000,11084.811221,27471.836206,-110.775246,2116.397275,4267.730328,14993.885457,-5370.543047,-3541.969185,2684.556268,-3938.712649,2951.145524,-2603.777063,14749.156207,17015.220763,-13143.161016,-564.448603,0.002000,-0.011250,1.006000,192.000000,0.000000,0.000000,0.000000,0.000000,0.000000,0.000000,0.000000,0.000000,0.000000,1771417704.618677,0.000000
176.000000,11065.655776,27454.223031,-160.507877,2056.695766,4076.891133,14933.736912,-5401.321399,-3565.505572,2676.219067,-3954.068298,2936.840407,-2545.550769,14701.479936,16991.527914,-13146.513778,-561.744042,0.002000,-0.011250,1.006000,192.000000,0.000000,0.000000,0.000000,0.000000,0.000000,0.000000,0.000000,0.000000,0.000000,1771417704.618688,0.000000
178.000000,11094.824802,27473.691401,-101.253402,2098.851156,4277.676854,14991.203247,-5366.966768,-3539.376383,2680.376492,-3943.920606,2940.126114,-2561.755784,14721.551802,16996.445298,-13144.345658,-552.512771,0.002000,-0.011250,1.006000,192.000000,0.000000,0.000000,0.000000,0.000000,0.000000,0.000000,0.000000,0.000000,0.000000,1771417704.618700,0.000000
180.000000,11072.294244,27452.881927,-141.844170,2073.861906,4162.274797,14951.573605,-5386.882172,-3557.682461,2690.747701,-3949.396783,2952.754850,-2598.412645,14741.266041,17012.158574,-13130.107597,-555.507905,0.002000,-0.011250,1.006000,192.000000,0.000000,0.000000,0.000000,0.000000,0.000000,0.000000,0.000000,0.000000,0.000000,1771417704.618711,0.000000
182.000000,11083.090136,27464.750703,-134.110467,2070.062109,4159.123201,14961.967166,-5384.199963,-3552.139229,2677.984855,-3971.904990,2932.615928,-2529.099885,14749.200910,16971.903082,-13152.280528,-538.721745,0.002000,-0.011250,1.006000,192.000000,0.000000,0.000000,127.500000,80.000000,15.500000,48.000000,0.000000,0.000000,0.000000,1771417704.618721,0.000000
184.000000,11090.779137,27474.652526,-102.818024,2100.505185,4291.154956,14980.273244,-5367.771431,-3544.293767,2701.208317,-3932.610623,2963.081355,-2603.441787,14733.867614,17025.569621,-13129.951135,-573.501059,0.002000,-0.011250,1.006000,192.000000,0.000000,0.000000,0.000000,0.000000,0.000000,0.000000,0.000000,0.000000,0.000000,1771417704.618732,0.000000
186.000000,11063.912340,27449.171537,-157.825668,2057.142801,4083.641360,14928.551308,-5400.360274,-3574.803898,2682.544611,-3950.067335,2939.299099,-2547.808295,14725.664523,16993.807792,-13139.763551,-567.980178,0.002000,-0.011250,1.006000,192.000000,0.000000,0.000000,0.000000,0.000000,0.000000,0.000000,0.000000,0.000000,0.000000,1771417704.618743,0.000000
188.000000,11082.151363,27461.330886,-99.241745,2092.816185,4266.210409,14991.829096,-5370.945379,-3554.352052,2673.581561,-3965.780612,2932.325355,-2575.949141,14734.784035,16970.852550,-13147.050219,-554.524428,0.002000,-0.011250,1.006000,192.000000,0.000000,0.000000,0.000000,0.000000,0.000000,0.000000,0.000000,0.000000,0.000000,1771417704.618754,0.000000
190.000000,11068.539151,27451.607877,-136.815028,2083.651970,4148.863751,14936.821453,-5389.676141,-3566.377290,2692.401730,-3948.122734,2948.038631,-2597.116243,14737.823872,17011.264504,-13140.322344,-576.943228,0.002000,-0.011250,1.006000,192.000000,0.000000,0.000000,0.000000,0.000000,0.000000,0.000000,0.000000,0.000000,0.000000,1771417704.618765,0.000000
192.000000,11073.322424,27456.860537,-131.227092,2082.512031,4132.569329,14945.918613,-5386.770414,-3561.191685,2670.474669,-3966.317054,2926.804474,-2528.675202,14701.748157,16974.875864,-13159.477789,-569.790670,-0.001000,-0.012625,1.005000,192.000000,127.500000,112.000000,127.500000,72.000000,15.500000,48.000000,0.000000,0.000000,0.000000,1771417704.618776,0.000000
194.000000,11082.933674,27465.577717,-110.104693,2112.150444,4254.073412,14971.019622,-5371.906504,-3553.726203,2694.323980,-3934.756390,2956.219370,-2604.961706,14759.415657,17032.476310,-13141.439932,-590.242516,-0.001000,-0.012625,1.005000,192.000000,0.000000,0.000000,0.000000,0.000000,0.000000,0.000000,0.000000,0.000000,0.000000,1771417705.099602,0.000000
196.000000,11052.669412,27437.548630,-171.080252,2067.066975,4062.653072,14926.785520,-5406.931687,-3585.219811,2671.659311,-3963.299568,2927.832654,-2556.369013,14737.443893,16990.969120,-13152.302879,-558.994777,-0.001000,-0.012625,1.005000,192.000000,0.000000,0.000000,0.000000,0.000000,0.000000,0.000000,0.000000,0.000000,0.000000,1771417705.099665,0.000000
198.000000,11074.931750,27462.403770,-112.116350,2114.318563,4265.584560,14999.361634,-5377.360329,-3562.421031,2663.344462,-3955.565865,2919.763675,-2574.272761,14713.192250,16997.384071,-13151.811141,-550.858742,-0.001000,-0.012625,1.005000,192.000000,0.000000,0.000000,0.000000,0.000000,0.000000,0.000000,0.000000,0.000000,0.000000,1771417705.099708,0.000000
200.000000,11060.358412,27453.150148,-153.288263,2077.616999,4150.093097,14962.414201,-5397.946286,-3575.161526,2675.347349,-3942.423039,2935.186378,-2605.498148,14729.352561,17012.672664,-13135.650830,-554.882056,-0.001000,-0.012625,1.005000,192.000000,0.000000,0.000000,0.000000,0.000000,0.000000,0.000000,0.000000,0.000000,0.000000,1771417705.099750,0.000000
202.000000,11068.896779,27456.592316,-146.292167,2085.350702,4144.706326,14956.692154,-5392.090129,-3567.137249,2659.499962,-3961.310263,2913.482835,-2533.704344,14699.691796,16981.737850,-13155.230958,-541.739230,-0.003500,-0.013313,1.005500,192.000000,127.500000,104.000000,127.500000,72.000000,15.500000,56.000000,0.000000,0.000000,0.000000,1771417705.099792,0.000000
204.000000,11071.489581,27456.011171,-115.826740,2102.919174,4273.988816,14985.101221,-5375.661597,-3558.643586,2684.176288,-3949.240321,2942.070716,-2619.065657,14761.874349,17018.417063,-13127.470091,-559.508867,-0.003500,-0.013313,1.005500,192.000000,0.000000,0.000000,0.000000,0.000000,0.000000,0.000000,0.000000,0.000000,0.000000,1771417705.099833,0.000000
206.000000,11055.731601,27448.948020,-165.179392,2056.695766,4082.054386,14935.793273,-5403.668333,-3576.569686,2661.265750,-3967.345234,2921.730628,-2566.851982,14721.797672,16970.763143,-13137.416618,-547.975367,-0.003500,-0.013313,1.005500,192.000000,0.000000,0.000000,0.000000,0.000000,0.000000,0.000000,0.000000,0.000000,0.000000,1771417705.099862,0.000000
208.000000,11094.087195,27480.709848,-94.972562,2094.872546,4278.034482,14998.154640,-5364.977463,-3542.393868,2674.810907,-3961.042042,2930.805436,-2577.804336,14716.097977,16992.801963,-13137.483673,-553.853876,-0.003500,-0.013313,1.005500,192.000000,0.000000,0.000000,0.000000,0.000000,0.000000,0.000000,0.000000,0.000000,0.000000,1771417705.099876,0.000000
210.000000,11065.968700,27458.313401,-140.815990,2055.846400,4161.134858,14951.037163,-5388.670312,-3565.103241,2698.749626,-3936.611585,2956.576998,-2595.708084,14769.563349,17012.896182,-13134.577946,-579.893658,-0.003500,-0.013313,1.005500,192.000000,0.000000,0.000000,0.000000,0.000000,0.000000,0.000000,0.000000,0.000000,0.000000,1771417705.099898,0.000000
212.000000,11059.643156,27455.385322,-142.849999,2055.019385,4141.957062,14936.061494,-5392.023074,-3572.881648,2650.671023,-3980.957446,2909.057189,-2549.752897,14699.043596,16978.899178,-13149.173635,-547.081297,-0.003500,-0.013313,1.005500,192.000000,0.000000,0.000000,0.000000,0.000000,0.000000,0.000000,0.000000,0.000000,0.000000,1771417705.099911,0.000000
214.000000,11079.625616,27470.450398,-109.545900,2088.368188,4263.081165,14977.658090,-5370.565399,-3554.150886,2679.147146,-3956.795210,2942.808323,-2622.641936,14764.109524,16988.242208,-13141.238766,-586.398016,-0.010000,-0.010000,1.008000,192.000000,127.500000,88.000000,127.500000,88.000000,15.500000,64.000000,0.000000,0.000000,0.000000,1771417705.099924,0.000000
216.000000,11057.162113,27452.434892,-166.162868,2044.357603,4061.401375,14921.644619,-5399.622667,-3577.284941,2665.758451,-3969.625112,2925.508073,-2559.833534,14715.025093,16977.267501,-13153.241653,-587.605010,-0.010000,-0.010000,1.008000,192.000000,0.000000,0.000000,0.000000,0.000000,0.000000,0.000000,0.000000,0.000000,0.000000,1771417705.099937,0.000000
218.000000,11073.143610,27468.751665,-111.311687,2097.890031,4253.648729,14971.913692,-5369.268998,-3558.800049,2659.768183,-3958.784516,2920.881262,-2576.284418,14697.367215,16988.353966,-13152.593452,-576.809117,-0.010000,-0.010000,1.008000,192.000000,0.000000,0.000000,0.000000,0.000000,0.000000,0.000000,0.000000,0.000000,0.000000,1771417705.099950,0.000000
220.000000,11072.361299,27468.505796,-145.040470,2072.721967,4133.686916,14940.509491,-5387.060986,-3564.544447,2673.067471,-3948.323899,2934.068791,-2603.911174,14740.103750,16993.763088,-13151.028830,-582.374702,-0.010000,-0.010000,1.008000,192.000000,0.000000,0.000000,0.000000,0.000000,0.000000,0.000000,0.000000,0.000000,0.000000,1771417705.099963,0.000000
222.000000,11066.773363,27463.901337,-147.834438,2074.867734,4111.044599,14947.818511,-5392.023074,-3572.859296,2669.692358,-3956.929321,2918.556681,-2526.909414,14715.740349,17000.267446,-13178.119144,-554.390318,-0.010000,-0.010000,1.008000,192.000000,0.000000,0.000000,0.000000,0.000000,0.000000,0.000000,0.000000,0.000000,0.000000,1771417705.099976,0.000000
224.000000,11066.616901,27464.258965,-120.431199,2088.926982,4270.703110,14984.833000,-5378.544972,-3568.008967,2669.893523,-3946.066373,2930.224291,-2622.418418,14729.240802,17010.057510,-13130.800501,-559.307702,-0.006000,-0.012000,1.008000,192.000000,127.500000,104.000000,127.500000,80.000000,15.500000,64.000000,0.000000,0.000000,0.000000,1771417705.099989,0.000000
226.000000,11048.377877,27443.605953,-167.459269,2052.203065,4081.137965,14941.336506,-5406.886984,-3585.130404,2657.108326,-3959.991510,2913.393428,-2564.348586,14753.000707,17012.672664,-13134.779112,-535.391335,-0.006000,-0.012000,1.008000,192.000000,0.000000,0.000000,0.000000,0.000000,0.000000,0.000000,0.000000,0.000000,0.000000,1771417705.100002,0.000000
228.000000,11085.682939,27475.613651,-97.140681,2103.209746,4286.259924,15002.289713,-5370.945379,-3553.703851,2672.620436,-3954.291815,2925.351611,-2573.825726,14706.844354,16992.801963,-13141.931670,-530.742172,-0.006000,-0.012000,1.008000,192.000000,0.000000,0.000000,0.000000,0.000000,0.000000,0.000000,0.000000,0.000000,0.000000,1771417705.100015,0.000000
230.000000,11077.502200,27471.210357,-129.863635,2072.252580,4173.718890,14965.163465,-5386.613952,-3561.817534,2695.128643,-3929.257861,2949.357384,-2594.366979,14748.060971,17026.575449,-13126.173690,-554.300911,-0.006000,-0.012000,1.008000,192.000000,0.000000,0.000000,0.000000,0.000000,0.000000,0.000000,0.000000,0.000000,0.000000,1771417705.100028,0.000000
232.000000,11078.955064,27471.053895,-128.746048,2073.727795,4168.600341,14964.671727,-5384.937571,-3561.526962,2677.180192,-3955.275292,2925.597480,-2529.189292,14742.785960,16988.219856,-13141.551690,-540.487533,-0.006000,-0.012000,1.008000,192.000000,0.000000,0.000000,0.000000,0.000000,0.000000,0.000000,0.000000,0.000000,0.000000,1771417705.100041,0.000000
234.000000,11089.527439,27482.073305,-99.688780,2090.960990,4292.183136,14996.522963,-5366.698547,-3548.227674,2698.079073,-3931.470684,2953.157181,-2607.733322,14793.390309,17027.961257,-13119.848146,-571.690568,-0.006000,-0.012000,1.008000,192.000000,0.000000,0.000000,127.500000,88.000000,15.500000,72.000000,0.000000,0.000000,0.000000,1771417705.100054,0.000000
236.000000,11063.062973,27457.911069,-158.518572,2044.379955,4092.760872,14930.294744,-5398.080396,-3574.490973,2684.243343,-3948.480362,2932.481817,-2553.396231,14753.403038,17006.972969,-13146.491426,-563.085146,-0.006000,-0.012000,1.008000,192.000000,0.000000,0.000000,0.000000,0.000000,0.000000,0.000000,0.000000,0.000000,0.000000,1771417705.100067,0.000000
238.000000,11066.572197,27456.659371,-109.791769,2083.249638,4260.644825,14981.994329,-5373.605236,-3567.517229,2675.213239,-3961.466725,2923.876396,-2581.335912,14734.448759,16978.854475,-13141.529339,-577.300856,-0.006000,-0.012000,1.008000,192.000000,0.000000,0.000000,0.000000,0.000000,0.000000,0.000000,0.000000,0.000000,0.000000,1771417705.100080,0.000000
240.000000,11054.189331,27446.019941,-148.817915,2063.602455,4157.558579,14935.748569,-5393.520641,-3577.888438,2670.273503,-3962.114926,2926.960936,-2617.344572,14737.578003,17012.493850,-13143.920975,-564.605065,-0.006000,-0.012000,1.008000,192.000000,0.000000,0.000000,0.000000,0.000000,0.000000,0.000000,0.000000,0.000000,0.000000,1771417705.100093,0.000000
242.000000,11057.296223,27449.350351,-145.286339,2072.207877,4134.357468,14938.989572,-5392.894792,-3576.368520,2659.321148,-3975.213048,2908.319582,-2539.672260,14731.654791,16988.756298,-13162.428220,-546.410745,-0.006000,-0.012000,1.008000,192.000000,0.000000,0.000000,0.000000,0.000000,0.000000,0.000000,0.000000,0.000000,0.000000,1771417705.100107,0.000000
244.000000,11087.381671,27479.279337,-114.262118,2097.890031,4274.279389,14988.275169,-5371.012434,-3552.116877,2687.596105,-3941.998356,2937.555663,-2617.188110,14764.176579,17010.549249,-13141.663449,-578.709016,-0.004000,-0.012000,1.012000,192.000000,127.500000,112.000000,127.500000,80.000000,15.500000,80.000000,0.000000,0.000000,0.000000,1771417705.100121,0.000000
246.000000,11065.946348,27460.749741,-166.028758,2050.817257,4074.186572,14930.607668,-5401.187289,-3574.178049,2679.147146,-3947.251016,2930.537216,-2551.250464,14781.186257,16991.393804,-13150.090057,-560.469992,-0.004000,-0.012000,1.012000,192.000000,0.000000,0.000000,0.000000,0.000000,0.000000,0.000000,0.000000,0.000000,0.000000,1771417705.100134,0.000000
248.000000,11096.367073,27489.091753,-102.952135,2113.960935,4274.994645,15001.239181,-5367.592617,-3546.126610,2682.566963,-3944.546454,2932.235948,-2564.594455,14758.163960,17007.867039,-13144.949155,-551.462239,-0.004000,-0.012000,1.012000,192.000000,0.000000,0.000000,0.000000,0.000000,0.000000,0.000000,0.000000,0.000000,0.000000,1771417705.100147,0.000000
250.000000,11077.278683,27472.327944,-146.269816,2085.998903,4164.174696,14958.793218,-5389.474975,-3560.856409,2696.872079,-3925.279251,2950.296158,-2589.337836,14779.264007,17029.995266,-13136.723713,-554.993815,-0.004000,-0.012000,1.012000,192.000000,0.000000,0.000000,0.000000,0.000000,0.000000,0.000000,0.000000,0.000000,0.000000,1771417705.100159,0.000000
252.000000,11075.311729,27462.560232,-138.133781,2075.739452,4168.935617,14961.654241,-5392.067777,-3564.052709,2674.430928,-3958.315129,2921.060076,-2531.089190,14731.207756,16978.139219,-13146.424371,-534.787838,-0.004000,-0.012000,1.012000,192.000000,0.000000,0.000000,0.000000,0.000000,0.000000,0.000000,0.000000,0.000000,0.000000,1771417705.100172,0.000000
254.000000,11084.498296,27468.058761,-106.237841,2094.671380,4288.226877,15001.507402,-5375.192210,-3553.346223,2701.141262,-3935.695164,2952.933663,-2616.539909,14789.612864,17020.629885,-13117.411806,-562.459297,-0.004000,-0.016000,1.008000,192.000000,127.500000,112.000000,127.500000,64.000000,15.500000,64.000000,0.000000,0.000000,0.000000,1771417705.100185,0.000000
0.000000,11061.096020,27449.059778,-156.708080,2039.037888,4103.847337,14939.168386,-5406.641115,-3577.687273,2672.374567,-3965.981777,2926.200977,-2572.574028,14742.942422,16987.571655,-13123.938516,-540.286367,-0.004000,-0.016000,1.008000,192.000000,0.000000,0.000000,0.000000,0.000000,0.000000,0.000000,0.000000,0.000000,0.000000,1771417705.100198,0.000000
2.000000,11086.308788,27474.227843,-97.252440,2084.322522,4308.678723,15003.831983,-5372.353539,-3548.965281,2689.764224,-3948.413306,2939.388506,-2580.061862,14774.413678,16990.790306,-13132.789806,-557.676024,-0.004000,-0.016000,1.008000,192.000000,0.000000,0.000000,0.000000,0.000000,0.000000,0.000000,0.000000,0.000000,0.000000,1771417705.100210,0.000000
4.000000,11060.179598,27455.362970,-149.555522,2068.162211,4171.886047,14946.656221,-5392.201888,-3568.500706,2681.337617,-3948.636824,2942.853027,-2614.662363,14783.354376,17006.816507,-13119.311705,-559.173591,-0.004000,-0.016000,1.008000,192.000000,0.000000,0.000000,0.000000,0.000000,0.000000,0.000000,0.000000,0.000000,0.000000,1771417705.100235,0.000000
6.000000,11066.393383,27460.414465,-145.711022,2064.340063,4147.835570,14956.870968,-5389.318513,-3563.516267,2664.707919,-3963.590141,2917.103817,-2537.213568,14746.339887,16976.999280,-13160.193045,-545.695489,-0.004000,-0.016000,1.008000,192.000000,0.000000,0.000000,0.000000,0.000000,0.000000,0.000000,0.000000,0.000000,0.000000,1771417705.100248,0.000000
8.000000,11079.290340,27475.568947,-117.972507,2089.038740,4259.884865,14985.771774,-5371.615931,-3552.899188,2684.086881,-3939.629071,2940.886073,-2617.121055,14771.686765,16993.427812,-13132.812158,-568.896600,-0.004000,-0.016000,1.008000,192.000000,127.500000,112.000000,127.500000,64.000000,15.500000,64.000000,0.000000,0.000000,0.000000,1771417705.100261,0.000000
10.000000,11079.849133,27469.422218,-168.621560,2053.700632,4081.070910,14927.813700,-5403.310705,-3571.674653,2686.456166,-3945.239359,2928.033820,-2550.937539,14738.762646,16990.365623,-13157.041449,-559.799440,-0.004000,-0.016000,1.008000,192.000000,0.000000,0.000000,0.000000,0.000000,0.000000,0.000000,0.000000,0.000000,0.000000,1771417705.100275,0.000000
12.000000,11072.070726,27473.333773,-111.088170,2096.861851,4286.550496,14984.229503,-5371.213600,-3553.010947,2680.398843,-3953.509504,2926.089218,-2570.003577,14770.613881,16994.321882,-13157.801409,-561.811097,-0.004000,-0.016000,1.008000,192.000000,0.000000,0.000000,0.000000,0.000000,0.000000,0.000000,0.000000,0.000000,0.000000,1771417705.100288,0.000000
14.000000,11081.279645,27474.831340,-150.091964,2078.779290,4156.105716,14962.570663,-5390.503155,-3563.158639,2685.316227,-3925.368658,2938.673251,-2594.568145,14754.118294,17017.075958,-13154.403943,-579.021940,-0.004000,-0.016000,1.008000,192.000000,0.000000,0.000000,0.000000,0.000000,0.000000,0.000000,0.000000,0.000000,0.000000,1771417705.100302,0.000000
16.000000,11067.555674,27456.748778,-146.448630,2078.399310,4154.183466,14963.822360,-5390.972542,-3569.618293,2672.799250,-3958.002205,2916.321506,-2528.004650,14754.945309,16982.989548,-13176.331005,-546.500152,-0.004000,-0.016000,1.008000,192.000000,0.000000,0.000000,0.000000,0.000000,0.000000,0.000000,0.000000,0.000000,0.000000,1771417705.100314,0.000000
18.000000,11086.577009,27476.954755,-118.508949,2095.431339,4286.058758,15006.603599,-5377.136812,-3561.839886,2688.892506,-3937.595062,2938.114457,-2614.572956,14770.256254,17018.707635,-13135.851995,-575.378606,-0.004000,-0.010000,1.008000,192.000000,127.500000,112.000000,127.500000,88.000000,15.500000,64.000000,0.000000,0.000000,0.000000,1771417705.100329,0.000000
20.000000,11059.687860,27462.068494,-178.389272,2056.584007,4085.541259,14958.256776,-5408.652772,-3583.275209,2664.059718,-3958.762164,2910.733570,-2561.241694,14743.769436,16979.368565,-13152.839321,-534.497265,-0.004000,-0.010000,1.008000,192.000000,0.000000,0.000000,0.000000,0.000000,0.000000,0.000000,0.000000,0.000000,0.000000,1771417705.100342,0.000000
22.000000,11086.822878,27482.453285,-119.358315,2086.289476,4325.330773,15007.385910,-5380.802498,-3565.058537,2663.925608,-3949.933225,2910.800625,-2576.776156,14765.562387,17002.435565,-13138.489501,-524.394277,-0.004000,-0.010000,1.008000,192.000000,0.000000,0.000000,0.000000,0.000000,0.000000,0.000000,0.000000,0.000000,0.000000,1771417705.100355,0.000000
24.000000,11060.045488,27455.161805,-148.996729,2050.839609,4190.460347,14954.479331,-5400.807309,-3582.314084,2679.325960,-3948.346251,2925.865701,-2614.997639,14776.425335,17001.675606,-13106.191231,-549.696451,-0.004000,-0.010000,1.008000,192.000000,0.000000,0.000000,0.000000,0.000000,0.000000,0.000000,0.000000,0.000000,0.000000,1771417705.100368,0.000000
26.000000,11071.064898,27460.123892,-150.561351,2062.529571,4171.014329,14951.148921,-5399.779129,-3579.922447,2649.419326,-3981.516240,2895.333218,-2550.579912,14734.739332,16960.011954,-13140.545862,-524.707201,-0.004000,-0.010000,1.008000,192.000000,0.000000,0.000000,0.000000,0.000000,0.000000,0.000000,0.000000,0.000000,0.000000,1771417705.100380,0.000000
28.000000,11103.944314,27494.366764,-111.490501,2086.915325,4291.959619,14988.476335,-5375.795707,-3553.569740,2694.413387,-3943.451219,2937.130980,-2620.987907,14801.951027,16990.589141,-13126.330152,-562.481649,-0.005000,-0.009000,1.007000,192.000000,127.500000,104.000000,127.500000,96.000000,15.500000,56.000000,0.000000,0.000000,0.000000,1771417705.100393,0.000000
30.000000,11077.971587,27470.182177,-169.023892,2045.564597,4090.972732,14923.991552,-5406.976391,-3577.597866,2684.600971,-3950.268501,2924.077561,-2554.446763,14754.900605,17002.793193,-13145.306783,-559.777088,-0.005000,-0.009000,1.007000,192.000000,0.000000,0.000000,0.000000,0.000000,0.000000,0.000000,0.000000,0.000000,0.000000,1771417705.100406,0.000000
32.000000,11107.855869,27495.394945,-104.963792,2087.027083,4292.071377,14984.698890,-5371.995911,-3548.764115,2680.912933,-3954.537684,2920.344820,-2573.266932,14771.284434,16970.204350,-13140.031772,-556.111402,-0.005000,-0.009000,1.007000,192.000000,0.000000,0.000000,0.000000,0.000000,0.000000,0.000000,0.000000,0.000000,0.000000,1771417705.100419,0.000000
34.000000,11103.787852,27496.892511,-140.056031,2070.464441,4171.461364,14954.881663,-5384.423481,-3548.004156,2705.097521,-3930.598966,2952.754850,-2590.276610,14770.949158,17018.819394,-13143.272775,-577.099690,-0.005000,-0.009000,1.007000,192.000000,0.000000,0.000000,0.000000,0.000000,0.000000,0.000000,0.000000,0.000000,0.000000,1771417705.100432,0.000000
36.000000,11093.215477,27483.660279,-139.497237,2057.299263,4147.768515,14950.545424,-5389.698492,-3559.850581,2684.064529,-3954.403574,2928.659669,-2522.081437,14749.200910,16977.602777,-13174.654624,-565.208562,-0.005000,-0.009000,1.007000,192.000000,0.000000,0.000000,0.000000,0.000000,0.000000,0.000000,0.000000,0.000000,0.000000,1771417705.100445,0.000000
38.000000,11105.754805,27496.132552,-115.245594,2083.115528,4270.457240,14968.426820,-5372.554704,-3549.032336,2694.100463,-3946.625167,2944.238835,-2619.222119,14784.069632,16998.836934,-13139.987068,-595.428121,-0.005000,-0.009000,1.007000,192.000000,0.000000,0.000000,127.500000,88.000000,15.500000,56.000000,0.000000,0.000000,0.000000,1771417705.100458,0.000000
40.000000,11083.000729,27475.971279,-168.509801,2049.520856,4066.721090,14905.394900,-5403.824795,-3573.865124,2685.092710,-3950.894350,2925.441018,-2554.312653,14766.948195,16991.550266,-13160.394211,-585.123966,-0.005000,-0.009000,1.007000,192.000000,0.000000,0.000000,0.000000,0.000000,0.000000,0.000000,0.000000,0.000000,0.000000,1771417705.100471,0.000000
42.000000,11110.046340,27499.619424,-106.751932,2096.727740,4267.998549,14979.490933,-5370.565399,-3548.473543,2682.030521,-3948.078030,2925.888053,-2569.914170,14762.857826,16967.030402,-13163.702269,-570.617684,-0.005000,-0.009000,1.007000,192.000000,0.000000,0.000000,0.000000,0.000000,0.000000,0.000000,0.000000,0.000000,0.000000,1771417705.100483,0.000000
44.000000,11088.901590,27482.609747,-145.778077,2068.095156,4162.498315,14936.508529,-5394.213545,-3569.014796,2692.267620,-3938.735001,2938.561492,-2599.731398,14769.362184,17002.726138,-13141.596394,-580.743024,-0.005000,-0.009000,1.007000,192.000000,0.000000,0.000000,0.000000,0.000000,0.000000,0.000000,0.000000,0.000000,0.000000,1771417705.100496,0.000000
46.000000,11092.477869,27486.253081,-140.614824,2064.742394,4161.336024,14944.577509,-5396.001684,-3570.512363,2663.322111,-3964.998301,2907.604326,-2538.465266,14751.056105,16962.805922,-13159.678955,-549.607044,-0.005000,-0.009000,1.007000,192.000000,0.000000,0.000000,0.000000,0.000000,0.000000,0.000000,0.000000,0.000000,0.000000,1771417705.100508,0.000000
48.000000,11111.387445,27498.345375,-104.807330,2090.089272,4285.388206,14986.330567,-5374.432251,-3553.837961,2697.922611,-3935.851626,2941.087239,-2614.640011,14776.850018,17013.097347,-13131.135777,-574.216315,-0.005500,-0.008500,1.005500,192.000000,127.500000,104.000000,127.500000,96.000000,15.500000,48.000000,0.000000,0.000000,0.000000,1771417705.100521,0.000000
50.000000,11091.583799,27484.062610,-164.441784,2039.976661,4103.333247,14936.307363,-5406.976391,-3575.049767,2684.042178,-3951.095516,2922.065904,-2558.715947,14771.172675,16975.032327,-13144.189196,-543.303852,-0.005500,-0.008500,1.005500,192.000000,0.000000,0.000000,0.000000,0.000000,0.000000,0.000000,0.000000,0.000000,0.000000,1771417705.100536,0.000000
52.000000,11113.510861,27502.100468,-103.019190,2093.687903,4306.041218,14994.712471,-5374.789879,-3548.875874,2689.406596,-3943.182998,2923.988154,-2568.193086,14764.333041,16998.903990,-13139.428275,-533.670251,-0.005500,-0.008500,1.005500,192.000000,0.000000,0.000000,0.000000,0.000000,0.000000,0.000000,0.000000,0.000000,0.000000,1771417705.100549,0.000000
54.000000,11104.659570,27493.271529,-134.110467,2059.132106,4192.583763,14963.084753,-5393.878268,-3556.810743,2695.910954,-3933.683507,2944.104724,-2599.776101,14794.172620,17019.221725,-13112.315609,-561.095841,-0.005500,-0.008500,1.005500,192.000000,0.000000,0.000000,0.000000,0.000000,0.000000,0.000000,0.000000,0.000000,0.000000,1771417705.100561,0.000000
56.000000,11101.217401,27488.644718,-129.818932,2052.806563,4188.582800,14972.293672,-5396.068739,-3560.185857,2681.672893,-3960.729117,2918.981364,-2535.403077,14762.231977,16975.635824,-13133.661524,-553.093917,-0.005500,-0.008500,1.005500,192.000000,0.000000,0.000000,0.000000,0.000000,0.000000,0.000000,0.000000,0.000000,0.000000,1771417705.100574,0.000000
58.000000,11135.393218,27520.406547,-93.162071,2086.244772,4311.360933,14995.204210,-5370.811268,-3533.140246,2717.748608,-3926.016858,2955.973501,-2614.617659,14843.033533,17001.787365,-13118.104710,-595.025789,-0.004750,-0.011250,1.005750,192.000000,127.500000,112.000000,127.500000,72.000000,15.500000,56.000000,0.000000,0.000000,0.000000,1771417705.580397,0.000000
60.000000,11101.843250,27490.924596,-155.232865,2048.559731,4102.617991,14931.412331,-5402.774263,-3562.890418,2710.081960,-3928.453198,2947.546893,-2545.349603,14797.614789,17032.811586,-13147.743124,-581.167708,-0.004750,-0.011250,1.005750,192.000000,0.000000,0.000000,0.000000,0.000000,0.000000,0.000000,0.000000,0.000000,0.000000,1771417705.580469,0.000000
62.000000,11119.612887,27504.782677,-99.845242,2107.098950,4295.312380,14973.880645,-5371.146544,-3543.332642,2695.530974,-3939.159684,2933.577053,-2568.997749,14744.529396,17008.045853,-13151.341754,-565.588542,-0.004750,-0.011250,1.005750,192.000000,0.000000,0.000000,0.000000,0.000000,0.000000,0.000000,0.000000,0.000000,0.000000,1771417705.580514,0.000000
64.000000,11113.600268,27498.770058,-133.037583,2073.303112,4171.461364,14953.227634,-5385.138736,-3549.300557,2708.003248,-3930.554262,2951.637262,-2595.909249,14782.706175,17000.714481,-13144.837397,-575.736234,-0.004750,-0.011250,1.005750,192.000000,0.000000,0.000000,0.000000,0.000000,0.000000,0.000000,0.000000,0.000000,0.000000,1771417705.580559,0.000000
66.000000,11105.240715,27492.176293,-136.926787,2071.336159,4156.530399,14933.960430,-5389.273809,-3556.162543,2695.061588,-3949.128562,2923.138788,-2527.244690,14785.880123,16985.403536,-13168.440839,-556.245513,-0.004750,-0.011250,1.005750,192.000000,0.000000,0.000000,0.000000,0.000000,0.000000,0.000000,0.000000,0.000000,0.000000,1771417705.580603,0.000000
68.000000,11127.123073,27512.918712,-100.582850,2101.645124,4282.147203,14972.204265,-5367.346748,-3535.062496,2709.947850,-3920.987716,2947.725707,-2608.336819,14792.049204,17018.439414,-13133.661524,-578.865478,-0.003375,-0.008625,1.003875,192.000000,127.500000,120.000000,127.500000,104.000000,15.500000,40.000000,0.000000,0.000000,0.000000,1771417705.580650,0.000000
70.000000,11103.117299,27488.175331,-162.050147,2057.545132,4097.253573,14926.070264,-5396.292257,-3555.849618,2707.265640,-3934.734039,2938.829713,-2542.555635,14807.740129,16999.149859,-13151.229996,-566.683777,-0.003375,-0.008625,1.003875,192.000000,0.000000,0.000000,0.000000,0.000000,0.000000,0.000000,0.000000,0.000000,0.000000,1771417705.580693,0.000000
72.000000,11128.061846,27514.282169,-93.474995,2088.055264,4304.722465,15000.702739,-5364.262207,-3527.597013,2700.537765,-3937.125675,2944.574111,-2561.688729,14764.176579,16990.969120,-13156.169731,-559.508867,-0.003375,-0.008625,1.003875,192.000000,0.000000,0.000000,0.000000,0.000000,0.000000,0.000000,0.000000,0.000000,0.000000,1771417705.580739,0.000000
74.000000,11103.586686,27493.293881,-138.379650,2064.720042,4191.712045,14955.887491,-5386.479841,-3546.685403,2708.092655,-3918.327858,2958.208675,-2589.896630,14786.617730,17026.798967,-13123.446777,-573.568114,-0.003375,-0.008625,1.003875,192.000000,0.000000,0.000000,0.000000,0.000000,0.000000,0.000000,0.000000,0.000000,0.000000,1771417705.580783,0.000000
76.000000,11108.124090,27493.539750,-127.382592,2053.298301,4177.339873,14964.604672,-5388.335036,-3549.457020,2691.440605,-3954.291815,2925.575128,-2533.681993,14763.014288,16972.685393,-13141.797559,-536.598329,-0.003375,-0.008625,1.003875,192.000000,0.000000,0.000000,0.000000,0.000000,0.000000,0.000000,0.000000,0.000000,0.000000,1771417705.580847,0.000000
78.000000,11113.980247,27502.838075,-102.460397,2096.772444,4291.445528,14985.257683,-5368.732556,-3536.716525,2715.714600,-3918.864300,2956.599350,-2609.186186,14785.500143,17021.970990,-13117.635324,-566.080280,-0.003687,-0.009313,1.004938,192.000000,127.500000,112.000000,127.500000,88.000000,15.500000,56.000000,0.000000,0.000000,0.000000,1771417705.580906,0.000000
80.000000,11092.880200,27484.174369,-164.754708,2048.358565,4092.894982,14929.177157,-5399.734426,-3556.095488,2683.349274,-3947.943920,2932.928852,-2557.084269,14768.535169,16981.134353,-13144.815045,-551.730460,-0.003687,-0.009313,1.004938,192.000000,0.000000,0.000000,0.000000,0.000000,0.000000,0.000000,0.000000,0.000000,0.000000,1771417705.580951,0.000000
82.000000,11114.181413,27501.899302,-94.614934,2085.641275,4291.400825,14976.965186,-5367.190286,-3529.943947,2697.587335,-3939.763181,2944.238835,-2561.666377,14794.418489,17006.347121,-13159.231920,-574.775109,-0.003687,-0.009313,1.004938,192.000000,0.000000,0.000000,0.000000,0.000000,0.000000,0.000000,0.000000,0.000000,0.000000,1771417705.581015,0.000000
84.000000,11106.246544,27494.120895,-134.110467,2069.816240,4160.598416,14950.523073,-5385.205792,-3537.834112,2704.806948,-3931.783608,2954.766507,-2590.969514,14764.400096,16982.989548,-13141.171711,-594.444644,-0.003687,-0.009313,1.004938,192.000000,0.000000,0.000000,0.000000,0.000000,0.000000,0.000000,0.000000,0.000000,0.000000,1771417705.581081,0.000000
86.000000,11090.041529,27482.945023,-131.338850,2061.926074,4156.731565,14928.797177,-5390.369045,-3547.959453,2686.746739,-3948.972100,2938.337974,-2519.242766,14735.543994,16984.151838,-13167.256196,-566.303798,-0.003687,-0.009313,1.004938,192.000000,0.000000,0.000000,0.000000,0.000000,0.000000,0.000000,0.000000,0.000000,0.000000,1771417705.581095,0.000000
88.000000,11109.062863,27497.205436,-98.481786,2083.875487,4267.797383,14969.119724,-5367.905541,-3526.501778,2698.012018,-3931.582443,2950.653786,-2611.175491,14791.579818,17008.269371,-13127.581850,-591.427158,-0.002844,-0.009656,1.004469,192.000000,127.500000,120.000000,127.500000,88.000000,15.500000,48.000000,0.000000,0.000000,0.000000,1771417705.581107,0.000000
90.000000,11091.025006,27480.620442,-142.045336,2049.029118,4082.546125,14918.895354,-5394.928800,-3541.700964,2690.680646,-3939.785533,2947.479838,-2543.494409,14740.416675,16988.555132,-13156.102676,-577.546725,-0.002844,-0.009656,1.004469,192.000000,0.000000,0.000000,0.000000,0.000000,0.000000,0.000000,0.000000,0.000000,0.000000,1771417705.581118,0.000000
92.000000,11116.036608,27500.424087,-95.218431,2093.799662,4284.382377,14973.388907,-5367.592617,-3523.551348,2694.681608,-3939.114981,2949.223274,-2554.603226,14761.717887,16979.949710,-13147.430199,-584.095786,-0.002844,-0.009656,1.004469,192.000000,0.000000,0.000000,0.000000,0.000000,0.000000,0.000000,0.000000,0.000000,0.000000,1771417705.581133,0.000000
94.000000,11108.057035,27495.551407,-137.306766,2055.756993,4184.850059,14952.177102,-5389.474975,-3539.018755,2715.960469,-3932.007126,2954.475934,-2594.366979,14807.606018,16997.875809,-13133.594469,-576.719710,-0.002844,-0.009656,1.004469,192.000000,0.000000,0.000000,0.000000,0.000000,0.000000,0.000000,0.000000,0.000000,0.000000,1771417705.581145,0.000000
96.000000,11099.675131,27489.427029,-130.131856,2060.495563,4168.242713,14949.450189,-5388.491498,-3541.723316,2695.598030,-3944.837027,2934.940509,-2523.981336,14767.127009,16992.265522,-13157.533188,-549.919969,-0.002844,-0.009656,1.004469,192.000000,0.000000,0.000000,0.000000,0.000000,0.000000,0.000000,0.000000,0.000000,0.000000,1771417705.581156,0.000000
98.000000,11104.480756,27494.545578,-101.074588,2090.178679,4286.170517,14989.996253,-5371.973559,-3528.736952,2700.381303,-3926.061562,2959.058041,-2610.259069,14771.932634,17025.346103,-13127.380684,-557.363100,-0.002844,-0.009656,1.004469,192.000000,0.000000,0.000000,0.000000,0.000000,0.000000,0.000000,0.000000,0.000000,0.000000,1771417705.581168,0.000000
100.000000,11088.029872,27481.805084,-156.149287,2051.711327,4098.326456,14938.006096,-5402.573097,-3546.573644,2685.852669,-3938.712649,2938.405030,-2546.601301,14750.810236,16989.583312,-13140.590565,-528.127018,-0.002844,-0.009656,1.004469,192.000000,0.000000,0.000000,127.500000,88.000000,15.500000,32.000000,0.000000,0.000000,0.000000,1771417705.581180,0.000000
102.000000,11111.901535,27503.240407,-89.563440,2086.356531,4317.485311,15009.911658,-5367.838486,-3520.824435,2693.787538,-3938.176207,2939.679079,-2559.766479,14764.713021,16978.049812,-13129.012362,-540.308719,-0.002844,-0.009656,1.004469,192.000000,0.000000,0.000000,0.000000,0.000000,0.000000,0.000000,0.000000,0.000000,0.000000,1771417705.581192,0.000000
104.000000,11088.834535,27481.894491,-135.093943,2060.763784,4192.717873,14955.798084,-5392.023074,-3544.539636,2707.109178,-3918.909004,2949.379736,-2586.901496,14791.401004,17011.935057,-13117.501213,-553.004510,-0.002844,-0.009656,1.004469,192.000000,0.000000,0.000000,0.000000,0.000000,0.000000,0.000000,0.000000,0.000000,0.000000,1771417705.581204,0.000000
106.000000,11086.577009,27479.882834,-130.333022,2061.859019,4165.024062,14967.823323,-5392.067777,-3550.015813,2672.687491,-3952.235455,2923.451713,-2525.009516,14754.900605,16980.173228,-13136.142568,-526.517692,-0.002844,-0.009656,1.004469,192.000000,0.000000,0.000000,0.000000,0.000000,0.000000,0.000000,0.000000,0.000000,0.000000,1771417705.581215,0.000000
108.000000,11101.172698,27489.762305,-104.337943,2076.901743,4288.003360,15002.401471,-5374.164030,-3535.934214,2699.017846,-3923.625222,2945.714050,-2609.163834,14760.622652,17030.978743,-13123.558536,-554.882056,-0.002844,-0.009656,1.004469,192.000000,0.000000,0.000000,0.000000,0.000000,0.000000,0.000000,0.000000,0.000000,0.000000,1771417705.581227,0.000000
110.000000,11075.669357,27470.718619,-156.395156,2035.148684,4089.385759,14945.829206,-5400.829661,-3554.799086,2692.669951,-3944.591158,2927.720896,-2549.417621,14797.570085,16988.443373,-13148.547786,-553.116268,0.002000,-0.014000,1.008000,192.000000,0.000000,8.000000,127.500000,72.000000,15.500000,64.000000,0.000000,0.000000,0.000000,1771417705.581239,0.000000
112.000000,11103.229058,27502.748669,-89.406978,2089.977514,4284.583543,14994.019567,-5365.133925,-3524.087790,2688.154899,-3933.951728,2932.303003,-2556.659586,14714.533355,17006.101251,-13151.319403,-560.738213,0.002000,-0.014000,1.008000,192.000000,0.000000,0.000000,0.000000,0.000000,0.000000,0.000000,0.000000,0.000000,0.000000,1771417705.581251,0.000000
114.000000,11103.050244,27500.625253,-131.852941,2060.987301,4178.636274,14958.770866,-5381.316588,-3531.240348,2708.137358,-3912.561108,2955.526466,-2579.503069,14757.895739,17018.595877,-13147.139626,-575.155088,0.002000,-0.014000,1.008000,192.000000,0.000000,0.000000,0.000000,0.000000,0.000000,0.000000,0.000000,0.000000,0.000000,1771417705.581264,0.000000
116.000000,11102.022064,27495.953738,-130.310670,2067.044624,4153.535265,14960.782523,-5378.500268,-3533.050839,2695.285105,-3929.928414,2932.481817,-2508.156301,14743.680029,17020.875754,-13176.152191,-557.161934,0.002000,-0.014000,1.008000,192.000000,0.000000,0.000000,0.000000,0.000000,0.000000,0.000000,0.000000,0.000000,0.000000,1771417705.581290,0.000000
118.000000,11102.089119,27493.562102,-99.241745,2084.076653,4301.503813,14981.748460,-5363.859876,-3527.731124,2709.500815,-3916.964402,2954.185361,-2596.848023,14814.043321,17012.471499,-13146.111446,-579.334865,0.002000,-0.014000,1.008000,192.000000,0.000000,0.000000,0.000000,0.000000,0.000000,0.000000,0.000000,0.000000,0.000000,1771417705.581302,0.000000
120.000000,11075.110564,27473.043200,-158.451516,2037.763839,4106.037808,14933.871023,-5400.583792,-3559.068270,2686.679684,-3945.082896,2931.096009,-2555.050260,14773.296091,16988.644539,-13140.836434,-554.323262,0.002000,-0.012000,1.008000,192.000000,0.000000,8.000000,127.500000,80.000000,15.500000,64.000000,0.000000,0.000000,0.000000,1771417705.581314,0.000000
122.000000,11088.834535,27480.821607,-91.709208,2082.959066,4296.675837,14989.660977,-5371.437117,-3541.857426,2692.558192,-3946.513408,2925.083390,-2572.037586,14758.186312,16976.239321,-13142.043429,-531.368021,0.002000,-0.012000,1.008000,192.000000,0.000000,0.000000,0.000000,0.000000,0.000000,0.000000,0.000000,0.000000,0.000000,1771417705.581325,0.000000
124.000000,11080.586741,27477.468846,-128.455475,2059.802659,4192.583763,14971.891340,-5388.111518,-3553.659147,2690.881811,-3936.030440,2946.809285,-2606.772197,14745.289355,17007.867039,-13122.575059,-545.315509,0.002000,-0.012000,1.008000,192.000000,0.000000,0.000000,0.000000,0.000000,0.000000,0.000000,0.000000,0.000000,0.000000,1771417705.581337,0.000000
126.000000,11094.578933,27485.336660,-131.897644,2052.091307,4183.665417,14988.632797,-5391.196059,-3553.860313,2687.082015,-3949.888521,2924.010506,-2532.385592,14764.131876,16989.851533,-13148.279565,-531.256262,0.002000,-0.012000,1.008000,192.000000,0.000000,0.000000,0.000000,0.000000,0.000000,0.000000,0.000000,0.000000,0.000000,1771417705.581348,0.000000
128.000000,11084.945331,27477.222976,-99.398208,2083.473156,4295.692360,14999.607503,-5374.387547,-3548.004156,2711.758341,-3922.887614,2935.499303,-2620.630279,14805.929638,17014.349045,-13115.288391,-536.665384,0.002000,-0.012000,1.008000,192.000000,0.000000,0.000000,0.000000,0.000000,0.000000,0.000000,0.000000,0.000000,0.000000,1771417705.581360,0.000000
130.000000,11060.917206,27461.889680,-154.405851,2039.283757,4111.916317,14949.070209,-5407.870460,-3571.048805,2671.771070,-3948.189789,2923.854044,-2564.750918,14737.175672,16998.747527,-13130.286411,-519.342782,-0.002000,-0.018000,1.002000,192.000000,127.500000,120.000000,127.500000,56.000000,15.500000,40.000000,0.000000,0.000000,0.000000,1771417705.581372,0.000000
132.000000,11091.829669,27488.421200,-93.385588,2075.560638,4313.529052,15010.939838,-5374.767527,-3544.047897,2682.410500,-3935.046963,2921.752980,-2575.345644,14759.840341,17006.034196,-13138.176577,-517.845216,-0.002000,-0.018000,1.002000,192.000000,0.000000,0.000000,0.000000,0.000000,0.000000,0.000000,0.000000,0.000000,0.000000,1771417705.581383,0.000000
134.000000,11067.779191,27467.365857,-140.525417,2056.852228,4201.502109,14967.420991,-5392.939495,-3552.563912,2689.496003,-3927.268556,2939.723783,-2603.911174,14794.753765,17006.592990,-13132.052199,-554.479725,-0.002000,-0.018000,1.002000,192.000000,0.000000,0.000000,0.000000,0.000000,0.000000,0.000000,0.000000,0.000000,0.000000,1771417705.581394,0.000000
136.000000,11097.976398,27506.168485,-130.355374,2067.670473,4186.325274,14966.146942,-5386.457489,-3535.598938,2673.268637,-3930.420152,2918.981364,-2521.589699,14766.791733,17001.988530,-13160.975356,-534.452562,-0.002000,-0.018000,1.002000,192.000000,0.000000,0.000000,0.000000,0.000000,0.000000,0.000000,0.000000,0.000000,0.000000,1771417705.581406,0.000000
138.000000,11110.649837,27493.383288,-90.859841,2084.568391,4293.948924,14989.303349,-5365.312739,-3522.344353,2728.700963,-3890.745806,2960.801478,-2589.449595,14789.098774,17028.028313,-13135.650830,-582.687626,-0.002000,-0.018000,1.002000,192.000000,0.000000,0.000000,0.000000,0.000000,0.000000,0.000000,0.000000,0.000000,0.000000,1771417705.581418,0.000000
140.000000,11063.532360,27462.649639,-156.864543,2038.993184,4100.360465,14929.288915,-5394.682931,-3545.210188,2676.911971,-3947.452181,2940.148466,-2546.936577,14723.250535,16985.492943,-13159.790714,-569.097766,-0.002000,-0.018000,1.002000,192.000000,0.000000,0.000000,127.500000,72.000000,15.500000,40.000000,0.000000,0.000000,0.000000,1771417705.581429,0.000000
142.000000,11096.836459,27495.216131,-95.263135,2075.627694,4280.157897,14988.096355,-5364.061041,-3523.260775,2684.153936,-3935.672812,2937.868588,-2555.206723,14772.022041,16986.543475,-13166.965624,-564.493306,-0.002000,-0.018000,1.002000,192.000000,0.000000,0.000000,0.000000,0.000000,0.000000,0.000000,0.000000,0.000000,0.000000,1771417705.581441,0.000000
144.000000,11079.357395,27475.367782,-133.551673,2034.925167,4157.491524,14931.658200,-5388.804422,-3541.320985,2696.089768,-3921.613565,2951.570207,-2591.796528,14768.199893,16989.225684,-13138.891833,-588.230859,-0.002000,-0.018000,1.002000,192.000000,0.000000,0.000000,0.000000,0.000000,0.000000,0.000000,0.000000,0.000000,0.000000,1771417705.581453,0.000000
146.000000,11079.625616,27484.062610,-132.009403,2045.229321,4158.720870,14936.620287,-5388.759719,-3538.884644,2660.885770,-3957.711632,2919.093122,-2532.698516,14729.285506,16957.508559,-13159.678955,-544.801419,-0.002000,-0.018000,1.002000,192.000000,0.000000,0.000000,0.000000,0.000000,0.000000,0.000000,0.000000,0.000000,0.000000,1771417705.581466,0.000000
148.000000,11098.222267,27492.891549,-101.141644,2077.616999,4291.222011,14981.547294,-5371.079489,-3528.111104,2697.900259,-3910.236527,2954.788858,-2597.719741,14796.698367,17020.495775,-13133.527414,-568.494268,-0.002000,-0.018000,1.002000,192.000000,0.000000,0.000000,0.000000,0.000000,0.000000,0.000000,0.000000,0.000000,0.000000,1771417705.581478,0.000000
150.000000,11071.042546,27463.633116,-159.367938,2025.068048,4112.497462,14933.602802,-5405.411769,-3562.264569,2680.354140,-3947.005146,2931.274823,-2551.049298,14725.619820,16970.271405,-13139.852958,-544.890826,-0.006000,-0.014000,1.004000,192.000000,127.500000,104.000000,127.500000,72.000000,15.500000,48.000000,0.000000,0.000000,0.000000,1771417705.581489,0.000000
152.000000,11085.861753,27476.842997,-97.118330,2063.066013,4312.746741,15002.222657,-5375.795707,-3542.662089,2681.225858,-3953.375394,2922.401181,-2574.339816,14756.107599,16978.206274,-13131.627516,-534.094934,-0.006000,-0.014000,1.004000,192.000000,0.000000,0.000000,0.000000,0.000000,0.000000,0.000000,0.000000,0.000000,0.000000,1771417705.581501,0.000000
154.000000,11068.069764,27468.416389,-133.305804,2047.129219,4201.613867,14960.693116,-5394.906449,-3558.889456,2690.278314,-3934.801094,2941.288405,-2605.386389,14774.816009,16996.981740,-13112.337960,-537.537102,-0.006000,-0.014000,1.004000,192.000000,0.000000,0.000000,0.000000,0.000000,0.000000,0.000000,0.000000,0.000000,0.000000,1771417705.581513,0.000000
156.000000,11066.214569,27468.170520,-139.564292,2046.548074,4183.955989,14964.537616,-5399.488556,-3568.925389,2663.702090,-3955.498809,2909.839500,-2537.995879,14733.420579,16962.381239,-13130.509929,-515.252413,-0.006000,-0.014000,1.004000,192.000000,0.000000,0.000000,0.000000,0.000000,0.000000,0.000000,0.000000,0.000000,0.000000,1771417705.581525,0.000000
158.000000,11058.324404,27458.268697,-115.804388,2068.966874,4305.974162,15004.413128,-5381.920085,-3563.136287,2675.503811,-3940.411382,2921.328297,-2626.754657,14766.322346,16982.184885,-13109.119309,-532.038573,-0.006000,-0.014000,1.004000,192.000000,0.000000,0.000000,0.000000,0.000000,0.000000,0.000000,0.000000,0.000000,0.000000,1771417705.581537,0.000000
160.000000,11053.764648,27462.739046,-167.928656,2020.083609,4099.801671,14943.974011,-5405.165899,-3575.742671,2652.906198,-3956.996376,2904.273916,-2571.098813,14761.650832,16963.789399,-13139.942365,-544.734364,-0.006000,-0.014000,1.004000,192.000000,0.000000,0.000000,127.500000,64.000000,15.500000,56.000000,0.000000,0.000000,0.000000,1771417705.581549,0.000000
162.000000,11087.381671,27482.699154,-95.084321,2069.570371,4281.700168,14985.414146,-5364.083393,-3541.388040,2676.911971,-3935.315184,2921.752980,-2574.965665,14750.609070,16987.683414,-13157.555539,-568.941303,-0.006000,-0.014000,1.004000,192.000000,0.000000,0.000000,0.000000,0.000000,0.000000,0.000000,0.000000,0.000000,0.000000,1771417705.581560,0.000000
164.000000,11056.871540,27448.277467,-140.838342,2040.043716,4160.240788,14926.003209,-5388.916181,-3565.885552,2694.659256,-3942.355984,2935.141675,-2611.242546,14762.835474,16979.301510,-13151.677031,-596.769225,-0.006000,-0.014000,1.004000,192.000000,0.000000,0.000000,0.000000,0.000000,0.000000,0.000000,0.000000,0.000000,0.000000,1771417705.581572,0.000000
166.000000,11035.905604,27433.078281,-140.056031,2041.384821,4136.369125,14923.991552,-5391.397225,-3572.479316,2649.173456,-3984.310208,2901.055265,-2560.347624,14719.026055,16945.237451,-13168.865522,-562.526353,-0.006000,-0.014000,1.004000,192.000000,0.000000,0.000000,0.000000,0.000000,0.000000,0.000000,0.000000,0.000000,0.000000,1771417705.581584,0.000000
168.000000,11061.587758,27453.574831,-107.377780,2061.121411,4262.008281,14982.955454,-5372.420594,-3553.726203,2680.667064,-3948.480362,2932.794742,-2635.851817,14756.241710,16984.956501,-13152.168769,-576.831469,-0.006000,-0.014000,1.004000,192.000000,0.000000,0.000000,0.000000,0.000000,0.000000,0.000000,0.000000,0.000000,0.000000,1771417705.581596,0.000000
170.000000,11027.478996,27428.362063,-161.491354,2016.641440,4097.946477,14915.877869,-5406.708170,-3581.129441,2661.198695,-3963.768955,2914.511015,-2576.843211,14760.421486,16949.998373,-13150.112408,-565.700300,-0.006000,-0.014000,1.007000,192.000000,127.500000,104.000000,127.500000,72.000000,15.500000,72.000000,0.000000,0.000000,0.000000,1771417705.581607,0.000000
172.000000,11059.263177,27450.691456,-96.760702,2054.527647,4293.591296,14979.692099,-5378.902600,-3561.348148,2661.869247,-3967.456993,2913.460483,-2596.289229,14722.758797,16951.071257,-13142.870443,-552.110440,-0.006000,-0.014000,1.007000,192.000000,0.000000,0.000000,0.000000,0.000000,0.000000,0.000000,0.000000,0.000000,0.000000,1771417705.581619,0.000000
174.000000,11032.329325,27431.044272,-148.572045,2034.902815,4192.002617,14944.532805,-5399.309742,-3576.569686,2676.330826,-3950.424963,2926.223329,-2630.263881,14787.444745,16976.820466,-13130.532280,-553.585655,-0.006000,-0.014000,1.007000,192.000000,0.000000,0.000000,0.000000,0.000000,0.000000,0.000000,0.000000,0.000000,0.000000,1771417705.581631,0.000000
176.000000,11043.929880,27440.968447,-142.067688,2032.779399,4164.018233,14959.441419,-5401.343751,-3576.681444,2644.367831,-3976.420042,2894.036817,-2562.180467,14702.575171,16951.428884,-13150.850016,-519.812169,-0.006000,-0.014000,1.007000,192.000000,0.000000,0.000000,0.000000,0.000000,0.000000,0.000000,0.000000,0.000000,0.000000,1771417705.581643,0.000000
178.000000,11050.568348,27441.370778,-111.848129,2064.518877,4292.808985,14997.953474,-5384.982274,-3567.025491,2685.606800,-3940.456085,2928.123227,-2633.147256,14776.648852,16973.892388,-13129.682914,-540.286367,-0.006000,-0.014000,1.007000,192.000000,0.000000,0.000000,0.000000,0.000000,0.000000,0.000000,0.000000,0.000000,0.000000,1771417706.059841,0.000000
180.000000,11029.714171,27430.016092,-169.225057,2021.759989,4108.272983,14961.587186,-5415.402998,-3585.979770,2647.541779,-3968.753394,2908.252526,-2582.073519,14735.320477,16957.083876,-13136.053161,-528.372887,-0.002000,-0.011000,1.006500,192.000000,0.000000,8.000000,127.500000,96.000000,15.500000,56.000000,0.000000,0.000000,0.000000,1771417706.059904,0.000000
182.000000,11065.275796,27453.083092,-100.851071,2082.512031,4317.239442,15012.057425,-5377.293274,-3556.944854,2673.313340,-3942.646556,2911.582936,-2582.520554,14757.560463,16987.012862,-13136.679010,-519.566300,-0.002000,-0.011000,1.006500,192.000000,0.000000,0.000000,0.000000,0.000000,0.000000,0.000000,0.000000,0.000000,0.000000,1771417706.059954,0.000000
184.000000,11037.738447,27434.665255,-139.206664,2049.163228,4207.961763,14980.832038,-5396.024036,-3572.635779,2676.934323,-3943.965309,2933.465294,-2615.735247,14747.457474,16972.819504,-13117.367103,-549.964672,-0.002000,-0.011000,1.006500,192.000000,0.000000,0.000000,0.000000,0.000000,0.000000,0.000000,0.000000,0.000000,0.000000,1771417706.060007,0.000000
186.000000,11035.145645,27428.876153,-142.313557,2042.770629,4186.727606,14986.844657,-5399.287391,-3576.659093,2651.699203,-3974.676606,2896.048474,-2555.117316,14739.187329,16952.747637,-13140.948193,-504.233003,-0.002000,-0.011000,1.006500,192.000000,0.000000,0.000000,0.000000,0.000000,0.000000,0.000000,0.000000,0.000000,0.000000,1771417706.060060,0.000000
188.000000,11067.019232,27465.398904,-102.594507,2068.631598,4316.725351,15004.569591,-5378.790841,-3551.267511,2681.248210,-3936.164550,2937.198035,-2628.565148,14782.728527,16993.584274,-13109.946324,-542.253320,-0.002000,-0.011000,1.006500,192.000000,0.000000,0.000000,0.000000,0.000000,0.000000,0.000000,0.000000,0.000000,0.000000,1771417706.060112,0.000000
190.000000,11059.956081,27456.905241,-154.718775,2025.649193,4124.053314,14940.598898,-5405.188251,-3565.706738,2676.733157,-3936.209254,2924.524596,-2559.319444,14780.873332,16984.017728,-13123.603239,-544.197922,0.000000,-0.011500,1.005250,192.000000,0.000000,8.000000,127.500000,80.000000,15.500000,48.000000,0.000000,0.000000,0.000000,1771417706.060138,0.000000
192.000000,11062.124200,27454.021866,-93.676161,2073.973665,4299.805081,14995.226561,-5368.821963,-3539.599900,2679.907105,-3952.906007,2927.430323,-2573.557505,14783.689652,16965.801056,-13128.855899,-547.304815,0.000000,-0.011500,1.005250,192.000000,0.000000,0.000000,0.000000,0.000000,0.000000,0.000000,0.000000,0.000000,0.000000,1771417706.060163,0.000000
194.000000,11055.776305,27454.871232,-133.350507,2053.030080,4209.213461,14958.301480,-5388.379739,-3550.976938,2681.784651,-3941.394859,2936.482780,-2599.977267,14727.184442,16957.642669,-13121.993914,-556.111402,0.000000,-0.011500,1.005250,192.000000,0.000000,0.000000,0.000000,0.000000,0.000000,0.000000,0.000000,0.000000,0.000000,1771417706.060188,0.000000
196.000000,11046.455627,27446.623438,-137.463228,2051.711327,4184.045396,14961.587186,-5392.939495,-3559.582360,2665.020843,-3956.214065,2912.812282,-2534.218435,14737.935631,16953.552300,-13141.618746,-526.271823,0.000000,-0.011500,1.005250,192.000000,0.000000,0.000000,0.000000,0.000000,0.000000,0.000000,0.000000,0.000000,0.000000,1771417706.060213,0.000000
198.000000,11058.749087,27458.961601,-107.333077,2072.185525,4313.014962,15001.485050,-5375.393376,-3546.573644,2673.134526,-3932.141236,2929.620794,-2619.467988,14784.941350,16982.386051,-13124.989048,-550.568169,0.000000,-0.011500,1.005250,192.000000,0.000000,0.000000,0.000000,0.000000,0.000000,0.000000,0.000000,0.000000,0.000000,1771417706.060238,0.000000
200.000000,11041.471188,27442.533069,-166.185220,2020.240071,4105.814291,14943.728142,-5407.691647,-3570.646473,2664.283236,-3945.596986,2916.142692,-2563.409813,14773.251387,16964.974042,-13136.008458,-543.862646,0.001000,-0.011750,1.005625,192.000000,0.000000,8.000000,127.500000,80.000000,15.500000,56.000000,0.000000,0.000000,0.000000,1771417706.060263,0.000000
202.000000,11070.394346,27453.619534,-102.102769,2065.055318,4308.432854,14992.320835,-5375.169858,-3547.199493,2672.061643,-3958.605702,2915.025105,-2584.509860,14753.648907,16957.530911,-13136.008458,-533.782009,0.001000,-0.011750,1.005625,192.000000,0.000000,0.000000,0.000000,0.000000,0.000000,0.000000,0.000000,0.000000,0.000000,1771417706.060288,0.000000
204.000000,11036.687915,27433.033578,-149.130839,2030.790094,4205.726588,14964.224692,-5399.779129,-3569.573590,2681.963465,-3953.375394,2927.743247,-2621.367886,14787.645911,16953.485245,-13108.180536,-558.480687,0.001000,-0.011750,1.005625,192.000000,0.000000,0.000000,0.000000,0.000000,0.000000,0.000000,0.000000,0.000000,0.000000,1771417706.060313,0.000000
206.000000,11038.744275,27433.860592,-135.540978,2038.970833,4188.828670,14972.673651,-5401.030827,-3575.340340,2640.389221,-3972.821411,2895.668494,-2555.921978,14725.709227,16935.872070,-13131.783978,-512.883128,0.001000,-0.011750,1.005625,192.000000,0.000000,0.000000,0.000000,0.000000,0.000000,0.000000,0.000000,0.000000,0.000000,1771417706.060338,0.000000
208.000000,11053.362316,27452.971334,-105.790807,2072.677263,4310.131587,15026.340190,-5380.176649,-3559.135325,2673.849782,-3940.478437,2920.098951,-2635.583596,14750.005573,16977.491018,-13109.856917,-525.377753,0.001000,-0.011750,1.005625,192.000000,0.000000,0.000000,0.000000,0.000000,0.000000,0.000000,0.000000,0.000000,0.000000,1771417706.060362,0.000000
210.000000,11026.249650,27421.701243,-162.430127,2016.440274,4129.350678,14952.512378,-5415.805330,-3592.640590,2661.243398,-3959.276254,2910.107721,-2579.592476,14788.651739,16952.278251,-13122.396245,-518.314602,0.002500,-0.009875,1.005812,192.000000,0.000000,16.000000,127.500000,96.000000,15.500000,56.000000,0.000000,0.000000,0.000000,1771417706.060404,0.000000
212.000000,11045.874482,27442.778938,-104.270888,2069.257446,4324.235538,15001.038015,-5383.015321,-3566.623159,2660.125811,-3974.207219,2894.550907,-2603.732360,14795.133745,16946.064466,-13106.325341,-512.391390,0.002500,-0.009875,1.005812,192.000000,0.000000,0.000000,0.000000,0.000000,0.000000,0.000000,0.000000,0.000000,0.000000,1771417706.060430,0.000000
214.000000,11035.279755,27436.520450,-143.565255,2045.318728,4214.823748,14955.663974,-5402.506042,-3581.084738,2667.993625,-3948.614472,2918.087294,-2621.300831,14741.064875,16972.372469,-13105.855954,-531.680945,0.002500,-0.009875,1.005812,192.000000,0.000000,0.000000,0.000000,0.000000,0.000000,0.000000,0.000000,0.000000,0.000000,1771417706.060455,0.000000
216.000000,11031.189386,27428.697339,-140.413659,2039.239054,4191.287362,14947.997325,-5400.539088,-3579.117784,2648.547607,-3978.185830,2889.320599,-2557.330138,14737.868576,16926.372579,-13133.527414,-515.855910,0.002500,-0.009875,1.005812,192.000000,0.000000,0.000000,0.000000,0.000000,0.000000,0.000000,0.000000,0.000000,0.000000,1771417706.060480,0.000000
218.000000,11052.937633,27458.603973,-105.991972,2067.111679,4279.554400,14990.599750,-5377.852068,-3557.883627,2673.313340,-3945.842856,2920.210710,-2632.923738,14772.022041,16982.989548,-13122.887984,-554.412669,0.002500,-0.009875,1.005812,192.000000,0.000000,0.000000,0.000000,0.000000,0.000000,0.000000,0.000000,0.000000,0.000000,1771417706.060504,0.000000
220.000000,11037.671392,27441.750758,-166.453441,2031.103019,4097.097110,14937.581413,-5406.439949,-3576.547334,2663.344462,-3953.822428,2911.001791,-2569.668301,14751.458436,16973.735925,-13147.184330,-540.621643,0.002500,-0.009875,1.005812,192.000000,0.000000,0.000000,127.500000,80.000000,15.500000,40.000000,0.000000,0.000000,0.000000,1771417706.060529,0.000000
222.000000,11054.792828,27461.017962,-106.170786,2078.958104,4280.649636,14987.738727,-5370.431289,-3548.987633,2656.527180,-3953.040117,2910.912384,-2572.842249,14758.342774,16979.927359,-13162.919958,-549.294120,0.002500,-0.009875,1.005812,192.000000,0.000000,0.000000,0.000000,0.000000,0.000000,0.000000,0.000000,0.000000,0.000000,1771417706.060553,0.000000
224.000000,11048.668450,27454.088921,-138.603167,2044.603472,4186.772309,14931.769959,-5392.850088,-3563.315101,2668.954750,-3933.392934,2927.206806,-2606.861604,14793.971454,16965.085800,-13141.082304,-575.490364,0.002500,-0.009875,1.005812,192.000000,0.000000,0.000000,0.000000,0.000000,0.000000,0.000000,0.000000,0.000000,0.000000,1771417706.060578,0.000000
226.000000,11050.635403,27444.611781,-133.417563,2035.483961,4168.019196,14942.968183,-5393.028902,-3562.108107,2658.449430,-3962.271388,2912.432303,-2541.527455,14715.181555,16935.715608,-13147.363144,-557.966597,0.002500,-0.009875,1.005812,192.000000,0.000000,0.000000,0.000000,0.000000,0.000000,0.000000,0.000000,0.000000,0.000000,1771417706.060603,0.000000
228.000000,11055.016345,27452.993685,-109.881176,2059.422679,4281.968389,14974.171218,-5376.376853,-3553.592092,2676.442585,-3949.486190,2934.068791,-2627.067581,14768.736335,16961.621280,-13127.671257,-572.674045,0.002500,-0.009875,1.005812,192.000000,0.000000,0.000000,0.000000,0.000000,0.000000,0.000000,0.000000,0.000000,0.000000,1771417706.060628,0.000000
230.000000,11048.802560,27446.824604,-155.523438,2018.898966,4088.335227,14930.026523,-5402.506042,-3566.645511,2665.400823,-3957.778687,2916.522672,-2569.355377,14736.706285,16960.235472,-13144.904452,-546.097821,0.002250,-0.011938,1.006906,192.000000,0.000000,8.000000,127.500000,72.000000,15.500000,64.000000,0.000000,0.000000,0.000000,1771417706.060653,0.000000
232.000000,11072.048375,27470.293936,-102.818024,2072.185525,4290.640866,14976.629910,-5371.794745,-3542.796200,2674.967369,-3955.744678,2923.205843,-2576.642046,14760.913224,16955.765123,-13148.547786,-542.745059,0.002250,-0.011938,1.006906,192.000000,0.000000,0.000000,0.000000,0.000000,0.000000,0.000000,0.000000,0.000000,0.000000,1771417706.060678,0.000000
234.000000,11052.043563,27452.747816,-141.799467,2045.028155,4183.777175,14947.393828,-5393.565344,-3561.325796,2681.315265,-3935.181074,2935.655765,-2607.666267,14763.103695,16974.652347,-13134.510891,-541.068678,0.002250,-0.011938,1.006906,192.000000,0.000000,0.000000,0.000000,0.000000,0.000000,0.000000,0.000000,0.000000,0.000000,1771417706.060703,0.000000
236.000000,11057.765610,27457.307572,-140.726583,2042.368298,4166.141649,14948.310250,-5394.593524,-3560.856409,2657.890637,-3970.295664,2904.206861,-2541.929786,14744.998782,16947.964364,-13149.911243,-531.368021,0.002250,-0.011938,1.006906,192.000000,0.000000,0.000000,0.000000,0.000000,0.000000,0.000000,0.000000,0.000000,0.000000,1771417706.060727,0.000000
238.000000,11063.241787,27467.075284,-112.831606,2076.320598,4310.444511,14983.134268,-5374.074623,-3544.763153,2678.007207,-3934.801094,2940.908425,-2615.467026,14766.389402,16969.287928,-13135.919051,-567.600199,0.002250,-0.011938,1.006906,192.000000,0.000000,0.000000,0.000000,0.000000,0.000000,0.000000,0.000000,0.000000,0.000000,1771417706.060752,0.000000
240.000000,11051.305956,27456.614668,-163.815935,2037.830894,4098.617029,14916.436662,-5405.143548,-3569.819459,2666.429003,-3941.394859,2917.595555,-2558.335967,14763.863655,16958.782608,-13143.920975,-535.167817,0.002250,-0.011938,1.006906,192.000000,0.000000,0.000000,0.000000,0.000000,0.000000,0.000000,0.000000,0.000000,0.000000,1771417706.060777,0.000000
242.000000,11062.727697,27460.772092,-104.583812,2082.735548,4282.258961,14975.378212,-5371.928855,-3547.668880,2671.212276,-3950.469667,2914.153387,-2575.770328,14749.715000,16985.470591,-13149.575967,-532.865588,0.002250,-0.011938,1.006906,192.000000,0.000000,0.000000,127.500000,96.000000,15.500000,56.000000,0.000000,0.000000,0.000000,1771417706.060803,0.000000
244.000000,11057.631499,27463.476654,-144.235807,2055.377013,4195.780062,14940.800064,-5394.057082,-3560.007043,2684.131585,-3933.638803,2930.716029,-2602.368903,14775.687727,16971.165475,-13135.986106,-563.062795,0.002250,-0.011938,1.006906,192.000000,0.000000,0.000000,0.000000,0.000000,0.000000,0.000000,0.000000,0.000000,0.000000,1771417706.060827,0.000000
246.000000,11048.377877,27447.115177,-144.034641,2047.889179,4168.868562,14948.466712,-5396.940457,-3563.650377,2661.958654,-3961.578484,2901.748169,-2536.297147,14737.309782,16933.838062,-13164.305766,-539.213483,0.002250,-0.011938,1.006906,192.000000,0.000000,0.000000,0.000000,0.000000,0.000000,0.000000,0.000000,0.000000,0.000000,1771417706.060852,0.000000
248.000000,11078.373918,27477.670011,-103.555632,2082.646141,4293.568944,14981.234369,-5372.912332,-3539.108162,2676.934323,-3941.931300,2935.320489,-2619.959726,14813.082196,16970.807847,-13140.277641,-576.227972,0.002250,-0.011938,1.006906,192.000000,0.000000,0.000000,0.000000,0.000000,0.000000,0.000000,0.000000,0.000000,0.000000,1771417706.060876,0.000000
250.000000,11068.941482,27464.549537,-152.885932,2049.520856,4087.552916,14905.819584,-5400.069702,-3551.535732,2697.587335,-3935.762219,2930.827788,-2548.635310,14735.499291,16970.673736,-13156.035621,-559.441812,0.002250,-0.011938,1.006906,192.000000,0.000000,0.000000,0.000000,0.000000,0.000000,0.000000,0.000000,0.000000,0.000000,1771417706.060901,0.000000
252.000000,11070.975491,27471.567985,-101.923955,2079.583952,4279.621456,14952.713544,-5371.705338,-3534.704868,2679.616532,-3942.154818,2936.125152,-2559.341795,14770.882102,16960.883672,-13163.724621,-568.226048,0.002250,-0.011938,1.006906,192.000000,0.000000,0.000000,127.500000,88.000000,15.500000,48.000000,0.000000,0.000000,0.000000,1771417706.060926,0.000000
254.000000,11065.275796,27463.722523,-140.838342,2045.743411,4166.923960,14918.358912,-5393.408882,-3551.356918,2681.829355,-3937.438600,2939.656727,-2604.469967,14752.464265,16982.296644,-13138.042466,-575.691530,0.002250,-0.011938,1.006906,192.000000,0.000000,0.000000,0.000000,0.000000,0.000000,0.000000,0.000000,0.000000,0.000000,1771417706.060951,0.000000
0.000000,11054.032869,27457.687552,-138.513760,2042.547112,4151.970643,14929.870061,-5393.699455,-3553.100354,2664.730270,-3952.906007,2919.271936,-2532.497350,14761.069687,16947.874957,-13170.653662,-546.768373,0.002250,-0.011938,1.006906,192.000000,0.000000,0.000000,0.000000,0.000000,0.000000,0.000000,0.000000,0.000000,0.000000,1771417706.060966,0.000000
2.000000,11079.022119,27478.251157,-107.288373,2065.055318,4276.358101,14976.115820,-5375.907466,-3538.348203,2680.287085,-3928.743771,2939.410858,-2619.199767,14755.973489,16982.743678,-13143.764513,-569.164821,0.002250,-0.011938,1.006906,192.000000,0.000000,0.000000,0.000000,0.000000,0.000000,0.000000,0.000000,0.000000,0.000000,1771417706.060978,0.000000
4.000000,11050.210720,27442.197793,-161.804278,2021.827045,4090.816270,14914.536764,-5405.769397,-3565.214999,2683.125756,-3941.327803,2929.062000,-2559.833534,14751.413733,16951.428884,-13156.505007,-559.419460,0.002250,-0.011938,1.006906,192.000000,0.000000,0.000000,0.000000,0.000000,0.000000,0.000000,0.000000,0.000000,0.000000,1771417706.060991,0.000000
6.000000,11064.337023,27453.865403,-104.472054,2058.729775,4284.315322,14970.304366,-5372.822925,-3542.393868,2663.724442,-3962.271388,2919.607212,-2586.633275,14760.332079,16942.532890,-13157.108504,-555.396146,0.002250,-0.011938,1.006906,192.000000,0.000000,0.000000,127.500000,80.000000,15.500000,16.000000,0.000000,0.000000,0.000000,1771417706.061004,0.000000
8.000000,11066.683956,27458.738084,-136.166827,2055.734641,4183.263085,14927.768997,-5390.704321,-3549.457020,2690.770053,-3934.510521,2940.327280,-2607.912136,14762.008460,16988.152801,-13145.418542,-579.916010,0.002250,-0.011938,1.006906,192.000000,0.000000,0.000000,0.000000,0.000000,0.000000,0.000000,0.000000,0.000000,0.000000,1771417706.061014,0.000000
10.000000,11061.028965,27448.523336,-141.084211,2044.312900,4164.822896,14924.729159,-5396.046388,-3557.704813,2677.895448,-3945.686393,2918.601384,-2530.642155,14758.320422,16942.510538,-13162.249406,-552.490419,0.002250,-0.011938,1.006906,192.000000,0.000000,0.000000,0.000000,0.000000,0.000000,0.000000,0.000000,0.000000,0.000000,1771417706.061026,0.000000
12.000000,11070.215532,27461.017962,-106.282545,2072.833726,4290.618514,14962.257738,-5376.063928,-3538.437609,2684.131585,-3946.803981,2936.393373,-2627.134636,14765.495332,16978.899178,-13135.539071,-568.650731,0.002250,-0.011938,1.006906,192.000000,0.000000,0.000000,0.000000,0.000000,0.000000,0.000000,0.000000,0.000000,0.000000,1771417706.061038,0.000000
14.000000,11067.868598,27454.714770,-161.893685,2027.459684,4110.754026,14918.090691,-5407.713998,-3557.078964,2691.485309,-3938.645594,2930.805436,-2556.011385,14793.256199,16969.869074,-13155.946214,-552.445716,0.002250,-0.011938,1.006906,192.000000,0.000000,0.000000,0.000000,0.000000,0.000000,0.000000,0.000000,0.000000,0.000000,1771417706.061049,0.000000
16.000000,11077.569256,27451.160842,-102.147472,2066.351720,4303.873098,14977.412221,-5378.120289,-3540.762191,2688.333713,-3956.035251,2931.744210,-2578.206668,14751.883120,16944.075161,-13150.984126,-537.380640,0.002250,-0.011938,1.006906,192.000000,0.000000,0.000000,127.500000,72.000000,15.500000,40.000000,0.000000,0.000000,0.000000,1771417706.061061,0.000000
18.000000,11064.717002,27446.824604,-138.871388,2048.403269,4201.345647,14932.261697,-5394.973504,-3549.814647,2693.161689,-3947.251016,2944.238835,-2611.309601,14801.906324,16994.143068,-13135.851995,-554.725594,0.002250,-0.011938,1.006906,192.000000,0.000000,0.000000,0.000000,0.000000,0.000000,0.000000,0.000000,0.000000,0.000000,1771417706.061073,0.000000
20.000000,11071.087250,27453.708941,-134.781019,2034.746353,4173.428318,14951.551253,-5393.163013,-3549.077040,2677.180192,-3962.249036,2920.903614,-2534.553711,14747.725695,16947.651440,-13165.333946,-546.723669,0.002250,-0.011938,1.006906,192.000000,0.000000,0.000000,0.000000,0.000000,0.000000,0.000000,0.000000,0.000000,0.000000,1771417706.061084,0.000000
22.000000,11079.178581,27466.427084,-103.890908,2060.204990,4281.990741,14958.100314,-5376.399204,-3536.917691,2700.403655,-3934.108190,2952.732498,-2620.205596,14763.036640,16977.021632,-13144.010382,-574.573943,0.002250,-0.011938,1.006906,192.000000,0.000000,0.000000,0.000000,0.000000,0.000000,0.000000,0.000000,0.000000,0.000000,1771417706.061096,0.000000
24.000000,11060.380764,27443.494194,-158.607979,2022.072914,4093.677294,14887.066470,-5408.719827,-3563.896246,2690.658294,-3953.129524,2927.564434,-2563.096888,14760.980280,16961.040135,-13156.437952,-533.804361,0.002250,-0.011938,1.006906,192.000000,0.000000,0.000000,0.000000,0.000000,0.000000,0.000000,0.000000,0.000000,0.000000,1771417706.061107,0.000000
26.000000,11080.832610,27453.440720,-92.089187,2069.279798,4292.652523,14957.832093,-5372.018262,-3534.794275,2692.312323,-3966.339405,2929.687849,-2578.810165,14768.311652,16945.639783,-13148.100751,-547.260111,-0.002000,-0.012000,1.004000,192.000000,127.500000,120.000000,127.500000,80.000000,15.500000,48.000000,0.000000,0.000000,0.000000,1771417706.061118,0.000000
28.000000,11064.359375,27451.093787,-144.124048,2044.357603,4193.500184,14936.061494,-5393.788861,-3550.775772,2691.217088,-3953.487152,2937.756829,-2606.705142,14810.690559,16961.665983,-13135.784940,-561.587579,-0.002000,-0.012000,1.004000,192.000000,0.000000,0.000000,0.000000,0.000000,0.000000,0.000000,0.000000,0.000000,0.000000,1771417706.061128,0.000000
30.000000,11077.993939,27461.263831,-123.538092,2046.212798,4163.906475,14950.388962,-5391.777204,-3545.389002,2683.483384,-3962.919588,2912.946393,-2532.922033,14734.694628,16971.344289,-13164.909263,-524.796608,-0.002000,-0.012000,1.004000,192.000000,0.000000,0.000000,0.000000,0.000000,0.000000,0.000000,0.000000,0.000000,0.000000,1771417706.061140,0.000000
32.000000,11089.482735,27470.986840,-96.894812,2065.122374,4303.135491,14978.775678,-5378.589675,-3537.029450,2709.254945,-3940.277271,2944.819980,-2619.110360,14756.442875,16945.058637,-13138.310687,-562.928684,-0.002000,-0.012000,1.004000,192.000000,0.000000,0.000000,0.000000,0.000000,0.000000,0.000000,0.000000,0.000000,0.000000,1771417706.061152,0.000000
34.000000,11066.281625,27447.137528,-153.355319,2024.956289,4122.287526,14913.195659,-5409.725655,-3562.823363,2697.810852,-3951.877827,2923.965803,-2560.034699,14770.412716,16969.198521,-13142.266946,-543.884998,-0.002000,-0.012000,1.004000,192.000000,0.000000,0.000000,0.000000,0.000000,0.000000,0.000000,0.000000,0.000000,0.000000,1771417706.061162,0.000000
36.000000,11088.633369,27469.779845,-85.517774,2072.185525,4299.156880,14977.769849,-5372.107669,-3533.028487,2691.060625,-3964.886542,2916.634430,-2581.380615,14780.158076,16960.168417,-13135.226147,-548.020071,-0.002000,-0.012000,1.002000,192.000000,127.500000,120.000000,127.500000,80.000000,15.500000,40.000000,0.000000,0.000000,0.000000,1771417706.061174,0.000000
38.000000,11082.039604,27466.315325,-126.734391,2050.526685,4197.344684,14951.037163,-5392.470109,-3547.333604,2717.703905,-3927.670887,2942.450695,-2598.524403,14826.157966,16977.468667,-13132.923917,-559.821792,-0.002000,-0.012000,1.002000,192.000000,0.000000,0.000000,0.000000,0.000000,0.000000,0.000000,0.000000,0.000000,0.000000,1771417706.061185,0.000000
40.000000,11067.958005,27446.399921,-125.303879,2038.635557,4184.872411,14935.301535,-5396.538126,-3552.161581,2681.337617,-3976.084766,2905.682076,-2547.852999,14733.845262,16932.698123,-13140.098827,-511.676134,-0.002000,-0.012000,1.002000,192.000000,0.000000,0.000000,0.000000,0.000000,0.000000,0.000000,0.000000,0.000000,0.000000,1771417706.061196,0.000000
42.000000,11079.267988,27461.889680,-97.475958,2069.078632,4313.819625,14967.890378,-5377.852068,-3539.465790,2700.113082,-3944.032364,2936.795704,-2623.245433,14780.694518,16986.252902,-13124.497309,-553.272731,-0.002000,-0.012000,1.002000,192.000000,0.000000,0.000000,0.000000,0.000000,0.000000,0.000000,0.000000,0.000000,0.000000,1771417706.540756,0.000000
44.000000,11063.420601,27448.053950,-153.623540,2018.675449,4114.978506,14930.697075,-5407.736350,-3558.554179,2689.920686,-3963.299568,2915.114512,-2569.578894,14756.174655,16959.922547,-13133.594469,-538.542931,-0.002000,-0.012000,1.002000,192.000000,0.000000,0.000000,0.000000,0.000000,0.000000,0.000000,0.000000,0.000000,0.000000,1771417706.540828,0.000000
46.000000,11094.690692,27485.671936,-97.610068,2084.791909,4293.524241,14991.136192,-5372.353539,-3531.486217,2692.960524,-3940.724306,2921.082428,-2570.584723,14805.817879,16975.144085,-13148.816007,-527.232948,0.004000,-0.012000,1.008000,192.000000,0.000000,16.000000,127.500000,80.000000,15.500000,64.000000,0.000000,0.000000,0.000000,1771417706.540878,0.000000
48.000000,11098.848116,27470.785674,-129.640118,2059.489734,4187.196992,14946.164482,-5387.888001,-3537.789409,2722.643640,-3922.529986,2943.501227,-2596.289229,14769.473942,16994.098365,-13140.255289,-538.945262,0.004000,-0.012000,1.008000,192.000000,0.000000,0.000000,0.000000,0.000000,0.000000,0.000000,0.000000,0.000000,0.000000,1771417706.540948,0.000000
50.000000,11064.560540,27447.673970,-129.014269,2046.346908,4154.921073,14955.105180,-5389.586734,-3544.137304,2696.626210,-3963.098402,2917.126169,-2528.161112,14758.834512,16946.891480,-13176.800391,-530.742172,0.004000,-0.012000,1.008000,192.000000,0.000000,0.000000,0.000000,0.000000,0.000000,0.000000,0.000000,0.000000,0.000000,1771417706.540994,0.000000
52.000000,11088.476907,27471.232709,-98.794710,2069.436260,4290.685569,14975.244102,-5373.471126,-3529.452208,2703.734065,-3941.640728,2940.908425,-2616.763427,14779.845152,16983.436582,-13146.402019,-566.348501,0.004000,-0.012000,1.008000,192.000000,0.000000,0.000000,0.000000,0.000000,0.000000,0.000000,0.000000,0.000000,0.000000,1771417706.541035,0.000000
54.000000,11060.671337,27446.869307,-157.803316,2026.409152,4093.520831,14924.416235,-5408.161033,-3558.777697,2698.570812,-3947.206312,2922.892919,-2558.537133,14770.837399,16956.905062,-13160.751839,-547.260111,0.004000,-0.012000,1.008000,192.000000,0.000000,0.000000,0.000000,0.000000,0.000000,0.000000,0.000000,0.000000,0.000000,1771417706.541081,0.000000
56.000000,11071.377822,27455.497081,-95.352542,2061.680205,4291.110252,14973.724183,-5376.287446,-3537.632947,2677.962503,-3968.775745,2907.581974,-2583.727549,14770.926806,16959.341402,-13146.290260,-543.370908,0.003000,-0.014000,1.007000,192.000000,0.000000,8.000000,127.500000,64.000000,15.500000,56.000000,0.000000,0.000000,0.000000,1771417706.541124,0.000000
58.000000,11056.960947,27442.823642,-141.084211,2042.033022,4183.374844,14931.367628,-5397.141623,-3557.302482,2699.800158,-3944.613510,2926.648012,-2612.002505,14775.978300,16967.566844,-13132.029847,-573.478707,0.003000,-0.014000,1.007000,192.000000,0.000000,0.000000,0.000000,0.000000,0.000000,0.000000,0.000000,0.000000,0.000000,1771417706.541153,0.000000
60.000000,11053.786999,27444.120043,-145.263987,2050.526685,4161.447783,14943.035238,-5394.392359,-3556.497819,2661.511619,-3978.163478,2885.856078,-2548.948234,14736.996858,16937.056713,-13159.947176,-520.214500,0.003000,-0.014000,1.007000,192.000000,0.000000,0.000000,0.000000,0.000000,0.000000,0.000000,0.000000,0.000000,0.000000,1771417706.541164,0.000000
62.000000,11076.988110,27466.695305,-103.354466,2074.979493,4294.150090,14973.880645,-5373.314664,-3536.180083,2692.558192,-3933.504693,2925.217500,-2621.725514,14778.213475,16985.291777,-13147.452551,-543.974405,0.003000,-0.014000,1.007000,192.000000,0.000000,0.000000,0.000000,0.000000,0.000000,0.000000,0.000000,0.000000,0.000000,1771417706.541177,0.000000
64.000000,11060.693688,27443.695360,-154.271740,2026.878539,4113.123311,14916.168441,-5407.870460,-3562.219866,2688.713692,-3951.520199,2912.454654,-2565.287359,14752.933652,16959.296698,-13140.635269,-534.407858,0.003000,-0.014000,1.007000,192.000000,0.000000,0.000000,0.000000,0.000000,0.000000,0.000000,0.000000,0.000000,0.000000,1771417706.541187,0.000000
66.000000,11077.748069,27453.105444,-92.044484,2063.893028,4304.186023,14982.553122,-5375.572190,-3536.805932,2685.673855,-3964.908894,2909.504224,-2583.615790,14764.422448,16948.903137,-13130.509929,-528.819922,0.002500,-0.016000,1.006500,192.000000,0.000000,8.000000,127.500000,56.000000,15.500000,56.000000,0.000000,0.000000,0.000000,1771417706.541198,0.000000
68.000000,11080.206761,27455.631191,-123.225167,2042.882388,4211.493339,14948.444360,-5391.598391,-3543.511455,2710.037256,-3940.813713,2935.342841,-2609.119130,14817.306676,16985.627053,-13123.379722,-547.081297,0.002500,-0.016000,1.006500,192.000000,0.000000,0.000000,0.000000,0.000000,0.000000,0.000000,0.000000,0.000000,0.000000,1771417706.541209,0.000000
70.000000,11065.722831,27442.980104,-127.069667,2040.110772,4195.467138,14948.690229,-5393.699455,-3548.697060,2688.557230,-3963.768955,2907.581974,-2534.486656,14763.371916,16968.505617,-13150.157112,-532.776181,0.002500,-0.016000,1.006500,192.000000,0.000000,0.000000,0.000000,0.000000,0.000000,0.000000,0.000000,0.000000,0.000000,1771417706.541219,0.000000
72.000000,11099.093985,27473.378476,-78.499327,2072.185525,4315.965392,14980.317948,-5364.821001,-3516.689362,2717.122759,-3937.148027,2945.155256,-2614.684715,14796.094870,16975.881693,-13131.247536,-568.024882,0.002500,-0.016000,1.006500,192.000000,0.000000,0.000000,0.000000,0.000000,0.000000,0.000000,0.000000,0.000000,0.000000,1771417706.541229,0.000000
74.000000,11091.583799,27471.500930,-136.166827,2029.247824,4138.246672,14934.608630,-5393.140661,-3532.961432,2726.734010,-3932.811789,2945.803457,-2539.336984,14799.201763,16976.552245,-13156.169731,-569.120117,0.002500,-0.016000,1.006500,192.000000,0.000000,0.000000,0.000000,0.000000,0.000000,0.000000,0.000000,0.000000,0.000000,1771417706.541240,0.000000
76.000000,11088.320445,27459.162767,-85.942457,2064.720042,4308.008171,14974.014756,-5374.074623,-3532.961432,2713.591184,-3945.105248,2932.414762,-2561.174638,14787.668262,16969.131466,-13149.799484,-549.629396,0.005250,-0.013000,1.003250,192.000000,0.000000,32.000000,127.500000,88.000000,15.500000,32.000000,0.000000,0.000000,0.000000,1771417706.541251,0.000000
78.000000,11065.834590,27438.532107,-130.355374,2030.901853,4213.303830,14941.582375,-5397.611010,-3552.228636,2708.271469,-3947.720402,2931.878320,-2606.459273,14841.558318,16972.305414,-13117.076530,-561.587579,0.005250,-0.013000,1.003250,192.000000,0.000000,0.000000,0.000000,0.000000,0.000000,0.000000,0.000000,0.000000,0.000000,1771417706.541262,0.000000
80.000000,11067.801543,27446.690493,-130.109504,2036.959176,4186.951123,14952.087695,-5398.683894,-3550.909883,2684.220992,-3968.306359,2905.995000,-2541.572159,14737.823872,16937.615506,-13145.284432,-543.214445,0.005250,-0.013000,1.003250,192.000000,0.000000,0.000000,0.000000,0.000000,0.000000,0.000000,0.000000,0.000000,0.000000,1771417706.541273,0.000000
82.000000,11083.000729,27453.954810,-95.888984,2069.100984,4308.946944,14974.551198,-5376.823887,-3537.521188,2713.345315,-3938.802056,2929.665498,-2621.233776,14811.025835,16971.947786,-13126.441911,-565.923818,0.005250,-0.013000,1.003250,192.000000,0.000000,0.000000,0.000000,0.000000,0.000000,0.000000,0.000000,0.000000,0.000000,1771417706.541283,0.000000
84.000000,11048.489636,27425.612798,-151.187199,2025.112751,4106.931878,14906.490136,-5408.988048,-3562.979825,2693.631076,-3965.490039,2916.097989,-2571.478793,14744.954079,16960.861321,-13137.662487,-551.484591,0.005250,-0.013000,1.003250,192.000000,0.000000,0.000000,0.000000,0.000000,0.000000,0.000000,0.000000,0.000000,0.000000,1771417706.541294,0.000000
86.000000,11071.936616,27444.008284,-99.107635,2067.648121,4301.280296,14978.507457,-5375.192210,-3538.661127,2682.566963,-3972.173211,2906.352628,-2591.260086,14748.239785,16947.383219,-13140.434103,-545.695489,0.004625,-0.010500,1.003625,192.000000,0.000000,16.000000,127.500000,96.000000,15.500000,48.000000,0.000000,0.000000,0.000000,1771417706.541305,0.000000
88.000000,11061.945386,27434.844069,-137.150304,2049.051469,4186.325274,14946.879738,-5392.961847,-3548.719412,2703.376437,-3951.073164,2926.446846,-2618.953898,14798.240638,16962.627108,-13137.282507,-562.369890,0.004625,-0.010500,1.003625,192.000000,0.000000,0.000000,0.000000,0.000000,0.000000,0.000000,0.000000,0.000000,0.000000,1771417706.541315,0.000000
90.000000,11055.865712,27430.798403,-139.474885,2039.842551,4175.305864,14945.359820,-5395.532298,-3553.055650,2676.576695,-3972.910818,2896.316695,-2546.288377,14756.152303,16944.902175,-13153.398115,-538.878207,0.004625,-0.010500,1.003625,192.000000,0.000000,0.000000,0.000000,0.000000,0.000000,0.000000,0.000000,0.000000,0.000000,1771417706.541326,0.000000
92.000000,11073.612997,27445.617610,-101.901603,2068.408080,4304.297782,14982.530771,-5371.079489,-3530.458037,2701.878870,-3950.402612,2928.547910,-2631.001488,14790.506934,16953.149969,-13124.609068,-571.869382,0.004625,-0.010500,1.003625,192.000000,0.000000,0.000000,0.000000,0.000000,0.000000,0.000000,0.000000,0.000000,0.000000,1771417706.541336,0.000000
94.000000,11061.967738,27432.184211,-149.533170,2023.793998,4101.746273,14929.177157,-5397.566306,-3544.673746,2698.973143,-3956.102306,2923.272899,-2564.572104,14747.792750,16939.649515,-13151.878196,-555.083222,0.004625,-0.010500,1.003625,192.000000,0.000000,0.000000,0.000000,0.000000,0.000000,0.000000,0.000000,0.000000,0.000000,1771417706.541347,0.000000
96.000000,11089.549791,27456.257040,-79.438100,2074.800679,4307.807005,14983.469544,-5362.921102,-3517.829301,2699.353123,-3961.891408,2929.106704,-2577.334950,14762.231977,16966.918643,-13150.782961,-563.710995,0.004313,-0.010250,1.004812,192.000000,0.000000,16.000000,127.500000,88.000000,15.500000,56.000000,0.000000,0.000000,0.000000,1771417706.541358,0.000000
98.000000,11071.646043,27441.974275,-115.714981,2041.988318,4220.098760,14954.077000,-5381.763623,-3534.481351,2719.089713,-3937.952690,2948.955053,-2603.285325,14845.760446,16970.986661,-13128.274754,-587.806176,0.004313,-0.010250,1.004812,192.000000,0.000000,0.000000,0.000000,0.000000,0.000000,0.000000,0.000000,0.000000,0.000000,1771417706.541368,0.000000
