Sample_index,EXG Channel 0,EXG Channel 1,EXG Channel 2,EXG Channel 3,EXG Channel 4,EXG Channel 5,EXG Channel 6,EXG Channel 7,EXG Channel 8,EXG Channel 9,EXG Channel 10,EXG Channel 11,EXG Channel 12,EXG Channel 13,EXG Channel 14,EXG Channel 15,Accel Channel 0,Accel Channel 1,Accel Channel 2,Not Used,Digital Channel 0 (D11),Digital Channel 1 (D12),Digital Channel 2 (D13),Digital Channel 3 (D17),Not Used,Digital Channel 4 (D18),Analog Channel 0,Analog Channel 1,Analog Channel 2,Timestamp,Marker Channel
90.000000,6534.890119,16991.505562,2988.450585,2995.916068,4578.106651,18759.573252,-7797.830736,-4793.398654,1994.312047,-4960.790868,4315.741875,-2532.117371,17615.387453,17450.275117,-10668.532332,4272.312435,-0.002000,-0.014000,1.004000,192.000000,0.000000,0.000000,0.000000,0.000000,0.000000,0.000000,0.000000,0.000000,0.000000,1771416819.241495,101.000000
92.000000,6507.732750,16967.812713,2938.203864,2958.208675,4477.121470,18712.008740,-7826.306859,-4816.823282,2002.358675,-4955.851132,4324.548462,-2538.487618,17613.040520,17449.895138,-10645.331221,4275.732252,-0.002000,-0.014000,1.004000,192.000000,0.000000,0.000000,0.000000,0.000000,0.000000,0.000000,0.000000,0.000000,0.000000,1771416819.241581,0.000000
94.000000,6518.863919,16976.798114,2952.129001,2966.791745,4494.131147,18716.456737,-7819.847205,-4810.631849,1978.643474,-4977.755842,4293.501889,-2522.573176,17593.594503,17429.689161,-10687.508963,4276.469860,0.002000,-0.010000,1.004000,192.000000,0.000000,8.000000,127.500000,88.000000,15.500000,48.000000,0.000000,0.000000,0.000000,1771416819.241633,0.000000
96.000000,6533.884291,16990.432679,2983.130870,2985.276638,4560.471125,18740.350752,-7799.641228,-4793.286895,2012.886347,-4948.855036,4332.997421,-2545.617824,17634.140567,17455.058391,-10657.647032,4256.241531,0.002000,-0.010000,1.004000,192.000000,0.000000,0.000000,0.000000,0.000000,0.000000,0.000000,0.000000,0.000000,0.000000,1771416819.241681,0.000000
98.000000,6499.552011,16964.236434,2918.511977,2937.578015,4417.151739,18689.500533,-7830.218414,-4817.918517,1991.093396,-4963.383670,4309.528090,-2520.494464,17622.316494,17432.572536,-10688.872419,4247.032612,0.002000,-0.010000,1.004000,192.000000,0.000000,0.000000,0.000000,0.000000,0.000000,0.000000,0.000000,0.000000,0.000000,1771416819.241729,0.000000
100.000000,6531.291489,16990.075051,2995.603144,2986.818908,4579.894791,18731.968848,-7792.533373,-4787.162517,1995.362579,-4970.670339,4311.629154,-2538.822894,17630.877212,17428.057483,-10682.390414,4233.822731,0.002000,-0.010000,1.004000,192.000000,0.000000,0.000000,0.000000,0.000000,0.000000,0.000000,0.000000,0.000000,0.000000,1771416819.241752,0.000000
102.000000,6514.080645,16983.123658,2950.653786,2962.142582,4463.173981,18698.955321,-7810.392417,-4796.147918,2013.065161,-4946.217531,4332.885663,-2526.976469,17641.494291,17444.351905,-10678.657672,4230.715839,0.002000,-0.010000,1.004000,192.000000,0.000000,0.000000,0.000000,0.000000,0.000000,0.000000,0.000000,0.000000,0.000000,1771416819.241764,0.000000
104.000000,6516.181709,16987.146972,2956.934626,2967.328187,4476.719138,18692.942702,-7807.956077,-4796.527898,1975.357768,-4971.899685,4303.180194,-2510.212661,17574.036726,17413.953532,-10708.586658,4234.023897,0.002000,-0.010000,1.004000,192.000000,0.000000,0.000000,127.500000,96.000000,15.500000,32.000000,0.000000,0.000000,0.000000,1771416819.241794,0.000000
106.000000,6534.487788,17003.709615,2983.130870,2994.351446,4549.228197,18741.155415,-7787.839507,-4775.964293,2007.745446,-4935.891025,4339.702945,-2531.335060,17643.125968,17469.810542,-10681.786916,4228.234795,0.002000,-0.010000,1.004000,192.000000,0.000000,0.000000,0.000000,0.000000,0.000000,0.000000,0.000000,0.000000,0.000000,1771416819.241806,0.000000
108.000000,6500.066102,16972.081896,2919.003715,2954.788858,4396.878707,18700.005853,-7823.065856,-4806.787349,1992.278039,-4954.666490,4315.853633,-2504.982353,17595.047366,17443.591946,-10703.669274,4235.499112,0.002000,-0.010000,1.004000,192.000000,0.000000,0.000000,0.000000,0.000000,0.000000,0.000000,0.000000,0.000000,0.000000,1771416819.241817,0.000000
110.000000,6540.187483,17009.677530,2990.886926,3008.723618,4553.072697,18763.618918,-7784.687911,-4772.432717,1990.087568,-4954.957063,4315.764226,-2518.974545,17595.382642,17436.953477,-10713.012303,4251.949996,0.002000,-0.010000,1.004000,192.000000,0.000000,0.000000,0.000000,0.000000,0.000000,0.000000,0.000000,0.000000,0.000000,1771416819.241827,0.000000
112.000000,6517.031076,16987.638710,2943.076544,2961.606140,4454.434449,18705.012644,-7813.387551,-4798.584258,2016.462626,-4931.286565,4334.852616,-2514.303030,17591.336976,17471.531626,-10695.019149,4252.709955,0.002000,-0.010000,1.004000,192.000000,0.000000,0.000000,0.000000,0.000000,0.000000,0.000000,0.000000,0.000000,0.000000,1771416819.241839,0.000000
114.000000,6516.561689,16982.251940,2955.995852,2963.394280,4470.684167,18714.042749,-7813.164033,-4803.993381,1976.855335,-4972.950217,4299.559212,-2514.124216,17578.238854,17410.846640,-10692.515754,4251.815886,0.002000,-0.012000,1.003000,192.000000,0.000000,8.000000,127.500000,72.000000,15.500000,40.000000,0.000000,0.000000,0.000000,1771416819.241850,0.000000
116.000000,6537.617032,16999.283969,2984.047292,2993.323266,4548.021203,18745.089322,-7795.170879,-4787.095462,2006.739617,-4944.094115,4327.431837,-2539.560502,17614.985122,17473.029193,-10665.380736,4271.999511,0.002000,-0.012000,1.003000,192.000000,0.000000,0.000000,0.000000,0.000000,0.000000,0.000000,0.000000,0.000000,0.000000,1771416819.241862,0.000000
118.000000,6520.182672,16986.409365,2926.290384,2952.084297,4402.488995,18704.006815,-7825.122216,-4806.653238,2004.616201,-4955.269987,4313.841976,-2506.569327,17607.318474,17441.647344,-10690.906428,4279.733214,0.002000,-0.012000,1.003000,192.000000,0.000000,0.000000,0.000000,0.000000,0.000000,0.000000,0.000000,0.000000,0.000000,1771416819.241873,0.000000
120.000000,6553.106791,17018.484118,3000.297010,3008.433045,4561.499305,18750.319630,-7785.850201,-4774.802002,1996.569573,-4947.156304,4321.262756,-2517.924013,17584.273825,17443.211966,-10688.090108,4275.039348,0.002000,-0.012000,1.003000,192.000000,0.000000,0.000000,0.000000,0.000000,0.000000,0.000000,0.000000,0.000000,0.000000,1771416819.241884,0.000000
122.000000,6537.505274,17001.072109,2947.144562,2974.547800,4472.047624,18713.506307,-7808.760739,-4791.252886,2018.720152,-4928.827873,4339.188855,-2511.911394,17643.371838,17477.208969,-10668.219408,4255.526275,0.002000,-0.012000,1.003000,192.000000,0.000000,0.000000,0.000000,0.000000,0.000000,0.000000,0.000000,0.000000,0.000000,1771416819.241896,0.000000
124.000000,6546.602434,17010.012807,2967.194076,2978.593466,4480.206010,18712.634589,-7803.597486,-4786.044930,2000.212908,-4954.934711,4312.098540,-2495.058178,17586.799572,17441.021495,-10699.489498,4247.099667,0.003000,-0.018000,1.002500,192.000000,0.000000,16.000000,127.500000,32.000000,15.500000,40.000000,0.000000,0.000000,0.000000,1771416819.241908,0.000000
126.000000,6564.997919,17028.520051,2990.484594,2997.413635,4549.027032,18737.646191,-7786.587809,-4774.086746,2035.796885,-4913.785149,4348.911863,-2517.119350,17630.631343,17465.697821,-10680.177591,4233.554510,0.003000,-0.018000,1.002500,192.000000,0.000000,0.000000,0.000000,0.000000,0.000000,0.000000,0.000000,0.000000,0.000000,1771416819.241920,0.000000
128.000000,6528.631631,16992.936074,2926.402143,2962.209637,4409.619201,18678.034088,-7820.450702,-4806.250907,2015.121521,-4933.722905,4321.240404,-2495.706379,17595.963788,17454.857225,-10705.390359,4230.447618,0.003000,-0.018000,1.002500,192.000000,0.000000,0.000000,0.000000,0.000000,0.000000,0.000000,0.000000,0.000000,0.000000,1771416819.241932,0.000000
130.000000,6562.427469,17022.373321,3000.229955,3010.936440,4571.915218,18757.583947,-7784.196172,-4775.271389,2006.672562,-4943.021231,4316.904165,-2519.734504,17613.912238,17444.955402,-10700.227106,4233.286289,0.003000,-0.018000,1.002500,192.000000,0.000000,0.000000,0.000000,0.000000,0.000000,0.000000,0.000000,0.000000,0.000000,1771416819.241943,0.000000
132.000000,6550.022250,17010.303379,2951.927835,2980.202792,4458.055432,18713.729824,-7810.884155,-4790.649389,2036.199216,-4918.456664,4343.927424,-2512.447835,17642.075436,17488.653062,-10691.666388,4237.175493,0.003000,-0.018000,1.002500,192.000000,0.000000,0.000000,0.000000,0.000000,0.000000,0.000000,0.000000,0.000000,0.000000,1771416819.241955,0.000000
134.000000,6548.636442,17005.296589,2962.276693,2982.639132,4480.138955,18725.665656,-7809.788920,-4793.108081,2014.629783,-4944.630557,4314.423122,-2495.572268,17596.164953,17446.162396,-10719.561365,4251.368851,-0.000500,-0.019000,1.004250,192.000000,127.500000,112.000000,127.500000,48.000000,15.500000,56.000000,0.000000,0.000000,0.000000,1771416819.241966,0.000000
136.000000,6566.607245,17021.345141,2990.506946,3010.109426,4559.018261,18746.810406,-7794.433271,-4779.249999,2033.874635,-4922.167053,4343.279224,-2528.027001,17619.276657,17474.258539,-10665.268977,4259.661348,-0.000500,-0.019000,1.004250,192.000000,0.000000,0.000000,0.000000,0.000000,0.000000,0.000000,0.000000,0.000000,0.000000,1771416819.241978,0.000000
138.000000,6554.760820,17010.661007,2935.588710,2968.624588,4419.766893,18696.653092,-7818.975487,-4791.923439,2020.955327,-4928.805522,4327.633003,-2492.621838,17636.040465,17463.641460,-10678.031823,4259.661348,-0.000500,-0.019000,1.004250,192.000000,0.000000,0.000000,0.000000,0.000000,0.000000,0.000000,0.000000,0.000000,0.000000,1771416819.241989,0.000000
140.000000,6571.144649,17024.206164,3005.415559,3006.756664,4573.345730,18750.766665,-7785.671387,-4771.426889,2041.071897,-4925.206891,4341.736953,-2503.931821,17601.350558,17461.138065,-10673.114440,4254.989833,-0.000500,-0.019000,1.004250,192.000000,0.000000,0.000000,0.000000,0.000000,0.000000,0.000000,0.000000,0.000000,0.000000,1771416819.242000,0.000000
142.000000,6551.117486,17011.935057,2948.798591,2983.086167,4451.863998,18700.207019,-7805.385626,-4781.127546,2025.425676,-4925.363353,4349.135381,-2514.526548,17619.500174,17463.864978,-10657.982309,4258.610816,-0.000500,-0.019000,1.004250,192.000000,0.000000,0.000000,0.000000,0.000000,0.000000,0.000000,0.000000,0.000000,0.000000,1771416819.242012,0.000000
144.000000,6534.756009,16985.112963,2962.723728,2982.169745,4462.324615,18700.966978,-7804.357446,-4786.804889,2004.236222,-4952.051336,4318.379381,-2494.611143,17590.755831,17437.288754,-10699.109518,4264.422269,-0.002250,-0.017500,1.003125,192.000000,127.500000,112.000000,127.500000,64.000000,15.500000,40.000000,0.000000,0.000000,0.000000,1771416819.242023,0.000000
146.000000,6560.169942,17022.194507,2988.562344,3011.159958,4530.385677,18723.050502,-7782.229219,-4757.971139,2021.044734,-4934.616975,4348.218959,-2522.483769,17640.935497,17458.634670,-10673.181495,4248.507827,-0.002250,-0.017500,1.003125,192.000000,0.000000,0.000000,0.000000,0.000000,0.000000,0.000000,0.000000,0.000000,0.000000,1771416819.242034,0.000000
148.000000,6532.722000,17001.541496,2932.750038,2966.702338,4394.688236,18671.619138,-7814.996876,-4783.027444,2010.114731,-4935.935728,4335.903148,-2484.955190,17598.623645,17459.908719,-10704.138661,4240.550606,-0.002250,-0.017500,1.003125,192.000000,0.000000,0.000000,0.000000,0.000000,0.000000,0.000000,0.000000,0.000000,0.000000,1771416819.242045,0.000000
150.000000,6565.020271,17029.771749,3001.526356,3011.651696,4551.888055,18728.794900,-7779.770527,-4757.300586,2010.829986,-4924.044600,4336.976032,-2500.154376,17613.353445,17454.879577,-10710.911239,4218.489435,-0.002250,-0.017500,1.003125,192.000000,0.000000,0.000000,0.000000,0.000000,0.000000,0.000000,0.000000,0.000000,0.000000,1771416819.242056,0.000000
152.000000,6528.028134,16985.470591,2943.210655,2974.838373,4429.132274,18698.843562,-7810.593582,-4791.386997,2019.189539,-4933.030001,4350.364727,-2512.291373,17597.170782,17479.175923,-10698.081338,4223.943260,-0.002250,-0.017500,1.003125,192.000000,0.000000,0.000000,0.000000,0.000000,0.000000,0.000000,0.000000,0.000000,0.000000,1771416819.242068,0.000000
154.000000,6523.758951,16986.588178,2953.380698,2976.313588,4453.093344,18717.999007,-7810.370065,-4792.929267,1982.577381,-4966.624673,4306.063569,-2508.670391,17584.586750,17438.026361,-10715.046312,4238.427191,-0.006125,-0.016750,1.002562,192.000000,127.500000,88.000000,127.500000,64.000000,15.500000,40.000000,0.000000,0.000000,0.000000,1771416819.242081,0.000000
156.000000,6551.162189,17013.164403,2988.025902,2999.112368,4537.270014,18746.810406,-7792.756890,-4771.046909,2014.361562,-4928.872577,4347.816628,-2529.323403,17639.370875,17480.673490,-10682.055137,4235.208539,-0.006125,-0.016750,1.002562,192.000000,0.000000,0.000000,0.000000,0.000000,0.000000,0.000000,0.000000,0.000000,0.000000,1771416819.242095,0.000000
158.000000,6529.704515,16986.610530,2929.173759,2956.197018,4403.360713,18698.687100,-7825.166920,-4795.857346,2010.070027,-4947.782153,4327.253023,-2500.780225,17583.692680,17452.152664,-10694.192135,4239.209502,-0.006125,-0.016750,1.002562,192.000000,0.000000,0.000000,0.000000,0.000000,0.000000,0.000000,0.000000,0.000000,0.000000,1771416819.242106,0.000000
160.000000,6562.650986,17024.742606,2999.693513,3010.668219,4560.247607,18764.602395,-7785.403166,-4765.436621,1998.245954,-4940.473132,4335.724334,-2512.492539,17585.614930,17460.936899,-10693.096899,4239.209502,-0.006125,-0.016750,1.002562,192.000000,0.000000,0.000000,0.000000,0.000000,0.000000,0.000000,0.000000,0.000000,0.000000,1771416819.242118,0.000000
162.000000,6539.136951,16993.181943,2939.701431,2976.917085,4463.889237,18727.900830,-7814.885117,-4792.549287,2020.821216,-4931.688897,4343.413334,-2516.806426,17620.506003,17490.932940,-10671.750983,4255.235702,-0.006125,-0.016750,1.002562,192.000000,0.000000,0.000000,0.000000,0.000000,0.000000,0.000000,0.000000,0.000000,0.000000,1771416819.242129,0.000000
164.000000,6546.445971,17002.882600,2963.349576,2990.819870,4491.337179,18734.338133,-7808.805443,-4782.513354,2000.302315,-4962.355490,4312.679686,-2503.864766,17603.831602,17447.056466,-10691.889905,4268.087955,-0.005063,-0.016375,1.001281,192.000000,127.500000,112.000000,127.500000,64.000000,15.500000,32.000000,0.000000,0.000000,0.000000,1771416819.242140,0.000000
166.000000,6563.701518,17021.322789,2997.212469,3010.824682,4573.658654,18761.227281,-7790.521716,-4763.469668,2027.124408,-4921.429446,4353.873951,-2524.584833,17630.385474,17486.574350,-10652.439076,4258.811982,-0.005063,-0.016375,1.001281,192.000000,0.000000,0.000000,0.000000,0.000000,0.000000,0.000000,0.000000,0.000000,0.000000,1771416819.242151,0.000000
168.000000,6539.785151,16993.226647,2933.599405,2964.221294,4425.757161,18712.880458,-7821.680048,-4787.542497,2017.177882,-4941.121333,4333.332698,-2497.941553,17631.748930,17459.796960,-10669.515809,4251.257092,-0.005063,-0.016375,1.001281,192.000000,0.000000,0.000000,0.000000,0.000000,0.000000,0.000000,0.000000,0.000000,0.000000,1771416819.242162,0.000000
170.000000,6554.045564,17007.107080,2993.904411,3012.255193,4546.076601,18762.166055,-7786.453698,-4762.463839,2007.209004,-4943.490618,4340.239387,-2518.013420,17601.708186,17448.911661,-10681.429289,4274.681720,-0.005063,-0.016375,1.001281,192.000000,0.000000,0.000000,0.000000,0.000000,0.000000,0.000000,0.000000,0.000000,0.000000,1771416819.242173,0.000000
172.000000,6535.024230,16996.624112,2945.244663,2980.828641,4434.340231,18704.163278,-7806.346751,-4775.897238,2004.727960,-4941.098981,4343.145113,-2518.929841,17596.746099,17464.647289,-10683.306835,4266.746851,-0.005063,-0.016375,1.001281,192.000000,0.000000,0.000000,0.000000,0.000000,0.000000,0.000000,0.000000,0.000000,0.000000,1771416819.242184,0.000000
174.000000,6556.683070,17005.721272,2965.942379,2985.656617,4458.390708,18710.242952,-7797.741329,-4761.860342,2000.347018,-4952.476019,4330.270509,-2491.191327,17608.123137,17434.830062,-10714.219298,4236.549644,-0.005063,-0.016375,1.001281,192.000000,0.000000,0.000000,0.000000,0.000000,0.000000,0.000000,0.000000,0.000000,0.000000,1771416819.242195,0.000000
176.000000,6561.421640,17009.364606,2994.865536,3008.388341,4526.407066,18740.082531,-7780.217562,-4745.901197,2043.910568,-4925.519815,4370.347186,-2510.860862,17613.554610,17486.261426,-10682.904504,4213.482644,-0.004000,-0.012000,1.002000,192.000000,127.500000,112.000000,127.500000,80.000000,15.500000,40.000000,0.000000,0.000000,0.000000,1771416819.242206,0.000000
178.000000,6536.454742,16991.013824,2936.818056,2966.769393,4387.289809,18689.232312,-7812.962867,-4770.801040,2012.998106,-4942.238920,4345.782619,-2486.318646,17599.115384,17461.562748,-10704.876268,4218.400028,-0.004000,-0.012000,1.002000,192.000000,0.000000,0.000000,0.000000,0.000000,0.000000,0.000000,0.000000,0.000000,0.000000,1771416819.242217,0.000000
180.000000,6552.525646,17003.463746,3006.220222,3007.449568,4551.821000,18746.273964,-7787.101899,-4759.692223,2018.697800,-4939.422600,4346.363765,-2506.010533,17626.652733,17471.553978,-10694.192135,4218.757655,-0.004000,-0.012000,1.002000,192.000000,0.000000,0.000000,0.000000,0.000000,0.000000,0.000000,0.000000,0.000000,0.000000,1771416819.242229,0.000000
182.000000,6542.355602,16996.490001,2959.303911,2982.192097,4451.416964,18714.355673,-7811.711170,-4776.076052,2019.278946,-4933.857016,4352.734012,-2516.873481,17630.161957,17486.328481,-10672.600349,4240.282385,-0.004000,-0.012000,1.002000,192.000000,0.000000,0.000000,0.000000,0.000000,0.000000,0.000000,0.000000,0.000000,0.000000,1771416819.242239,0.000000
184.000000,6536.991183,16989.225684,2966.836449,2980.627475,4476.093289,18734.002856,-7813.946344,-4786.491965,2005.465568,-4950.531417,4324.839035,-2498.455643,17603.898657,17458.031173,-10695.242667,4248.440772,-0.004000,-0.012000,1.002000,192.000000,0.000000,0.000000,0.000000,0.000000,0.000000,0.000000,0.000000,0.000000,0.000000,1771416819.242250,0.000000
186.000000,6557.219512,17007.285894,2999.805272,3005.080283,4558.571226,18754.588813,-7795.059120,-4770.175191,2028.934899,-4934.952251,4349.783581,-2535.447781,17648.915070,17480.382917,-10641.844349,4243.903368,-0.004000,-0.012000,1.002000,192.000000,0.000000,0.000000,127.500000,72.000000,15.500000,56.000000,0.000000,0.000000,0.000000,1771416819.242261,0.000000
188.000000,6522.373143,16982.274292,2934.784047,2960.510905,4417.643478,18699.000025,-7826.597431,-4795.991456,2010.941745,-4944.518798,4330.851654,-2501.137853,17644.400018,17466.055449,-10666.431268,4253.112287,-0.004000,-0.012000,1.002000,192.000000,0.000000,0.000000,0.000000,0.000000,0.000000,0.000000,0.000000,0.000000,0.000000,1771416819.242273,0.000000
190.000000,6567.031928,17018.171193,3011.674048,3009.483577,4584.611009,18758.388610,-7788.331245,-4765.950711,2017.088475,-4933.722905,4335.836093,-2513.520719,17635.191099,17480.494676,-10668.241759,4261.225970,-0.004000,-0.012000,1.002000,192.000000,0.000000,0.000000,0.000000,0.000000,0.000000,0.000000,0.000000,0.000000,0.000000,1771416819.242284,0.000000
192.000000,6520.115616,16965.778704,2945.848160,2961.650844,4485.570429,18713.327493,-7822.104731,-4802.942849,2025.112751,-4943.177693,4343.860369,-2523.601356,17632.508890,17462.434466,-10639.005678,4259.840162,-0.004000,-0.012000,1.002000,192.000000,0.000000,0.000000,0.000000,0.000000,0.000000,0.000000,0.000000,0.000000,0.000000,1771416819.242295,0.000000
194.000000,6535.426561,16978.630957,2961.740251,2980.426309,4510.380865,18737.869708,-7812.515832,-4789.196526,1992.479204,-4978.895781,4304.655409,-2514.146568,17616.996779,17430.717341,-10664.553721,4269.250246,-0.004000,-0.012000,1.002000,192.000000,0.000000,0.000000,0.000000,0.000000,0.000000,0.000000,0.000000,0.000000,0.000000,1771416819.242306,0.000000
196.000000,6549.597567,16996.400594,2993.815004,3005.348504,4574.373910,18757.136912,-7791.281675,-4766.420098,2030.276004,-4939.243786,4354.835076,-2528.876368,17649.183291,17477.499542,-10633.596555,4268.400880,-0.002000,-0.016000,1.012000,192.000000,127.500000,120.000000,127.500000,64.000000,15.500000,80.000000,0.000000,0.000000,0.000000,1771416819.242316,0.000000
198.000000,6520.383837,16975.077030,2934.940509,2963.193114,4417.263498,18704.364443,-7820.428350,-4784.279142,2002.582193,-4959.047432,4332.863311,-2502.546013,17614.068701,17454.745466,-10663.391431,4276.894543,-0.002000,-0.016000,1.012000,192.000000,0.000000,0.000000,0.000000,0.000000,0.000000,0.000000,0.000000,0.000000,0.000000,1771416819.242328,0.000000
200.000000,6569.468268,17015.064301,3007.024885,3012.635173,4565.433212,18761.182578,-7779.055271,-4748.270482,2013.042809,-4945.055240,4344.687384,-2508.424521,17629.156128,17463.105019,-10678.322396,4261.024804,-0.002000,-0.016000,1.012000,192.000000,0.000000,0.000000,0.000000,0.000000,0.000000,0.000000,0.000000,0.000000,0.000000,1771416819.242339,0.000000
202.000000,6542.042678,16993.137240,2957.672233,2985.790728,4444.845551,18710.310007,-7801.675236,-4764.810773,2037.585025,-4930.861882,4366.323872,-2501.942516,17653.139550,17492.542266,-10675.483725,4241.936414,-0.002000,-0.016000,1.012000,192.000000,0.000000,0.000000,0.000000,0.000000,0.000000,0.000000,0.000000,0.000000,0.000000,1771416819.242349,0.000000
204.000000,6520.964983,16973.981795,2957.359309,2981.096861,4447.326594,18702.062214,-7807.531393,-4782.155726,1999.944687,-4958.242769,4330.672840,-2489.224373,17602.222276,17462.166245,-10715.403940,4225.262013,-0.002000,-0.016000,1.012000,192.000000,0.000000,0.000000,0.000000,0.000000,0.000000,0.000000,0.000000,0.000000,0.000000,1771416819.242360,0.000000
206.000000,6534.934823,16991.147934,2982.996760,2996.631324,4510.313810,18724.659827,-7791.639303,-4771.516296,2005.309106,-4949.257368,4344.240349,-2533.078496,17636.107521,17472.470399,-10668.554684,4235.007374,0.004000,-0.014000,1.010000,192.000000,0.000000,16.000000,127.500000,72.000000,15.500000,72.000000,0.000000,0.000000,0.000000,1771416819.242371,0.000000
208.000000,6518.215718,16974.093553,2931.744210,2954.498286,4381.388948,18682.415030,-7820.048370,-4791.118776,1998.938858,-4963.271912,4327.007154,-2503.998876,17606.223238,17459.998126,-10689.341806,4231.051115,0.004000,-0.014000,1.010000,192.000000,0.000000,0.000000,0.000000,0.000000,0.000000,0.000000,0.000000,0.000000,0.000000,1771416819.242382,0.000000
210.000000,6544.277852,17001.899123,2999.358237,3005.504966,4557.118363,18749.582022,-7783.346806,-4763.112040,2004.124463,-4954.398269,4335.836093,-2513.431312,17619.589581,17456.801827,-10683.128021,4222.155121,0.004000,-0.014000,1.010000,192.000000,0.000000,0.000000,0.000000,0.000000,0.000000,0.000000,0.000000,0.000000,0.000000,1771416819.721531,0.000000
212.000000,6524.518910,16987.839876,2942.785971,2973.161992,4451.975757,18717.686083,-7810.235955,-4785.419081,2007.857204,-4940.026097,4343.167465,-2516.180577,17624.797538,17467.418905,-10671.974501,4237.577824,0.004000,-0.014000,1.010000,192.000000,0.000000,0.000000,0.000000,0.000000,0.000000,0.000000,0.000000,0.000000,0.000000,1771416819.721599,0.000000
214.000000,6544.367259,16998.255789,2959.706242,2983.153222,4474.372205,18732.013551,-7803.753949,-4777.417156,1994.580268,-4960.612054,4315.540709,-2501.450777,17612.012340,17444.709533,-10691.509925,4248.530179,0.004000,-0.014000,1.010000,192.000000,0.000000,0.000000,0.000000,0.000000,0.000000,0.000000,0.000000,0.000000,0.000000,1771416819.721640,0.000000
216.000000,6547.652966,16999.485135,2987.735330,2996.653676,4551.262206,18755.080552,-7792.846297,-4774.980816,2024.844530,-4930.638365,4353.851599,-2527.490560,17640.846090,17482.931016,-10653.243739,4243.433981,-0.002000,-0.010000,1.004000,192.000000,127.500000,120.000000,127.500000,88.000000,15.500000,48.000000,0.000000,0.000000,0.000000,1771416819.721681,0.000000
218.000000,6511.554898,16967.812713,2916.656782,2951.234931,4417.308201,18703.336263,-7832.207719,-4810.028352,1998.156547,-4959.114487,4319.072285,-2516.113522,17618.673160,17443.726056,-10658.742268,4259.795458,-0.002000,-0.010000,1.004000,192.000000,0.000000,0.000000,0.000000,0.000000,0.000000,0.000000,0.000000,0.000000,0.000000,1771416819.721741,0.000000
220.000000,6541.707401,16992.533742,2988.808213,3003.090978,4587.181459,18766.703459,-7796.690797,-4782.692168,1992.948591,-4962.444897,4314.490177,-2534.330193,17599.875343,17457.070048,-10661.782105,4269.831392,-0.002000,-0.010000,1.004000,192.000000,0.000000,0.000000,0.000000,0.000000,0.000000,0.000000,0.000000,0.000000,0.000000,1771416819.721782,0.000000
222.000000,6518.103959,16974.361774,2945.714050,2977.140603,4471.131202,18722.826984,-7816.539146,-4796.125566,2013.936879,-4943.781190,4335.724334,-2526.060048,17627.345637,17471.442219,-10648.348707,4257.783801,-0.002000,-0.010000,1.004000,192.000000,0.000000,0.000000,0.000000,0.000000,0.000000,0.000000,0.000000,0.000000,0.000000,1771416819.721823,0.000000
224.000000,6519.690933,16973.288891,2954.095954,2981.879173,4493.728816,18725.486842,-7813.633420,-4794.538593,1985.281943,-4975.163040,4301.995552,-2515.375914,17602.155221,17431.946687,-10674.924931,4250.385374,-0.002000,-0.010000,1.004000,192.000000,0.000000,0.000000,0.000000,0.000000,0.000000,0.000000,0.000000,0.000000,0.000000,1771416819.721863,0.000000
226.000000,6531.872634,16980.329690,2991.490423,3001.526356,4557.923026,18743.815272,-7793.785071,-4779.808793,2018.764856,-4946.642214,4341.066401,-2539.113467,17646.411675,17473.945615,-10644.392448,4233.174531,-0.002000,-0.010000,1.004000,192.000000,0.000000,0.000000,127.500000,88.000000,15.500000,32.000000,0.000000,0.000000,0.000000,1771416819.721904,0.000000
228.000000,6509.342076,16963.252957,2933.644108,2957.739289,4413.620164,18679.196379,-7824.362257,-4804.351008,1996.279001,-4968.390461,4319.988706,-2518.996897,17594.198000,17448.688143,-10673.226198,4234.180359,-0.002000,-0.010000,1.004000,192.000000,0.000000,0.000000,0.000000,0.000000,0.000000,0.000000,0.000000,0.000000,0.000000,1771416819.721944,0.000000
230.000000,6536.387686,16989.650367,3002.576888,3018.893661,4569.434174,18750.274926,-7785.067890,-4774.399671,2002.828062,-4954.912359,4328.527072,-2527.401153,17609.196020,17471.442219,-10673.159143,4228.748885,-0.002000,-0.010000,1.004000,192.000000,0.000000,0.000000,0.000000,0.000000,0.000000,0.000000,0.000000,0.000000,0.000000,1771416819.721986,0.000000
232.000000,6508.023323,16971.165475,2945.512884,2982.125042,4461.028214,18703.403318,-7810.370065,-4795.879697,2001.062274,-4943.557673,4335.299651,-2525.613013,17635.705189,17473.811504,-10655.233044,4233.710973,-0.002000,-0.010000,1.004000,192.000000,0.000000,0.000000,0.000000,0.000000,0.000000,0.000000,0.000000,0.000000,0.000000,1771416819.722027,0.000000
234.000000,6510.794939,16968.282100,2962.544914,2986.103652,4492.611229,18702.129269,-7805.609143,-4792.526936,1978.241143,-4969.418641,4307.807005,-2511.978449,17619.522526,17438.585155,-10676.131925,4231.475798,-0.002000,-0.010000,1.004000,192.000000,0.000000,0.000000,0.000000,0.000000,0.000000,0.000000,0.000000,0.000000,0.000000,1771416819.722067,0.000000
236.000000,6524.340096,16980.910835,2987.355350,3003.605068,4567.757793,18730.292467,-7792.667483,-4782.043967,1999.475300,-4951.738411,4339.680593,-2540.521627,17641.315477,17464.602585,-10645.063000,4223.496225,-0.002000,-0.014000,1.006000,192.000000,127.500000,120.000000,127.500000,72.000000,15.500000,56.000000,0.000000,0.000000,0.000000,1771416819.722119,0.000000
238.000000,6488.242029,16944.388085,2920.367172,2954.967672,4418.448140,18674.837789,-7832.006554,-4816.420950,1982.376216,-4974.090156,4309.841014,-2520.114484,17588.185380,17431.566707,-10664.106687,4243.679851,-0.002000,-0.014000,1.006000,192.000000,0.000000,0.000000,0.000000,0.000000,0.000000,0.000000,0.000000,0.000000,0.000000,1771416819.722165,0.000000
240.000000,6507.665695,16961.889501,2986.081301,2998.978257,4580.207715,18732.013551,-7801.831699,-4794.762110,1972.876724,-4986.249505,4302.487290,-2543.427353,17617.041483,17432.706646,-10656.127114,4238.404839,-0.002000,-0.014000,1.006000,192.000000,0.000000,0.000000,0.000000,0.000000,0.000000,0.000000,0.000000,0.000000,0.000000,1771416819.722182,0.000000
242.000000,6491.840660,16949.059600,2935.119323,2966.389414,4477.948484,18687.533580,-7827.849129,-4810.542442,1981.571553,-4980.974493,4313.864328,-2549.238807,17602.624607,17441.200309,-10622.085407,4251.480609,-0.002000,-0.014000,1.006000,192.000000,0.000000,0.000000,0.000000,0.000000,0.000000,0.000000,0.000000,0.000000,0.000000,1771416819.722193,0.000000
244.000000,6493.271171,16950.914794,2938.650899,2972.670254,4490.890144,18708.030129,-7823.803463,-4809.871889,1961.767907,-4999.660552,4287.757491,-2530.105714,17602.065814,17415.696969,-10670.991024,4281.610761,-0.002000,-0.014000,1.006000,192.000000,0.000000,0.000000,0.000000,0.000000,0.000000,0.000000,0.000000,0.000000,0.000000,1771416819.722205,0.000000
246.000000,6512.471320,16964.482303,2971.306797,3000.654638,4561.096974,18741.177766,-7806.145585,-4790.448223,1983.382044,-4974.961874,4319.720485,-2559.386499,17614.716901,17464.200254,-10634.691791,4277.453336,-0.002000,-0.012000,1.006000,192.000000,127.500000,120.000000,127.500000,88.000000,15.500000,56.000000,0.000000,0.000000,0.000000,1771416819.722216,0.000000
248.000000,6492.645322,16950.959498,2917.550852,2959.549780,4425.578347,18689.455830,-7832.967679,-4808.329619,1978.218791,-4984.684883,4305.325962,-2523.802522,17596.835506,17428.817443,-10662.944396,4268.490287,-0.002000,-0.012000,1.006000,192.000000,0.000000,0.000000,0.000000,0.000000,0.000000,0.000000,0.000000,0.000000,0.000000,1771416819.722228,0.000000
250.000000,6530.106846,16989.024519,2994.239687,3015.049161,4589.304875,18747.793883,-7792.041635,-4772.320959,1982.935009,-4971.229133,4313.618459,-2530.888025,17626.272753,17447.257632,-10659.949262,4254.453391,-0.002000,-0.012000,1.006000,192.000000,0.000000,0.000000,0.000000,0.000000,0.000000,0.000000,0.000000,0.000000,0.000000,1771416819.722241,0.000000
252.000000,6517.992201,16974.272367,2943.992966,2980.582771,4474.908647,18709.170068,-7812.605239,-4786.022578,2005.219699,-4946.351641,4339.054744,-2521.835568,17640.421407,17473.655042,-10650.717992,4240.215330,-0.002000,-0.012000,1.006000,192.000000,0.000000,0.000000,0.000000,0.000000,0.000000,0.000000,0.000000,0.000000,0.000000,1771416819.722252,0.000000
254.000000,6517.701628,16970.494922,2952.821905,2982.259152,4484.631656,18706.733728,-7809.140719,-4788.637732,1984.723149,-4981.756804,4309.192814,-2515.174748,17614.605142,17433.131329,-10680.222294,4242.137580,-0.002000,-0.012000,1.006000,192.000000,0.000000,0.000000,0.000000,0.000000,0.000000,0.000000,0.000000,0.000000,0.000000,1771416819.722264,0.000000
0.000000,6526.128236,16982.564864,2985.164879,3005.348504,4559.510000,18725.710359,-7790.275847,-4776.724252,2000.637591,-4959.472115,4341.848712,-2545.550769,17620.371892,17456.757123,-10650.583881,4229.620603,-0.002000,-0.012000,1.006000,192.000000,0.000000,0.000000,127.500000,104.000000,15.500000,32.000000,0.000000,0.000000,0.000000,1771416819.722275,0.000000
2.000000,6505.698741,16962.090667,2925.373963,2965.763565,4424.483111,18670.546254,-7819.847205,-4797.936058,1983.359692,-4972.056147,4321.106293,-2511.084379,17619.097843,17440.976791,-10678.814134,4224.613813,-0.002000,-0.012000,1.006000,192.000000,0.000000,0.000000,0.000000,0.000000,0.000000,0.000000,0.000000,0.000000,0.000000,1771416819.722287,0.000000
4.000000,6519.288602,16970.785495,2985.187231,3004.409731,4569.545933,18726.135042,-7792.533373,-4784.994398,1979.224620,-4978.314636,4318.312325,-2532.631461,17626.876250,17445.402437,-10674.142620,4223.630336,-0.002000,-0.012000,1.006000,192.000000,0.000000,0.000000,0.000000,0.000000,0.000000,0.000000,0.000000,0.000000,0.000000,1771416819.722298,0.000000
6.000000,6489.650189,16946.645611,2931.543044,2967.261132,4450.567597,18680.716298,-7819.131949,-4809.782482,1974.240181,-4984.863697,4317.977049,-2544.477885,17616.102709,17429.175070,-10645.286518,4231.431095,-0.002000,-0.012000,1.006000,192.000000,0.000000,0.000000,0.000000,0.000000,0.000000,0.000000,0.000000,0.000000,0.000000,1771416819.722309,0.000000
8.000000,6502.010703,16956.726248,2944.484704,2977.498231,4475.154516,18701.436365,-7814.035751,-4804.306305,1953.631872,-5005.248488,4289.433871,-2526.484731,17561.407991,17396.966207,-10675.819001,4233.778028,-0.002000,-0.012000,1.006000,192.000000,0.000000,0.000000,0.000000,0.000000,0.000000,0.000000,0.000000,0.000000,0.000000,1771416819.722321,0.000000
10.000000,6516.539337,16970.517274,2964.891847,3002.666295,4539.594595,18729.756025,-7799.685931,-4791.454052,1988.455890,-4967.630502,4329.018811,-2548.232978,17615.521564,17452.979678,-10651.053268,4241.265862,0.000000,-0.012000,1.004000,192.000000,0.000000,8.000000,127.500000,80.000000,15.500000,40.000000,0.000000,0.000000,0.000000,1771416819.722332,0.000000
12.000000,6498.724997,16955.966289,2913.169910,2963.260169,4406.489957,18694.820248,-7826.932708,-4806.764997,1969.188687,-4989.311694,4305.258907,-2523.579004,17629.871384,17421.173146,-10674.656710,4254.498095,0.000000,-0.012000,1.004000,192.000000,0.000000,0.000000,0.000000,0.000000,0.000000,0.000000,0.000000,0.000000,0.000000,1771416819.722344,0.000000
14.000000,6519.646230,16977.222798,2980.783937,3009.416522,4554.056174,18747.838586,-7794.790899,-4786.849593,1976.229486,-4977.599380,4314.803101,-2533.279661,17596.679043,17422.000160,-10671.393355,4234.672098,0.000000,-0.012000,1.004000,192.000000,0.000000,0.000000,0.000000,0.000000,0.000000,0.000000,0.000000,0.000000,0.000000,1771416819.722355,0.000000
16.000000,6498.434424,16961.196597,2931.140713,2990.149318,4438.430600,18694.619083,-7812.873460,-4799.388921,1979.224620,-4966.892894,4321.016886,-2533.614937,17610.380663,17443.457835,-10666.677137,4247.949034,0.000000,-0.012000,1.004000,192.000000,0.000000,0.000000,0.000000,0.000000,0.000000,0.000000,0.000000,0.000000,0.000000,1771416819.722366,0.000000
18.000000,6505.408168,16965.622242,2947.189265,2990.909277,4464.984472,18702.799821,-7806.391455,-4795.902049,1958.325739,-4984.439014,4295.334732,-2510.592641,17605.060948,17413.126518,-10701.299989,4237.689583,0.000000,-0.012000,1.004000,192.000000,0.000000,0.000000,0.000000,0.000000,0.000000,0.000000,0.000000,0.000000,0.000000,1771416819.722378,0.000000
20.000000,6524.384800,16984.040080,2982.057987,3013.126911,4539.549892,18728.526679,-7786.319588,-4778.825316,1996.457815,-4953.235978,4334.494988,-2536.297147,17651.619631,17461.763914,-10658.876378,4222.423342,-0.001000,-0.015000,1.004000,192.000000,127.500000,120.000000,127.500000,56.000000,15.500000,48.000000,0.000000,0.000000,0.000000,1771416819.722389,0.000000
22.000000,6489.829003,16950.043076,2919.718971,2967.484649,4405.908812,18677.877626,-7821.948269,-4809.290744,1978.598771,-4972.257313,4310.556270,-2512.447835,17604.569209,17433.198384,-10678.568265,4228.212443,-0.001000,-0.015000,1.004000,192.000000,0.000000,0.000000,0.000000,0.000000,0.000000,0.000000,0.000000,0.000000,0.000000,1771416819.722401,0.000000
24.000000,6519.668581,16976.798114,2985.388396,3017.440798,4586.108576,18741.311877,-7789.202963,-4785.732005,1968.629893,-4974.447784,4308.321096,-2536.073629,17631.368951,17437.266402,-10664.464315,4237.354307,-0.001000,-0.015000,1.004000,192.000000,0.000000,0.000000,0.000000,0.000000,0.000000,0.000000,0.000000,0.000000,0.000000,1771416819.722412,0.000000
26.000000,6502.569497,16958.380277,2938.606195,2979.062853,4477.680263,18700.743461,-7814.862766,-4804.373360,1985.907791,-4961.662586,4318.982878,-2536.185388,17641.561346,17464.423771,-10643.364268,4241.511731,-0.001000,-0.015000,1.004000,192.000000,0.000000,0.000000,0.000000,0.000000,0.000000,0.000000,0.000000,0.000000,0.000000,1771416819.722425,0.000000
28.000000,6505.586982,16964.906986,2954.475934,2990.126966,4492.946505,18710.868801,-7810.392417,-4800.305343,1962.259646,-4983.611999,4292.540764,-2515.688838,17574.148485,17430.918506,-10672.130963,4241.422324,-0.001000,-0.015000,1.004000,192.000000,0.000000,0.000000,0.000000,0.000000,0.000000,0.000000,0.000000,0.000000,0.000000,1771416819.722436,0.000000
30.000000,6509.073855,16964.102324,2974.100765,3010.243536,4554.547912,18725.352731,-7800.535297,-4797.801947,1980.968056,-4961.573179,4320.994535,-2548.121220,17646.054047,17451.169187,-10636.524634,4240.260034,-0.001500,-0.015500,1.004000,192.000000,127.500000,120.000000,127.500000,64.000000,15.500000,48.000000,0.000000,0.000000,0.000000,1771416819.722447,0.000000
32.000000,6480.307159,16934.866242,2911.739398,2964.668329,4422.046771,18673.921367,-7834.420542,-4825.473407,1956.515247,-4998.118281,4293.166613,-2535.827760,17597.863686,17406.443346,-10658.116419,4264.668139,-0.001500,-0.015500,1.004000,192.000000,0.000000,0.000000,0.000000,0.000000,0.000000,0.000000,0.000000,0.000000,0.000000,1771416819.722458,0.000000
34.000000,6518.171015,16970.047888,2987.332998,3015.719714,4580.699453,18737.735598,-7793.718015,-4793.800985,1963.846620,-4988.752900,4301.123834,-2546.400135,17634.677009,17417.239239,-10651.835579,4249.111324,-0.001500,-0.015500,1.004000,192.000000,0.000000,0.000000,0.000000,0.000000,0.000000,0.000000,0.000000,0.000000,0.000000,1771416819.722470,0.000000
36.000000,6495.349883,16947.606736,2934.672288,2980.828641,4456.714327,18700.855219,-7822.730580,-4817.203262,1978.755233,-4980.952141,4317.686476,-2548.456496,17636.643962,17439.166300,-10642.760771,4259.482534,-0.001500,-0.015500,1.004000,192.000000,0.000000,0.000000,0.000000,0.000000,0.000000,0.000000,0.000000,0.000000,0.000000,1771416819.722481,0.000000
38.000000,6502.658904,16952.233547,2947.748059,2980.895696,4475.243923,18704.900885,-7818.573155,-4815.415122,1955.487067,-5005.092025,4285.634075,-2534.173731,17597.260189,17402.554143,-10677.763602,4267.283293,-0.001500,-0.015500,1.004000,192.000000,0.000000,0.000000,0.000000,0.000000,0.000000,0.000000,0.000000,0.000000,0.000000,1771416819.722492,0.000000
40.000000,6538.175826,16984.710632,2984.226106,3009.885908,4546.747154,18725.978580,-7792.399262,-4787.296627,1993.797957,-4971.095022,4325.755456,-2554.871446,17631.413654,17453.024382,-10652.640242,4245.177417,0.001250,-0.015750,1.003000,192.000000,0.000000,16.000000,127.500000,64.000000,15.500000,40.000000,0.000000,0.000000,0.000000,1771416819.722503,0.000000
42.000000,6509.632648,16959.654326,2920.791855,2964.780088,4407.272268,18679.263434,-7822.127083,-4810.095407,1992.859184,-4968.882199,4319.094636,-2514.638306,17619.567230,17439.479225,-10681.451640,4233.353345,0.001250,-0.015750,1.003000,192.000000,0.000000,0.000000,0.000000,0.000000,0.000000,0.000000,0.000000,0.000000,0.000000,1771416819.722515,0.000000
44.000000,6531.447951,16978.765068,2993.815004,3019.452455,4559.442944,18723.989275,-7786.364291,-4783.340369,1976.296541,-4979.409871,4312.411465,-2541.080420,17633.090035,17433.779530,-10661.625643,4226.916042,0.001250,-0.015750,1.003000,192.000000,0.000000,0.000000,0.000000,0.000000,0.000000,0.000000,0.000000,0.000000,0.000000,1771416819.722526,0.000000
46.000000,6522.529605,16972.640690,2944.529408,2988.048254,4443.169170,18683.890245,-7805.475033,-4793.622171,1996.390760,-4956.521685,4334.606747,-2528.988126,17631.972448,17444.441312,-10663.324376,4226.200786,0.001250,-0.015750,1.003000,192.000000,0.000000,0.000000,0.000000,0.000000,0.000000,0.000000,0.000000,0.000000,0.000000,1771416819.722537,0.000000
48.000000,6517.433407,16962.738867,2949.200922,2987.467109,4471.377071,18678.682289,-7806.927896,-4800.081825,1972.764966,-4987.657665,4302.509642,-2516.426446,17617.600276,17421.798995,-10686.324321,4228.145388,0.001250,-0.015750,1.003000,192.000000,0.000000,0.000000,0.000000,0.000000,0.000000,0.000000,0.000000,0.000000,0.000000,1771416819.722548,0.000000
50.000000,6515.757026,16961.017783,2969.652768,3006.957830,4539.505188,18699.000025,-7798.858917,-4797.645485,1988.835870,-4978.448746,4324.861386,-2556.726641,17623.188212,17429.242126,-10640.771465,4231.207577,-0.000375,-0.014875,1.004500,192.000000,127.500000,120.000000,127.500000,72.000000,15.500000,56.000000,0.000000,0.000000,0.000000,1771416819.722561,0.000000
52.000000,6498.255610,16951.294774,2912.275840,2969.853934,4416.257669,18667.372306,-7827.536205,-4814.945735,1961.566742,-4991.457461,4294.284200,-2529.613975,17597.506058,17421.620181,-10660.373945,4251.994699,-0.000375,-0.014875,1.004500,192.000000,0.000000,0.000000,0.000000,0.000000,0.000000,0.000000,0.000000,0.000000,0.000000,1771416819.722572,0.000000
54.000000,6527.849320,16973.177132,2982.281504,3020.570042,4582.062910,18743.412941,-7794.299161,-4792.929267,1980.901001,-4978.381691,4311.048008,-2535.425429,17615.633323,17440.909736,-10653.288442,4253.984005,-0.000375,-0.014875,1.004500,192.000000,0.000000,0.000000,0.000000,0.000000,0.000000,0.000000,0.000000,0.000000,0.000000,1771416819.722584,0.000000
56.000000,6505.564631,16957.687373,2928.234986,2986.483632,4462.481077,18707.672502,-7819.936612,-4812.196471,1979.783413,-4979.722795,4312.724389,-2544.097906,17601.596427,17433.734826,-10636.010544,4283.667121,-0.000375,-0.014875,1.004500,192.000000,0.000000,0.000000,0.000000,0.000000,0.000000,0.000000,0.000000,0.000000,0.000000,1771416819.722595,0.000000
58.000000,6520.853224,16980.039117,2940.506094,3008.298934,4493.661761,18728.683141,-7813.320495,-4803.903974,1961.075003,-4984.841345,4290.640866,-2516.895833,17576.383659,17440.283887,-10670.521637,4289.702092,-0.000375,-0.014875,1.004500,192.000000,0.000000,0.000000,0.000000,0.000000,0.000000,0.000000,0.000000,0.000000,0.000000,1771416819.722607,0.000000
60.000000,6533.638422,16985.135315,2964.847143,3025.822702,4562.862761,18753.761799,-7798.277771,-4792.437529,1989.104091,-4946.172827,4323.542633,-2534.441952,17621.601238,17473.677394,-10638.245718,4281.342540,-0.000375,-0.014875,1.004500,192.000000,0.000000,0.000000,0.000000,0.000000,0.000000,0.000000,0.000000,0.000000,0.000000,1771416819.722619,0.000000
62.000000,6507.531584,16958.760257,2910.845329,2978.392300,4415.698876,18689.858161,-7828.810254,-4814.610459,1977.078852,-4972.167906,4301.302648,-2514.146568,17607.921971,17448.576385,-10665.090163,4279.979084,0.004000,-0.016000,1.006000,192.000000,0.000000,16.000000,127.500000,64.000000,15.500000,56.000000,0.000000,0.000000,0.000000,1771416819.722630,0.000000
64.000000,6536.097114,16988.130449,2981.968580,3022.291127,4567.467221,18743.748217,-7792.153393,-4792.124604,1978.688178,-4963.294263,4304.364837,-2530.440990,17597.416651,17444.575422,-10670.186361,4253.939301,0.004000,-0.016000,1.006000,192.000000,0.000000,0.000000,0.000000,0.000000,0.000000,0.000000,0.000000,0.000000,0.000000,1771416819.722641,0.000000
66.000000,6522.574308,16974.786457,2935.588710,2992.518603,4461.788173,18695.848429,-7811.845280,-4805.200375,1993.909716,-4949.011499,4322.961488,-2530.105714,17624.305800,17464.759048,-10664.173742,4238.471894,0.004000,-0.016000,1.006000,192.000000,0.000000,0.000000,0.000000,0.000000,0.000000,0.000000,0.000000,0.000000,0.000000,1771416819.722653,0.000000
68.000000,6528.385762,16976.708707,2959.147448,2993.613838,4487.023292,18695.691966,-7804.424501,-4797.913706,1973.100242,-4967.406984,4296.251153,-2507.284583,17623.925820,17430.605582,-10690.951132,4221.596327,0.004000,-0.016000,1.006000,192.000000,0.000000,0.000000,0.000000,0.000000,0.000000,0.000000,0.000000,0.000000,0.000000,1771416819.722664,0.000000
70.000000,6543.696707,16991.058527,2992.384492,3015.473844,4547.641223,18714.892115,-7785.805498,-4780.233476,2010.718228,-4942.551844,4339.948814,-2532.162074,17618.293180,17465.988394,-10653.958995,4208.677019,0.004000,-0.016000,1.006000,192.000000,0.000000,0.000000,0.000000,0.000000,0.000000,0.000000,0.000000,0.000000,0.000000,1771416819.722675,0.000000
72.000000,6500.624895,16952.188844,2918.444922,2968.579885,4398.845661,18661.538501,-7823.334077,-4817.315020,1976.408300,-4970.625635,4305.974162,-2513.252498,17619.678988,17436.506443,-10669.649919,4219.875243,-0.002000,-0.016000,1.006000,192.000000,127.500000,120.000000,127.500000,64.000000,15.500000,56.000000,0.000000,0.000000,0.000000,1771416819.722686,0.000000
74.000000,6529.771570,16973.959443,2990.395187,3018.357220,4556.537218,18724.413958,-7786.140774,-4791.230534,1970.619198,-4974.872467,4309.438683,-2533.637289,17584.072660,17441.602640,-10675.662538,4238.114266,-0.002000,-0.016000,1.006000,192.000000,0.000000,0.000000,0.000000,0.000000,0.000000,0.000000,0.000000,0.000000,0.000000,1771416820.202588,0.000000
76.000000,6496.042788,16943.583422,2933.711163,2985.611914,4454.702670,18670.680364,-7816.248574,-4817.829110,1973.882553,-4969.061013,4316.188910,-2538.532321,17619.008436,17458.031173,-10641.620832,4244.417458,-0.002000,-0.016000,1.006000,192.000000,0.000000,0.000000,0.000000,0.000000,0.000000,0.000000,0.000000,0.000000,0.000000,1771416820.202650,0.000000
78.000000,6506.525756,16952.881748,2956.778164,2991.490423,4507.050455,18700.631702,-7810.146548,-4811.682381,1951.888436,-4998.967647,4285.522316,-2526.663545,17583.312700,17396.653282,-10651.500303,4249.915987,-0.002000,-0.016000,1.006000,192.000000,0.000000,0.000000,0.000000,0.000000,0.000000,0.000000,0.000000,0.000000,0.000000,1771416820.202691,0.000000
80.000000,6509.140910,16954.915757,2973.743138,3014.535071,4569.680043,18728.012589,-7801.205850,-4807.659067,1981.526849,-4968.591627,4319.608726,-2552.993900,17619.075491,17447.145873,-10610.954238,4270.121964,-0.002000,-0.016000,1.006000,192.000000,0.000000,0.000000,0.000000,0.000000,0.000000,0.000000,0.000000,0.000000,0.000000,1771416820.202731,0.000000
82.000000,6483.704625,16929.881803,2908.498396,2973.430213,4423.544338,18676.447115,-7835.739295,-4834.771733,1954.078907,-4998.699426,4285.611723,-2536.028926,17608.078433,17430.851451,-10639.296250,4307.024694,0.004000,-0.010000,1.012000,192.000000,0.000000,16.000000,127.500000,88.000000,15.500000,80.000000,0.000000,0.000000,0.000000,1771416820.202772,0.000000
84.000000,6513.991238,16959.095533,2985.142527,3019.228938,4578.844259,18740.574269,-7797.316646,-4804.730988,1956.694061,-4994.296133,4291.199659,-2551.988071,17578.194151,17420.502594,-10652.103800,4300.632095,0.004000,-0.010000,1.012000,192.000000,0.000000,0.000000,0.000000,0.000000,0.000000,0.000000,0.000000,0.000000,0.000000,1771416820.202813,0.000000
86.000000,6506.302238,16957.396800,2936.661594,2994.642019,4467.510220,18711.941685,-7816.047408,-4809.983648,1974.910733,-4963.830705,4316.501834,-2539.046411,17611.699416,17460.199292,-10648.505169,4285.902296,0.004000,-0.010000,1.012000,192.000000,0.000000,0.000000,0.000000,0.000000,0.000000,0.000000,0.000000,0.000000,0.000000,1771416820.202854,0.000000
88.000000,6515.891137,16963.007088,2945.892864,3003.672123,4486.017464,18718.982484,-7807.598449,-4801.758206,1962.103184,-4982.963798,4295.714712,-2516.851129,17592.566322,17437.668733,-10678.925893,4278.146240,0.004000,-0.010000,1.012000,192.000000,0.000000,0.000000,0.000000,0.000000,0.000000,0.000000,0.000000,0.000000,0.000000,1771416820.202866,0.000000
90.000000,6529.145721,16976.753411,2977.207658,3019.072475,4553.452677,18733.377008,-7791.169917,-4790.716444,1993.261515,-4948.363298,4331.008116,-2540.387516,17633.201794,17491.402327,-10646.158236,4259.616644,0.004000,-0.010000,1.012000,192.000000,0.000000,0.000000,0.000000,0.000000,0.000000,0.000000,0.000000,0.000000,0.000000,1771416820.202886,0.000000
92.000000,6496.311008,16946.444445,2919.271936,2976.313588,4411.429693,18664.310117,-7822.954097,-4819.416084,1970.239219,-4978.404043,4305.750645,-2520.762684,17605.105651,17446.810597,-10670.812210,4253.268749,0.004000,-0.010000,1.012000,192.000000,0.000000,0.000000,127.500000,88.000000,15.500000,56.000000,0.000000,0.000000,0.000000,1771416820.202897,0.000000
94.000000,6535.225396,16979.994414,2996.676027,3026.359144,4565.880247,18727.118519,-7781.804536,-4784.748529,1973.569628,-4973.553714,4309.192814,-2534.486656,17601.439965,17440.194480,-10666.252454,4229.374734,0.004000,-0.010000,1.012000,192.000000,0.000000,0.000000,0.000000,0.000000,0.000000,0.000000,0.000000,0.000000,0.000000,1771416820.202909,0.000000
96.000000,6504.424692,16954.289908,2936.058096,2989.478766,4449.785286,18682.347975,-7809.945382,-4809.894241,1987.360655,-4959.293301,4326.113084,-2534.352545,17608.436061,17464.244957,-10650.896806,4219.472911,0.004000,-0.010000,1.012000,192.000000,0.000000,0.000000,0.000000,0.000000,0.000000,0.000000,0.000000,0.000000,0.000000,1771416820.202920,0.000000
98.000000,6512.180747,16958.313222,2944.462352,2997.413635,4475.601551,18693.300330,-7805.877364,-4806.608535,1953.318948,-4987.344740,4289.210354,-2519.801559,17588.699471,17427.096358,-10680.289350,4227.050153,0.004000,-0.010000,1.012000,192.000000,0.000000,0.000000,0.000000,0.000000,0.000000,0.000000,0.000000,0.000000,0.000000,1771416820.202932,0.000000
100.000000,6527.625802,16971.523103,2966.523524,3020.078304,4537.895863,18723.296371,-7792.935704,-4794.359779,1985.080777,-4961.528475,4322.916785,-2551.876313,17630.050198,17461.428638,-10641.956108,4247.479647,0.004000,-0.010000,1.012000,192.000000,0.000000,0.000000,0.000000,0.000000,0.000000,0.000000,0.000000,0.000000,0.000000,1771416820.202943,0.000000
102.000000,6495.394587,16941.527062,2905.615020,2980.314550,4392.386006,18663.483103,-7827.715019,-4822.366514,1966.931160,-4978.672263,4302.062607,-2522.148493,17592.611026,17434.941820,-10665.112515,4259.504886,-0.002000,-0.010000,1.004000,192.000000,127.500000,120.000000,127.500000,88.000000,15.500000,48.000000,0.000000,0.000000,0.000000,1771416820.202955,0.000000
104.000000,6512.627782,16955.228681,2977.073547,3024.615708,4566.617854,18716.769662,-7795.640265,-4803.680456,1956.336433,-4989.624618,4292.674874,-2551.742202,17575.221369,17425.799957,-10650.650936,4260.398955,-0.002000,-0.010000,1.004000,192.000000,0.000000,0.000000,0.000000,0.000000,0.000000,0.000000,0.000000,0.000000,0.000000,1771416820.202967,0.000000
106.000000,6497.987389,16942.778759,2924.569300,2991.445719,4468.292531,18678.838751,-7819.847205,-4818.097331,1971.803841,-4975.475964,4306.532956,-2550.669319,17621.176555,17438.383989,-10627.539233,4260.443659,-0.002000,-0.010000,1.004000,192.000000,0.000000,0.000000,0.000000,0.000000,0.000000,0.000000,0.000000,0.000000,0.000000,1771416820.202978,0.000000
108.000000,6505.542279,16951.674754,2941.668384,3001.369894,4492.566525,18699.849391,-7815.510966,-4813.917555,1951.441401,-4994.944333,4276.849839,-2532.854978,17573.142656,17412.567724,-10658.004660,4280.314360,-0.002000,-0.010000,1.004000,192.000000,0.000000,0.000000,0.000000,0.000000,0.000000,0.000000,0.000000,0.000000,0.000000,1771416820.202990,0.000000
110.000000,6516.964020,16961.978908,2968.132850,3018.491330,4555.553741,18730.001894,-7801.563478,-4800.864136,1983.583210,-4962.534304,4314.020790,-2557.330138,17610.939456,17454.946632,-10629.752055,4278.950903,-0.002000,-0.010000,1.004000,192.000000,0.000000,0.000000,0.000000,0.000000,0.000000,0.000000,0.000000,0.000000,0.000000,1771416820.203001,0.000000
112.000000,6494.992256,16940.677695,2907.626677,2971.731481,4415.073027,18673.876664,-7832.274775,-4822.567680,1964.584227,-4981.063900,4290.439700,-2531.960908,17630.139605,17433.712475,-10654.629547,4279.509697,-0.002000,-0.010000,1.004000,192.000000,0.000000,0.000000,127.500000,72.000000,15.500000,24.000000,0.000000,0.000000,0.000000,1771416820.203012,0.000000
114.000000,6532.252614,16975.635824,2982.572077,3022.961679,4568.026014,18732.572345,-7793.963885,-4788.749491,1971.669730,-4971.519705,4299.492156,-2545.081382,17596.187305,17433.667771,-10660.552759,4270.054909,-0.002000,-0.010000,1.004000,192.000000,0.000000,0.000000,0.000000,0.000000,0.000000,0.000000,0.000000,0.000000,0.000000,1771416820.203024,0.000000
116.000000,6515.689971,16960.526044,2937.689774,2990.037559,4446.097248,18691.355728,-7817.388513,-4803.054607,1996.368408,-4950.240845,4322.514453,-2532.832626,17627.479747,17463.395591,-10657.579977,4258.499057,-0.002000,-0.010000,1.004000,192.000000,0.000000,0.000000,0.000000,0.000000,0.000000,0.000000,0.000000,0.000000,0.000000,1771416820.203035,0.000000
118.000000,6518.036904,16959.296698,2953.246588,2998.352408,4476.965007,18681.677423,-7813.387551,-4804.194546,1971.066233,-4983.857868,4294.708883,-2520.874443,17582.709203,17418.088605,-10686.257265,4253.156990,-0.002000,-0.010000,1.004000,192.000000,0.000000,0.000000,0.000000,0.000000,0.000000,0.000000,0.000000,0.000000,0.000000,1771416820.203046,0.000000
120.000000,6530.330364,16972.037193,2978.459356,3027.744952,4534.252528,18690.416955,-7793.427443,-4788.213049,1992.568611,-4960.813220,4324.570814,-2549.484676,17618.516698,17429.242126,-10655.613024,4241.757601,-0.002000,-0.010000,1.004000,192.000000,0.000000,0.000000,0.000000,0.000000,0.000000,0.000000,0.000000,0.000000,0.000000,1771416820.203058,0.000000
122.000000,6497.965038,16943.829291,2914.220442,2979.643998,4396.297562,18634.515242,-7825.055161,-4816.644468,1973.144945,-4972.391423,4299.335694,-2520.650926,17645.182329,17426.738730,-10678.970597,4241.690545,-0.002000,-0.010000,1.002000,192.000000,127.500000,120.000000,127.500000,88.000000,15.500000,40.000000,0.000000,0.000000,0.000000,1771416820.203071,0.000000
124.000000,6535.851244,16981.536684,2998.106539,3028.504911,4559.197075,18697.167182,-7783.167992,-4780.121717,1976.363596,-4973.777231,4303.984857,-2540.365164,17582.105706,17423.833004,-10658.831675,4227.072504,-0.002000,-0.010000,1.002000,192.000000,0.000000,0.000000,0.000000,0.000000,0.000000,0.000000,0.000000,0.000000,0.000000,1771416820.203082,0.000000
126.000000,6505.855203,16955.072219,2941.668384,2992.786824,4440.933995,18654.922385,-7811.420597,-4803.211069,1997.418940,-4952.185446,4326.426009,-2529.658679,17604.815078,17458.992298,-10642.671364,4227.899519,-0.002000,-0.010000,1.002000,192.000000,0.000000,0.000000,0.000000,0.000000,0.000000,0.000000,0.000000,0.000000,0.000000,1771416820.203094,0.000000
128.000000,6499.797881,16951.227719,2944.149428,3000.252306,4453.629786,18678.525827,-7809.297181,-4806.183852,1949.608558,-4993.044435,4282.817755,-2529.032830,17574.036726,17407.493878,-10664.732535,4252.017051,-0.002000,-0.010000,1.002000,192.000000,0.000000,0.000000,0.000000,0.000000,0.000000,0.000000,0.000000,0.000000,0.000000,1771416820.203105,0.000000
130.000000,6516.181709,16968.125638,2970.502135,3030.918900,4532.956127,18711.315836,-7795.394396,-4792.728101,1979.761062,-4952.587778,4318.200567,-2545.014327,17606.312645,17448.576385,-10638.938622,4260.868342,-0.002000,-0.010000,1.002000,192.000000,0.000000,0.000000,0.000000,0.000000,0.000000,0.000000,0.000000,0.000000,0.000000,1771416820.203116,0.000000
132.000000,6490.678369,16942.935222,2912.655820,2989.925801,4411.027361,18675.798914,-7829.883138,-4818.946698,1961.209114,-4975.185391,4292.473709,-2523.556652,17597.506058,17435.634725,-10655.814189,4277.766261,0.000000,-0.011000,1.005000,192.000000,0.000000,8.000000,127.500000,80.000000,15.500000,64.000000,0.000000,0.000000,0.000000,1771416820.203127,0.000000
134.000000,6526.530567,16974.629995,2990.082263,3041.178351,4584.141622,18742.228298,-7792.086338,-4789.174174,1971.915599,-4971.363243,4301.257944,-2539.761667,17626.317457,17428.906849,-10639.050381,4284.427081,0.000000,-0.011000,1.005000,192.000000,0.000000,0.000000,0.000000,0.000000,0.000000,0.000000,0.000000,0.000000,0.000000,1771416820.203138,0.000000
136.000000,6500.937820,16954.133446,2946.697527,3010.399998,4476.808545,18691.780411,-7815.823891,-4807.390846,1983.225582,-4953.437144,4319.139340,-2535.894815,17617.443814,17463.820274,-10613.077654,4275.084051,0.000000,-0.011000,1.005000,192.000000,0.000000,0.000000,0.000000,0.000000,0.000000,0.000000,0.000000,0.000000,0.000000,1771416820.203150,0.000000
138.000000,6502.547145,16955.496902,2956.487591,3009.349466,4493.214726,18709.728862,-7809.923030,-4803.054607,1955.911750,-4983.880220,4288.360988,-2521.522644,17605.932666,17433.421902,-10655.635375,4274.927589,0.000000,-0.011000,1.005000,192.000000,0.000000,0.000000,0.000000,0.000000,0.000000,0.000000,0.000000,0.000000,0.000000,1771416820.203161,0.000000
140.000000,6518.819215,16969.109114,2981.879173,3024.191025,4553.519732,18725.196269,-7793.673312,-4787.318979,1988.880573,-4953.593606,4327.118913,-2547.137743,17625.870422,17468.402382,-10631.674305,4258.029670,0.000000,-0.011000,1.005000,192.000000,0.000000,0.000000,0.000000,0.000000,0.000000,0.000000,0.000000,0.000000,0.000000,1771416820.203172,0.000000
142.000000,6492.086529,16946.220928,2915.919175,2978.325245,4395.001161,18663.125475,-7825.077513,-4814.856328,1969.702777,-4977.554676,4301.056779,-2523.735466,17635.682837,17428.102187,-10669.538161,4251.078278,0.001000,-0.011500,1.005500,192.000000,0.000000,8.000000,127.500000,80.000000,15.500000,56.000000,0.000000,0.000000,0.000000,1771416820.203184,0.000000
144.000000,6518.372180,16971.456047,2994.396149,3020.413580,4544.780200,18718.155470,-7786.520754,-4782.334540,1969.814535,-4977.331159,4304.811872,-2545.975452,17572.449752,17417.418053,-10668.577035,4248.373717,0.001000,-0.011500,1.005500,192.000000,0.000000,0.000000,0.000000,0.000000,0.000000,0.000000,0.000000,0.000000,0.000000,1771416820.203196,0.000000
146.000000,6508.850337,16965.264614,2945.892864,2993.345617,4432.440332,18671.641489,-7807.732559,-4789.151822,1984.454928,-4957.572217,4327.185968,-2533.525531,17606.267942,17453.247899,-10655.635375,4234.292118,0.001000,-0.011500,1.005500,192.000000,0.000000,0.000000,0.000000,0.000000,0.000000,0.000000,0.000000,0.000000,0.000000,1771416820.203207,0.000000
148.000000,6519.378009,16975.434658,2956.219370,3008.120121,4455.105001,18682.884417,-7799.216545,-4779.249999,1962.863143,-4980.303941,4303.314305,-2507.552803,17580.451677,17411.785413,-10689.833544,4229.352382,0.001000,-0.011500,1.005500,192.000000,0.000000,0.000000,0.000000,0.000000,0.000000,0.000000,0.000000,0.000000,0.000000,1771416820.203218,0.000000
150.000000,6533.973698,16984.956501,2982.773242,3029.868368,4526.585880,18706.532563,-7785.961960,-4769.303473,2000.794053,-4943.870597,4341.938119,-2529.613975,17639.683800,17455.930109,-10653.444904,4221.171644,0.001000,-0.011500,1.005500,192.000000,0.000000,0.000000,0.000000,0.000000,0.000000,0.000000,0.000000,0.000000,0.000000,1771416820.203230,0.000000
152.000000,6507.688046,16962.671812,2920.769503,2985.455452,4393.101262,18658.230443,-7818.640210,-4792.504584,1984.857259,-4966.289397,4321.218052,-2506.502271,17606.603218,17433.354847,-10668.934663,4227.184263,0.001500,-0.012750,1.009750,192.000000,0.000000,8.000000,127.500000,72.000000,15.500000,88.000000,0.000000,0.000000,0.000000,1771416820.203241,0.000000
154.000000,6511.353733,16966.806885,2976.894734,3025.465074,4529.759828,18708.097185,-7793.069815,-4785.642598,1976.721224,-4971.877333,4315.071322,-2531.268004,17604.502154,17435.053579,-10658.094067,4240.058868,0.001500,-0.012750,1.009750,192.000000,0.000000,0.000000,0.000000,0.000000,0.000000,0.000000,0.000000,0.000000,0.000000,1771416820.203254,0.000000
156.000000,6488.756119,16947.427922,2923.362306,2997.815966,4411.317934,18675.910673,-7817.299106,-4807.077921,1965.210076,-4973.844287,4312.255003,-2544.522589,17589.973520,17436.484091,-10648.751038,4260.555418,0.001500,-0.012750,1.009750,192.000000,0.000000,0.000000,0.000000,0.000000,0.000000,0.000000,0.000000,0.000000,0.000000,1771416820.203266,0.000000
158.000000,6485.805689,16944.544547,2933.822922,3002.778054,4433.714382,18694.082641,-7816.002705,-4810.788311,1944.087677,-4998.140633,4284.382377,-2526.663545,17555.015392,17403.090585,-10686.816059,4265.249284,0.001500,-0.012750,1.009750,192.000000,0.000000,0.000000,0.000000,0.000000,0.000000,0.000000,0.000000,0.000000,0.000000,1771416820.203277,0.000000
160.000000,6510.124387,16962.649460,2967.886981,3027.677897,4514.359476,18722.111728,-7802.904582,-4796.974933,1965.902980,-4971.117374,4309.885718,-2558.246560,17617.622628,17438.987486,-10640.682058,4262.209447,0.001500,-0.012750,1.009750,192.000000,0.000000,0.000000,0.000000,0.000000,0.000000,0.000000,0.000000,0.000000,0.000000,1771416820.203289,0.000000
162.000000,6485.738633,16946.511501,2914.220442,2987.198888,4395.783472,18676.961205,-7832.140664,-4817.046799,1961.499686,-4984.774290,4292.853688,-2526.708248,17611.274733,17435.947649,-10662.117381,4265.271636,0.003750,-0.012375,1.010875,192.000000,0.000000,24.000000,127.500000,80.000000,15.500000,80.000000,0.000000,0.000000,0.000000,1771416820.203300,0.000000
164.000000,6522.462550,16980.016766,2990.864574,3043.547636,4552.849180,18744.932860,-7794.321512,-4787.006055,1969.255742,-4969.195124,4302.464938,-2537.772362,17580.921064,17436.484091,-10659.748096,4262.477668,0.003750,-0.012375,1.010875,192.000000,0.000000,0.000000,0.000000,0.000000,0.000000,0.000000,0.000000,0.000000,0.000000,1771416820.203311,0.000000
166.000000,6515.131177,16969.086763,2938.829713,3005.482615,4433.468513,18707.963074,-7813.007571,-4797.109043,1998.134196,-4946.441048,4328.616479,-2529.703382,17623.724654,17464.334364,-10650.203902,4263.438793,0.003750,-0.012375,1.010875,192.000000,0.000000,0.000000,0.000000,0.000000,0.000000,0.000000,0.000000,0.000000,0.000000,1771416820.203322,0.000000
168.000000,6490.410148,16945.483320,2940.059059,2993.099748,4450.075859,18702.375138,-7814.147510,-4809.335447,1957.990463,-4991.792737,4288.852726,-2526.194158,17587.872456,17415.831079,-10688.090108,4261.024804,0.003750,-0.012375,1.010875,192.000000,0.000000,0.000000,0.000000,0.000000,0.000000,0.000000,0.000000,0.000000,0.000000,1771416820.203334,0.000000
170.000000,6524.183634,16978.519199,2966.210600,3021.285298,4514.135958,18711.941685,-7793.941533,-4787.497793,1974.217829,-4960.723813,4319.429912,-2554.759688,17633.358256,17436.618201,-10652.953166,4241.064696,0.003750,-0.012375,1.010875,192.000000,0.000000,0.000000,0.000000,0.000000,0.000000,0.000000,0.000000,0.000000,0.000000,1771416820.203345,0.000000
172.000000,6495.662808,16944.879823,2914.488663,2968.378719,4391.469585,18656.487007,-7824.026981,-4811.481215,1973.077890,-4970.066842,4308.097578,-2521.477940,17614.828660,17425.107053,-10675.506076,4232.123999,0.002875,-0.011187,1.008437,192.000000,0.000000,8.000000,127.500000,88.000000,15.500000,56.000000,0.000000,0.000000,0.000000,1771416820.203357,0.000000
174.000000,6513.544203,16963.722344,2984.181402,3017.887833,4555.218465,18723.542240,-7790.432309,-4790.336465,1968.696948,-4984.126089,4308.164633,-2547.227150,17604.613913,17423.944762,-10661.111553,4229.732362,0.002875,-0.011187,1.008437,192.000000,0.000000,0.000000,0.000000,0.000000,0.000000,0.000000,0.000000,0.000000,0.000000,1771416820.203368,0.000000
176.000000,6503.195346,16956.882710,2938.270919,2984.248457,4452.042812,18671.082696,-7813.365199,-4805.692113,1978.822288,-4973.844287,4327.409485,-2547.137743,17594.108593,17430.851451,-10639.095085,4229.844121,0.002875,-0.011187,1.008437,192.000000,0.000000,0.000000,0.000000,0.000000,0.000000,0.000000,0.000000,0.000000,0.000000,1771416820.203380,0.000000
178.000000,6506.883384,16960.593100,2946.049326,2991.110443,4466.370281,18679.375193,-7812.918164,-4808.083750,1963.846620,-4981.846211,4299.425101,-2528.965775,17596.611988,17403.425861,-10663.547893,4236.236720,0.002875,-0.011187,1.008437,192.000000,0.000000,0.000000,0.000000,0.000000,0.000000,0.000000,0.000000,0.000000,0.000000,1771416820.203391,0.000000
180.000000,6513.521852,16964.415248,2971.038576,3018.938365,4531.883244,18710.310007,-7796.936667,-4793.912744,1986.198364,-4961.193199,4330.985764,-2556.972510,17627.390340,17449.068123,-10630.132035,4237.801342,0.002875,-0.011187,1.008437,192.000000,0.000000,0.000000,0.000000,0.000000,0.000000,0.000000,0.000000,0.000000,0.000000,1771416820.203402,0.000000
182.000000,6465.465601,16924.137404,2904.922116,2973.296103,4380.561934,18656.196434,-7834.733466,-4835.732858,1949.809724,-4997.179508,4295.781767,-2541.952138,17631.190137,17410.198439,-10651.746172,4251.592368,0.003438,-0.011594,1.007219,192.000000,0.000000,16.000000,127.500000,80.000000,15.500000,56.000000,0.000000,0.000000,0.000000,1771416820.203414,0.000000
184.000000,6497.875631,16951.674754,2984.628437,3021.307650,4532.106761,18711.673464,-7799.283600,-4812.062360,1944.959396,-5005.404950,4288.360988,-2568.282493,17589.593540,17407.493878,-10652.483779,4254.498095,0.003438,-0.011594,1.007219,192.000000,0.000000,0.000000,0.000000,0.000000,0.000000,0.000000,0.000000,0.000000,0.000000,1771416820.203425,0.000000
186.000000,6473.601636,16927.423111,2931.163064,2990.685760,4411.541451,18681.833885,-7823.579946,-4829.943756,1957.185800,-4989.535211,4306.354142,-2564.661511,17562.123246,17421.307256,-10647.566396,4254.319281,0.003438,-0.011594,1.007219,192.000000,0.000000,0.000000,0.000000,0.000000,0.000000,0.000000,0.000000,0.000000,0.000000,1771416820.203438,0.000000
188.000000,6488.733767,16946.511501,2943.590634,3004.297972,4447.348946,18703.358615,-7814.393379,-4819.997230,1932.598881,-5009.070636,4276.939246,-2544.097906,17566.817113,17412.701835,-10684.044443,4262.678833,0.003438,-0.011594,1.007219,192.000000,0.000000,0.000000,0.000000,0.000000,0.000000,0.000000,0.000000,0.000000,0.000000,1771416820.203449,0.000000
190.000000,6503.351808,16957.575614,2970.882114,3030.069534,4516.214671,18724.995103,-7798.434233,-4805.155671,1968.853410,-4971.854981,4315.831282,-2564.415641,17618.293180,17445.670658,-10643.967765,4260.734232,0.003438,-0.011594,1.007219,192.000000,0.000000,0.000000,0.000000,0.000000,0.000000,0.000000,0.000000,0.000000,0.000000,1771416820.203461,0.000000
192.000000,6479.591904,16935.693256,2910.979439,2989.523469,4377.656207,18671.239158,-7828.609088,-4830.144922,1954.302425,-4989.401101,4296.407616,-2537.302975,17615.365102,17413.931181,-10673.002681,4261.896522,0.003438,-0.011594,1.007219,192.000000,0.000000,0.000000,127.500000,80.000000,15.500000,64.000000,0.000000,0.000000,0.000000,1771416820.203472,0.000000
194.000000,6510.169090,16966.851588,2977.699396,3038.786714,4540.332203,18726.135042,-7791.281675,-4804.440415,1950.010890,-4988.551735,4293.233668,-2558.403022,17601.909352,17424.347094,-10669.426402,4256.733269,0.003438,-0.011594,1.007219,192.000000,0.000000,0.000000,0.000000,0.000000,0.000000,0.000000,0.000000,0.000000,0.000000,1771416820.683661,0.000000
196.000000,6488.152622,16943.091684,2930.671326,2994.105577,4435.569577,18678.481123,-7815.913298,-4817.940869,1971.803841,-4973.419604,4311.115064,-2554.267949,17627.278582,17436.528794,-10657.468219,4248.463124,0.003438,-0.011594,1.007219,192.000000,0.000000,0.000000,0.000000,0.000000,0.000000,0.000000,0.000000,0.000000,0.000000,1771416820.683740,0.000000
198.000000,6494.433462,16947.651440,2942.405992,2994.530260,4451.551074,18681.811533,-7811.062969,-4812.531747,1942.232483,-5007.617773,4282.817755,-2538.577025,17562.704392,17409.125556,-10681.563399,4240.997641,0.003438,-0.011594,1.007219,192.000000,0.000000,0.000000,0.000000,0.000000,0.000000,0.000000,0.000000,0.000000,0.000000,1771416820.683801,0.000000
200.000000,6514.952363,16962.671812,2981.834469,3012.813987,4517.555775,18698.105955,-7789.292370,-4789.643561,1979.604599,-4979.834554,4324.235538,-2565.108545,17638.074474,17438.518100,-10650.449771,4230.201749,0.003438,-0.011594,1.007219,192.000000,0.000000,0.000000,0.000000,0.000000,0.000000,0.000000,0.000000,0.000000,0.000000,1771416820.683852,0.000000
202.000000,6470.159467,16922.393968,2912.231137,2973.631379,4379.667864,18649.759132,-7826.284507,-4826.814512,1962.818439,-4998.565316,4306.085921,-2538.040583,17588.028918,17408.834983,-10669.515809,4229.464141,0.003438,-0.011594,1.007219,192.000000,0.000000,0.000000,0.000000,0.000000,0.000000,0.000000,0.000000,0.000000,0.000000,1771416820.683897,0.000000
204.000000,6497.160375,16945.192748,2976.693568,3012.702228,4547.507113,18702.129269,-7793.092167,-4804.351008,1945.831114,-5007.975400,4293.635999,-2568.327197,17627.435044,17394.306349,-10655.322451,4239.120095,0.002000,-0.006000,1.006000,192.000000,0.000000,8.000000,127.500000,104.000000,15.500000,56.000000,0.000000,0.000000,0.000000,1771416820.683934,0.000000
206.000000,6476.909694,16929.635934,2934.471123,2971.731481,4419.833949,18652.418989,-7818.886080,-4821.427741,1965.433593,-4997.403025,4310.936250,-2569.288322,17601.015282,17424.704722,-10647.789913,4238.494246,0.002000,-0.006000,1.006000,192.000000,0.000000,0.000000,0.000000,0.000000,0.000000,0.000000,0.000000,0.000000,0.000000,1771416820.683972,0.000000
208.000000,6472.707566,16927.333704,2941.847198,2986.371873,4448.198312,18657.179911,-7817.612030,-4824.512282,1932.934157,-5027.063790,4276.805136,-2553.396231,17554.747171,17374.659166,-10674.477896,4237.510769,0.002000,-0.006000,1.006000,192.000000,0.000000,0.000000,0.000000,0.000000,0.000000,0.000000,0.000000,0.000000,0.000000,1771416820.683988,0.000000
210.000000,6491.572439,16944.857472,2967.931684,3011.025847,4509.933830,18706.577266,-7801.541126,-4809.558965,1956.492896,-4998.498261,4306.242383,-2579.458365,17605.731500,17406.532753,-10643.543082,4244.708031,0.002000,-0.006000,1.006000,192.000000,0.000000,0.000000,0.000000,0.000000,0.000000,0.000000,0.000000,0.000000,0.000000,1771416820.684004,0.000000
212.000000,6460.727031,16918.840041,2906.509090,2974.301931,4372.917637,18648.730951,-7832.453589,-4838.683288,1942.813628,-5011.462273,4285.701130,-2549.484676,17588.766526,17411.472489,-10671.840390,4244.417458,0.002000,-0.006000,1.006000,192.000000,0.000000,0.000000,0.000000,0.000000,0.000000,0.000000,0.000000,0.000000,0.000000,1771416820.684020,0.000000
214.000000,6495.327532,16953.552300,2970.837411,3026.672068,4526.027086,18712.321664,-7795.997893,-4811.391808,1937.091581,-5011.439921,4281.968389,-2573.289284,17615.678026,17407.896210,-10666.654785,4247.390240,-0.002000,-0.008000,1.004000,192.000000,127.500000,120.000000,127.500000,96.000000,15.500000,48.000000,0.000000,0.000000,0.000000,1771416820.684036,0.000000
216.000000,6481.268284,16935.648553,2927.430323,2993.837356,4407.987524,18674.390754,-7817.835548,-4821.874776,1960.873838,-4986.003636,4302.196718,-2559.565313,17623.545840,17453.337306,-10659.390469,4245.937377,-0.002000,-0.008000,1.004000,192.000000,0.000000,0.000000,0.000000,0.000000,0.000000,0.000000,0.000000,0.000000,0.000000,1771416820.684053,0.000000
218.000000,6503.217698,16954.580480,2944.060021,3007.606030,4442.275100,18682.772658,-7811.688818,-4809.782482,1942.701869,-5011.328162,4280.962560,-2541.259234,17536.239926,17401.570666,-10692.851030,4239.589481,-0.002000,-0.008000,1.004000,192.000000,0.000000,0.000000,0.000000,0.000000,0.000000,0.000000,0.000000,0.000000,0.000000,1771416820.684077,0.000000
220.000000,6506.145776,16965.644594,2967.104669,3028.147284,4507.452787,18704.856182,-7796.154356,-4795.477366,1977.436480,-4973.509010,4320.994535,-2556.860752,17617.935552,17434.651248,-10651.030916,4219.428208,-0.002000,-0.008000,1.004000,192.000000,0.000000,0.000000,0.000000,0.000000,0.000000,0.000000,0.000000,0.000000,0.000000,1771416820.684094,0.000000
222.000000,6472.573456,16934.575669,2902.038741,2989.255248,4387.870954,18658.476312,-7831.403057,-4826.993326,1947.865122,-4991.524517,4290.640866,-2533.480827,17582.195113,17428.526870,-10676.020166,4230.313507,-0.002000,-0.008000,1.004000,192.000000,0.000000,0.000000,0.000000,0.000000,0.000000,0.000000,0.000000,0.000000,0.000000,1771416820.684110,0.000000
224.000000,6510.370256,16968.773838,2972.938475,3035.188083,4535.124246,18723.743406,-7790.991103,-4796.505546,1947.105163,-4988.462328,4292.250191,-2551.362223,17611.162974,17424.414149,-10670.834562,4230.872301,0.002000,-0.014000,1.006000,192.000000,0.000000,8.000000,127.500000,72.000000,15.500000,56.000000,0.000000,0.000000,0.000000,1771416820.684127,0.000000
226.000000,6489.963113,16948.254937,2932.772390,2993.077397,4431.836835,18679.039917,-7815.108635,-4812.375285,1964.673634,-4977.577028,4310.511566,-2549.574083,17605.731500,17445.514196,-10654.428381,4225.440827,0.002000,-0.014000,1.006000,192.000000,0.000000,0.000000,0.000000,0.000000,0.000000,0.000000,0.000000,0.000000,0.000000,1771416820.684143,0.000000
228.000000,6496.154546,16957.285041,2947.368079,3000.811100,4465.453859,18682.750306,-7812.001742,-4810.028352,1943.372422,-4997.984171,4286.438738,-2531.357411,17575.422534,17423.765948,-10675.550780,4237.399010,0.002000,-0.014000,1.006000,192.000000,0.000000,0.000000,0.000000,0.000000,0.000000,0.000000,0.000000,0.000000,0.000000,1771416820.684160,0.000000
230.000000,6500.557840,16963.923510,2965.495344,3016.569080,4526.809398,18711.695816,-7796.400225,-4799.835956,1963.287826,-4972.860810,4317.127683,-2562.560447,17648.557442,17440.976791,-10637.284593,4245.088010,0.002000,-0.014000,1.006000,192.000000,0.000000,0.000000,0.000000,0.000000,0.000000,0.000000,0.000000,0.000000,0.000000,1771416820.684176,0.000000
232.000000,6479.033110,16939.135425,2908.051361,2970.680949,4387.580381,18657.157559,-7830.285469,-4825.026372,1937.873893,-4998.364150,4287.310456,-2544.634348,17574.997851,17432.214908,-10658.786971,4250.631243,0.002000,-0.014000,1.006000,192.000000,0.000000,0.000000,0.000000,0.000000,0.000000,0.000000,0.000000,0.000000,0.000000,1771416820.684192,0.000000
234.000000,6505.899907,16960.861321,2981.990931,3023.475769,4529.446903,18706.666673,-7793.270981,-4801.020599,1950.927311,-4993.782043,4295.334732,-2559.453554,17578.887055,17400.564838,-10659.993966,4244.708031,0.002000,-0.016000,1.008000,192.000000,0.000000,8.000000,127.500000,64.000000,15.500000,64.000000,0.000000,0.000000,0.000000,1771416820.684209,0.000000
236.000000,6492.466508,16951.428884,2934.851102,2989.836394,4415.520062,18659.660954,-7814.460434,-4812.688209,1957.968111,-4986.718891,4306.354142,-2560.727604,17592.119288,17420.592001,-10650.405067,4236.057906,0.002000,-0.016000,1.008000,192.000000,0.000000,0.000000,0.000000,0.000000,0.000000,0.000000,0.000000,0.000000,0.000000,1771416820.684225,0.000000
238.000000,6498.277962,16952.300602,2947.390431,3002.465129,4449.494713,18673.228463,-7805.855013,-4807.480253,1942.433648,-5003.527403,4287.265752,-2538.241749,17606.111480,17396.742689,-10689.230047,4218.623545,0.002000,-0.016000,1.008000,192.000000,0.000000,0.000000,0.000000,0.000000,0.000000,0.000000,0.000000,0.000000,0.000000,1771416820.684242,0.000000
240.000000,6515.801730,16973.355946,2975.799498,3026.359144,4514.940621,18693.501496,-7789.270018,-4794.583296,1975.044844,-4972.816106,4320.793369,-2563.320406,17607.519639,17434.204213,-10662.810285,4217.394199,0.002000,-0.016000,1.008000,192.000000,0.000000,0.000000,0.000000,0.000000,0.000000,0.000000,0.000000,0.000000,0.000000,1771416820.684258,0.000000
242.000000,6479.770718,16940.945916,2907.134939,2983.399091,4371.084794,18631.184832,-7822.216490,-4827.216843,1950.390869,-4992.686807,4293.658351,-2538.711135,17573.276767,17424.369445,-10688.604199,4222.043362,0.002000,-0.016000,1.008000,192.000000,0.000000,0.000000,0.000000,0.000000,0.000000,0.000000,0.000000,0.000000,0.000000,1771416820.684275,0.000000
244.000000,6514.617087,16972.573635,2984.919010,3037.378554,4524.440113,18693.143868,-7782.139812,-4794.873869,1947.887474,-4993.491470,4292.272543,-2559.945292,17589.772354,17420.212021,-10684.737347,4220.031705,0.002000,-0.010000,1.008000,192.000000,0.000000,8.000000,127.500000,88.000000,15.500000,64.000000,0.000000,0.000000,0.000000,1771416820.684291,0.000000
246.000000,6490.141927,16954.401666,2925.932756,3007.829548,4409.909774,18669.652184,-7808.179594,-4814.968087,1962.974902,-4976.660606,4312.791444,-2550.646967,17609.598352,17432.393722,-10674.500248,4222.333935,0.002000,-0.010000,1.008000,192.000000,0.000000,0.000000,0.000000,0.000000,0.000000,0.000000,0.000000,0.000000,0.000000,1771416820.684308,0.000000
248.000000,6498.456776,16968.036231,2941.131942,3014.110388,4443.057411,18684.985481,-7804.648018,-4808.866061,1934.409372,-4997.514784,4278.123889,-2534.173731,17593.326282,17411.919524,-10704.138661,4246.183246,0.002000,-0.010000,1.008000,192.000000,0.000000,0.000000,0.000000,0.000000,0.000000,0.000000,0.000000,0.000000,0.000000,1771416820.684325,0.000000
250.000000,6513.074817,16979.905007,2971.060928,3041.781848,4515.253546,18712.902810,-7790.521716,-4795.276200,1965.165373,-4961.349662,4316.881814,-2553.932673,17598.958921,17452.242071,-10654.674250,4241.578787,0.002000,-0.010000,1.008000,192.000000,0.000000,0.000000,0.000000,0.000000,0.000000,0.000000,0.000000,0.000000,0.000000,1771416820.684343,0.000000
252.000000,6503.061235,16970.003184,2908.431340,2999.581754,4385.836945,18676.067135,-7821.054199,-4813.068189,1951.642567,-4977.174697,4293.256020,-2525.657716,17652.893681,17421.106091,-10670.052251,4251.145333,0.002000,-0.010000,1.008000,192.000000,0.000000,0.000000,0.000000,0.000000,0.000000,0.000000,0.000000,0.000000,0.000000,1771416820.684370,0.000000
254.000000,6521.166148,16985.448239,2983.108518,3045.045202,4540.376906,18736.260383,-7790.566419,-4795.522069,1964.383061,-4964.791830,4301.861441,-2540.611034,17589.459430,17449.693972,-10660.888035,4255.839200,0.004000,-0.014000,1.006000,192.000000,0.000000,16.000000,127.500000,72.000000,15.500000,56.000000,0.000000,0.000000,0.000000,1771416820.684386,0.000000
0.000000,6498.456776,16966.873940,2929.509035,3007.226051,4437.871806,18690.484010,-7815.466263,-4813.649334,1960.717375,-4967.451688,4303.493119,-2550.803429,17583.938549,17441.870861,-10640.033858,4274.234685,0.004000,-0.014000,1.006000,192.000000,0.000000,0.000000,0.000000,0.000000,0.000000,0.000000,0.000000,0.000000,0.000000,1771416820.684402,0.000000
2.000000,6513.790073,16980.664966,2944.775277,3015.585603,4468.538400,18701.682234,-7805.206812,-4801.221764,1939.550273,-4982.807336,4280.202601,-2530.753914,17582.999776,17413.417091,-10673.829695,4258.230836,0.004000,-0.014000,1.006000,192.000000,0.000000,0.000000,0.000000,0.000000,0.000000,0.000000,0.000000,0.000000,0.000000,1771416820.684419,0.000000
4.000000,6545.216625,17003.799022,2975.307760,3035.679821,4531.123284,18715.003874,-7785.447870,-4778.870020,1987.919448,-4940.875464,4328.147093,-2543.226188,17661.186178,17464.602585,-10655.635375,4236.437885,0.004000,-0.014000,1.006000,192.000000,0.000000,0.000000,0.000000,0.000000,0.000000,0.000000,0.000000,0.000000,0.000000,1771416820.684436,0.000000
6.000000,6506.995142,16971.344289,2917.170872,2979.867516,4388.787376,18655.414123,-7819.981315,-4808.486081,1966.886457,-4970.625635,4303.336656,-2524.651888,17611.162974,17429.309181,-10671.706280,4234.962670,0.004000,-0.014000,1.006000,192.000000,0.000000,0.000000,0.000000,0.000000,0.000000,0.000000,0.000000,0.000000,0.000000,1771416820.684452,0.000000
8.000000,6538.421695,16999.529839,2985.723673,3034.696345,4555.196113,18714.512135,-7782.631550,-4781.216953,1967.959341,-4965.171810,4308.656372,-2540.141647,17615.454509,17439.255707,-10670.298120,4219.629374,0.002000,-0.012000,1.008000,192.000000,0.000000,8.000000,127.500000,80.000000,15.500000,64.000000,0.000000,0.000000,0.000000,1771416820.684469,0.000000
10.000000,6518.841567,16981.648443,2935.856931,3003.247440,4433.647327,18677.408240,-7804.044521,-4795.566773,1977.257666,-4955.627615,4324.660221,-2537.995879,17627.345637,17444.083684,-10666.185399,4227.318374,0.002000,-0.012000,1.008000,192.000000,0.000000,0.000000,0.000000,0.000000,0.000000,0.000000,0.000000,0.000000,0.000000,1771416820.684486,0.000000
12.000000,6527.603451,16984.285949,2952.263111,3009.215356,4474.908647,18681.990347,-7798.076606,-4792.035197,1957.655186,-4981.712101,4299.782729,-2522.327307,17609.218372,17415.965189,-10696.673178,4220.970478,0.002000,-0.012000,1.008000,192.000000,0.000000,0.000000,0.000000,0.000000,0.000000,0.000000,0.000000,0.000000,0.000000,1771416820.684503,0.000000
14.000000,6538.220529,16997.741699,2977.721748,3035.232787,4534.565453,18713.863935,-7783.078585,-4781.663988,1989.349960,-4948.989147,4330.583433,-2545.416659,17677.860579,17449.582213,-10657.647032,4220.456388,0.002000,-0.012000,1.008000,192.000000,0.000000,0.000000,0.000000,0.000000,0.000000,0.000000,0.000000,0.000000,0.000000,1771416820.684519,0.000000
16.000000,6501.250744,16961.464818,2918.511977,2992.675065,4384.384082,18677.587053,-7815.980353,-4812.330581,1960.516210,-4974.425432,4301.995552,-2525.590661,17592.163991,17424.525908,-10680.781088,4241.042345,0.002000,-0.012000,1.008000,192.000000,0.000000,0.000000,0.000000,0.000000,0.000000,0.000000,0.000000,0.000000,0.000000,1771416820.684535,0.000000
18.000000,6536.074762,16991.751431,2986.036597,3038.026755,4544.579034,18733.846394,-7780.597541,-4784.390901,1965.031262,-4970.312711,4307.605840,-2542.332118,17626.026884,17435.344152,-10681.451640,4251.525313,0.003000,-0.010000,1.009000,192.000000,0.000000,16.000000,127.500000,96.000000,15.500000,72.000000,0.000000,0.000000,0.000000,1771416820.684553,0.000000
20.000000,6505.341113,16968.103286,2937.756829,3000.364065,4432.082705,18681.744478,-7807.844318,-4809.648372,1968.406375,-4967.406984,4318.535843,-2548.255330,17627.569154,17443.837815,-10656.820018,4258.342595,0.003000,-0.010000,1.009000,192.000000,0.000000,0.000000,0.000000,0.000000,0.000000,0.000000,0.000000,0.000000,0.000000,1771416820.684572,0.000000
22.000000,6513.007762,16971.880731,2954.163009,3011.182310,4466.191467,18686.103068,-7799.954152,-4805.848575,1946.881646,-4988.998769,4291.356121,-2532.005612,17571.041592,17410.086681,-10674.634358,4255.325109,0.003000,-0.010000,1.009000,192.000000,0.000000,0.000000,0.000000,0.000000,0.000000,0.000000,0.000000,0.000000,0.000000,1771416820.684591,0.000000
24.000000,6515.511157,16975.032327,2968.401071,3030.896548,4522.875491,18709.751214,-7786.140774,-4795.812642,1970.552143,-4968.725737,4318.804064,-2559.677072,17631.860689,17428.102187,-10644.951242,4263.818772,0.003000,-0.010000,1.009000,192.000000,0.000000,0.000000,0.000000,0.000000,0.000000,0.000000,0.000000,0.000000,0.000000,1771416820.684607,0.000000
26.000000,6499.596715,16956.703896,2916.120340,2988.048254,4379.444346,18668.691059,-7813.387551,-4814.275183,1949.876779,-4987.836479,4299.268639,-2534.754876,17610.067738,17418.312123,-10669.180533,4265.338691,0.003000,-0.010000,1.009000,192.000000,0.000000,0.000000,0.000000,0.000000,0.000000,0.000000,0.000000,0.000000,0.000000,1771416820.684626,0.000000
28.000000,6524.608317,16983.280120,2978.615818,3031.455342,4541.427438,18733.064083,-7783.726786,-4792.191659,1957.699890,-4985.064862,4307.248212,-2553.016252,17598.958921,17432.840757,-10673.002681,4259.057851,0.002500,-0.010000,1.007500,192.000000,0.000000,8.000000,127.500000,88.000000,15.500000,56.000000,0.000000,0.000000,0.000000,1771416820.684643,0.000000
30.000000,6512.784244,16974.272367,2931.408934,3000.118196,4433.334402,18684.963129,-7806.145585,-4803.322828,1969.300445,-4964.501257,4323.430875,-2547.383612,17615.566267,17448.017591,-10665.872474,4251.972348,0.002500,-0.010000,1.007500,192.000000,0.000000,0.000000,0.000000,0.000000,0.000000,0.000000,0.000000,0.000000,0.000000,1771416820.684659,0.000000
32.000000,6511.487843,16968.952652,2949.111515,3008.343638,4455.976719,18676.804742,-7799.283600,-4803.345180,1944.981747,-4989.065825,4293.457185,-2530.373935,17599.964750,17429.331533,-10692.985140,4248.954862,0.002500,-0.010000,1.007500,192.000000,0.000000,0.000000,0.000000,0.000000,0.000000,0.000000,0.000000,0.000000,0.000000,1771416820.684676,0.000000
34.000000,6529.503349,16989.024519,2976.581809,3033.891682,4514.448883,18692.361557,-7780.910466,-4783.273313,1975.648341,-4961.036737,4329.778770,-2551.161057,17621.198907,17438.205175,-10653.824884,4232.861606,0.002500,-0.010000,1.007500,192.000000,0.000000,0.000000,0.000000,0.000000,0.000000,0.000000,0.000000,0.000000,0.000000,1771416820.684692,0.000000
36.000000,6492.913543,16951.965326,2909.705390,2984.248457,4374.392852,18636.146919,-7817.164995,-4818.767884,1947.574550,-4986.025987,4300.162709,-2529.904548,17649.049181,17408.857335,-10673.270902,4235.923795,0.002500,-0.010000,1.007500,192.000000,0.000000,0.000000,0.000000,0.000000,0.000000,0.000000,0.000000,0.000000,0.000000,1771416820.684708,0.000000
38.000000,6521.479073,16980.217931,2987.109481,3032.081191,4526.943508,18698.597693,-7780.485783,-4794.829165,1948.267454,-4993.290304,4298.195755,-2556.905455,17562.369116,17414.959361,-10673.673233,4232.079295,0.002500,-0.010000,1.007500,192.000000,0.000000,0.000000,127.500000,72.000000,15.500000,56.000000,0.000000,0.000000,0.000000,1771416820.684725,0.000000
40.000000,6496.959209,16960.906024,2931.788913,2996.810138,4406.422902,18658.073981,-7805.296219,-4815.660991,1960.762079,-4969.843324,4310.980953,-2553.932673,17610.604180,17442.831986,-10665.179570,4232.459275,0.002500,-0.010000,1.007500,192.000000,0.000000,0.000000,0.000000,0.000000,0.000000,0.000000,0.000000,0.000000,0.000000,1771416820.684741,0.000000
42.000000,6495.327532,16954.848701,2940.975480,3006.600202,4440.688126,18671.350917,-7802.234030,-4816.935041,1925.066343,-5011.775197,4272.915932,-2544.611996,17585.883151,17400.766003,-10685.899637,4235.543816,0.002500,-0.010000,1.007500,192.000000,0.000000,0.000000,0.000000,0.000000,0.000000,0.000000,0.000000,0.000000,0.000000,1771416820.684757,0.000000
44.000000,6502.390683,16960.436637,2959.728594,3020.771208,4493.907630,18701.011682,-7792.220449,-4811.302401,1951.955492,-4986.249505,4303.828395,-2574.920961,17602.266979,17431.700818,-10654.942471,4253.134638,0.002500,-0.010000,1.007500,192.000000,0.000000,0.000000,0.000000,0.000000,0.000000,0.000000,0.000000,0.000000,0.000000,1771416820.684774,0.000000
46.000000,6487.437366,16948.098475,2910.331239,2984.270809,4363.887532,18654.296536,-7821.814158,-4828.781465,1932.643584,-5005.159081,4277.319226,-2549.775249,17587.425421,17414.489974,-10673.561475,4272.357139,0.002500,-0.010000,1.007500,192.000000,0.000000,0.000000,0.000000,0.000000,0.000000,0.000000,0.000000,0.000000,0.000000,1771416820.684791,0.000000
48.000000,6527.826968,16983.481286,2982.281504,3045.089906,4523.389581,18715.048577,-7784.732614,-4793.622171,1947.194570,-4986.920057,4289.120947,-2555.094964,17573.276767,17409.438480,-10667.973538,4271.820697,0.002250,-0.010000,1.009750,192.000000,0.000000,8.000000,127.500000,88.000000,15.500000,80.000000,0.000000,0.000000,0.000000,1771416820.684807,0.000000
50.000000,6519.713285,16978.832123,2934.761695,3009.729446,4424.773684,18676.514170,-7807.374931,-4802.942849,1974.709567,-4968.211647,4310.802139,-2546.556598,17632.374779,17440.328591,-10651.857931,4265.204580,0.002250,-0.010000,1.009750,192.000000,0.000000,0.000000,0.000000,0.000000,0.000000,0.000000,0.000000,0.000000,0.000000,1771416820.684823,0.000000
52.000000,6516.628744,16976.239321,2944.529408,3007.762493,4456.066126,18686.326586,-7805.855013,-4804.216898,1953.207189,-4988.037644,4282.817755,-2526.797655,17586.531351,17412.053634,-10678.747079,4250.117153,0.002250,-0.010000,1.009750,192.000000,0.000000,0.000000,0.000000,0.000000,0.000000,0.000000,0.000000,0.000000,0.000000,1771416820.684840,0.000000
54.000000,6535.806541,16995.975911,2974.883077,3029.242519,4517.913403,18710.533525,-7786.163126,-4785.374377,1975.961265,-4959.919150,4316.412427,-2553.195066,17649.965602,17454.723114,-10649.108666,4236.303775,0.002250,-0.010000,1.009750,192.000000,0.000000,0.000000,0.000000,0.000000,0.000000,0.000000,0.000000,0.000000,0.000000,1771416820.684857,0.000000
56.000000,6503.642381,16967.589196,2910.398294,2984.226106,4376.538620,18641.779559,-7818.103769,-4813.381113,1958.102221,-4971.676167,4298.016941,-2522.014382,17579.021165,17427.811614,-10683.910332,4231.341688,0.002250,-0.010000,1.009750,192.000000,0.000000,0.000000,0.000000,0.000000,0.000000,0.000000,0.000000,0.000000,0.000000,1771416820.684873,0.000000
58.000000,6529.995087,16989.672719,2975.508925,3033.623461,4525.110665,18687.354766,-7783.592675,-4788.123642,1958.124573,-4982.941447,4296.631133,-2549.194103,17585.503171,17409.885515,-10678.568265,4225.887862,0.002250,-0.010000,1.009750,192.000000,0.000000,0.000000,127.500000,88.000000,15.500000,80.000000,0.000000,0.000000,0.000000,1771416820.684892,0.000000
60.000000,6507.620991,16969.466742,2924.546948,2999.559402,4410.312105,18652.910728,-7808.067835,-4805.625058,1966.059442,-4972.011444,4310.824491,-2545.193141,17596.611988,17441.513233,-10670.029899,4230.067638,0.002250,-0.010000,1.009750,192.000000,0.000000,0.000000,0.000000,0.000000,0.000000,0.000000,0.000000,0.000000,0.000000,1771416821.163973,0.000000
62.000000,6513.365390,16970.919606,2933.957032,3012.299897,4438.609414,18671.350917,-7802.278734,-4805.200375,1937.650375,-4998.140633,4277.453336,-2529.166940,17617.443814,17399.268436,-10698.081338,4230.201749,0.002250,-0.010000,1.009750,192.000000,0.000000,0.000000,0.000000,0.000000,0.000000,0.000000,0.000000,0.000000,0.000000,1771416821.164035,0.000000
64.000000,6528.855148,16988.152801,2973.989007,3036.417429,4498.310923,18691.445135,-7787.258361,-4792.057549,1979.559896,-4961.349662,4321.910956,-2549.015289,17576.540122,17437.735789,-10667.839428,4230.157045,0.002250,-0.010000,1.009750,192.000000,0.000000,0.000000,0.000000,0.000000,0.000000,0.000000,0.000000,0.000000,0.000000,1771416821.164072,0.000000
66.000000,6488.063215,16951.160664,2907.425512,2981.946228,4363.015814,18646.741646,-7826.843301,-4830.323736,1941.561930,-4997.201860,4283.488307,-2538.644080,17587.939511,17398.374367,-10675.193152,4254.274577,0.002250,-0.010000,1.009750,192.000000,0.000000,0.000000,0.000000,0.000000,0.000000,0.000000,0.000000,0.000000,0.000000,1771416821.164109,0.000000
68.000000,6525.256518,16983.280120,2985.008417,3043.324118,4533.067886,18719.630685,-7785.269056,-4798.651314,1946.769887,-4988.775252,4290.439700,-2553.642101,17564.805456,17428.929201,-10669.381698,4252.844066,0.000125,-0.010000,1.008875,192.000000,127.500000,120.000000,127.500000,88.000000,15.500000,64.000000,0.000000,0.000000,0.000000,1771416821.164146,0.000000
70.000000,6503.441215,16961.576576,2930.268995,3006.846071,4418.939879,18670.501550,-7813.387551,-4820.734837,1962.125535,-4975.230095,4303.783691,-2551.004595,17606.111480,17440.440350,-10644.370096,4250.765354,0.000125,-0.010000,1.008875,192.000000,0.000000,0.000000,0.000000,0.000000,0.000000,0.000000,0.000000,0.000000,0.000000,1771416821.164184,0.000000
72.000000,6511.800767,16969.444390,2943.680041,3008.589507,4465.476211,18682.035051,-7807.039655,-4814.766921,1942.388945,-5000.241697,4277.788613,-2537.146513,17607.787860,17394.999253,-10669.761678,4248.641938,0.000125,-0.010000,1.008875,192.000000,0.000000,0.000000,0.000000,0.000000,0.000000,0.000000,0.000000,0.000000,0.000000,1771416821.164221,0.000000
74.000000,6524.653020,16981.983719,2969.652768,3026.001516,4520.640316,18697.524810,-7792.891001,-4798.718369,1975.715396,-4968.569275,4316.032447,-2563.074537,17608.950151,17431.589059,-10645.867663,4248.306662,0.000125,-0.010000,1.008875,192.000000,0.000000,0.000000,0.000000,0.000000,0.000000,0.000000,0.000000,0.000000,0.000000,1771416821.164258,0.000000
76.000000,6495.819270,16958.983774,2912.879337,2985.455452,4389.703797,18649.692076,-7822.797635,-4818.969049,1953.721279,-4989.334046,4293.658351,-2535.246615,17584.139715,17399.693119,-10672.265073,4245.490342,0.000125,-0.010000,1.008875,192.000000,0.000000,0.000000,0.000000,0.000000,0.000000,0.000000,0.000000,0.000000,0.000000,1771416821.164313,0.000000
78.000000,6530.129198,16985.515295,2984.628437,3030.360106,4543.304985,18696.943664,-7785.425518,-4789.934133,1963.846620,-4981.220362,4303.068436,-2548.054164,17615.789785,17416.032245,-10671.438059,4227.094856,0.001063,-0.011000,1.006438,192.000000,0.000000,8.000000,127.500000,80.000000,15.500000,48.000000,0.000000,0.000000,0.000000,1771416821.164350,0.000000
80.000000,6509.409131,16967.566844,2933.062963,3004.476786,4417.934050,18658.632774,-7809.028960,-4804.932154,1973.010835,-4978.426394,4313.126721,-2548.188275,17637.381570,17418.893268,-10664.263149,4236.415534,0.001063,-0.011000,1.006438,192.000000,0.000000,0.000000,0.000000,0.000000,0.000000,0.000000,0.000000,0.000000,0.000000,1771416821.164387,0.000000
82.000000,6505.721093,16964.214082,2946.652823,3004.633248,4448.891216,18672.222635,-7806.100882,-4807.592011,1948.401564,-5003.437996,4288.115119,-2531.402115,17552.668459,17389.299558,-10698.818946,4234.917967,0.001063,-0.011000,1.006438,192.000000,0.000000,0.000000,0.000000,0.000000,0.000000,0.000000,0.000000,0.000000,0.000000,1771416821.164424,0.000000
84.000000,6525.368276,16981.022594,2971.619722,3025.129798,4509.039761,18686.885379,-7790.700530,-4790.515279,1970.798012,-4973.330197,4317.574718,-2561.956949,17601.842296,17417.283942,-10656.529445,4232.548682,0.001063,-0.011000,1.006438,192.000000,0.000000,0.000000,0.000000,0.000000,0.000000,0.000000,0.000000,0.000000,0.000000,1771416821.164460,0.000000
86.000000,6494.098186,16952.747637,2909.236003,2976.313588,4372.381195,18658.163388,-7823.155263,-4817.806759,1950.122648,-4998.475909,4297.100520,-2537.101810,17587.604235,17380.068288,-10678.367100,4250.050098,0.001063,-0.011000,1.006438,192.000000,0.000000,0.000000,0.000000,0.000000,0.000000,0.000000,0.000000,0.000000,0.000000,1771416821.164497,0.000000
88.000000,6524.585965,16978.340385,2982.683835,3024.392191,4539.862816,18716.635551,-7789.359425,-4792.817508,1951.150829,-4995.480775,4296.765244,-2557.866580,17636.867480,17404.252875,-10673.337957,4263.550551,0.001063,-0.011000,1.006438,192.000000,0.000000,0.000000,0.000000,0.000000,0.000000,0.000000,0.000000,0.000000,0.000000,1771416821.164511,0.000000
90.000000,6500.446081,16958.559091,2935.544006,2991.490423,4417.911699,18662.656088,-7815.108635,-4812.487043,1971.446213,-4982.136784,4315.026619,-2550.423449,17636.375742,17400.207210,-10650.472122,4254.967481,-0.002000,-0.012000,1.006000,192.000000,127.500000,120.000000,127.500000,80.000000,15.500000,56.000000,0.000000,0.000000,0.000000,1771416821.164531,0.000000
92.000000,6514.773549,16972.216007,2952.151352,3002.800405,4446.857208,18670.903882,-7807.531393,-4804.440415,1949.116820,-5008.981229,4287.511621,-2538.532321,17546.409970,17372.423991,-10678.702376,4256.822676,-0.002000,-0.012000,1.006000,192.000000,0.000000,0.000000,0.000000,0.000000,0.000000,0.000000,0.000000,0.000000,0.000000,1771416821.164545,0.000000
94.000000,6527.111712,16983.905969,2972.580847,3022.872272,4507.519842,18695.602560,-7789.918219,-4790.805851,1981.996236,-4969.306883,4327.096561,-2554.066784,17627.055064,17403.828192,-10652.148503,4246.853798,-0.002000,-0.012000,1.006000,192.000000,0.000000,0.000000,0.000000,0.000000,0.000000,0.000000,0.000000,0.000000,0.000000,1771416821.164562,0.000000
96.000000,6511.063160,16968.393858,2916.209747,2983.041463,4371.934160,18652.217824,-7817.164995,-4807.368494,1962.416108,-4989.266990,4306.309439,-2528.161112,17610.671235,17394.775736,-10682.211600,4241.668194,-0.002000,-0.012000,1.006000,192.000000,0.000000,0.000000,0.000000,0.000000,0.000000,0.000000,0.000000,0.000000,0.000000,1771416821.164574,0.000000
98.000000,6537.706439,16992.556094,2980.582771,3029.913071,4523.478988,18708.030129,-7784.263227,-4782.491002,1975.760099,-4976.168868,4313.238479,-2537.817065,17595.270883,17408.343245,-10684.580885,4227.720705,-0.002000,-0.012000,1.006000,192.000000,0.000000,0.000000,0.000000,0.000000,0.000000,0.000000,0.000000,0.000000,0.000000,1771416821.164587,0.000000
100.000000,6509.766759,16965.532835,2923.027029,2987.645923,4400.343227,18670.590957,-7812.627591,-4807.837881,1979.939876,-4973.196086,4320.882776,-2541.862731,17630.385474,17412.880649,-10671.125134,4226.334897,-0.002000,-0.014000,1.002000,192.000000,127.500000,120.000000,127.500000,72.000000,15.500000,40.000000,0.000000,0.000000,0.000000,1771416821.164599,0.000000
102.000000,6498.255610,16953.552300,2933.308832,2992.429196,4429.221681,18668.378135,-7814.169862,-4817.627945,1939.349108,-5011.641087,4275.531086,-2538.644080,17592.186343,17377.073154,-10703.959847,4238.293080,-0.002000,-0.014000,1.002000,192.000000,0.000000,0.000000,0.000000,0.000000,0.000000,0.000000,0.000000,0.000000,0.000000,1771416821.164612,0.000000
104.000000,6511.398436,16970.494922,2961.829658,3021.352353,4492.521822,18694.283807,-7799.171841,-4803.188718,1966.215904,-4983.969627,4308.566965,-2567.008444,17592.007529,17396.273303,-10662.743230,4236.817865,-0.002000,-0.014000,1.002000,192.000000,0.000000,0.000000,0.000000,0.000000,0.000000,0.000000,0.000000,0.000000,0.000000,1771416821.164625,0.000000
106.000000,6493.517040,16952.680582,2905.793834,2984.114347,4371.397718,18651.927251,-7825.613955,-4822.746494,1945.294672,-5002.029836,4286.371682,-2539.627557,17562.749095,17369.920596,-10682.926855,4257.537932,-0.002000,-0.014000,1.002000,192.000000,0.000000,0.000000,0.000000,0.000000,0.000000,0.000000,0.000000,0.000000,0.000000,1771416821.164637,0.000000
108.000000,6515.712323,16972.216007,2969.697472,3030.047182,4534.252528,18717.306103,-7797.540164,-4806.943811,1956.984634,-4997.626543,4290.953790,-2557.754822,17606.804384,17383.689270,-10672.846219,4258.744926,-0.002000,-0.014000,1.002000,192.000000,0.000000,0.000000,0.000000,0.000000,0.000000,0.000000,0.000000,0.000000,0.000000,1771416821.164649,0.000000
110.000000,6490.991293,16950.266594,2913.125207,2989.858745,4418.895175,18674.480161,-7826.642135,-4829.049686,1955.777640,-4988.976418,4291.132604,-2564.058013,17630.206660,17407.046843,-10638.804512,4268.445583,-0.004000,-0.010000,1.000000,192.000000,127.500000,112.000000,127.500000,88.000000,15.500000,32.000000,0.000000,0.000000,0.000000,1771416821.164662,0.000000
112.000000,6506.928087,16965.130504,2943.031841,2995.200812,4451.059336,18700.519943,-7816.762664,-4819.818416,1937.806837,-5006.433130,4268.490287,-2543.248539,17604.077471,17384.024547,-10669.515809,4273.362967,-0.004000,-0.010000,1.000000,192.000000,0.000000,0.000000,0.000000,0.000000,0.000000,0.000000,0.000000,0.000000,0.000000,1771416821.164674,0.000000
114.000000,6526.284698,16986.454068,2973.407861,3024.995688,4513.755979,18730.806557,-7796.936667,-4800.439453,1979.269323,-4968.368109,4312.009133,-2565.376766,17584.407936,17413.595905,-10639.005678,4261.874171,-0.004000,-0.010000,1.000000,192.000000,0.000000,0.000000,0.000000,0.000000,0.000000,0.000000,0.000000,0.000000,0.000000,1771416821.164687,0.000000
116.000000,6497.450947,16959.631975,2905.637372,2983.086167,4381.456003,18674.904844,-7831.358353,-4826.032201,1962.930198,-4980.438051,4288.450395,-2531.424467,17604.189230,17406.912733,-10664.956053,4260.778935,-0.004000,-0.010000,1.000000,192.000000,0.000000,0.000000,0.000000,0.000000,0.000000,0.000000,0.000000,0.000000,0.000000,1771416821.164699,0.000000
118.000000,6533.057276,16992.734908,2983.600257,3032.461170,4545.227235,18731.298295,-7792.309855,-4793.510412,1963.846620,-4981.801508,4295.357084,-2551.496333,17604.345692,17382.750497,-10660.306890,4251.055926,-0.004000,-0.010000,1.000000,192.000000,0.000000,0.000000,0.000000,0.000000,0.000000,0.000000,0.000000,0.000000,0.000000,1771416821.164712,0.000000
120.000000,6522.998991,16982.497809,2930.537216,3001.392245,4423.387876,18677.810571,-7814.080455,-4802.674628,1985.706626,-4965.395327,4317.462959,-2540.476923,17625.892773,17412.880649,-10656.082410,4242.606967,-0.002000,-0.008000,1.000000,192.000000,127.500000,120.000000,127.500000,96.000000,15.500000,32.000000,0.000000,0.000000,0.000000,1771416821.164724,0.000000
122.000000,6522.663715,16980.284987,2945.557588,3005.370856,4437.983565,18679.777524,-7805.787957,-4799.254811,1961.231465,-4988.194107,4288.897430,-2521.567347,17617.712035,17384.851561,-10696.717882,4239.276557,-0.002000,-0.008000,1.000000,192.000000,0.000000,0.000000,0.000000,0.000000,0.000000,0.000000,0.000000,0.000000,0.000000,1771416821.164739,0.000000
124.000000,6529.793922,16989.963292,2971.709129,3020.100656,4497.796833,18700.184667,-7790.074681,-4787.989532,1987.450062,-4960.187371,4325.420180,-2547.942406,17606.245590,17413.394739,-10658.876378,4228.413609,-0.002000,-0.008000,1.000000,192.000000,0.000000,0.000000,0.000000,0.000000,0.000000,0.000000,0.000000,0.000000,0.000000,1771416821.164751,0.000000
126.000000,6502.457738,16962.381239,2912.655820,2988.964676,4354.209227,18643.500643,-7821.054199,-4811.391808,1959.331567,-4986.227153,4292.473709,-2526.015344,17593.974482,17380.224750,-10681.161068,4235.722630,-0.002000,-0.008000,1.000000,192.000000,0.000000,0.000000,0.000000,0.000000,0.000000,0.000000,0.000000,0.000000,0.000000,1771416821.164764,0.000000
128.000000,6529.212776,16981.000242,2980.269847,3035.836284,4509.397389,18699.044728,-7788.957094,-4790.559982,1970.619198,-4989.199935,4302.062607,-2543.405002,17605.150355,17389.724241,-10683.776222,4235.543816,-0.002000,-0.008000,1.000000,192.000000,0.000000,0.000000,0.000000,0.000000,0.000000,0.000000,0.000000,0.000000,0.000000,1771416821.164776,0.000000
130.000000,6502.770663,16963.878806,2921.484759,2997.525394,4396.766948,18662.365516,-7816.293277,-4810.676552,1973.726091,-4981.600342,4305.772997,-2548.411792,17622.383549,17398.217904,-10672.063908,4253.268749,-0.004000,-0.006000,1.002000,192.000000,127.500000,112.000000,127.500000,104.000000,15.500000,40.000000,0.000000,0.000000,0.000000,1771416821.164789,0.000000
132.000000,6492.399453,16949.618393,2932.146541,3005.326152,4431.948594,18677.229426,-7815.175690,-4816.063323,1940.042012,-5012.959839,4269.294950,-2540.275757,17556.781180,17359.750552,-10687.106632,4267.886790,-0.004000,-0.006000,1.002000,192.000000,0.000000,0.000000,0.000000,0.000000,0.000000,0.000000,0.000000,0.000000,0.000000,1771416821.164801,0.000000
134.000000,6523.490730,16979.994414,2966.389414,3025.666240,4499.540269,18725.978580,-7795.170879,-4793.488061,1975.514230,-4981.399176,4305.728293,-2566.606112,17631.056026,17396.988558,-10644.414800,4273.362967,-0.004000,-0.006000,1.002000,192.000000,0.000000,0.000000,0.000000,0.000000,0.000000,0.000000,0.000000,0.000000,0.000000,1771416821.164814,0.000000
136.000000,6491.930067,16953.976983,2908.431340,2987.623571,4366.837962,18679.062269,-7827.916184,-4819.751360,1961.052652,-4991.099833,4289.657389,-2533.883158,17579.535255,17392.339396,-10663.927873,4268.691453,-0.004000,-0.006000,1.002000,192.000000,0.000000,0.000000,0.000000,0.000000,0.000000,0.000000,0.000000,0.000000,0.000000,1771416821.164826,0.000000
138.000000,6522.149625,16978.139219,2980.113385,3036.059801,4537.113552,18729.666618,-7788.443004,-4791.968142,1963.109012,-4987.232982,4295.848822,-2549.104696,17598.020148,17396.966207,-10652.573186,4270.054909,-0.004000,-0.006000,1.002000,192.000000,0.000000,0.000000,0.000000,0.000000,0.000000,0.000000,0.000000,0.000000,0.000000,1771416821.164838,0.000000
140.000000,6499.619067,16958.894367,2927.542082,2988.383530,4414.648344,18679.241083,-7814.549841,-4810.855366,1976.028320,-4984.148441,4306.331790,-2553.463287,17622.517660,17397.212076,-10640.123265,4259.035499,-0.002000,-0.012000,1.004000,192.000000,127.500000,120.000000,127.500000,80.000000,15.500000,48.000000,0.000000,0.000000,0.000000,1771416821.164851,0.000000
142.000000,6510.012628,16974.898216,2937.354498,3006.577850,4434.787266,18703.760946,-7806.100882,-4803.680456,1958.415146,-4999.705255,4280.515525,-2534.553711,17593.818020,17378.302500,-10678.367100,4256.375641,-0.002000,-0.012000,1.004000,192.000000,0.000000,0.000000,0.000000,0.000000,0.000000,0.000000,0.000000,0.000000,0.000000,1771416821.164863,0.000000
144.000000,6514.214756,16980.530856,2961.315568,3019.810083,4495.382845,18722.737577,-7791.684007,-4798.338389,1983.963190,-4967.205819,4311.383284,-2556.681938,17637.538032,17418.490937,-10664.397259,4255.570979,-0.002000,-0.012000,1.004000,192.000000,0.000000,0.000000,0.000000,0.000000,0.000000,0.000000,0.000000,0.000000,0.000000,1771416821.164876,0.000000
146.000000,6490.164279,16955.362791,2902.955163,2980.135736,4355.259759,18669.294556,-7821.367123,-4821.494796,1963.019605,-4996.665418,4287.086938,-2537.995879,17596.120250,17391.668843,-10689.498268,4246.652633,-0.002000,-0.012000,1.004000,192.000000,0.000000,0.000000,0.000000,0.000000,0.000000,0.000000,0.000000,0.000000,0.000000,1771416821.164888,0.000000
148.000000,6520.696762,16980.732021,2973.989007,3024.772170,4513.934793,18718.423691,-7785.649036,-4793.622171,1968.406375,-4989.423453,4294.530069,-2553.977377,17602.021110,17395.222771,-10694.393300,4233.174531,-0.002000,-0.012000,1.004000,192.000000,0.000000,0.000000,0.000000,0.000000,0.000000,0.000000,0.000000,0.000000,0.000000,1771416821.164901,0.000000
150.000000,6503.083587,16965.152856,2925.128093,2990.328132,4402.310181,18676.447115,-7809.051312,-4809.402503,1986.913620,-4975.297150,4312.255003,-2547.182446,17620.953038,17411.181916,-10673.717937,4223.496225,-0.002000,-0.012000,1.004000,192.000000,0.000000,0.000000,127.500000,64.000000,15.500000,32.000000,0.000000,0.000000,0.000000,1771416821.164914,0.000000
152.000000,6500.423729,16961.844797,2937.443905,3001.951039,4420.482149,18686.930083,-7805.452681,-4810.654200,1957.386965,-5001.672209,4280.448470,-2535.827760,17582.530389,17376.670823,-10699.914181,4241.288214,-0.002000,-0.012000,1.004000,192.000000,0.000000,0.000000,0.000000,0.000000,0.000000,0.000000,0.000000,0.000000,0.000000,1771416821.164926,0.000000
154.000000,6515.064122,16976.194617,2965.271826,3019.474807,4489.504336,18719.898906,-7790.722882,-4795.589125,1980.699835,-4976.817069,4312.120892,-2565.354415,17604.479802,17400.095451,-10663.190265,4253.581673,-0.002000,-0.012000,1.004000,192.000000,0.000000,0.000000,0.000000,0.000000,0.000000,0.000000,0.000000,0.000000,0.000000,1771416821.164948,0.000000
156.000000,6488.040863,16952.390009,2908.029009,2974.838373,4366.547390,18684.314929,-7824.094036,-4822.075942,1965.791221,-4992.977380,4290.640866,-2537.302975,17595.226180,17399.871933,-10683.351539,4259.326072,-0.002000,-0.012000,1.004000,192.000000,0.000000,0.000000,0.000000,0.000000,0.000000,0.000000,0.000000,0.000000,0.000000,1771416821.164960,0.000000
158.000000,6512.314858,16974.361774,2975.330111,3032.841150,4543.394392,18744.709342,-7789.895867,-4799.455976,1962.773736,-4990.228115,4289.858555,-2557.754822,17642.924803,17405.437518,-10664.330204,4273.541781,-0.002000,-0.012000,1.004000,192.000000,0.000000,0.000000,0.000000,0.000000,0.000000,0.000000,0.000000,0.000000,0.000000,1771416821.164973,0.000000
160.000000,6489.739596,16951.004201,2928.637317,2992.049216,4421.242108,18691.288673,-7814.214565,-4815.862157,1976.743576,-4980.102775,4307.985819,-2554.469115,17619.164898,17408.678521,-10641.687887,4272.468897,-0.002000,-0.012000,1.004000,192.000000,0.000000,0.000000,127.500000,72.000000,15.500000,56.000000,0.000000,0.000000,0.000000,1771416821.164985,0.000000
162.000000,6489.471375,16948.120826,2940.148466,2991.713940,4435.033135,18694.484972,-7811.912335,-4819.438436,1944.981747,-5017.966630,4274.100575,-2550.624615,17571.578034,17359.214110,-10671.102783,4278.459165,-0.002000,-0.012000,1.004000,192.000000,0.000000,0.000000,0.000000,0.000000,0.000000,0.000000,0.000000,0.000000,0.000000,1771416821.164998,0.000000
164.000000,6509.073855,16970.606681,2965.160068,3018.290164,4508.972705,18723.653999,-7796.802556,-4802.920497,1978.554067,-4984.036682,4309.416331,-2574.004540,17640.019076,17407.180954,-10641.821997,4274.011168,-0.002000,-0.012000,1.004000,192.000000,0.000000,0.000000,0.000000,0.000000,0.000000,0.000000,0.000000,0.000000,0.000000,1771416821.165011,0.000000
166.000000,6483.414052,16945.840948,2907.134939,2976.514754,4368.804916,18676.044783,-7825.278679,-4822.970012,1962.349053,-5002.722740,4286.818717,-2545.282548,17624.462262,17376.670823,-10661.245663,4272.625360,-0.002000,-0.012000,1.004000,192.000000,0.000000,0.000000,0.000000,0.000000,0.000000,0.000000,0.000000,0.000000,0.000000,1771416821.165023,0.000000
168.000000,6512.113692,16968.527969,2978.280542,3021.620574,4524.440113,18735.835700,-7787.615989,-4796.550250,1964.763041,-4998.364150,4292.607819,-2563.275702,17617.510869,17399.827230,-10661.446829,4271.463069,-0.002000,-0.012000,1.004000,192.000000,0.000000,0.000000,0.000000,0.000000,0.000000,0.000000,0.000000,0.000000,0.000000,1771416821.165035,0.000000
170.000000,6496.646285,16956.301565,2929.173759,2993.390321,4403.986562,18684.806667,-7810.750045,-4809.402503,1975.916562,-4984.349607,4305.437720,-2555.430240,17619.701340,17407.739747,-10661.916216,4259.527237,-0.002000,-0.012000,1.004000,192.000000,0.000000,0.000000,127.500000,72.000000,15.500000,72.000000,0.000000,0.000000,0.000000,1771416821.165048,0.000000
172.000000,6500.334322,16960.593100,2937.913291,2997.614801,4427.701763,18680.313966,-7805.385626,-4805.736817,1951.776678,-5006.008447,4276.939246,-2539.046411,17602.065814,17378.950701,-10692.269885,4244.886845,-0.002000,-0.012000,1.004000,192.000000,0.000000,0.000000,0.000000,0.000000,0.000000,0.000000,0.000000,0.000000,0.000000,1771416821.165060,0.000000
174.000000,6515.421750,16974.384126,2965.629454,3019.295993,4495.874583,18696.071946,-7789.001797,-4790.381168,1978.084681,-4979.409871,4308.566965,-2563.029833,17641.807215,17415.965189,-10660.508056,4230.805246,-0.002000,-0.012000,1.004000,192.000000,0.000000,0.000000,0.000000,0.000000,0.000000,0.000000,0.000000,0.000000,0.000000,1771416821.165073,0.000000
176.000000,6500.826061,16960.481341,2910.666515,2984.762548,4362.948759,18677.564702,-7818.327286,-4805.960334,1976.944742,-4989.289342,4295.759415,-2526.015344,17611.386491,17406.733919,-10692.962789,4232.928661,-0.002000,-0.012000,1.004000,192.000000,0.000000,0.000000,0.000000,0.000000,0.000000,0.000000,0.000000,0.000000,0.000000,1771416821.165085,0.000000
178.000000,6521.389666,16983.525989,2986.550687,3031.187121,4523.970726,18736.349790,-7785.827850,-4783.228610,1973.480221,-4987.612961,4299.425101,-2547.070688,17599.584770,17401.481259,-10680.602274,4248.463124,-0.002000,-0.012000,1.004000,192.000000,0.000000,0.000000,0.000000,0.000000,0.000000,0.000000,0.000000,0.000000,0.000000,1771416821.165098,0.000000
180.000000,6500.960171,16965.130504,2929.777256,2997.726559,4415.788283,18688.382946,-7815.600373,-4807.770825,1984.298466,-4970.446822,4312.456168,-2543.449705,17630.117253,17417.663922,-10657.892902,4248.217255,-0.002000,-0.010000,1.006000,192.000000,127.500000,120.000000,127.500000,96.000000,15.500000,64.000000,0.000000,0.000000,0.000000,1771416821.644748,0.000000
182.000000,6514.840605,16976.954577,2949.066812,3005.840243,4437.044792,18710.488821,-7805.475033,-4798.338389,1962.237294,-5002.521575,4278.459165,-2534.598414,17605.776203,17386.259721,-10675.014338,4263.394089,-0.002000,-0.010000,1.006000,192.000000,0.000000,0.000000,0.000000,0.000000,0.000000,0.000000,0.000000,0.000000,0.000000,1771416821.644810,0.000000
184.000000,6541.483884,17001.809716,2971.597370,3035.836284,4504.032970,18750.207871,-7791.281675,-4780.568752,2008.505405,-4957.773382,4327.297727,-2546.467191,17655.195910,17444.709533,-10651.410896,4274.592313,-0.002000,-0.010000,1.006000,192.000000,0.000000,0.000000,0.000000,0.000000,0.000000,0.000000,0.000000,0.000000,0.000000,1771416821.644858,0.000000
186.000000,6494.433462,16959.162588,2911.784102,2984.248457,4400.454986,18689.075850,-7829.816083,-4817.225613,1987.561820,-4978.761670,4296.899354,-2524.540129,17634.073512,17405.772794,-10657.557625,4284.740005,-0.002000,-0.010000,1.006000,192.000000,0.000000,0.000000,0.000000,0.000000,0.000000,0.000000,0.000000,0.000000,0.000000,1771416821.644905,0.000000
188.000000,6530.799750,16999.105155,2984.471975,3035.635118,4561.007567,18735.187499,-7794.925010,-4788.637732,1968.115803,-4988.574086,4292.876040,-2549.417621,17617.466166,17410.354902,-10642.269032,4273.675892,-0.002000,-0.010000,1.006000,192.000000,0.000000,0.000000,0.000000,0.000000,0.000000,0.000000,0.000000,0.000000,0.000000,1771416821.644957,0.000000
190.000000,6509.207965,16971.970138,2931.878320,2996.743083,4431.143931,18683.309100,-7817.075588,-4805.334485,1994.535565,-4964.210685,4314.244308,-2539.538150,17640.421407,17438.987486,-10622.264221,4278.168592,-0.003000,-0.008000,1.008000,192.000000,127.500000,112.000000,127.500000,104.000000,15.500000,72.000000,0.000000,0.000000,0.000000,1771416821.645005,0.000000
192.000000,6525.323573,16983.950673,2945.982271,2998.374760,4446.857208,18694.932007,-7806.614972,-4791.677569,1959.689195,-5013.406874,4287.824546,-2533.123199,17584.966729,17364.466770,-10662.698527,4269.719633,-0.003000,-0.008000,1.008000,192.000000,0.000000,0.000000,0.000000,0.000000,0.000000,0.000000,0.000000,0.000000,0.000000,1771416821.645046,0.000000
194.000000,6544.724887,17005.430699,2963.953073,3021.665278,4492.432415,18714.914467,-7790.633475,-4773.527953,1997.508347,-4962.310787,4329.354087,-2545.997804,17660.269756,17412.321855,-10655.836541,4253.715784,-0.003000,-0.008000,1.008000,192.000000,0.000000,0.000000,0.000000,0.000000,0.000000,0.000000,0.000000,0.000000,0.000000,1771416821.645058,0.000000
196.000000,6519.132140,16981.491981,2906.397332,2978.504059,4339.099448,18651.010829,-7820.338943,-4795.812642,1970.507439,-4990.473985,4302.643752,-2520.941498,17578.060040,17389.545428,-10689.855896,4253.492266,-0.003000,-0.008000,1.008000,192.000000,0.000000,0.000000,0.000000,0.000000,0.000000,0.000000,0.000000,0.000000,0.000000,1771416821.645070,0.000000
198.000000,6560.259349,17022.395673,2981.968580,3030.717734,4498.847365,18711.919333,-7778.943512,-4759.021671,1979.470489,-4975.520667,4312.523223,-2530.865673,17616.125061,17386.036204,-10696.248495,4242.472856,-0.003000,-0.008000,1.008000,192.000000,0.000000,0.000000,0.000000,0.000000,0.000000,0.000000,0.000000,0.000000,0.000000,1771416821.645088,0.000000
200.000000,6545.216625,17005.587161,2931.565396,2992.697417,4379.377291,18668.802818,-7803.128100,-4775.338444,1998.357713,-4958.600397,4334.852616,-2521.746161,17626.920954,17407.315064,-10687.777184,4233.755676,-0.003500,-0.008000,1.008000,192.000000,127.500000,112.000000,127.500000,96.000000,15.500000,64.000000,0.000000,0.000000,0.000000,1771416821.645099,0.000000
202.000000,6549.508160,17009.565772,2946.719879,3000.028789,4412.234355,18675.217769,-7799.887097,-4776.545438,1979.068158,-4984.282551,4304.588354,-2510.011495,17615.432157,17387.019680,-10710.464205,4226.692525,-0.003500,-0.008000,1.008000,192.000000,0.000000,0.000000,0.000000,0.000000,0.000000,0.000000,0.000000,0.000000,0.000000,1771416821.645111,0.000000
204.000000,6556.526608,17016.807737,2970.837411,3021.195891,4476.406214,18707.203115,-7789.717053,-4769.571694,2003.163338,-4959.896798,4336.014907,-2539.113467,17618.047311,17415.316989,-10674.254379,4226.871339,-0.003500,-0.008000,1.008000,192.000000,0.000000,0.000000,0.000000,0.000000,0.000000,0.000000,0.000000,0.000000,0.000000,1771416821.645122,0.000000
206.000000,6534.063105,16996.646463,2914.622773,2985.746024,4345.089715,18653.961260,-7818.774321,-4788.525973,1986.153661,-4977.375862,4312.009133,-2511.933745,17606.379700,17396.049785,-10694.795632,4241.221159,-0.003500,-0.008000,1.008000,192.000000,0.000000,0.000000,0.000000,0.000000,0.000000,0.000000,0.000000,0.000000,0.000000,1771416821.645134,0.000000
208.000000,6561.064012,17021.456900,2980.672178,3033.802275,4504.524708,18721.664694,-7786.431347,-4765.391918,1991.316914,-4974.581894,4316.233613,-2527.043525,17615.566267,17394.753384,-10674.209675,4236.862568,-0.003500,-0.008000,1.008000,192.000000,0.000000,0.000000,0.000000,0.000000,0.000000,0.000000,0.000000,0.000000,0.000000,1771416821.645145,0.000000
210.000000,6525.144759,16988.935112,2919.987192,2998.687684,4389.346169,18693.076812,-7817.164995,-4793.219840,1989.707588,-4965.998824,4318.781712,-2529.301051,17655.374724,17417.574515,-10657.624681,4260.018976,-0.004750,-0.009000,1.007000,192.000000,127.500000,104.000000,127.500000,88.000000,15.500000,56.000000,0.000000,0.000000,0.000000,1771416821.645157,0.000000
212.000000,6531.358544,16990.455030,2946.049326,3006.019057,4434.966080,18707.180763,-7810.437120,-4787.698959,1961.186762,-4998.744130,4287.668084,-2520.092132,17597.059023,17372.289881,-10678.121230,4269.138487,-0.004750,-0.009000,1.007000,192.000000,0.000000,0.000000,0.000000,0.000000,0.000000,0.000000,0.000000,0.000000,0.000000,1771416821.645168,0.000000
214.000000,6550.670451,17010.303379,2974.100765,3032.237653,4493.997037,18725.576249,-7792.846297,-4770.644578,1993.485033,-4963.875409,4326.403657,-2541.058068,17610.827698,17431.767873,-10644.683021,4260.935397,-0.004750,-0.009000,1.007000,192.000000,0.000000,0.000000,0.000000,0.000000,0.000000,0.000000,0.000000,0.000000,0.000000,1771416821.645180,0.000000
216.000000,6524.764779,16986.118792,2920.545986,2989.702283,4363.261683,18667.014678,-7821.456530,-4795.365607,1981.638608,-4975.140688,4309.416331,-2509.966792,17597.506058,17409.550239,-10669.381698,4259.884865,-0.004750,-0.009000,1.007000,192.000000,0.000000,0.000000,0.000000,0.000000,0.000000,0.000000,0.000000,0.000000,0.000000,1771416821.645191,0.000000
218.000000,6537.840550,16996.601760,2977.118251,3029.711906,4510.157348,18723.385778,-7791.102861,-4782.781575,1971.490916,-4984.483717,4298.911011,-2539.806371,17606.983198,17396.765041,-10667.258283,4278.123889,-0.004750,-0.009000,1.007000,192.000000,0.000000,0.000000,0.000000,0.000000,0.000000,0.000000,0.000000,0.000000,0.000000,1771416821.645203,0.000000
220.000000,6522.529605,16976.596949,2926.089218,2990.752815,4400.745559,18683.152638,-7813.812234,-4798.539555,1981.862126,-4976.280627,4310.600973,-2543.248539,17633.648829,17404.610503,-10663.860817,4281.521354,-0.004375,-0.011500,1.006500,192.000000,127.500000,112.000000,127.500000,72.000000,15.500000,56.000000,0.000000,0.000000,0.000000,1771416821.645214,0.000000
222.000000,6538.198178,16997.920513,2944.507056,3009.081246,4433.736734,18687.466525,-7802.479899,-4782.938037,1962.661977,-5000.621677,4289.009188,-2523.042562,17636.487500,17380.157695,-10696.829640,4263.975235,-0.004375,-0.011500,1.006500,192.000000,0.000000,0.000000,0.000000,0.000000,0.000000,0.000000,0.000000,0.000000,0.000000,1771416821.645226,0.000000
224.000000,6556.347794,17015.176060,2981.655655,3027.409676,4497.550964,18711.271132,-7782.028053,-4765.906008,1999.028265,-4954.688842,4333.287994,-2537.034754,17635.995762,17435.925297,-10662.162085,4225.463179,-0.004375,-0.011500,1.006500,192.000000,0.000000,0.000000,0.000000,0.000000,0.000000,0.000000,0.000000,0.000000,0.000000,1771416821.645237,0.000000
226.000000,6529.257480,16988.778649,2922.624698,2981.119213,4364.893361,18662.924309,-7813.901641,-4792.459880,1984.834908,-4973.509010,4311.852671,-2511.419655,17592.141639,17405.549277,-10687.330149,4223.630336,-0.004375,-0.011500,1.006500,192.000000,0.000000,0.000000,0.000000,0.000000,0.000000,0.000000,0.000000,0.000000,0.000000,1771416821.645249,0.000000
228.000000,6555.341966,17013.074996,2985.321341,3028.728429,4522.964898,18725.933877,-7780.754004,-4767.828258,1985.661922,-4973.330197,4314.825453,-2535.894815,17646.143454,17414.780547,-10673.494419,4224.725571,-0.004375,-0.011500,1.006500,192.000000,0.000000,0.000000,0.000000,0.000000,0.000000,0.000000,0.000000,0.000000,0.000000,1771416821.645260,0.000000
230.000000,6538.399343,16991.729080,2943.322413,2992.898583,4408.613373,18676.290652,-7803.999818,-4781.909857,1993.954419,-4964.344795,4327.789465,-2534.598414,17633.402960,17433.198384,-10656.104762,4228.123036,-0.004375,-0.011500,1.006500,192.000000,0.000000,0.000000,0.000000,0.000000,0.000000,0.000000,0.000000,0.000000,0.000000,1771416821.645272,0.000000
232.000000,6531.246785,16985.984681,2953.693623,2995.714902,4439.458780,18684.694908,-7802.457547,-4786.179040,1974.061367,-4992.463290,4298.642790,-2516.158225,17603.585732,17387.623177,-10690.437042,4229.821769,-0.004375,-0.011500,1.006500,192.000000,0.000000,0.000000,127.500000,96.000000,15.500000,56.000000,0.000000,0.000000,0.000000,1771416821.645283,0.000000
234.000000,6544.277852,16995.439469,2977.565286,3019.117179,4497.215688,18717.797842,-7787.526582,-4773.304435,1992.300390,-4969.955083,4322.872081,-2547.473019,17656.112332,17423.698893,-10651.813227,4235.454409,-0.004375,-0.011500,1.006500,192.000000,0.000000,0.000000,0.000000,0.000000,0.000000,0.000000,0.000000,0.000000,0.000000,1771416821.645295,0.000000
236.000000,6514.661791,16969.109114,2915.941526,2973.161992,4362.747593,18666.232367,-7821.143606,-4800.819433,1976.251838,-4987.478851,4299.872136,-2519.801559,17640.086131,17394.060480,-10673.583826,4245.266824,-0.004375,-0.011500,1.006500,192.000000,0.000000,0.000000,0.000000,0.000000,0.000000,0.000000,0.000000,0.000000,0.000000,1771416821.645306,0.000000
