Sample_index,EXG Channel 0,EXG Channel 1,EXG Channel 2,EXG Channel 3,EXG Channel 4,EXG Channel 5,EXG Channel 6,EXG Channel 7,EXG Channel 8,EXG Channel 9,EXG Channel 10,EXG Channel 11,EXG Channel 12,EXG Channel 13,EXG Channel 14,EXG Channel 15,Accel Channel 0,Accel Channel 1,Accel Channel 2,Not Used,Digital Channel 0 (D11),Digital Channel 1 (D12),Digital Channel 2 (D13),Digital Channel 3 (D17),Not Used,Digital Channel 4 (D18),Analog Channel 0,Analog Channel 1,Analog Channel 2,Timestamp,Marker Channel
90.000000,11425.518861,10337.659459,-25105.412317,-3988.825260,-15669.824561,16534.524147,-10532.901947,-17756.248147,11607.283247,14323.981324,4799.210107,589.884888,9067.231007,15215.078320,-24754.847557,-8050.383097,-0.008000,-0.016000,1.010000,192.000000,0.000000,0.000000,0.000000,0.000000,0.000000,0.000000,0.000000,0.000000,0.000000,1770371972.343495,101.000000
92.000000,11437.387638,10349.371773,-25093.387078,-3980.197487,-15658.469875,16538.502757,-10522.061351,-17743.284135,11600.130689,14321.679094,4799.455976,587.493251,9065.599330,15215.145375,-24763.654144,-8050.472504,-0.008000,-0.016000,1.010000,192.000000,0.000000,0.000000,0.000000,0.000000,0.000000,0.000000,0.000000,0.000000,0.000000,1770371972.343557,0.000000
94.000000,11431.263260,10345.102590,-25093.945872,-3980.957446,-15643.136578,16547.264641,-10526.017609,-17747.352153,11619.174375,14336.721818,4810.587145,606.827510,9081.469069,15226.500061,-24741.525917,-8026.354972,-0.004000,-0.018000,1.008000,192.000000,127.500000,112.000000,127.500000,56.000000,15.500000,64.000000,0.000000,0.000000,0.000000,1770371972.343606,0.000000
96.000000,11422.210803,10335.603098,-25103.802991,-3983.170269,-15645.058828,16559.915729,-10539.629822,-17763.490112,11592.486393,14320.673266,4790.224706,585.280429,9063.632377,15216.017093,-24744.789272,-8028.836015,-0.004000,-0.018000,1.008000,192.000000,0.000000,0.000000,0.000000,0.000000,0.000000,0.000000,0.000000,0.000000,0.000000,1770371972.343648,0.000000
98.000000,11420.176795,10334.060828,-25097.276282,-3982.410310,-15633.480624,16574.913749,-10535.248880,-17764.585348,11598.655474,14323.020199,4787.609552,585.682760,9067.745098,15223.348465,-24728.494850,-8005.500794,-0.004000,-0.018000,1.008000,192.000000,0.000000,0.000000,0.000000,0.000000,0.000000,0.000000,0.000000,0.000000,0.000000,1770371972.343703,0.000000
100.000000,11392.281817,10302.522517,-25125.640646,-3996.067225,-15648.411590,16567.850598,-10558.070011,-17794.916665,11589.938294,14311.196126,4770.979854,573.031673,9058.893807,15223.236707,-24727.198449,-7994.011997,-0.004000,-0.018000,1.008000,192.000000,0.000000,0.000000,0.000000,0.000000,0.000000,0.000000,0.000000,0.000000,0.000000,1770371972.343749,0.000000
102.000000,11391.208934,10305.338836,-25126.400605,-3994.480252,-15652.948994,16582.803915,-10551.722115,-17789.328729,11560.612805,14290.833687,4751.913816,553.429193,9041.973536,15204.193020,-24749.125510,-7996.291875,-0.004000,-0.018000,1.008000,192.000000,0.000000,0.000000,0.000000,0.000000,0.000000,0.000000,0.000000,0.000000,0.000000,1770371972.343787,0.000000
104.000000,11394.829916,10310.300924,-25123.874858,-3990.367531,-15654.647726,16568.521150,-10548.659926,-17784.880732,11580.662320,14307.284571,4760.183961,572.316417,9049.103743,15217.872288,-24746.063321,-7976.555285,-0.001000,-0.016000,1.010000,192.000000,0.000000,8.000000,127.500000,72.000000,15.500000,80.000000,0.000000,0.000000,0.000000,1770371972.343800,0.000000
106.000000,11400.976646,10311.932601,-25120.723262,-3992.580353,-15658.671040,16564.207263,-10550.246900,-17782.913778,11565.641947,14295.572257,4755.557150,560.894675,9037.525539,15206.428195,-24765.107008,-7991.396843,-0.001000,-0.016000,1.010000,192.000000,0.000000,0.000000,0.000000,0.000000,0.000000,0.000000,0.000000,0.000000,0.000000,1770371972.343813,0.000000
108.000000,11416.846385,10328.204671,-25101.411355,-3986.679493,-15657.553453,16568.431743,-10533.773665,-17763.490112,11590.899419,14311.732568,4777.528915,578.373740,9063.364156,15215.793576,-24754.132301,-7982.925532,-0.001000,-0.016000,1.010000,192.000000,0.000000,0.000000,0.000000,0.000000,0.000000,0.000000,0.000000,0.000000,0.000000,1770371972.343827,0.000000
110.000000,11411.370207,10317.520537,-25116.230561,-3993.340313,-15675.948939,16563.134380,-10545.418924,-17770.910891,11596.666169,14309.944428,4783.452127,579.893658,9056.658632,15223.169651,-24758.826167,-7983.976064,-0.001000,-0.016000,1.010000,192.000000,0.000000,0.000000,0.000000,0.000000,0.000000,0.000000,0.000000,0.000000,0.000000,1770371972.343840,0.000000
112.000000,11429.609231,10338.665287,-25104.384137,-3985.427795,-15679.391107,16564.900168,-10533.550147,-17751.442522,11588.418375,14303.685940,4786.290799,576.138565,9047.337955,15210.339750,-24772.304269,-8001.298666,-0.001000,-0.016000,1.010000,192.000000,0.000000,0.000000,0.000000,0.000000,0.000000,0.000000,0.000000,0.000000,0.000000,1770371972.343852,0.000000
114.000000,11433.543138,10344.320279,-25101.925445,-3987.484156,-15674.227855,16562.508531,-10532.387857,-17747.978002,11616.045131,14330.329219,4806.094445,602.938307,9064.548798,15234.099654,-24753.305287,-8001.209259,-0.001000,-0.016000,1.010000,192.000000,0.000000,0.000000,127.500000,80.000000,15.500000,40.000000,0.000000,0.000000,0.000000,1770371972.343865,0.000000
116.000000,11428.335181,10336.698334,-25108.228637,-3990.859269,-15668.550511,16541.095560,-10538.825159,-17756.248147,11594.207477,14311.978437,4794.002151,585.079263,9057.843275,15212.619628,-24766.716333,-8035.273318,-0.001000,-0.016000,1.010000,192.000000,0.000000,0.000000,0.000000,0.000000,0.000000,0.000000,0.000000,0.000000,0.000000,1770371972.343878,0.000000
118.000000,11438.192301,10349.707049,-25092.761230,-3981.851516,-15648.880976,16547.801083,-10524.788263,-17743.127673,11609.630181,14328.071693,4801.177061,597.372722,9068.482705,15225.114253,-24749.460787,-8032.747571,-0.001000,-0.016000,1.010000,192.000000,0.000000,0.000000,0.000000,0.000000,0.000000,0.000000,0.000000,0.000000,0.000000,1770371972.343908,0.000000
120.000000,11412.107815,10319.621601,-25111.894323,-3993.183850,-15659.878035,16539.799159,-10546.894139,-17768.608662,11604.712797,14327.199975,4792.236363,597.059798,9066.471048,15227.885869,-24737.882583,-8029.931251,-0.001000,-0.016000,1.010000,192.000000,0.000000,0.000000,0.000000,0.000000,0.000000,0.000000,0.000000,0.000000,0.000000,1770371972.343920,0.000000
122.000000,11408.106853,10317.587592,-25106.820477,-3992.893278,-15647.271651,16547.532862,-10543.362563,-17768.608662,11581.958721,14308.402158,4775.561962,577.680835,9057.887978,15214.631285,-24742.956429,-8033.216957,-0.001000,-0.016000,1.010000,192.000000,0.000000,0.000000,0.000000,0.000000,0.000000,0.000000,0.000000,0.000000,0.000000,1770371972.343932,0.000000
124.000000,11395.835745,10307.998694,-25106.239332,-3997.207164,-15642.488377,16549.544519,-10545.933014,-17774.420115,11595.593285,14315.465309,4779.786441,586.509775,9068.952092,15225.494233,-24719.822373,-8008.652390,-0.002500,-0.015000,1.007000,192.000000,127.500000,112.000000,127.500000,72.000000,15.500000,48.000000,0.000000,0.000000,0.000000,1770371972.343945,0.000000
126.000000,11376.009748,10288.977359,-25120.432689,-4000.559926,-15655.541796,16546.638792,-10553.644366,-17789.798115,11566.021927,14290.140783,4763.223799,557.698376,9053.775257,15206.405843,-24739.111929,-8014.083864,-0.002500,-0.015000,1.007000,192.000000,0.000000,0.000000,0.000000,0.000000,0.000000,0.000000,0.000000,0.000000,0.000000,1770371972.343957,0.000000
128.000000,11379.049585,10293.201839,-25110.016776,-3997.520089,-15662.001450,16558.485217,-10539.629822,-17780.589197,11567.631253,14291.168963,4762.195618,561.744042,9050.131923,15213.178422,-24745.884507,-7998.281181,-0.002500,-0.015000,1.007000,192.000000,0.000000,0.000000,0.000000,0.000000,0.000000,0.000000,0.000000,0.000000,0.000000,1770371972.343969,0.000000
130.000000,11366.778477,10278.717909,-25127.518192,-4002.035141,-15673.378488,16548.024601,-10553.532607,-17793.709671,11570.536980,14292.040681,4760.809810,558.503039,9049.863702,15214.832451,-24754.288763,-7998.907029,-0.002500,-0.015000,1.007000,192.000000,0.000000,0.000000,0.000000,0.000000,0.000000,0.000000,0.000000,0.000000,0.000000,1770371972.343981,0.000000
132.000000,11381.418870,10296.442842,-25114.710643,-3990.121661,-15668.036421,16564.050801,-10540.859168,-17773.458990,11556.678898,14292.800640,4761.346252,557.899542,9047.516769,15220.755663,-24769.555005,-8008.652390,-0.002500,-0.015000,1.007000,192.000000,0.000000,0.000000,0.000000,0.000000,0.000000,0.000000,0.000000,0.000000,0.000000,1770371972.343994,0.000000
134.000000,11380.681262,10292.687749,-25113.280131,-3989.629923,-15676.261863,16560.094543,-10536.411171,-17765.166493,11584.797392,14312.045492,4781.865154,583.089958,9060.413725,15241.743951,-24757.887394,-8001.678646,-0.002500,-0.015000,1.007000,192.000000,0.000000,0.000000,127.500000,88.000000,15.500000,96.000000,0.000000,0.000000,0.000000,1770371972.344006,0.000000
136.000000,11375.562713,10287.233923,-25120.008006,-3990.009903,-15681.000433,16555.601842,-10540.188615,-17767.491075,11565.239616,14298.857963,4776.456031,568.494268,9046.376830,15219.772186,-24776.595804,-8033.373419,-0.002500,-0.015000,1.007000,192.000000,0.000000,0.000000,0.000000,0.000000,0.000000,0.000000,0.000000,0.000000,0.000000,1770371972.344018,0.000000
138.000000,11380.860076,10293.939447,-25105.747593,-3983.885525,-15678.854666,16550.639755,-10522.866013,-17750.347287,11576.147267,14302.858925,4787.050758,581.368873,9057.195074,15227.796463,-24768.079790,-8033.194605,-0.002500,-0.015000,1.007000,192.000000,0.000000,0.000000,0.000000,0.000000,0.000000,0.000000,0.000000,0.000000,0.000000,1770371972.344030,0.000000
140.000000,11366.152628,10276.952121,-25120.544448,-3990.814566,-15673.557302,16536.893432,-10538.556938,-17766.261729,11574.694404,14304.870582,4788.213049,581.882963,9055.898673,15229.294029,-24762.156577,-8034.938042,-0.002500,-0.015000,1.007000,192.000000,0.000000,0.000000,0.000000,0.000000,0.000000,0.000000,0.000000,0.000000,0.000000,1770371972.344043,0.000000
142.000000,11364.878579,10277.488563,-25110.575570,-3988.087653,-15664.504846,16543.375438,-10532.253746,-17762.752505,11557.125933,14290.632521,4779.160592,568.650731,9050.802475,15212.373759,-24765.621098,-8043.923443,-0.002500,-0.015000,1.007000,192.000000,0.000000,0.000000,0.000000,0.000000,0.000000,0.000000,0.000000,0.000000,0.000000,1770371972.344055,0.000000
144.000000,11359.469457,10274.314615,-25104.652358,-3987.439452,-15651.697296,16550.930327,-10531.337325,-17762.283118,11569.285282,14305.965818,4784.904991,585.235725,9062.604196,15228.735236,-24741.324752,-8025.773826,-0.000250,-0.012500,1.007500,192.000000,0.000000,8.000000,127.500000,88.000000,15.500000,64.000000,0.000000,0.000000,0.000000,1770371972.344067,0.000000
146.000000,11339.889328,10257.819028,-25117.437555,-3993.966161,-15659.051020,16561.882682,-10546.625918,-17781.460915,11545.771247,14292.063033,4768.655273,564.515658,9050.087219,15221.940305,-24748.969048,-8034.759228,-0.000250,-0.012500,1.007500,192.000000,0.000000,0.000000,0.000000,0.000000,0.000000,0.000000,0.000000,0.000000,0.000000,1770371972.344080,0.000000
148.000000,11341.141026,10260.411830,-25108.630968,-3988.132356,-15643.248337,16572.365650,-10539.853339,-17779.940996,11546.508854,14289.716099,4762.597950,565.029748,9053.082353,15227.684704,-24734.708635,-8011.736931,-0.000250,-0.012500,1.007500,192.000000,0.000000,0.000000,0.000000,0.000000,0.000000,0.000000,0.000000,0.000000,0.000000,1770371972.344092,0.000000
150.000000,11325.941840,10241.412847,-25128.188745,-3990.300475,-15663.878997,16575.092563,-10558.449991,-17799.655235,11545.055991,14291.504239,4756.652386,561.498172,9053.775257,15241.431027,-24735.692112,-7990.659236,-0.000250,-0.012500,1.007500,192.000000,0.000000,0.000000,0.000000,0.000000,0.000000,0.000000,0.000000,0.000000,0.000000,1770371972.344104,0.000000
152.000000,11335.016648,10247.939557,-25123.763099,-3984.846650,-15665.868302,16582.781563,-10550.649232,-17790.915703,11526.392284,14285.491620,4748.941034,550.791687,9042.353516,15233.764378,-24751.852423,-7984.445451,-0.000250,-0.012500,1.007500,192.000000,0.000000,0.000000,0.000000,0.000000,0.000000,0.000000,0.000000,0.000000,0.000000,1770371972.344116,0.000000
154.000000,11343.398552,10250.532359,-25120.410337,-3986.992417,-15665.041288,16585.307310,-10544.703668,-17782.779668,11555.136628,14300.601399,4766.956540,569.276580,9058.312661,15249.567062,-24742.464691,-7966.564055,-0.000250,-0.012500,1.007500,192.000000,0.000000,0.000000,127.500000,88.000000,15.500000,64.000000,0.000000,0.000000,0.000000,1770371972.344129,0.000000
156.000000,11345.343154,10249.682993,-25121.907904,-3991.887449,-15664.571901,16583.228598,-10547.140008,-17779.918644,11540.987973,14288.531457,4764.766069,553.183324,9047.360307,15231.417445,-24765.241118,-7996.671855,-0.000250,-0.012500,1.007500,192.000000,0.000000,0.000000,0.000000,0.000000,0.000000,0.000000,0.000000,0.000000,0.000000,1770371972.344167,0.000000
158.000000,11368.387803,10273.912284,-25100.651395,-3982.656179,-15657.553453,16577.685365,-10526.822272,-17751.688391,11564.032622,14309.407986,4788.995360,578.105519,9068.572112,15245.968431,-24759.854348,-8007.378341,-0.000250,-0.012500,1.007500,192.000000,0.000000,0.000000,0.000000,0.000000,0.000000,0.000000,0.000000,0.000000,0.000000,1770371972.344186,0.000000
160.000000,11365.280910,10271.967682,-25111.179067,-3987.819432,-15656.614680,16576.970110,-10538.691048,-17760.718496,11569.978186,14320.203879,4793.935096,586.621533,9069.712051,15253.389210,-24759.072037,-8023.292783,-0.000250,-0.012500,1.007500,192.000000,0.000000,0.000000,0.000000,0.000000,0.000000,0.000000,0.000000,0.000000,0.000000,1770371972.344200,0.000000
162.000000,11384.369300,10292.397176,-25095.845770,-3979.303417,-15646.265822,16569.370516,-10526.956383,-17742.211252,11567.430087,14318.862774,4796.483194,583.089958,9074.338862,15250.215262,-24764.123531,-8042.135303,-0.000250,-0.012500,1.007500,192.000000,0.000000,0.000000,0.000000,0.000000,0.000000,0.000000,0.000000,0.000000,0.000000,1770371972.344212,0.000000
164.000000,11394.405233,10299.415624,-25090.727221,-3975.794193,-15644.835311,16563.715525,-10523.447159,-17737.316219,11603.170526,14335.179548,4814.342238,607.609821,9095.684778,15262.195797,-24744.923382,-8031.406466,0.000875,-0.012250,1.005750,192.000000,0.000000,8.000000,127.500000,80.000000,15.500000,48.000000,0.000000,0.000000,0.000000,1770371972.344224,0.000000
166.000000,11387.409137,10290.899609,-25102.327776,-3983.662007,-15656.078238,16547.018772,-10535.807673,-17752.336592,11580.036471,14305.205858,4797.265505,584.542821,9076.998720,15236.781864,-24757.149787,-8048.125571,0.000875,-0.012250,1.005750,192.000000,0.000000,0.000000,0.000000,0.000000,0.000000,0.000000,0.000000,0.000000,0.000000,1770371972.344236,0.000000
168.000000,11406.296361,10311.574973,-25086.726259,-3981.471536,-15646.779912,16550.371534,-10526.129368,-17740.557222,11587.926637,14312.023140,4802.428758,592.365932,9080.843220,15238.502948,-24741.034179,-8040.235405,0.000875,-0.012250,1.005750,192.000000,0.000000,0.000000,0.000000,0.000000,0.000000,0.000000,0.000000,0.000000,0.000000,1770371972.344249,0.000000
170.000000,11395.053434,10298.968589,-25108.787430,-3997.385978,-15661.934395,16540.112083,-10547.676450,-17764.607699,11593.916904,14307.686902,4800.037122,588.029693,9076.015243,15232.847957,-24732.473461,-8033.820454,0.000875,-0.012250,1.005750,192.000000,0.000000,0.000000,0.000000,0.000000,0.000000,0.000000,0.000000,0.000000,0.000000,1770371972.344260,0.000000
172.000000,11402.116585,10313.050188,-25109.793259,-3999.285877,-15665.957709,16539.799159,-10546.625918,-17765.166493,11567.698308,14291.236018,4781.149898,570.349463,9057.463295,15204.148317,-24742.710560,-8036.435608,0.000875,-0.012250,1.005750,192.000000,0.000000,0.000000,0.000000,0.000000,0.000000,0.000000,0.000000,0.000000,0.000000,1770371972.344272,0.000000
174.000000,11407.279838,10323.466101,-25114.688291,-4000.582278,-15671.970328,16540.447359,-10546.044772,-17767.267557,11586.429070,14308.513917,4783.407424,584.945152,9060.123153,15214.139547,-24729.634789,-8013.145091,0.000875,-0.012250,1.005750,192.000000,0.000000,0.000000,0.000000,0.000000,0.000000,0.000000,0.000000,0.000000,0.000000,1770371972.344283,0.000000
176.000000,11405.782271,10321.365037,-25129.127518,-4002.526880,-15686.521314,16540.827339,-10555.477209,-17778.421078,11557.103581,14292.733585,4766.531857,563.576885,9039.671307,15202.382529,-24750.936002,-8017.727198,0.000875,-0.012250,1.005750,192.000000,0.000000,0.000000,127.500000,96.000000,15.500000,56.000000,0.000000,0.000000,0.000000,1770371972.344295,0.000000
178.000000,11426.614097,10347.248357,-25116.297617,-3991.149842,-15690.611683,16554.640717,-10539.249842,-17758.885653,11572.548637,14306.278742,4775.941941,575.490364,9044.767504,15209.020997,-24748.298496,-7994.436681,0.000875,-0.012250,1.005750,192.000000,0.000000,0.000000,0.000000,0.000000,0.000000,0.000000,0.000000,0.000000,0.000000,1770371972.344306,0.000000
180.000000,11435.443036,10351.808113,-25124.523058,-3989.920496,-15686.588369,16558.284051,-10543.921357,-17758.170397,11584.998558,14317.052283,4786.380206,585.213373,9047.427362,15219.123986,-24755.719275,-7985.093651,0.000875,-0.012250,1.005750,192.000000,0.000000,0.000000,0.000000,0.000000,0.000000,0.000000,0.000000,0.000000,0.000000,1770371972.344318,0.000000
182.000000,11457.861836,10373.601064,-25113.056614,-3981.359778,-15678.161762,16569.035240,-10528.968040,-17736.802129,11587.121974,14317.231097,4795.097386,587.113272,9051.428324,15215.860631,-24774.762961,-7993.721425,0.000875,-0.012250,1.005750,192.000000,0.000000,0.000000,0.000000,0.000000,0.000000,0.000000,0.000000,0.000000,0.000000,1770371972.344329,0.000000
184.000000,11467.316624,10382.027672,-25105.725241,-3979.973969,-15676.910064,16565.235444,-10523.693028,-17728.353170,11621.610716,14341.549795,4816.644468,617.154016,9070.404955,15238.078265,-24764.458807,-7987.418233,0.000875,-0.012250,1.005750,192.000000,0.000000,0.000000,0.000000,0.000000,0.000000,0.000000,0.000000,0.000000,0.000000,1770371972.344341,0.000000
186.000000,11463.181551,10376.149163,-25109.636797,-3983.684359,-15683.302663,16549.388057,-10531.829063,-17740.624278,11603.774024,14328.652838,4806.809700,599.563193,9058.625586,15227.483538,-24780.708525,-8016.922536,0.000875,-0.012250,1.005750,192.000000,0.000000,0.000000,127.500000,72.000000,15.500000,64.000000,0.000000,0.000000,0.000000,1770371972.344352,0.000000
188.000000,11472.368118,10385.827468,-25092.314195,-3980.465708,-15679.681680,16541.229670,-10518.283906,-17729.537812,11613.295867,14333.123187,4811.347104,606.536938,9063.408859,15230.948058,-24767.118665,-8021.504643,0.000875,-0.012250,1.005750,192.000000,0.000000,0.000000,0.000000,0.000000,0.000000,0.000000,0.000000,0.000000,0.000000,1770371972.344365,0.000000
190.000000,11463.226254,10373.377546,-25106.216980,-3989.428757,-15684.755526,16524.555269,-10534.153644,-17743.909984,11613.027646,14330.172757,4808.687247,606.872214,9065.867551,15224.890736,-24760.837824,-8031.629983,0.000875,-0.012250,1.005750,192.000000,0.000000,0.000000,0.000000,0.000000,0.000000,0.000000,0.000000,0.000000,0.000000,1770371972.344376,0.000000
192.000000,11462.041612,10375.992701,-25102.081907,-3986.210106,-15682.542703,16525.404635,-10528.141025,-17743.597060,11595.637989,14319.712141,4799.344218,593.550574,9054.803438,15213.066663,-24765.554043,-8045.912748,0.000875,-0.012250,1.005750,192.000000,0.000000,0.000000,0.000000,0.000000,0.000000,0.000000,0.000000,0.000000,0.000000,1770371972.344388,0.000000
194.000000,11455.626661,10370.918855,-25103.311253,-3993.608534,-15681.000433,16529.137376,-10532.007877,-17749.453217,11609.183146,14329.658667,4800.506508,603.988839,9060.659595,15222.141471,-24743.157595,-8027.897242,0.000875,-0.012250,1.005750,192.000000,0.000000,0.000000,0.000000,0.000000,0.000000,0.000000,0.000000,0.000000,0.000000,1770371972.344400,0.000000
196.000000,11440.829806,10356.725497,-25120.566800,-4000.448167,-15692.913913,16520.084920,-10546.156531,-17766.619356,11579.880009,14306.077576,4781.529877,575.780937,9040.632432,15195.207619,-24757.015676,-8038.246100,-0.002000,-0.016000,0.998000,192.000000,127.500000,120.000000,127.500000,64.000000,15.500000,24.000000,0.000000,0.000000,0.000000,1770371972.344412,0.000000
198.000000,11452.475065,10369.264825,-25111.939026,-3994.681417,-15694.813811,16519.839051,-10532.544319,-17750.883728,11585.378538,14313.744225,4783.541534,582.598219,9042.509978,15206.964637,-24749.639600,-8023.359838,-0.002000,-0.016000,0.998000,192.000000,0.000000,0.000000,0.000000,0.000000,0.000000,0.000000,0.000000,0.000000,0.000000,1770371972.344423,0.000000
200.000000,11443.042629,10359.005375,-25129.418091,-4001.453996,-15704.939151,16517.693283,-10545.150703,-17762.730153,11589.044224,14314.370074,4783.787404,586.979161,9039.403086,15205.869401,-24750.846595,-8023.203376,-0.002000,-0.016000,0.998000,192.000000,0.000000,0.000000,0.000000,0.000000,0.000000,0.000000,0.000000,0.000000,0.000000,1770371972.344435,0.000000
202.000000,11460.476990,10374.651596,-25119.426861,-3993.764996,-15697.965407,16522.633019,-10535.382990,-17748.581499,11577.756593,14310.167946,4783.206258,582.732330,9037.123208,15200.192058,-24761.575432,-8035.340373,-0.002000,-0.016000,0.998000,192.000000,0.000000,0.000000,0.000000,0.000000,0.000000,0.000000,0.000000,0.000000,0.000000,1770371972.344447,0.000000
204.000000,11470.512923,10384.866343,-25111.223771,-3988.735853,-15689.896427,16533.943002,-10531.717304,-17740.311353,11612.312390,14335.134844,4804.641581,606.402827,9057.329185,15223.594335,-24740.721254,-8022.197547,-0.002000,-0.016000,0.998000,192.000000,0.000000,0.000000,0.000000,0.000000,0.000000,0.000000,0.000000,0.000000,0.000000,1770371972.344459,0.000000
206.000000,11468.769487,10381.647692,-25121.438518,-3989.249943,-15692.735099,16542.816644,-10536.679391,-17745.362847,11599.638951,14326.551774,4796.572601,592.991780,9048.902577,15217.537012,-24759.250851,-8039.006059,0.002000,-0.018000,1.006000,192.000000,0.000000,8.000000,127.500000,56.000000,15.500000,56.000000,0.000000,0.000000,0.000000,1770371972.344471,0.000000
208.000000,11478.179571,10393.225896,-25109.659148,-3984.243153,-15697.473669,16550.148016,-10520.496728,-17731.415359,11611.150099,14335.134844,4806.340314,603.541804,9052.769429,15225.673047,-24762.424798,-8036.256794,0.002000,-0.018000,1.006000,192.000000,0.000000,0.000000,0.000000,0.000000,0.000000,0.000000,0.000000,0.000000,0.000000,1770371972.344483,0.000000
210.000000,11464.187379,10377.579674,-25124.701872,-3989.920496,-15710.437681,16533.026580,-10533.952479,-17747.843891,11609.808995,14336.632411,4803.635753,605.508757,9048.008507,15226.880041,-24773.220691,-8043.096428,0.002000,-0.018000,1.006000,192.000000,0.000000,0.000000,0.000000,0.000000,0.000000,0.000000,0.000000,0.000000,0.000000,1770371972.821399,0.000000
212.000000,11473.977443,10386.699186,-25108.698023,-3985.226629,-15707.911933,16525.203469,-10524.832967,-17738.210289,11595.705044,14324.473062,4797.667837,593.796443,9043.113475,15219.168689,-24785.044764,-8059.167333,0.002000,-0.018000,1.006000,192.000000,0.000000,0.000000,0.000000,0.000000,0.000000,0.000000,0.000000,0.000000,0.000000,1770371972.821467,0.000000
214.000000,11483.499287,10395.014035,-25098.326814,-3981.024501,-15696.713709,16529.338542,-10521.279040,-17730.297772,11620.738998,14345.930737,4812.822320,617.154016,9058.111496,15228.176442,-24764.436455,-8046.672707,0.002000,-0.018000,1.006000,192.000000,0.000000,0.000000,0.000000,0.000000,0.000000,0.000000,0.000000,0.000000,0.000000,1770371972.821514,0.000000
216.000000,11477.151391,10388.912009,-25107.826305,-3983.818470,-15691.148125,16532.020751,-10532.387857,-17742.054789,11608.065558,14333.592574,4803.054607,601.932478,9062.335975,15214.273657,-24774.695906,-8056.596882,0.002000,-0.008000,1.008000,192.000000,0.000000,8.000000,127.500000,96.000000,15.500000,64.000000,0.000000,0.000000,0.000000,1770371972.821561,0.000000
218.000000,11480.414746,10395.975160,-25095.555198,-3981.873868,-15674.049041,16538.100426,-10523.693028,-17736.153929,11617.565050,14339.158158,4804.820395,608.168615,9067.521580,15221.850898,-24758.535595,-8039.251928,0.002000,-0.008000,1.008000,192.000000,0.000000,0.000000,0.000000,0.000000,0.000000,0.000000,0.000000,0.000000,0.000000,1770371972.821607,0.000000
220.000000,11459.851141,10376.596198,-25117.772832,-3995.307266,-15682.587407,16530.143205,-10544.435447,-17757.253976,11610.524250,14335.872452,4795.052683,601.396036,9060.972519,15221.202698,-24746.733874,-8030.981783,0.002000,-0.008000,1.008000,192.000000,0.000000,0.000000,0.000000,0.000000,0.000000,0.000000,0.000000,0.000000,0.000000,1770371972.821654,0.000000
222.000000,11464.343842,10383.055852,-25117.906942,-3991.976856,-15683.593235,16532.892470,-10540.613298,-17753.610641,11585.087965,14324.696580,4782.580409,588.320266,9045.102780,15205.332959,-24757.686228,-8037.150864,0.002000,-0.008000,1.008000,192.000000,0.000000,0.000000,0.000000,0.000000,0.000000,0.000000,0.000000,0.000000,0.000000,1770371972.821700,0.000000
224.000000,11465.886112,10380.485401,-25113.816573,-3994.480252,-15684.487305,16523.974123,-10536.880557,-17753.007144,11609.049035,14342.332106,4791.364645,606.536938,9053.663499,15222.499099,-24742.755263,-8020.297649,0.002000,-0.008000,1.008000,192.000000,0.000000,0.000000,0.000000,0.000000,0.000000,0.000000,0.000000,0.000000,0.000000,1770371972.821714,0.000000
226.000000,11459.806437,10372.863456,-25117.750480,-4004.694999,-15685.783706,16509.624304,-10544.189578,-17761.590214,11587.613712,14323.690751,4780.434642,586.621533,9040.252452,15201.041424,-24758.110912,-8048.237330,-0.002000,-0.008000,1.002000,192.000000,127.500000,120.000000,127.500000,96.000000,15.500000,40.000000,0.000000,0.000000,0.000000,1770371972.821726,0.000000
228.000000,11485.466240,10397.182154,-25094.415259,-3996.134281,-15675.501904,16512.038292,-10524.564746,-17736.265687,11606.925619,14334.821920,4800.037122,599.987876,9057.329185,15206.718767,-24746.577411,-8053.087658,-0.002000,-0.008000,1.002000,192.000000,0.000000,0.000000,0.000000,0.000000,0.000000,0.000000,0.000000,0.000000,0.000000,1770371972.821738,0.000000
230.000000,11479.923007,10390.834259,-25112.274303,-3997.453034,-15685.046099,16509.601952,-10535.271232,-17741.943031,11616.581573,14343.181472,4808.754302,610.828472,9064.213522,15216.844108,-24749.639600,-8055.702812,-0.002000,-0.008000,1.002000,192.000000,0.000000,0.000000,0.000000,0.000000,0.000000,0.000000,0.000000,0.000000,0.000000,1770371972.821750,0.000000
232.000000,11489.377795,10403.507698,-25104.965282,-3987.998246,-15685.515485,16526.499871,-10524.296525,-17727.615562,11599.147212,14337.526481,4803.412235,607.408656,9049.617833,15213.603105,-24768.348011,-8067.057498,-0.002000,-0.008000,1.002000,192.000000,0.000000,0.000000,0.000000,0.000000,0.000000,0.000000,0.000000,0.000000,0.000000,1770371972.821762,0.000000
234.000000,11496.709168,10412.202527,-25098.572683,-3980.644522,-15691.885733,16527.639810,-10517.546298,-17718.049016,11627.645687,14359.051211,4821.584203,631.928519,9065.509923,15233.451454,-24756.948621,-8050.114876,-0.002000,-0.008000,1.002000,192.000000,0.000000,0.000000,0.000000,0.000000,0.000000,0.000000,0.000000,0.000000,0.000000,1770371972.821774,0.000000
236.000000,11490.517734,10402.993608,-25105.389965,-3981.605647,-15700.848782,16517.693283,-10526.889327,-17727.302638,11605.763329,14345.215481,4810.587145,614.494159,9051.808304,15222.275582,-24775.902900,-8061.871894,0.000000,-0.008000,1.004000,192.000000,0.000000,8.000000,127.500000,96.000000,15.500000,56.000000,0.000000,0.000000,0.000000,1770371972.821785,0.000000
238.000000,11495.613932,10408.179213,-25088.223825,-3977.649388,-15700.357044,16518.028559,-10513.545336,-17717.981961,11619.375541,14347.741228,4817.426779,624.328926,9061.374850,15227.304724,-24765.866967,-8049.421972,0.000000,-0.008000,1.004000,192.000000,0.000000,0.000000,0.000000,0.000000,0.000000,0.000000,0.000000,0.000000,0.000000,1770371972.821797,0.000000
240.000000,11479.431269,10390.186058,-25102.372480,-3986.478327,-15700.044119,16510.853649,-10528.900984,-17735.617487,11617.497995,14344.075542,4813.895203,622.138455,9060.123153,15222.409692,-24761.597784,-8038.603728,0.000000,-0.008000,1.004000,192.000000,0.000000,0.000000,0.000000,0.000000,0.000000,0.000000,0.000000,0.000000,0.000000,1770371972.821809,0.000000
242.000000,11487.656711,10396.466898,-25094.862294,-3984.265504,-15684.643767,16520.666065,-10527.068141,-17730.990676,11599.169564,14333.458463,4805.446244,607.766283,9057.686813,15204.237724,-24764.168234,-8034.178082,0.000000,-0.008000,1.004000,192.000000,0.000000,0.000000,0.000000,0.000000,0.000000,0.000000,0.000000,0.000000,0.000000,1770371972.821820,0.000000
244.000000,11481.979368,10389.806079,-25092.560064,-3992.043911,-15676.597139,16518.654408,-10529.124502,-17735.215156,11620.895460,14341.192167,4814.498700,617.645755,9069.220313,15221.627381,-24739.357798,-8008.942963,0.000000,-0.008000,1.004000,192.000000,0.000000,0.000000,0.000000,0.000000,0.000000,0.000000,0.000000,0.000000,0.000000,1770371972.821832,0.000000
246.000000,11467.383679,10372.684642,-25109.100355,-3997.408330,-15684.353195,16517.290952,-10546.178883,-17755.644650,11593.983959,14315.733530,4795.320904,590.041350,9052.188283,15194.134735,-24746.711522,-8018.643620,0.001000,-0.012000,1.004000,192.000000,0.000000,8.000000,127.500000,64.000000,15.500000,48.000000,0.000000,0.000000,0.000000,1770371972.821843,0.000000
248.000000,11468.054231,10378.429041,-25103.959454,-3992.200374,-15688.734137,16517.536821,-10536.277060,-17751.397818,11599.840116,14318.818071,4793.488061,593.930554,9054.356403,15197.621607,-24743.805795,-8009.457053,0.001000,-0.012000,1.004000,192.000000,0.000000,0.000000,0.000000,0.000000,0.000000,0.000000,0.000000,0.000000,0.000000,1770371972.821854,0.000000
250.000000,11454.978461,10361.240549,-25125.104204,-4001.275182,-15704.536820,16500.705957,-10549.710458,-17768.027516,11598.878991,14319.376864,4788.660084,590.801309,9044.923967,15200.080299,-24748.633772,-8009.501756,0.001000,-0.012000,1.004000,192.000000,0.000000,0.000000,0.000000,0.000000,0.000000,0.000000,0.000000,0.000000,0.000000,1770371972.821867,0.000000
252.000000,11465.148504,10372.572884,-25116.096451,-3996.313095,-15694.590294,16516.262772,-10540.054505,-17756.650478,11587.814878,14311.062015,4786.223744,579.960713,9040.230100,15185.976349,-24765.308173,-8023.918632,0.001000,-0.012000,1.004000,192.000000,0.000000,0.000000,0.000000,0.000000,0.000000,0.000000,0.000000,0.000000,0.000000,1770371972.821879,0.000000
254.000000,11474.312720,10379.189000,-25106.239332,-3996.938943,-15679.368756,16516.061606,-10533.661906,-17744.960516,11617.319181,14328.831652,4802.831090,599.764359,9059.832580,15207.054044,-24748.030275,-8017.727198,0.001000,-0.012000,1.004000,192.000000,0.000000,0.000000,0.000000,0.000000,0.000000,0.000000,0.000000,0.000000,0.000000,1770371972.821890,0.000000
0.000000,11476.637301,10379.367814,-25107.692195,-3997.810662,-15668.237587,16505.176306,-10539.875691,-17747.396856,11604.601038,14320.293286,4800.841785,587.761472,9056.837446,15197.711014,-24752.612382,-8039.028411,0.001000,-0.012000,1.004000,192.000000,0.000000,0.000000,127.500000,72.000000,15.500000,40.000000,0.000000,0.000000,0.000000,1770371972.821902,0.000000
2.000000,11495.725691,10401.540744,-25083.887587,-3985.807775,-15658.961613,16514.161708,-10522.709551,-17725.246277,11620.806053,14338.353495,4815.437474,607.140435,9073.690662,15215.592410,-24743.112891,-8038.380210,0.001000,-0.012000,1.004000,192.000000,0.000000,0.000000,0.000000,0.000000,0.000000,0.000000,0.000000,0.000000,0.000000,1770371972.821914,0.000000
4.000000,11489.131926,10394.544648,-25092.604767,-3987.864135,-15662.649651,16513.647618,-10533.125464,-17735.081045,11632.674829,14349.596423,4822.388866,620.082095,9085.626493,15220.174518,-24737.703769,-8042.045896,0.001000,-0.012000,1.004000,192.000000,0.000000,0.000000,0.000000,0.000000,0.000000,0.000000,0.000000,0.000000,0.000000,1770371972.821935,0.000000
6.000000,11495.166897,10405.318189,-25082.747648,-3979.504583,-15657.396991,16523.571792,-10524.117711,-17725.469795,11622.571841,14346.131902,4819.349029,611.610784,9086.028825,15219.436910,-24749.550193,-8051.321870,0.001000,-0.012000,1.004000,192.000000,0.000000,0.000000,0.000000,0.000000,0.000000,0.000000,0.000000,0.000000,0.000000,1770371972.821948,0.000000
8.000000,11492.462336,10401.093710,-25079.730163,-3983.036158,-15659.185130,16521.023693,-10522.038999,-17724.709836,11641.883748,14360.973461,4829.943756,629.425124,9095.640075,15234.099654,-24733.926324,-8029.037181,0.001000,-0.012000,1.004000,192.000000,0.000000,0.000000,0.000000,0.000000,0.000000,0.000000,0.000000,0.000000,0.000000,1770371972.821961,0.000000
10.000000,11471.719917,10379.367814,-25094.281148,-3995.530784,-15668.706974,16512.284161,-10536.210005,-17743.507653,11611.910058,14336.565356,4812.308229,603.295935,9070.941397,15217.022922,-24751.003057,-8043.275242,-0.000500,-0.014000,1.004000,192.000000,127.500000,120.000000,127.500000,64.000000,15.500000,48.000000,0.000000,0.000000,0.000000,1770371972.821973,0.000000
12.000000,11475.340900,10385.894523,-25085.988651,-3989.629923,-15678.094706,16513.021769,-10524.095359,-17733.315257,11611.172451,14330.552737,4811.481215,604.324115,9065.062888,15204.327131,-24743.492871,-8027.405504,-0.000500,-0.014000,1.004000,192.000000,0.000000,0.000000,0.000000,0.000000,0.000000,0.000000,0.000000,0.000000,0.000000,1770371972.821985,0.000000
14.000000,11456.677193,10364.950939,-25113.682462,-3998.928249,-15702.592218,16506.718577,-10543.988412,-17753.655345,11603.952837,14328.965763,4805.423892,603.631211,9054.691679,15195.766413,-24748.298496,-8013.815643,-0.000500,-0.014000,1.004000,192.000000,0.000000,0.000000,0.000000,0.000000,0.000000,0.000000,0.000000,0.000000,0.000000,1770371972.821996,0.000000
16.000000,11450.374001,10360.860570,-25121.215000,-4000.202298,-15709.945942,16505.243362,-10544.346040,-17757.455141,11575.767288,14306.993998,4789.397691,583.089958,9035.759751,15178.264997,-24768.660935,-8015.447320,-0.000500,-0.014000,1.004000,192.000000,0.000000,0.000000,0.000000,0.000000,0.000000,0.000000,0.000000,0.000000,0.000000,1770371972.822008,0.000000
18.000000,11445.434266,10354.691488,-25123.159602,-4003.353894,-15700.222933,16509.244324,-10546.245938,-17764.585348,11594.095718,14312.358417,4792.124604,589.773129,9043.135827,15188.837372,-24756.345124,-7988.580524,-0.000500,-0.014000,1.004000,192.000000,0.000000,0.000000,0.000000,0.000000,0.000000,0.000000,0.000000,0.000000,0.000000,1770371972.822019,0.000000
20.000000,11441.813283,10351.271671,-25126.311198,-4007.444263,-15677.066526,16518.855574,-10556.326575,-17774.218950,11570.604035,14291.794812,4774.533781,562.548704,9032.898728,15171.470066,-24763.274165,-7995.643675,0.000750,-0.014000,1.004000,192.000000,0.000000,8.000000,127.500000,72.000000,15.500000,48.000000,0.000000,0.000000,0.000000,1770371972.822031,0.000000
22.000000,11477.352557,10386.073337,-25093.498837,-3987.417100,-15646.779912,16531.104330,-10531.382028,-17739.372580,11600.868297,14314.437129,4796.103215,583.402882,9063.431211,15200.303817,-24742.978781,-7992.514431,0.000750,-0.014000,1.004000,192.000000,0.000000,0.000000,0.000000,0.000000,0.000000,0.000000,0.000000,0.000000,0.000000,1770371972.822042,0.000000
24.000000,11487.164973,10392.644750,-25097.589206,-3986.053644,-15636.878090,16539.106254,-10535.628859,-17735.572783,11632.808940,14344.500225,4817.940869,612.303688,9093.002569,15228.198794,-24731.311170,-8000.873983,0.000750,-0.014000,1.004000,192.000000,0.000000,0.000000,0.000000,0.000000,0.000000,0.000000,0.000000,0.000000,0.000000,1770371972.822055,0.000000
26.000000,11499.100804,10407.352198,-25088.872026,-3979.929266,-15633.435921,16547.577566,-10525.525871,-17727.615562,11628.383294,14348.121208,4818.834939,611.141397,9095.729482,15227.885869,-24747.717350,-8030.177120,0.000750,-0.014000,1.004000,192.000000,0.000000,0.000000,0.000000,0.000000,0.000000,0.000000,0.000000,0.000000,0.000000,1770371972.822068,0.000000
28.000000,11499.547839,10410.213221,-25086.368631,-3985.271333,-15637.392180,16543.442493,-10521.927240,-17723.547545,11652.456123,14367.723688,4831.664840,631.637947,9107.978238,15241.319268,-24737.368493,-8028.858367,0.000750,-0.014000,1.004000,192.000000,0.000000,0.000000,0.000000,0.000000,0.000000,0.000000,0.000000,0.000000,0.000000,1770371972.822080,0.000000
30.000000,11478.783069,10390.141355,-25100.718451,-3994.055568,-15652.300793,16527.684513,-10535.785322,-17742.144196,11622.348323,14345.707219,4815.303363,607.475711,9083.011339,15215.525355,-24755.987496,-8051.590091,0.002375,-0.010000,1.004000,192.000000,0.000000,16.000000,127.500000,104.000000,15.500000,48.000000,0.000000,0.000000,0.000000,1770371972.822092,0.000000
32.000000,11474.290368,10389.001416,-25091.040145,-3992.915629,-15670.361003,16519.816699,-10524.408284,-17739.193766,11614.726378,14337.682943,4808.396674,603.407693,9075.501153,15212.954904,-24751.986534,-8050.159580,0.002375,-0.010000,1.004000,192.000000,0.000000,0.000000,0.000000,0.000000,0.000000,0.000000,0.000000,0.000000,0.000000,1770371972.822104,0.000000
34.000000,11460.991080,10374.092802,-25109.569741,-4000.179946,-15691.505753,16504.393995,-10539.674525,-17753.387124,11610.658361,14329.636315,4799.858308,600.524318,9064.839371,15208.641018,-24753.752321,-8049.712545,0.002375,-0.010000,1.004000,192.000000,0.000000,0.000000,0.000000,0.000000,0.000000,0.000000,0.000000,0.000000,0.000000,1770371972.822116,0.000000
36.000000,11466.579016,10379.367814,-25106.038166,-3991.194545,-15690.365814,16516.910972,-10532.946650,-17747.061580,11593.313407,14321.187356,4794.382130,592.500042,9052.009470,15196.995759,-24768.415066,-8050.740725,0.002375,-0.010000,1.004000,192.000000,0.000000,0.000000,0.000000,0.000000,0.000000,0.000000,0.000000,0.000000,0.000000,1770371972.822128,0.000000
38.000000,11462.868626,10374.293968,-25112.229599,-3994.077920,-15698.345387,16519.682589,-10534.913604,-17752.783627,11614.346399,14332.206766,4800.461805,606.380475,9061.598368,15216.821756,-24756.009848,-8014.642658,0.002375,-0.010000,1.004000,192.000000,0.000000,0.000000,0.000000,0.000000,0.000000,0.000000,0.000000,0.000000,0.000000,1770371972.822140,0.000000
40.000000,11441.522711,10349.930567,-25133.888439,-4003.018618,-15709.118928,16515.502812,-10553.666717,-17777.459953,11583.165715,14305.250562,4776.456031,574.976274,9039.559548,15188.300930,-24777.445171,-8014.441492,0.000187,-0.006000,1.004000,192.000000,127.500000,120.000000,127.500000,120.000000,15.500000,48.000000,0.000000,0.000000,0.000000,1770371972.822151,0.000000
42.000000,11440.315716,10351.025802,-25124.545410,-4000.828147,-15697.317207,16529.785577,-10547.922319,-17776.610586,11579.343567,14299.550867,4768.655273,567.935475,9039.514844,15188.435041,-24767.900976,-8001.723349,0.000187,-0.006000,1.004000,192.000000,0.000000,0.000000,0.000000,0.000000,0.000000,0.000000,0.000000,0.000000,0.000000,1770371972.822163,0.000000
44.000000,11422.099045,10331.646840,-25136.481242,-4009.701790,-15688.421212,16518.766167,-10560.931034,-17793.620264,11583.612750,14295.415794,4762.620302,562.727518,9044.096952,15183.919988,-24754.556984,-8000.873983,0.000187,-0.006000,1.004000,192.000000,0.000000,0.000000,0.000000,0.000000,0.000000,0.000000,0.000000,0.000000,0.000000,1770371972.822174,0.000000
46.000000,11447.736495,10355.227930,-25115.314140,-3998.324752,-15669.221064,16533.786539,-10544.703668,-17769.346269,11573.487410,14287.682091,4760.027499,552.892751,9041.995888,15183.495305,-24765.464636,-8024.410370,0.000187,-0.006000,1.004000,192.000000,0.000000,0.000000,0.000000,0.000000,0.000000,0.000000,0.000000,0.000000,0.000000,1770371972.822186,0.000000
48.000000,11477.263150,10384.732233,-25094.035279,-3988.288818,-15642.756598,16548.873967,-10530.040923,-17742.255955,11622.840062,14328.764597,4795.723235,591.784786,9082.497249,15223.907259,-24741.660028,-8018.464806,0.000187,-0.006000,1.004000,192.000000,0.000000,0.000000,0.000000,0.000000,0.000000,0.000000,0.000000,0.000000,0.000000,1770371972.822198,0.000000
50.000000,11489.087223,10394.678759,-25094.750535,-3986.612438,-15633.145348,16554.886586,-10531.538490,-17735.751597,11625.812844,14336.140673,4805.893279,594.645809,9088.934551,15224.488404,-24750.243098,-8038.693135,0.000187,-0.006000,1.004000,192.000000,0.000000,0.000000,0.000000,0.000000,0.000000,0.000000,0.000000,0.000000,0.000000,1770371972.822210,0.000000
52.000000,11506.141604,10414.974143,-25075.908014,-3982.209144,-15620.695427,16558.395810,-10514.595868,-17715.590324,11644.118922,14354.133827,4826.814512,613.108350,9101.026845,15235.887794,-24743.783443,-8041.040068,0.000187,-0.006000,1.004000,192.000000,0.000000,0.000000,127.500000,96.000000,15.500000,64.000000,0.000000,0.000000,0.000000,1770371972.822222,0.000000
54.000000,11488.662540,10397.383320,-25091.218959,-3989.428757,-15639.359133,16540.246193,-10529.057447,-17731.325952,11652.187902,14356.927795,4829.273204,617.064609,9103.977275,15232.602088,-24740.631847,-8047.477370,0.000187,-0.006000,1.004000,192.000000,0.000000,0.000000,0.000000,0.000000,0.000000,0.000000,0.000000,0.000000,0.000000,1770371972.822233,0.000000
56.000000,11487.969635,10401.004303,-25088.849674,-3982.477365,-15657.352287,16535.865252,-10522.798958,-17726.341513,11624.739960,14342.376809,4816.890337,605.329943,9086.051176,15221.426215,-24759.183795,-8061.938949,0.000187,-0.006000,1.004000,192.000000,0.000000,0.000000,0.000000,0.000000,0.000000,0.000000,0.000000,0.000000,0.000000,1770371972.822245,0.000000
58.000000,11483.678101,10398.277390,-25089.497875,-3983.885525,-15671.232721,16532.378379,-10518.485071,-17725.000408,11638.128655,14352.882129,4823.171177,620.864406,9089.493345,15231.037465,-24750.533670,-8045.443361,0.000187,-0.006000,1.004000,192.000000,0.000000,0.000000,0.000000,0.000000,0.000000,0.000000,0.000000,0.000000,0.000000,1770371972.822258,0.000000
60.000000,11472.166952,10384.307550,-25106.932236,-3987.081824,-15687.348329,16531.149033,-10532.857243,-17738.634972,11609.429015,14336.788873,4806.541479,602.468920,9071.701356,15217.022922,-24770.091447,-8051.903016,0.000187,-0.006000,1.004000,192.000000,0.000000,0.000000,0.000000,0.000000,0.000000,0.000000,0.000000,0.000000,0.000000,1770371972.822269,0.000000
62.000000,11473.284539,10385.425137,-25100.316119,-3982.969103,-15683.615587,16536.155824,-10525.190595,-17734.835176,11612.066521,14337.370019,4808.642543,608.012153,9071.075508,15212.507869,-24767.319830,-8034.558062,-0.004000,-0.010000,1.006000,192.000000,127.500000,112.000000,127.500000,88.000000,15.500000,56.000000,0.000000,0.000000,0.000000,1770371972.822281,0.000000
64.000000,11439.332240,10351.651651,-25128.211096,-3999.285877,-15700.334692,16521.984818,-10552.482075,-17772.073182,11604.288114,14325.903574,4791.208183,594.422292,9062.604196,15209.333922,-24762.380095,-8023.896280,-0.004000,-0.010000,1.006000,192.000000,0.000000,0.000000,0.000000,0.000000,0.000000,0.000000,0.000000,0.000000,0.000000,1770371972.822293,0.000000
66.000000,11435.241870,10347.628337,-25130.781547,-4002.236307,-15700.602913,16524.175289,-10554.627842,-17776.901159,11570.358166,14299.081480,4763.782592,564.158030,9044.432228,15187.920950,-24773.421857,-8033.284012,-0.004000,-0.010000,1.006000,192.000000,0.000000,0.000000,0.000000,0.000000,0.000000,0.000000,0.000000,0.000000,0.000000,1770371972.822304,0.000000
68.000000,11440.896862,10354.087991,-25124.254838,-4002.325714,-15691.483401,16533.808891,-10548.347002,-17771.313223,11593.358111,14310.480870,4770.197543,576.272676,9058.737345,15203.388358,-24753.081769,-8013.815643,-0.004000,-0.010000,1.006000,192.000000,0.000000,0.000000,0.000000,0.000000,0.000000,0.000000,0.000000,0.000000,0.000000,1770371972.822316,0.000000
70.000000,11454.419667,10363.676889,-25121.326759,-3998.771787,-15681.872151,16547.510510,-10550.179845,-17765.814694,11583.299826,14306.524611,4768.074127,566.862591,9055.183417,15197.889828,-24767.364534,-8027.785483,-0.004000,-0.010000,1.006000,192.000000,0.000000,0.000000,0.000000,0.000000,0.000000,0.000000,0.000000,0.000000,0.000000,1770371972.822328,0.000000
72.000000,11486.784993,10394.119965,-25089.073192,-3981.404481,-15653.083104,16566.822418,-10522.553089,-17730.320123,11613.273515,14332.966725,4798.584258,596.813929,9082.720766,15222.901430,-24755.316944,-8023.493948,-0.004000,-0.010000,1.006000,192.000000,0.000000,0.000000,127.500000,88.000000,15.500000,72.000000,0.000000,0.000000,0.000000,1770371972.822339,0.000000
74.000000,11487.589656,10394.276428,-25094.728183,-3981.672702,-15649.462122,16558.619327,-10527.314011,-17730.074254,11637.771027,14352.122170,4815.169253,614.360048,9099.194002,15234.636096,-24750.444263,-8030.870024,-0.004000,-0.010000,1.006000,192.000000,0.000000,0.000000,0.000000,0.000000,0.000000,0.000000,0.000000,0.000000,0.000000,1770371973.303220,0.000000
76.000000,11496.686816,10407.240439,-25083.664070,-3975.525972,-15637.593345,16565.526016,-10518.708589,-17719.881859,11629.634992,14348.635298,4817.806759,610.604955,9099.305761,15235.619573,-24759.004981,-8049.064344,-0.004000,-0.010000,1.006000,192.000000,0.000000,0.000000,0.000000,0.000000,0.000000,0.000000,0.000000,0.000000,0.000000,1770371973.303284,0.000000
78.000000,11492.149412,10408.045102,-25082.322965,-3975.101289,-15646.198767,16553.567833,-10516.719284,-17718.741920,11647.315222,14370.003566,4827.060381,631.101505,9105.296028,15245.275527,-24739.156632,-8038.916652,-0.004000,-0.010000,1.006000,192.000000,0.000000,0.000000,0.000000,0.000000,0.000000,0.000000,0.000000,0.000000,0.000000,1770371973.303326,0.000000
80.000000,11478.224275,10392.689454,-25099.310291,-3981.359778,-15668.304642,16544.448321,-10529.638592,-17733.359961,11621.163681,14352.591557,4810.050703,611.364914,9085.559438,15227.483538,-24755.674571,-8052.864141,-0.004000,-0.010000,1.006000,192.000000,0.000000,0.000000,0.000000,0.000000,0.000000,0.000000,0.000000,0.000000,0.000000,1770371973.303370,0.000000
82.000000,11483.454583,10399.506736,-25091.017794,-3975.794193,-15672.305604,16547.689324,-10518.619182,-17720.798280,11622.683599,14347.473007,4813.939907,616.170539,9082.452545,15228.735236,-24756.613345,-8039.788370,0.002000,-0.014000,1.010000,192.000000,0.000000,8.000000,127.500000,72.000000,15.500000,72.000000,0.000000,0.000000,0.000000,1770371973.303411,0.000000
84.000000,11462.309833,10376.931474,-25110.821439,-3989.316999,-15678.452334,16534.345333,-10537.327592,-17741.920679,11628.271535,14346.131902,4811.592974,619.031563,9079.859743,15229.562250,-24752.321810,-8027.450207,0.002000,-0.014000,1.010000,192.000000,0.000000,0.000000,0.000000,0.000000,0.000000,0.000000,0.000000,0.000000,0.000000,1770371973.303464,0.000000
86.000000,11457.079525,10372.684642,-25109.010948,-3990.389882,-15674.965462,16531.953696,-10538.422828,-17747.575670,11600.421262,14326.015332,4794.180965,594.355237,9068.505057,15209.088052,-24761.396618,-8035.563890,0.002000,-0.014000,1.010000,192.000000,0.000000,0.000000,0.000000,0.000000,0.000000,0.000000,0.000000,0.000000,0.000000,1770371973.303506,0.000000
88.000000,11442.327373,10358.759506,-25112.296654,-3997.788310,-15679.815791,16533.563022,-10543.183749,-17760.293813,11611.440672,14330.820958,4790.805851,596.746873,9075.367042,15220.800366,-24742.174118,-8017.950716,0.002000,-0.014000,1.010000,192.000000,0.000000,0.000000,0.000000,0.000000,0.000000,0.000000,0.000000,0.000000,0.000000,1770371973.303518,0.000000
90.000000,11416.242888,10324.807206,-25135.296599,-4007.556022,-15684.934340,16528.064493,-10561.132200,-17786.423002,11574.761459,14298.835611,4760.541589,561.900504,9048.410839,15197.509849,-24758.781464,-8032.121722,0.002000,-0.014000,1.010000,192.000000,0.000000,0.000000,0.000000,0.000000,0.000000,0.000000,0.000000,0.000000,0.000000,1770371973.303538,0.000000
92.000000,11441.925042,10350.109380,-25117.437555,-3991.999208,-15673.646709,16552.360839,-10541.842644,-17762.394877,11583.389233,14298.813259,4761.793287,566.326149,9055.988080,15200.326169,-24754.780502,-8010.552288,-0.002000,-0.012000,1.006000,192.000000,127.500000,120.000000,127.500000,80.000000,15.500000,56.000000,0.000000,0.000000,0.000000,1770371973.303551,0.000000
94.000000,11448.518807,10356.233758,-25117.839887,-3988.065301,-15664.102514,16564.408429,-10544.256633,-17758.125694,11610.546602,14329.278687,4779.786441,585.503946,9079.993854,15227.863518,-24749.214917,-7992.335617,-0.002000,-0.012000,1.006000,192.000000,0.000000,0.000000,0.000000,0.000000,0.000000,0.000000,0.000000,0.000000,0.000000,1770371973.303563,0.000000
96.000000,11468.434211,10374.450430,-25097.097468,-3984.645484,-15647.673982,16576.567778,-10529.973868,-17737.249164,11616.760387,14320.829728,4792.035197,588.744949,9091.639112,15222.029712,-24759.899051,-8011.625172,-0.002000,-0.012000,1.006000,192.000000,0.000000,0.000000,0.000000,0.000000,0.000000,0.000000,0.000000,0.000000,0.000000,1770371973.303575,0.000000
98.000000,11483.789859,10390.454279,-25077.651450,-3979.750452,-15633.793549,16581.708679,-10519.356790,-17717.624333,11650.645632,14350.602251,4820.399561,617.176368,9122.462168,15253.746838,-24737.010865,-8009.211184,-0.002000,-0.012000,1.006000,192.000000,0.000000,0.000000,0.000000,0.000000,0.000000,0.000000,0.000000,0.000000,0.000000,1770371973.303588,0.000000
100.000000,11483.253417,10386.609779,-25087.821494,-3984.556077,-15638.845043,16573.438534,-10529.593888,-17722.094682,11645.236509,14348.434132,4822.008887,610.157920,9116.896584,15248.650640,-24748.879641,-8036.547367,-0.002000,-0.012000,1.006000,192.000000,0.000000,0.000000,0.000000,0.000000,0.000000,0.000000,0.000000,0.000000,0.000000,1770371973.303600,0.000000
102.000000,11496.977388,10403.865326,-25074.499854,-3978.252885,-15640.834348,16568.141171,-10511.176051,-17704.414452,11649.237472,14360.302908,4830.435494,621.959641,9114.348485,15251.489312,-24746.756225,-8042.381172,-0.002000,-0.016000,1.002000,192.000000,127.500000,120.000000,127.500000,64.000000,15.500000,40.000000,0.000000,0.000000,0.000000,1770371973.303612,0.000000
104.000000,11475.117382,10381.692395,-25091.554235,-3984.220801,-15653.463084,16542.436664,-10526.442293,-17724.978057,11650.511521,14365.801438,4829.116741,627.011135,9107.955886,15243.800312,-24743.515222,-8044.504588,-0.002000,-0.016000,1.002000,192.000000,0.000000,0.000000,0.000000,0.000000,0.000000,0.000000,0.000000,0.000000,0.000000,1770371973.303624,0.000000
106.000000,11470.736441,10374.830410,-25085.474561,-3983.572600,-15651.920814,16539.374475,-10522.977772,-17725.022760,11625.186995,14338.018219,4812.062360,602.491272,9090.521525,15226.231840,-24754.109949,-8056.753344,-0.002000,-0.016000,1.002000,192.000000,0.000000,0.000000,0.000000,0.000000,0.000000,0.000000,0.000000,0.000000,0.000000,1770371973.303637,0.000000
108.000000,11465.081449,10366.917892,-25086.189817,-3984.690188,-15652.501959,16531.998400,-10522.441330,-17729.001371,11647.471684,14342.846196,4820.064285,612.415446,9105.653656,15235.954849,-24734.552173,-8036.882643,-0.002000,-0.016000,1.002000,192.000000,0.000000,0.000000,0.000000,0.000000,0.000000,0.000000,0.000000,0.000000,0.000000,1770371973.303650,0.000000
110.000000,11441.857987,10345.661383,-25106.306387,-3989.920496,-15656.078238,16535.462920,-10541.015630,-17752.113074,11610.524250,14317.745187,4793.353950,587.314437,9086.051176,15213.536050,-24747.762054,-8043.342297,-0.002000,-0.016000,1.002000,192.000000,0.000000,0.000000,0.000000,0.000000,0.000000,0.000000,0.000000,0.000000,0.000000,1770371973.303662,0.000000
112.000000,11439.779274,10343.336802,-25102.059555,-3985.561906,-15650.982040,16548.114007,-10537.372296,-17752.895385,11608.579649,14317.946353,4788.034235,588.029693,9086.587618,15218.431082,-24738.910763,-8025.393847,0.002000,-0.012000,1.004000,192.000000,0.000000,8.000000,127.500000,80.000000,15.500000,48.000000,0.000000,0.000000,0.000000,1770371973.303674,0.000000
114.000000,11408.933867,10312.044360,-25129.529849,-3998.615324,-15655.564148,16539.732103,-10560.595758,-17783.941958,11607.082082,14314.638295,4773.147973,580.653617,9080.642054,15228.243497,-24732.071129,-8004.874945,0.002000,-0.012000,1.004000,192.000000,0.000000,0.000000,0.000000,0.000000,0.000000,0.000000,0.000000,0.000000,0.000000,1770371973.303687,0.000000
116.000000,11408.240963,10313.407816,-25123.383120,-3995.933115,-15648.121017,16552.584356,-10556.505389,-17781.796191,11567.698308,14296.309864,4747.979909,555.217332,9064.057060,15215.793576,-24741.391807,-8012.183966,0.002000,-0.012000,1.004000,192.000000,0.000000,0.000000,0.000000,0.000000,0.000000,0.000000,0.000000,0.000000,0.000000,1770371973.303699,0.000000
118.000000,11427.977553,10333.502034,-25104.875875,-3986.791252,-15623.869374,16578.601787,-10543.384915,-17760.047944,11604.556335,14324.115434,4772.477421,583.626399,9092.041444,15241.162806,-24713.250960,-7989.005207,0.002000,-0.012000,1.004000,192.000000,0.000000,0.000000,0.000000,0.000000,0.000000,0.000000,0.000000,0.000000,0.000000,1770371973.303712,0.000000
120.000000,11435.197167,10336.541872,-25109.234465,-3980.242190,-15613.229944,16602.093470,-10548.235243,-17760.897310,11603.997541,14328.138748,4776.880715,579.312513,9098.769319,15249.231785,-24725.253847,-7994.839012,0.002000,-0.012000,1.004000,192.000000,0.000000,0.000000,0.000000,0.000000,0.000000,0.000000,0.000000,0.000000,0.000000,1770371973.303724,0.000000
122.000000,11459.292347,10362.849875,-25085.899244,-3966.160591,-15606.166793,16614.051654,-10525.771740,-17735.461025,11629.858509,14346.802455,4798.897183,597.685647,9121.456340,15271.941158,-24729.500679,-7987.217067,0.003000,-0.013000,1.005000,192.000000,0.000000,16.000000,127.500000,72.000000,15.500000,56.000000,0.000000,0.000000,0.000000,1770371973.303738,0.000000
124.000000,11448.965841,10352.389258,-25096.918654,-3972.128507,-15628.809110,16595.164430,-10534.645383,-17742.255955,11651.047963,14363.096877,4811.838843,612.393095,9133.347468,15283.564065,-24734.283952,-7987.440585,0.003000,-0.013000,1.005000,192.000000,0.000000,0.000000,0.000000,0.000000,0.000000,0.000000,0.000000,0.000000,0.000000,1770371973.303751,0.000000
126.000000,11456.788952,10358.826561,-25090.079020,-3970.452126,-15637.995677,16584.927331,-10524.765912,-17729.873089,11630.931393,14346.958917,4807.748474,602.021885,9118.572964,15259.982975,-24759.586127,-8012.541594,0.003000,-0.013000,1.005000,192.000000,0.000000,0.000000,0.000000,0.000000,0.000000,0.000000,0.000000,0.000000,0.000000,1770371973.303763,0.000000
128.000000,11461.907501,10362.268729,-25083.842884,-3977.448222,-15645.684677,16563.670822,-10515.624048,-17717.669036,11657.664079,14354.491455,4825.451055,623.278394,9129.525319,15265.526207,-24744.453996,-8011.669876,0.003000,-0.013000,1.005000,192.000000,0.000000,0.000000,0.000000,0.000000,0.000000,0.000000,0.000000,0.000000,0.000000,1770371973.303776,0.000000
130.000000,11442.483836,10338.531177,-25100.114954,-3990.412234,-15664.884825,16540.335600,-10528.208080,-17736.377446,11628.495053,14330.530385,4808.508433,604.190004,9102.703226,15235.127835,-24761.463673,-8044.102257,0.003000,-0.013000,1.005000,192.000000,0.000000,0.000000,0.000000,0.000000,0.000000,0.000000,0.000000,0.000000,0.000000,1770371973.303788,0.000000
132.000000,11441.656821,10341.369848,-25089.050840,-3987.081824,-15667.008241,16534.680609,-10519.803824,-17735.773949,11619.934335,14320.606210,4802.115834,600.300801,9091.974389,15221.225050,-24757.753284,-8052.037126,0.002500,-0.010500,1.006500,192.000000,0.000000,8.000000,127.500000,96.000000,15.500000,64.000000,0.000000,0.000000,0.000000,1770371973.303800,0.000000
134.000000,11416.555812,10316.380598,-25106.284035,-3995.441377,-15675.457200,16525.806967,-10538.288717,-17761.858435,11623.376503,14320.270934,4793.666875,597.953868,9087.593447,15220.241573,-24749.617249,-8046.158617,0.002500,-0.010500,1.006500,192.000000,0.000000,0.000000,0.000000,0.000000,0.000000,0.000000,0.000000,0.000000,0.000000,1770371973.303812,0.000000
136.000000,11410.789062,10314.033665,-25108.921541,-3991.328656,-15673.981985,16531.551365,-10537.327592,-17762.037249,11587.390195,14299.707329,4773.527953,575.423309,9066.716917,15202.762509,-24761.396618,-8056.149847,0.002500,-0.010500,1.006500,192.000000,0.000000,0.000000,0.000000,0.000000,0.000000,0.000000,0.000000,0.000000,0.000000,1770371973.303824,0.000000
138.000000,11412.197222,10318.883993,-25109.793259,-3988.489984,-15662.515540,16535.172347,-10536.455874,-17759.265633,11607.082082,14313.073672,4780.613456,589.862536,9078.608045,15219.079282,-24743.626981,-8028.791312,0.002500,-0.010500,1.006500,192.000000,0.000000,0.000000,0.000000,0.000000,0.000000,0.000000,0.000000,0.000000,0.000000,1770371973.303844,0.000000
140.000000,11392.147707,10302.678979,-25127.831117,-3996.469557,-15658.000488,16542.704885,-10551.833874,-17775.828275,11582.450459,14299.215591,4762.754412,569.209524,9064.973481,15213.893677,-24750.757188,-8031.361762,0.002500,-0.010500,1.006500,192.000000,0.000000,0.000000,0.000000,0.000000,0.000000,0.000000,0.000000,0.000000,0.000000,1770371973.303857,0.000000
142.000000,11406.497527,10320.090988,-25113.391890,-3987.886487,-15636.743979,16561.815627,-10539.205139,-17763.423057,11579.924712,14306.658722,4760.943921,574.573943,9075.143525,15225.762454,-24739.000170,-8013.592126,0.002500,-0.010500,1.006500,192.000000,0.000000,0.000000,127.500000,80.000000,15.500000,48.000000,0.000000,0.000000,0.000000,1770371973.303869,0.000000
144.000000,11392.527687,10304.020083,-25128.121689,-3992.625057,-15633.346514,16568.364688,-10557.108886,-17785.193656,11594.609808,14320.025065,4760.966272,581.614742,9091.125022,15243.442684,-24725.410309,-7989.072262,0.002500,-0.010500,1.006500,192.000000,0.000000,0.000000,0.000000,0.000000,0.000000,0.000000,0.000000,0.000000,0.000000,1770371973.303882,0.000000
146.000000,11394.204067,10304.444767,-25123.427823,-3988.154708,-15635.536985,16575.986633,-10556.684203,-17788.367604,11572.325119,14302.277780,4744.358926,559.195943,9081.871400,15228.601125,-24737.748472,-7992.849707,0.002500,-0.010500,1.006500,192.000000,0.000000,0.000000,0.000000,0.000000,0.000000,0.000000,0.000000,0.000000,0.000000,1770371973.303894,0.000000
148.000000,11408.464480,10313.161947,-25108.720375,-3991.283952,-15638.375656,16577.797124,-10546.648269,-17774.554226,11605.204535,14315.197088,4760.832162,575.669178,9102.546764,15239.173500,-24722.102251,-7977.717576,0.002500,-0.010500,1.006500,192.000000,0.000000,0.000000,0.000000,0.000000,0.000000,0.000000,0.000000,0.000000,0.000000,1770371973.303906,0.000000
150.000000,11409.067978,10307.618714,-25111.715509,-4003.443301,-15651.563186,16564.296670,-10548.816389,-17770.754429,11597.716701,14296.131050,4765.280159,564.046271,9095.014226,15217.268791,-24740.430682,-8006.618381,0.002500,-0.010500,1.006500,192.000000,0.000000,0.000000,0.000000,0.000000,0.000000,0.000000,0.000000,0.000000,0.000000,1770371973.303919,0.000000
152.000000,11429.743341,10329.948107,-25090.280186,-3998.525917,-15655.675907,16550.572699,-10527.157548,-17744.513481,11612.759425,14303.641236,4785.843764,579.558382,9100.043368,15213.401939,-24746.331542,-8019.627097,0.002500,-0.010500,1.006500,192.000000,0.000000,0.000000,127.500000,72.000000,15.500000,40.000000,0.000000,0.000000,0.000000,1770371973.303931,0.000000
154.000000,11418.679228,10320.649781,-25102.908922,-4004.426778,-15669.332822,16540.000324,-10533.974830,-17750.436693,11627.422169,14309.609152,4795.924401,594.109368,9103.999627,15212.574925,-24745.482176,-8029.171291,0.002500,-0.010500,1.006500,192.000000,0.000000,0.000000,0.000000,0.000000,0.000000,0.000000,0.000000,0.000000,0.000000,1770371973.303945,0.000000
156.000000,11420.646181,10325.924793,-25098.662090,-3999.218821,-15669.981023,16538.346295,-10529.593888,-17744.245260,11600.175393,14295.169925,4785.575543,582.754681,9084.643016,15193.374776,-24764.525862,-8052.797085,0.002500,-0.010500,1.006500,192.000000,0.000000,0.000000,0.000000,0.000000,0.000000,0.000000,0.000000,0.000000,0.000000,1770371973.303958,0.000000
158.000000,11424.960068,10335.871319,-25092.761230,-3988.713502,-15660.325069,16537.474577,-10523.514214,-17736.645667,11616.045131,14316.225268,4795.387959,607.878042,9097.808194,15216.441776,-24745.817452,-8036.726181,0.002500,-0.010500,1.006500,192.000000,0.000000,0.000000,0.000000,0.000000,0.000000,0.000000,0.000000,0.000000,0.000000,1770371973.303970,0.000000
160.000000,11411.705483,10320.739188,-25110.240294,-3987.841784,-15663.588424,16540.201490,-10539.071028,-17752.336592,11599.370730,14309.117414,4783.586238,595.964562,9083.458374,15213.401939,-24752.254755,-8035.049800,0.002500,-0.010500,1.006500,192.000000,0.000000,0.000000,0.000000,0.000000,0.000000,0.000000,0.000000,0.000000,0.000000,1770371973.303982,0.000000
162.000000,11415.617039,10329.165796,-25100.494933,-3977.515278,-15658.827503,16552.450246,-10525.235298,-17741.026609,11598.119032,14312.738396,4784.547363,595.875155,9083.033691,15217.268791,-24746.331542,-8017.347219,-0.001750,-0.011250,1.004250,192.000000,127.500000,104.000000,127.500000,80.000000,15.500000,40.000000,0.000000,0.000000,0.000000,1770371973.303995,0.000000
164.000000,11400.753129,10312.424339,-25116.834058,-3985.986589,-15662.023802,16547.152882,-10541.507368,-17761.299641,11600.041282,14320.069768,4783.005093,598.378551,9084.151278,15237.944154,-24739.380150,-7999.890506,-0.001750,-0.011250,1.004250,192.000000,0.000000,0.000000,0.000000,0.000000,0.000000,0.000000,0.000000,0.000000,0.000000,1770371973.304007,0.000000
166.000000,11402.720082,10312.647857,-25114.107146,-3990.903972,-15652.859587,16554.774827,-10541.328554,-17764.160665,11581.556390,14305.719948,4768.655273,578.776071,9078.540990,15225.605992,-24749.751359,-8016.095521,-0.001750,-0.011250,1.004250,192.000000,0.000000,0.000000,0.000000,0.000000,0.000000,0.000000,0.000000,0.000000,0.000000,1770371973.304019,0.000000
168.000000,11403.681207,10316.000618,-25107.602788,-3995.664894,-15641.191976,16548.963374,-10537.126426,-17760.114999,11600.801241,14317.924001,4775.181982,591.449510,9091.080319,15232.244460,-24726.170269,-8005.456091,-0.001750,-0.011250,1.004250,192.000000,0.000000,0.000000,0.000000,0.000000,0.000000,0.000000,0.000000,0.000000,0.000000,1770371973.304031,0.000000
170.000000,11398.987341,10305.405892,-25115.425898,-4003.309191,-15637.526290,16548.046952,-10549.263424,-17769.569787,11589.960645,14302.456594,4765.414270,575.490364,9083.100746,15219.973352,-24731.914667,-8017.056646,-0.001750,-0.011250,1.004250,192.000000,0.000000,0.000000,0.000000,0.000000,0.000000,0.000000,0.000000,0.000000,0.000000,1770371973.304043,0.000000
172.000000,11410.006751,10319.867470,-25096.628081,-3995.508432,-15618.661418,16561.703868,-10533.281926,-17749.944955,11594.408643,14308.133937,4772.902104,585.258077,9090.879153,15228.891698,-24720.582333,-8005.098463,-0.003875,-0.008625,1.002125,192.000000,127.500000,104.000000,127.500000,104.000000,15.500000,32.000000,0.000000,0.000000,0.000000,1770371973.304055,0.000000
174.000000,11410.006751,10314.503052,-25107.736898,-3995.620191,-15621.991828,16558.395810,-10542.781418,-17759.824426,11610.233678,14322.148481,4783.072148,595.718693,9099.886906,15235.843091,-24711.306359,-7994.436681,-0.003875,-0.008625,1.002125,192.000000,0.000000,0.000000,0.000000,0.000000,0.000000,0.000000,0.000000,0.000000,0.000000,1770371973.304068,0.000000
176.000000,11418.925097,10324.293116,-25103.355956,-3990.971028,-15629.323200,16565.660127,-10534.779493,-17752.001316,11587.971340,14315.085329,4774.064395,583.000551,9092.264961,15223.750797,-24735.043911,-8012.161614,-0.003875,-0.008625,1.002125,192.000000,0.000000,0.000000,0.000000,0.000000,0.000000,0.000000,0.000000,0.000000,0.000000,1770371973.304080,0.000000
178.000000,11431.218556,10337.726514,-25093.252968,-3987.305342,-15634.352342,16561.927386,-10525.727037,-17741.451292,11619.174375,14343.382638,4790.023540,607.788635,9110.682799,15248.784751,-24730.350045,-8006.640733,-0.003875,-0.008625,1.002125,192.000000,0.000000,0.000000,0.000000,0.000000,0.000000,0.000000,0.000000,0.000000,0.000000,1770371973.304093,0.000000
180.000000,11425.161234,10329.210499,-25104.764116,-3988.132356,-15644.745904,16558.954604,-10538.713400,-17753.498882,11612.446500,14335.425417,4784.457956,595.986914,9102.546764,15240.827530,-24750.846595,-8021.392884,-0.003875,-0.008625,1.002125,192.000000,0.000000,0.000000,0.000000,0.000000,0.000000,0.000000,0.000000,0.000000,0.000000,1770371973.304105,0.000000
182.000000,11438.907556,10344.879072,-25090.280186,-3979.951618,-15648.903328,16568.677612,-10522.463682,-17736.824481,11617.475643,14343.852025,4792.415177,604.480577,9105.586601,15252.249271,-24749.661952,-8014.910879,-0.002938,-0.009313,1.003062,192.000000,127.500000,120.000000,127.500000,88.000000,15.500000,48.000000,0.000000,0.000000,0.000000,1770371973.304118,0.000000
184.000000,11418.790986,10318.571069,-25107.379270,-3992.982685,-15668.081125,16542.459016,-10535.919432,-17754.281194,11624.114111,14340.253394,4795.700883,608.816815,9100.713921,15252.293974,-24743.917554,-8010.954620,-0.002938,-0.009313,1.003062,192.000000,0.000000,0.000000,0.000000,0.000000,0.000000,0.000000,0.000000,0.000000,0.000000,1770371973.304130,0.000000
186.000000,11417.896917,10311.396159,-25104.093564,-3995.039045,-15666.494151,16544.716542,-10533.818368,-17755.130560,11598.297846,14311.196126,4781.284008,584.743987,9084.352444,15227.751759,-24756.501586,-8026.153806,-0.002938,-0.009313,1.003062,192.000000,0.000000,0.000000,0.000000,0.000000,0.000000,0.000000,0.000000,0.000000,0.000000,1770371973.304144,0.000000
188.000000,11414.164175,10308.512784,-25097.522151,-3996.916592,-15656.793494,16545.208281,-10530.264441,-17754.795284,11621.342495,14319.153347,4789.107119,596.433949,9096.869421,15238.838224,-24736.764996,-8004.696131,-0.002938,-0.009313,1.003062,192.000000,0.000000,0.000000,0.000000,0.000000,0.000000,0.000000,0.000000,0.000000,0.000000,1770371973.304156,0.000000
190.000000,11400.976646,10294.788813,-25110.374404,-4001.766920,-15661.286194,16546.124702,-10544.077819,-17768.496903,11599.750710,14304.736472,4774.690244,578.083167,9089.739214,15224.287239,-24746.711522,-8010.865213,-0.002938,-0.009313,1.003062,192.000000,0.000000,0.000000,0.000000,0.000000,0.000000,0.000000,0.000000,0.000000,0.000000,1770371973.304168,0.000000
192.000000,11409.671475,10307.953990,-25097.276282,-3997.631848,-15649.439770,16544.694191,-10531.918470,-17752.023667,11603.170526,14307.865716,4778.914723,584.364007,9088.018130,15231.976239,-24739.715426,-8004.696131,-0.002938,-0.009313,1.003062,192.000000,0.000000,0.000000,0.000000,0.000000,0.000000,0.000000,0.000000,0.000000,0.000000,1770371973.304180,0.000000
194.000000,11393.801736,10291.234886,-25118.979826,-4008.226574,-15666.203578,16529.025618,-10546.938842,-17766.217025,11609.920753,14309.698559,4781.820450,591.069530,9082.877229,15236.223070,-24734.663932,-8002.617419,0.004000,-0.014000,1.010000,192.000000,0.000000,16.000000,127.500000,72.000000,15.500000,72.000000,0.000000,0.000000,0.000000,1770371973.304192,0.000000
196.000000,11386.805640,10286.473964,-25121.773794,-4006.214917,-15667.589386,16528.355065,-10544.882482,-17770.553263,11574.560294,14287.659739,4761.905046,567.689606,9062.850066,15204.304779,-24754.355819,-8023.672762,0.004000,-0.014000,1.010000,192.000000,0.000000,0.000000,0.000000,0.000000,0.000000,0.000000,0.000000,0.000000,0.000000,1770371973.784008,0.000000
198.000000,11393.824088,10295.749938,-25109.703852,-4003.800929,-15658.402819,16531.551365,-10536.791150,-17764.831217,11593.626332,14299.483812,4769.057604,581.078301,9080.172668,15210.786785,-24741.168289,-8019.113006,0.004000,-0.014000,1.010000,192.000000,0.000000,0.000000,0.000000,0.000000,0.000000,0.000000,0.000000,0.000000,0.000000,1770371973.784072,0.000000
200.000000,11399.188507,10298.923886,-25112.944855,-4008.025409,-15654.223043,16534.188871,-10546.961194,-17770.285043,11588.507782,14297.718024,4765.168400,570.103594,9080.060909,15206.584657,-24751.472444,-8036.457960,0.004000,-0.014000,1.010000,192.000000,0.000000,0.000000,0.000000,0.000000,0.000000,0.000000,0.000000,0.000000,0.000000,1770371973.784120,0.000000
202.000000,11419.863870,10322.102645,-25088.648509,-3999.777615,-15644.053000,16553.523130,-10528.498653,-17744.602888,11610.457195,14312.514879,4782.982741,584.252248,9100.848031,15225.941268,-24741.727083,-8032.591108,0.004000,-0.014000,1.010000,192.000000,0.000000,0.000000,0.000000,0.000000,0.000000,0.000000,0.000000,0.000000,0.000000,1770371973.784164,0.000000
204.000000,11419.260373,10319.822767,-25099.198532,-4006.505490,-15646.891671,16551.623231,-10539.048676,-17752.314240,11622.370675,14323.400178,4793.800985,598.713827,9107.665313,15238.279431,-24729.008940,-8025.237384,0.004000,-0.014000,1.010000,192.000000,0.000000,0.000000,127.500000,88.000000,15.500000,72.000000,0.000000,0.000000,0.000000,1770371973.784210,0.000000
206.000000,11423.082521,10321.834424,-25099.310291,-4005.276144,-15653.261918,16553.746647,-10532.656077,-17745.027571,11606.769157,14313.721873,4788.481270,588.186155,9095.058929,15222.029712,-24744.006961,-8039.855425,0.004000,-0.014000,1.010000,192.000000,0.000000,0.000000,0.000000,0.000000,0.000000,0.000000,0.000000,0.000000,0.000000,1770371973.784257,0.000000
208.000000,11426.994077,10326.036552,-25092.694174,-3996.268391,-15657.017011,16554.685420,-10522.709551,-17736.265687,11623.845890,14319.063940,4800.662971,607.073379,9101.160956,15238.145320,-24735.736815,-8023.829225,0.004000,-0.014000,1.010000,192.000000,0.000000,0.000000,0.000000,0.000000,0.000000,0.000000,0.000000,0.000000,0.000000,1770371973.784290,0.000000
210.000000,11411.169042,10310.971476,-25111.648454,-3996.246039,-15664.817770,16552.696115,-10537.931089,-17755.197615,11604.265762,14312.939562,4788.749491,595.070493,9088.308703,15230.679838,-24752.925307,-8027.830187,0.004000,-0.014000,1.010000,192.000000,0.000000,0.000000,0.000000,0.000000,0.000000,0.000000,0.000000,0.000000,0.000000,1770371973.784302,0.000000
212.000000,11412.018408,10314.458348,-25101.590169,-3990.926324,-15655.921776,16570.018717,-10529.392723,-17754.728228,11598.811936,14315.577068,4781.753395,591.807138,9087.079357,15237.810044,-24752.277106,-8016.430797,0.004000,-0.014000,1.010000,192.000000,0.000000,0.000000,0.000000,0.000000,0.000000,0.000000,0.000000,0.000000,0.000000,1770371973.784313,0.000000
214.000000,11393.086480,10294.140612,-25118.108108,-3998.235345,-15660.995622,16561.413295,-10547.162360,-17776.834104,11604.019893,14318.751016,4773.013863,588.163804,9089.091014,15235.194890,-24739.894240,-7995.889544,0.002000,-0.008000,1.008000,192.000000,0.000000,8.000000,127.500000,96.000000,15.500000,64.000000,0.000000,0.000000,0.000000,1770371973.784325,0.000000
216.000000,11389.599608,10289.491450,-25117.638721,-4003.197432,-15657.642860,16570.756325,-10547.497636,-17779.583368,11576.504895,14291.504239,4755.110115,561.900504,9074.629435,15214.653637,-24750.287801,-7998.996436,0.002000,-0.008000,1.008000,192.000000,0.000000,0.000000,0.000000,0.000000,0.000000,0.000000,0.000000,0.000000,0.000000,1770371973.784337,0.000000
218.000000,11394.092309,10291.994845,-25109.681500,-4004.203260,-15652.054924,16573.058554,-10539.115732,-17769.323918,11597.381425,14298.120355,4767.448278,575.020978,9084.106575,15225.293067,-24728.584257,-7976.644692,0.002000,-0.008000,1.008000,192.000000,0.000000,0.000000,0.000000,0.000000,0.000000,0.000000,0.000000,0.000000,0.000000,1770371973.784356,0.000000
220.000000,11373.551056,10268.927845,-25131.876782,-4013.635697,-15655.474741,16563.514359,-10558.539398,-17790.535723,11576.616654,14280.082498,4756.071240,557.005472,9075.925836,15212.463166,-24735.490946,-7988.692282,0.002000,-0.008000,1.008000,192.000000,0.000000,0.000000,0.000000,0.000000,0.000000,0.000000,0.000000,0.000000,0.000000,1770371973.784368,0.000000
222.000000,11384.771631,10282.897685,-25121.013835,-4013.501586,-15654.848892,16564.520188,-10547.922319,-17783.718441,11576.840171,14277.355585,4753.344328,551.663405,9076.104650,15207.545782,-24732.719330,-7987.552343,0.002000,-0.008000,1.008000,192.000000,0.000000,0.000000,0.000000,0.000000,0.000000,0.000000,0.000000,0.000000,0.000000,1770371973.784379,0.000000
224.000000,11377.596721,10274.716946,-25126.311198,-4021.369400,-15667.678793,16554.216034,-10555.566616,-17790.803944,11588.999520,14283.524666,4758.060546,556.044347,9083.145450,15208.149279,-24731.735853,-7990.882753,0.002000,-0.010000,1.008000,192.000000,0.000000,8.000000,127.500000,88.000000,15.500000,64.000000,0.000000,0.000000,0.000000,1770371973.784391,0.000000
226.000000,11397.601533,10293.090080,-25112.587227,-4012.540461,-15664.840122,16550.438589,-10543.675487,-17771.670851,11573.621520,14274.807486,4758.932264,547.774201,9077.736327,15200.393224,-24754.691095,-8013.346256,0.002000,-0.010000,1.008000,192.000000,0.000000,0.000000,0.000000,0.000000,0.000000,0.000000,0.000000,0.000000,0.000000,1770371973.784403,0.000000
228.000000,11413.650085,10310.457386,-25095.622253,-4003.264487,-15655.273575,16558.351106,-10528.118673,-17749.207348,11612.133576,14306.591667,4788.101290,582.732330,9104.290200,15222.655561,-24741.704731,-8001.455128,0.002000,-0.010000,1.008000,192.000000,0.000000,0.000000,0.000000,0.000000,0.000000,0.000000,0.000000,0.000000,0.000000,1770371973.784414,0.000000
230.000000,11413.180699,10308.848060,-25104.115916,-4005.142034,-15652.457255,16558.149941,-10538.556938,-17757.030458,11597.582590,14303.171850,4783.273313,578.172574,9099.931610,15220.554497,-24752.590031,-8012.251021,0.002000,-0.010000,1.008000,192.000000,0.000000,0.000000,0.000000,0.000000,0.000000,0.000000,0.000000,0.000000,0.000000,1770371973.784426,0.000000
232.000000,11430.659763,10328.830520,-25092.448305,-3992.490946,-15644.991773,16564.050801,-10521.703723,-17739.529042,11610.166622,14312.045492,4789.621209,585.682760,9108.939363,15228.846995,-24748.387903,-8009.501756,0.002000,-0.010000,1.008000,192.000000,0.000000,0.000000,0.000000,0.000000,0.000000,0.000000,0.000000,0.000000,0.000000,1770371973.784438,0.000000
234.000000,11418.478062,10320.918002,-25113.324835,-3992.356836,-15659.453351,16551.153845,-10535.159473,-17750.526100,11618.995561,14325.076559,4792.884564,602.468920,9114.460244,15240.671067,-24742.799967,-8005.120814,0.002000,-0.018000,1.006000,192.000000,0.000000,8.000000,127.500000,56.000000,15.500000,56.000000,0.000000,0.000000,0.000000,1770371973.784457,0.000000
236.000000,11418.589821,10323.041418,-25113.816573,-3989.607571,-15659.252186,16550.036258,-10535.539452,-17752.738923,11590.586494,14314.303018,4783.273313,590.510737,9092.287313,15232.110349,-24758.803816,-8020.208242,0.002000,-0.018000,1.006000,192.000000,0.000000,0.000000,0.000000,0.000000,0.000000,0.000000,0.000000,0.000000,0.000000,1770371973.784468,0.000000
238.000000,11415.617039,10318.101682,-25109.033300,-3993.764996,-15658.112247,16556.652374,-10534.198348,-17754.236490,11609.093739,14323.377827,4787.117813,598.736179,9100.736272,15235.239593,-24741.347103,-8002.639771,0.002000,-0.018000,1.006000,192.000000,0.000000,0.000000,0.000000,0.000000,0.000000,0.000000,0.000000,0.000000,0.000000,1770371973.784480,0.000000
240.000000,11392.371224,10290.765499,-25123.740747,-4009.500624,-15658.313412,16554.193682,-10555.633671,-17782.153819,11583.299826,14295.505201,4766.420098,570.237705,9086.788784,15212.731387,-24748.566717,-8010.440530,0.002000,-0.018000,1.006000,192.000000,0.000000,0.000000,0.000000,0.000000,0.000000,0.000000,0.000000,0.000000,0.000000,1770371973.784491,0.000000
242.000000,11393.064129,10290.117298,-25115.381195,-4011.713447,-15660.280366,16558.909900,-10548.056429,-17782.645557,11577.018985,14286.765669,4759.491057,556.960768,9084.263037,15204.349483,-24739.536612,-7998.102367,0.002000,-0.018000,1.006000,192.000000,0.000000,0.000000,0.000000,0.000000,0.000000,0.000000,0.000000,0.000000,0.000000,1770371973.784503,0.000000
244.000000,11365.772649,10263.764592,-25138.738768,-4027.784351,-15682.676814,16543.464845,-10562.920339,-17804.438508,11570.246407,14278.540227,4745.342403,549.338823,9070.360252,15202.181363,-24736.764996,-7984.423099,0.002000,-0.016000,1.008000,192.000000,0.000000,8.000000,127.500000,64.000000,15.500000,64.000000,0.000000,0.000000,0.000000,1770371973.784514,0.000000
246.000000,11365.437372,10265.932711,-25140.281038,-4033.037011,-15692.288064,16540.156786,-10561.355717,-17801.622188,11538.529281,14259.362430,4731.439618,531.971518,9045.527464,15181.550703,-24758.826167,-7997.185945,0.002000,-0.016000,1.008000,192.000000,0.000000,0.000000,0.000000,0.000000,0.000000,0.000000,0.000000,0.000000,0.000000,1770371973.784525,0.000000
248.000000,11374.869809,10275.253388,-25129.105166,-4026.599708,-15689.203523,16541.676705,-10548.771685,-17791.653310,11558.958776,14273.824009,4745.655328,549.674100,9053.909368,15191.541933,-24748.097330,-7993.073224,0.002000,-0.016000,1.008000,192.000000,0.000000,0.000000,0.000000,0.000000,0.000000,0.000000,0.000000,0.000000,0.000000,1770371973.784537,0.000000
250.000000,11372.969910,10275.476906,-25137.978809,-4021.771732,-15690.790497,16530.411426,-10555.454857,-17792.882656,11547.492331,14269.778343,4740.894406,540.688698,9047.092086,15183.562360,-24764.995249,-8014.799120,0.002000,-0.016000,1.008000,192.000000,0.000000,0.000000,0.000000,0.000000,0.000000,0.000000,0.000000,0.000000,0.000000,1770371973.784550,0.000000
252.000000,11399.121451,10307.305790,-25110.933198,-4007.533670,-15674.138448,16547.488159,-10534.958307,-17766.753467,11567.720660,14289.671396,4758.999319,560.872324,9065.666385,15202.293122,-24762.782426,-8017.973068,0.002000,-0.016000,1.008000,192.000000,0.000000,0.000000,0.000000,0.000000,0.000000,0.000000,0.000000,0.000000,0.000000,1770371973.784561,0.000000
254.000000,11409.559716,10313.720741,-25110.799087,-4001.543403,-15667.388221,16553.210205,-10540.389781,-17765.904101,11603.863430,14312.872507,4777.774784,580.966542,9093.829583,15224.555460,-24752.187699,-8011.893393,0.002000,-0.010000,1.006000,192.000000,0.000000,8.000000,127.500000,88.000000,15.500000,56.000000,0.000000,0.000000,0.000000,1770371973.784572,0.000000
0.000000,11422.948411,10325.813034,-25106.865180,-3996.402502,-15661.420305,16560.921557,-10534.108941,-17754.325897,11597.426128,14309.430338,4782.491002,575.915048,9093.136679,15220.330980,-24764.883490,-8025.349143,0.002000,-0.010000,1.006000,192.000000,0.000000,0.000000,0.000000,0.000000,0.000000,0.000000,0.000000,0.000000,0.000000,1770371973.784584,0.000000
2.000000,11419.036856,10322.862604,-25103.668881,-3998.950600,-15671.791514,16553.344316,-10525.659981,-17749.989659,11611.887707,14321.992018,4793.488061,593.416464,9099.596333,15224.354294,-24751.651257,-8015.626134,0.002000,-0.010000,1.006000,192.000000,0.000000,0.000000,0.000000,0.000000,0.000000,0.000000,0.000000,0.000000,0.000000,1770371973.784595,0.000000
4.000000,11401.088405,10306.031740,-25121.349111,-4008.941830,-15673.914930,16543.218975,-10542.580252,-17768.787476,11583.702157,14304.758823,4778.177116,574.909219,9076.439926,15207.165802,-24764.190586,-8031.473521,0.002000,-0.010000,1.006000,192.000000,0.000000,0.000000,0.000000,0.000000,0.000000,0.000000,0.000000,0.000000,0.000000,1770371973.784606,0.000000
6.000000,11401.133108,10306.702293,-25111.670805,-4012.004019,-15672.752639,16542.056685,-10534.444217,-17768.496903,11583.188067,14298.835611,4775.047871,569.857725,9071.231970,15205.847049,-24759.228499,-8024.320963,0.002000,-0.010000,1.006000,192.000000,0.000000,0.000000,0.000000,0.000000,0.000000,0.000000,0.000000,0.000000,0.000000,1770371973.784618,0.000000
8.000000,11378.244922,10280.438993,-25126.020625,-4024.051610,-15671.992680,16534.322981,-10551.565653,-17791.161572,11581.377576,14288.374995,4763.447316,562.951036,9070.159086,15192.436003,-24745.728045,-8012.116910,0.002000,-0.010000,1.006000,192.000000,0.000000,0.000000,127.500000,72.000000,15.500000,48.000000,0.000000,0.000000,0.000000,1770371973.784630,0.000000
10.000000,11368.097230,10270.783039,-25125.975922,-4029.259566,-15658.894558,16538.413350,-10560.416944,-17802.896238,11548.766380,14260.502369,4743.353098,535.123114,9055.719859,15168.586691,-24751.114816,-8022.063437,0.002000,-0.010000,1.006000,192.000000,0.000000,0.000000,0.000000,0.000000,0.000000,0.000000,0.000000,0.000000,0.000000,1770371973.784641,0.000000
12.000000,11374.132201,10279.164944,-25118.152811,-4024.073961,-15664.348383,16547.421103,-10553.331441,-17797.822392,11563.876160,14265.777381,4745.968252,541.068678,9067.476877,15174.509904,-24724.560943,-7996.023654,0.002000,-0.010000,1.006000,192.000000,0.000000,0.000000,0.000000,0.000000,0.000000,0.000000,0.000000,0.000000,0.000000,1770371973.784652,0.000000
14.000000,11364.073916,10267.854961,-25137.934105,-4027.091447,-15672.931453,16540.782635,-10564.127334,-17811.121680,11550.040430,14259.630651,4735.865263,530.630413,9056.591577,15174.152276,-24737.524955,-7996.448338,0.002000,-0.010000,1.006000,192.000000,0.000000,0.000000,0.000000,0.000000,0.000000,0.000000,0.000000,0.000000,0.000000,1770371973.784664,0.000000
16.000000,11377.529666,10285.669301,-25128.747538,-4016.943755,-15674.183151,16552.941984,-10548.145836,-17797.263598,11552.454418,14263.899835,4737.452237,535.234873,9052.635318,15188.211523,-24747.672647,-7993.184983,0.002000,-0.010000,1.006000,192.000000,0.000000,0.000000,0.000000,0.000000,0.000000,0.000000,0.000000,0.000000,0.000000,1770371973.784675,0.000000
18.000000,11370.757088,10278.583798,-25139.789300,-4019.715371,-15694.098555,16537.631039,-10553.353793,-17801.644540,11566.580721,14279.635463,4742.704897,548.087126,9056.345708,15201.443756,-24751.383037,-7992.983817,0.002000,-0.011000,1.003000,192.000000,0.000000,8.000000,127.500000,80.000000,15.500000,32.000000,0.000000,0.000000,0.000000,1770371973.784686,0.000000
20.000000,11378.177867,10284.931694,-25131.317989,-4014.328601,-15704.290951,16529.182080,-10542.468493,-17785.707746,11549.816912,14267.632576,4743.867188,540.018146,9045.169836,15183.383546,-24781.669650,-8027.360800,0.002000,-0.011000,1.003000,192.000000,0.000000,0.000000,0.000000,0.000000,0.000000,0.000000,0.000000,0.000000,0.000000,1770371973.784698,0.000000
22.000000,11404.061187,10309.138633,-25109.659148,-4003.577412,-15689.650558,16536.111121,-10527.939859,-17759.086819,11581.914017,14291.928922,4772.119793,569.723614,9068.281539,15193.218314,-24769.264432,-8028.858367,0.002000,-0.011000,1.003000,192.000000,0.000000,0.000000,0.000000,0.000000,0.000000,0.000000,0.000000,0.000000,0.000000,1770371973.784709,0.000000
24.000000,11409.179736,10311.798491,-25113.615407,-4002.281010,-15671.992680,16547.242289,-10539.540415,-17760.316165,11586.227904,14299.483812,4779.607627,574.909219,9075.322339,15204.125965,-24770.426723,-8045.063382,0.002000,-0.011000,1.003000,192.000000,0.000000,0.000000,0.000000,0.000000,0.000000,0.000000,0.000000,0.000000,0.000000,1770371973.784720,0.000000
26.000000,11433.476083,10339.492302,-25095.756363,-3995.016693,-15657.508750,16564.699002,-10523.737731,-17737.740903,11604.221058,14312.134899,4793.197488,591.136586,9091.527354,15218.878116,-24757.865042,-8037.732010,0.002000,-0.011000,1.003000,192.000000,0.000000,0.000000,0.000000,0.000000,0.000000,0.000000,0.000000,0.000000,0.000000,1770371973.784734,0.000000
28.000000,11422.903707,10330.417494,-25106.194628,-4002.526880,-15658.179302,16567.671784,-10534.734790,-17746.905118,11615.106358,14329.569260,4802.674628,611.029638,9100.848031,15232.646791,-24739.804833,-8026.466730,0.002000,-0.011500,1.001500,192.000000,0.000000,8.000000,127.500000,80.000000,15.500000,32.000000,0.000000,0.000000,0.000000,1770371973.784756,0.000000
30.000000,11421.562603,10328.048209,-25105.948759,-4002.839804,-15646.109360,16579.585264,-10537.260537,-17752.157778,11589.915942,14310.793794,4787.296627,588.633190,9091.884982,15212.194945,-24750.734836,-8034.178082,0.002000,-0.011500,1.001500,192.000000,0.000000,0.000000,0.000000,0.000000,0.000000,0.000000,0.000000,0.000000,0.000000,1770371973.784767,0.000000
32.000000,11422.166100,10329.769293,-25096.069288,-3999.017656,-15637.906270,16582.915674,-10534.578327,-17751.040191,11613.832309,14318.236925,4794.516241,597.864461,9110.816909,15218.453433,-24724.672702,-8003.623248,0.002000,-0.011500,1.001500,192.000000,0.000000,0.000000,0.000000,0.000000,0.000000,0.000000,0.000000,0.000000,0.000000,1770371973.784779,0.000000
34.000000,11397.869754,10306.881107,-25117.191686,-4007.511319,-15641.303735,16575.986633,-10555.745429,-17776.767048,11588.999520,14301.830745,4772.700938,576.205620,9094.924819,15210.675026,-24731.400577,-8004.874945,0.002000,-0.011500,1.001500,192.000000,0.000000,0.000000,0.000000,0.000000,0.000000,0.000000,0.000000,0.000000,0.000000,1770371973.784791,0.000000
36.000000,11395.187544,10303.349531,-25114.285960,-4009.098292,-15646.936375,16573.036203,-10548.905796,-17776.275310,11582.741032,14291.213666,4761.234493,568.807193,9090.409766,15204.617704,-24731.400577,-7997.141242,0.002000,-0.011500,1.001500,192.000000,0.000000,0.000000,0.000000,0.000000,0.000000,0.000000,0.000000,0.000000,0.000000,1770371973.784803,0.000000
38.000000,11371.517047,10276.706252,-25138.403492,-4024.476293,-15661.755581,16557.680554,-10564.797886,-17796.190714,11581.846962,14285.469268,4754.573674,563.107498,9085.760604,15204.908276,-24726.460841,-7985.250114,0.002000,-0.011500,1.001500,192.000000,0.000000,0.000000,127.500000,80.000000,15.500000,40.000000,0.000000,0.000000,0.000000,1770371973.784818,0.000000
40.000000,11363.582178,10269.285473,-25147.835928,-4025.012735,-15665.778895,16562.687345,-10566.116639,-17803.589142,11546.777075,14259.988279,4735.775856,535.123114,9057.910330,15185.126982,-24746.890336,-7992.782652,0.002000,-0.011500,1.001500,192.000000,0.000000,0.000000,0.000000,0.000000,0.000000,0.000000,0.000000,0.000000,0.000000,1770371973.784831,0.000000
42.000000,11376.166210,10282.584760,-25138.448195,-4020.385923,-15665.622433,16564.296670,-10555.208988,-17790.558075,11568.570026,14273.376974,4744.046002,550.992853,9068.639167,15200.840259,-24734.641580,-7978.298721,0.002000,-0.011500,1.001500,192.000000,0.000000,0.000000,0.000000,0.000000,0.000000,0.000000,0.000000,0.000000,0.000000,1770371973.784843,0.000000
44.000000,11379.049585,10286.965702,-25144.192594,-4019.380095,-15670.115134,16569.258758,-10563.099153,-17792.077993,11561.171599,14271.544131,4741.855531,545.583730,9063.274749,15193.173610,-24749.818414,-7993.564963,0.002000,-0.011500,1.001500,192.000000,0.000000,0.000000,0.000000,0.000000,0.000000,0.000000,0.000000,0.000000,0.000000,1770371973.784855,0.000000
46.000000,11401.378977,10313.430168,-25116.521134,-4005.186737,-15672.059735,16579.585264,-10539.853339,-17764.183016,11577.063689,14289.246713,4759.938092,563.710995,9075.098822,15213.312532,-24750.511319,-7995.107233,0.002000,-0.011500,1.001500,192.000000,0.000000,0.000000,0.000000,0.000000,0.000000,0.000000,0.000000,0.000000,0.000000,1770371973.784867,0.000000
48.000000,11404.731739,10312.916078,-25113.749518,-3998.838842,-15669.332822,16588.391851,-10539.920394,-17759.712667,11599.258971,14308.960951,4778.087709,587.627362,9086.945246,15222.499099,-24743.045836,-7989.340483,0.002000,-0.012750,1.002750,192.000000,0.000000,8.000000,127.500000,72.000000,15.500000,48.000000,0.000000,0.000000,0.000000,1770371973.784878,0.000000
50.000000,11423.149577,10328.718761,-25105.121744,-3985.807775,-15659.051020,16589.509438,-10531.739656,-17746.636897,11588.507782,14301.473117,4779.719386,582.441757,9083.100746,15213.334884,-24758.826167,-8002.080977,0.002000,-0.012750,1.002750,192.000000,0.000000,0.000000,0.000000,0.000000,0.000000,0.000000,0.000000,0.000000,0.000000,1770371973.784890,0.000000
52.000000,11442.103856,10351.741058,-25089.564930,-3976.867077,-15641.013162,16596.080851,-10519.379141,-17729.448405,11627.131596,14332.430283,4803.121663,613.197757,9107.866479,15242.928594,-24742.822318,-7986.814736,0.002000,-0.012750,1.002750,192.000000,0.000000,0.000000,0.000000,0.000000,0.000000,0.000000,0.000000,0.000000,0.000000,1770371973.784902,0.000000
54.000000,11423.887184,10332.920889,-25107.915712,-3990.702807,-15645.617622,16585.776697,-10537.774627,-17748.469740,11609.943105,14323.713103,4794.002151,605.732275,9103.574944,15238.972335,-24746.532708,-8000.292838,0.002000,-0.012750,1.002750,192.000000,0.000000,0.000000,0.000000,0.000000,0.000000,0.000000,0.000000,0.000000,0.000000,1770371973.784913,0.000000
56.000000,11421.048513,10335.401933,-25097.052765,-3987.528859,-15643.158930,16584.927331,-10525.280002,-17743.194728,11605.606867,14318.125167,4789.844726,602.379513,9099.305761,15234.770207,-24741.905897,-7998.705864,0.002000,-0.012750,1.002750,192.000000,0.000000,0.000000,0.000000,0.000000,0.000000,0.000000,0.000000,0.000000,0.000000,1770371973.784925,0.000000
58.000000,11391.097175,10306.434072,-25114.107146,-3995.866060,-15655.161816,16586.000214,-10541.842644,-17767.222854,11603.461099,14320.673266,4779.853497,598.222089,9098.165822,15236.133663,-24731.467632,-7980.802116,0.000000,-0.012375,1.003375,192.000000,127.500000,120.000000,127.500000,80.000000,15.500000,48.000000,0.000000,0.000000,0.000000,1770371973.784937,0.000000
60.000000,11377.864942,10292.777156,-25118.935122,-3996.536612,-15655.698258,16593.689214,-10548.816389,-17778.957519,11566.111334,14293.605303,4759.133429,567.711957,9076.685795,15219.347503,-24747.247964,-7975.303587,0.000000,-0.012375,1.003375,192.000000,0.000000,0.000000,0.000000,0.000000,0.000000,0.000000,0.000000,0.000000,0.000000,1770371974.263631,0.000000
62.000000,11377.686128,10293.313598,-25120.835021,-4001.208127,-15657.754619,16594.739746,-10550.068086,-17779.829237,11581.019948,14300.713158,4762.106211,573.098728,9083.637188,15227.327076,-24730.595914,-7952.348346,0.000000,-0.012375,1.003375,192.000000,0.000000,0.000000,0.000000,0.000000,0.000000,0.000000,0.000000,0.000000,0.000000,1770371974.263690,0.000000
64.000000,11363.828047,10277.577970,-25143.477338,-4014.663877,-15666.337689,16575.584301,-10567.904778,-17797.174191,11562.982090,14282.518838,4744.828313,553.697414,9065.442868,15215.950038,-24742.554097,-7969.827410,0.000000,-0.012375,1.003375,192.000000,0.000000,0.000000,0.000000,0.000000,0.000000,0.000000,0.000000,0.000000,0.000000,1770371974.263730,0.000000
66.000000,11370.265349,10282.629464,-25133.061425,-4017.569604,-15670.584520,16569.549330,-10553.599662,-17787.250017,11562.222131,14277.824971,4744.090705,551.126963,9062.201865,15211.859669,-24743.694036,-7983.976064,0.000000,-0.012375,1.003375,192.000000,0.000000,0.000000,0.000000,0.000000,0.000000,0.000000,0.000000,0.000000,0.000000,1770371974.263772,0.000000
68.000000,11358.284814,10271.341833,-25143.164413,-4024.945679,-15684.554360,16546.325868,-10561.758049,-17798.850572,11569.285282,14280.060146,4747.555226,556.781954,9061.486609,15206.562305,-24740.743606,-7994.570791,-0.002000,-0.012188,1.003688,192.000000,127.500000,112.000000,127.500000,80.000000,15.500000,48.000000,0.000000,0.000000,0.000000,1770371974.263832,0.000000
70.000000,11369.974777,10277.376804,-25134.335474,-4023.202243,-15682.833276,16542.436664,-10556.505389,-17790.558075,11552.275604,14265.352698,4738.279252,541.850989,9049.975461,15184.165857,-24763.788255,-8027.114931,-0.002000,-0.012188,1.003688,192.000000,0.000000,0.000000,0.000000,0.000000,0.000000,0.000000,0.000000,0.000000,0.000000,1770371974.263878,0.000000
72.000000,11386.291550,10293.738281,-25109.212114,-4015.848519,-15674.585482,16549.656278,-10535.427694,-17764.697106,11583.791564,14282.272969,4763.067336,567.399033,9073.936531,15202.918971,-24746.689170,-8024.119797,-0.002000,-0.012188,1.003688,192.000000,0.000000,0.000000,0.000000,0.000000,0.000000,0.000000,0.000000,0.000000,0.000000,1770371974.263892,0.000000
74.000000,11378.669605,10288.172697,-25119.203343,-4016.988458,-15672.082087,16550.215071,-10545.865958,-17773.056659,11574.247369,14276.550922,4762.799116,563.286312,9069.913217,15201.779032,-24754.735798,-8043.342297,-0.002000,-0.012188,1.003688,192.000000,0.000000,0.000000,0.000000,0.000000,0.000000,0.000000,0.000000,0.000000,0.000000,1770371974.263904,0.000000
76.000000,11404.083539,10316.782930,-25097.119820,-3997.341275,-15644.924718,16567.448266,-10527.716342,-17745.027571,11588.127802,14291.794812,4775.338444,578.776071,9081.402013,15208.059872,-24748.231441,-8038.022582,-0.002000,-0.012188,1.003688,192.000000,0.000000,0.000000,0.000000,0.000000,0.000000,0.000000,0.000000,0.000000,0.000000,1770371974.263916,0.000000
78.000000,11402.004826,10311.351456,-25104.518247,-3996.067225,-15635.067598,16578.445325,-10537.260537,-17751.956612,11616.313352,14314.615943,4790.783500,602.759493,9106.167746,15235.172538,-24728.919533,-8018.420102,-0.002000,-0.012188,1.003688,192.000000,0.000000,0.000000,0.000000,0.000000,0.000000,0.000000,0.000000,0.000000,0.000000,1770371974.263928,0.000000
80.000000,11399.501431,10310.770310,-25106.909884,-3997.497737,-15627.356246,16591.588150,-10542.021458,-17760.494978,11593.469869,14306.412853,4776.321921,587.649713,9098.545801,15227.528242,-24739.290743,-8023.695114,-0.002000,-0.014000,1.002000,192.000000,127.500000,120.000000,127.500000,72.000000,15.500000,40.000000,0.000000,0.000000,0.000000,1770371974.263940,0.000000
82.000000,11396.081614,10308.557488,-25098.036241,-3998.615324,-15634.173528,16585.955511,-10538.512235,-17763.870092,11609.674884,14318.303981,4781.060491,592.634152,9113.297953,15238.055913,-24723.264542,-7999.242306,-0.002000,-0.014000,1.002000,192.000000,0.000000,0.000000,0.000000,0.000000,0.000000,0.000000,0.000000,0.000000,0.000000,1770371974.263952,0.000000
84.000000,11369.214817,10278.159115,-25123.025492,-4013.836862,-15659.006317,16565.593072,-10561.109848,-17793.106174,11585.937331,14293.784117,4759.803982,559.352405,9099.037540,15219.794538,-24736.072092,-8003.645599,-0.002000,-0.014000,1.002000,192.000000,0.000000,0.000000,0.000000,0.000000,0.000000,0.000000,0.000000,0.000000,0.000000,1770371974.263964,0.000000
86.000000,11368.745431,10278.494391,-25119.136288,-4011.467577,-15672.193846,16561.860330,-10551.856226,-17789.462839,11571.095773,14281.647120,4749.477476,549.338823,9083.436022,15212.373759,-24744.431644,-7998.772919,-0.002000,-0.014000,1.002000,192.000000,0.000000,0.000000,0.000000,0.000000,0.000000,0.000000,0.000000,0.000000,0.000000,1770371974.263976,0.000000
88.000000,11349.701744,10260.233016,-25138.872878,-4020.296516,-15692.980968,16551.109141,-10566.876598,-17802.605665,11567.810067,14283.435259,4744.493037,554.859704,9068.460353,15214.050140,-24742.442339,-7982.120869,-0.002000,-0.014000,1.002000,192.000000,0.000000,0.000000,0.000000,0.000000,0.000000,0.000000,0.000000,0.000000,0.000000,1770371974.263988,0.000000
90.000000,11348.450047,10258.199007,-25144.952553,-4025.012735,-15695.640826,16557.837016,-10567.882427,-17803.387976,11536.987011,14261.061163,4731.238452,532.686774,9043.068772,15193.106555,-24763.363572,-7989.318131,0.002000,-0.012000,1.004000,192.000000,0.000000,8.000000,127.500000,80.000000,15.500000,48.000000,0.000000,0.000000,0.000000,1770371974.264009,0.000000
92.000000,11357.435448,10267.966720,-25136.056559,-4025.459769,-15694.634997,16555.445380,-10556.348927,-17795.229589,11558.288224,14268.839570,4740.603833,542.812114,9050.824827,15201.354349,-24750.176042,-7978.343425,0.002000,-0.012000,1.004000,192.000000,0.000000,0.000000,0.000000,0.000000,0.000000,0.000000,0.000000,0.000000,0.000000,1770371974.264021,0.000000
94.000000,11349.232358,10257.439048,-25147.366541,-4033.640508,-15702.011073,16548.114007,-10564.887293,-17803.745604,11546.486502,14259.764762,4733.719496,529.713992,9041.213577,15193.598293,-24765.218766,-8005.545498,0.002000,-0.012000,1.004000,192.000000,0.000000,0.000000,0.000000,0.000000,0.000000,0.000000,0.000000,0.000000,0.000000,1770371974.264033,0.000000
96.000000,11368.030175,10280.483697,-25126.825288,-4024.230423,-15693.606817,16543.464845,-10544.234281,-17779.069278,11546.218282,14271.857056,4744.336575,542.812114,9043.962842,15193.710052,-24766.850444,-8022.041085,0.002000,-0.012000,1.004000,192.000000,0.000000,0.000000,0.000000,0.000000,0.000000,0.000000,0.000000,0.000000,0.000000,1770371974.264045,0.000000
98.000000,11372.411117,10281.422470,-25127.987579,-4021.592918,-15690.969311,16535.932307,-10545.798903,-17774.956557,11570.492276,14283.390556,4759.781630,565.208562,9060.838409,15200.706148,-24762.938888,-8026.198509,0.002000,-0.012000,1.004000,192.000000,0.000000,0.000000,0.000000,0.000000,0.000000,0.000000,0.000000,0.000000,0.000000,1770371974.264058,0.000000
100.000000,11382.938788,10290.385519,-25117.817535,-4011.109949,-15679.502866,16541.743760,-10538.780455,-17761.701973,11559.651680,14276.930902,4764.430793,564.090975,9062.268920,15185.104631,-24777.512226,-8041.621213,0.002000,-0.012000,1.004000,192.000000,0.000000,0.000000,127.500000,64.000000,15.500000,32.000000,0.000000,0.000000,0.000000,1770371974.264070,0.000000
102.000000,11391.477155,10299.035644,-25102.037204,-4000.582278,-15671.657404,16549.321002,-10527.336362,-17748.916775,11584.529172,14299.059129,4783.273313,585.302780,9083.570133,15212.060834,-24757.485063,-8024.902108,0.002000,-0.012000,1.004000,192.000000,0.000000,0.000000,0.000000,0.000000,0.000000,0.000000,0.000000,0.000000,0.000000,1770371974.264082,0.000000
104.000000,11383.095250,10287.300979,-25114.174201,-3998.034179,-15669.422229,16556.920595,-10541.552072,-17763.691278,11574.828514,14293.851172,4777.171287,571.489402,9079.569170,15205.355311,-24762.469502,-8029.104236,0.002000,-0.012000,1.004000,192.000000,0.000000,0.000000,0.000000,0.000000,0.000000,0.000000,0.000000,0.000000,0.000000,1770371974.264094,0.000000
106.000000,11394.315826,10302.813089,-25099.936140,-3985.316036,-15657.464046,16561.279185,-10529.415075,-17751.598984,11579.656491,14293.202972,4778.512392,573.255190,9086.341749,15212.463166,-24751.137167,-8017.369570,0.002000,-0.012000,1.004000,192.000000,0.000000,0.000000,0.000000,0.000000,0.000000,0.000000,0.000000,0.000000,0.000000,1770371974.264106,0.000000
108.000000,11379.027233,10284.998749,-25114.375366,-3991.954504,-15667.835256,16553.254909,-10541.105037,-17767.513426,11595.548582,14303.663588,4780.993436,581.748853,9094.477784,15227.036503,-24736.452071,-8002.416253,0.002000,-0.012000,1.004000,192.000000,0.000000,0.000000,0.000000,0.000000,0.000000,0.000000,0.000000,0.000000,0.000000,1770371974.264118,0.000000
110.000000,11367.225512,10276.549789,-25122.690215,-3999.978781,-15676.239512,16557.144112,-10547.609395,-17778.756354,11556.455380,14284.664605,4759.044022,559.531219,9069.667348,15213.893677,-24755.115778,-8017.481329,-0.002000,-0.016000,1.006000,192.000000,127.500000,120.000000,127.500000,64.000000,15.500000,56.000000,0.000000,0.000000,0.000000,1770371974.264130,0.000000
112.000000,11367.270215,10277.533266,-25119.203343,-4007.556022,-15676.507732,16561.100371,-10544.569557,-17778.756354,11565.507837,14295.907533,4758.507581,570.237705,9069.913217,15229.115215,-24738.709597,-7997.700035,-0.002000,-0.016000,1.006000,192.000000,0.000000,0.000000,0.000000,0.000000,0.000000,0.000000,0.000000,0.000000,0.000000,1770371974.264142,0.000000
114.000000,11349.701744,10255.136818,-25141.510384,-4023.202243,-15685.627244,16562.955566,-10567.256578,-17803.231514,11543.647831,14277.467344,4739.642708,548.042422,9052.680022,15212.530221,-24747.091502,-7993.542611,-0.002000,-0.016000,1.006000,192.000000,0.000000,0.000000,0.000000,0.000000,0.000000,0.000000,0.000000,0.000000,0.000000,1770371974.264155,0.000000
116.000000,11361.838742,10265.597435,-25131.429748,-4023.314002,-15674.026689,16569.996365,-10560.148723,-17795.877790,11541.859691,14267.498465,4736.602871,536.710088,9051.338917,15206.159974,-24745.169252,-7976.242361,-0.002000,-0.016000,1.006000,192.000000,0.000000,0.000000,0.000000,0.000000,0.000000,0.000000,0.000000,0.000000,0.000000,1770371974.264167,0.000000
118.000000,11355.826122,10258.981318,-25140.571611,-4030.600671,-15672.819695,16562.307365,-10565.222569,-17801.063395,11562.915035,14281.468306,4745.297700,548.467105,9063.475914,15213.759567,-24732.764033,-7968.910988,-0.002000,-0.016000,1.006000,192.000000,0.000000,0.000000,0.000000,0.000000,0.000000,0.000000,0.000000,0.000000,0.000000,1770371974.264179,0.000000
120.000000,11356.943709,10259.517760,-25147.053617,-4033.282880,-15681.246302,16554.998345,-10563.680299,-17801.488078,11545.055991,14265.531512,4732.132522,531.859759,9053.529388,15184.814058,-24752.947659,-7996.671855,-0.002000,-0.016000,1.006000,192.000000,0.000000,0.000000,127.500000,56.000000,15.500000,56.000000,0.000000,0.000000,0.000000,1770371974.264191,0.000000
122.000000,11363.045736,10270.604225,-25137.956457,-4030.041877,-15682.162724,16550.058609,-10551.520950,-17789.149915,11565.887817,14277.467344,4740.760295,551.618701,9064.258225,15192.279541,-24749.974877,-8000.941038,-0.002000,-0.016000,1.006000,192.000000,0.000000,0.000000,0.000000,0.000000,0.000000,0.000000,0.000000,0.000000,0.000000,1770371974.264205,0.000000
124.000000,11350.260538,10260.188313,-25148.260611,-4035.205130,-15693.673872,16533.473615,-10564.015575,-17799.208200,11547.090000,14268.660756,4733.495979,543.817943,9058.066792,15181.371889,-24764.078827,-8030.601803,-0.002000,-0.016000,1.006000,192.000000,0.000000,0.000000,0.000000,0.000000,0.000000,0.000000,0.000000,0.000000,0.000000,1770371974.264218,0.000000
126.000000,11366.644367,10272.034737,-25123.763099,-4026.957336,-15694.366776,16528.109196,-10545.418924,-17779.315147,11552.856750,14263.653965,4743.710726,545.471972,9064.906426,15178.913197,-24766.805740,-8046.873873,-0.002000,-0.016000,1.006000,192.000000,0.000000,0.000000,0.000000,0.000000,0.000000,0.000000,0.000000,0.000000,0.000000,1770371974.264230,0.000000
128.000000,11368.186637,10270.425412,-25121.952608,-4022.062304,-15695.864343,16526.276353,-10546.424752,-17779.561017,11579.522381,14281.110678,4760.362775,563.666292,9078.876266,15191.318416,-24755.629868,-8044.593995,-0.002000,-0.016000,1.006000,192.000000,0.000000,0.000000,0.000000,0.000000,0.000000,0.000000,0.000000,0.000000,0.000000,1770371974.264242,0.000000
130.000000,11370.354756,10272.839400,-25115.090622,-4014.485063,-15683.906160,16535.574679,-10547.050601,-17781.058583,11556.097753,14270.739468,4755.177171,546.656614,9073.154220,15188.949131,-24768.146845,-8057.423896,-0.002000,-0.014000,1.006000,192.000000,127.500000,120.000000,127.500000,72.000000,15.500000,56.000000,0.000000,0.000000,0.000000,1770371974.264254,0.000000
132.000000,11382.692919,10285.870467,-25098.639738,-4006.550194,-15667.991718,16545.610612,-10538.869862,-17773.324880,11588.776003,14292.733585,4768.968197,559.486515,9094.500136,15213.692512,-24743.090539,-8034.200434,-0.002000,-0.014000,1.006000,192.000000,0.000000,0.000000,0.000000,0.000000,0.000000,0.000000,0.000000,0.000000,0.000000,1770371974.264266,0.000000
134.000000,11364.431544,10267.430278,-25119.896247,-4012.115778,-15668.148180,16555.579490,-10556.863017,-17792.502677,11573.330948,14284.485791,4756.853551,547.684794,9085.112403,15214.251305,-24746.018618,-8029.908899,-0.002000,-0.014000,1.006000,192.000000,0.000000,0.000000,0.000000,0.000000,0.000000,0.000000,0.000000,0.000000,0.000000,1770371974.264278,0.000000
136.000000,11370.801791,10278.740260,-25111.715509,-4003.689170,-15657.419343,16576.098392,-10546.089476,-17781.103287,11567.877122,14290.319597,4755.266578,553.630358,9076.976368,15228.757588,-24747.694999,-8017.302515,-0.002000,-0.014000,1.006000,192.000000,0.000000,0.000000,0.000000,0.000000,0.000000,0.000000,0.000000,0.000000,0.000000,1770371974.264290,0.000000
138.000000,11358.933015,10265.642138,-25126.802936,-4011.355819,-15664.214273,16579.965243,-10558.092363,-17790.178095,11578.114221,14297.114527,4757.188828,564.917989,9077.333996,15232.177404,-24732.004074,-7995.084881,-0.002000,-0.014000,1.006000,192.000000,0.000000,0.000000,0.000000,0.000000,0.000000,0.000000,0.000000,0.000000,0.000000,1770371974.264302,0.000000
140.000000,11353.188616,10261.372955,-25136.727111,-4020.184758,-15674.294910,16571.471580,-10564.261444,-17795.631921,11547.939366,14273.399326,4740.357964,544.108515,9055.362231,15200.437927,-24746.063321,-7999.264657,0.002000,-0.010000,1.004000,192.000000,0.000000,8.000000,127.500000,88.000000,15.500000,48.000000,0.000000,0.000000,0.000000,1770371974.264314,0.000000
142.000000,11360.899968,10271.073612,-25127.406434,-4020.967069,-15679.815791,16566.800066,-10552.079743,-17782.332633,11561.842151,14278.920207,4748.292833,554.256207,9054.177589,15205.467070,-24732.138185,-7985.317169,0.002000,-0.010000,1.004000,192.000000,0.000000,0.000000,0.000000,0.000000,0.000000,0.000000,0.000000,0.000000,0.000000,1770371974.264327,0.000000
144.000000,11364.208026,10269.978377,-25136.637704,-4021.637621,-15681.335709,16567.761191,-10556.438334,-17780.790362,11555.963642,14275.992128,4750.036269,551.484591,9052.925891,15192.771279,-24743.582278,-7998.594105,0.002000,-0.010000,1.004000,192.000000,0.000000,0.000000,0.000000,0.000000,0.000000,0.000000,0.000000,0.000000,0.000000,1770371974.264339,0.000000
146.000000,11389.756070,10297.716891,-25114.084794,-4004.449130,-15671.053907,16579.249988,-10535.382990,-17754.460007,11566.871293,14290.274893,4764.676662,568.069585,9067.678042,15209.535087,-24748.142034,-8003.086806,0.002000,-0.010000,1.004000,192.000000,0.000000,0.000000,0.000000,0.000000,0.000000,0.000000,0.000000,0.000000,0.000000,1770371974.264351,0.000000
148.000000,11388.414966,10295.526421,-25115.425898,-4002.862156,-15677.513561,16569.795200,-10538.221662,-17756.181092,11594.162773,14311.397292,4778.221819,594.869327,9084.307740,15227.058855,-24741.771786,-8005.187870,0.002000,-0.010000,1.004000,192.000000,0.000000,0.000000,0.000000,0.000000,0.000000,0.000000,0.000000,0.000000,0.000000,1770371974.264363,0.000000
150.000000,11383.430527,10293.492412,-25106.865180,-3998.928249,-15672.529122,16563.559063,-10533.527795,-17753.454179,11575.186142,14293.918227,4769.370528,583.112309,9079.345653,15211.546744,-24760.703714,-8037.374382,0.000000,-0.007000,1.004000,192.000000,127.500000,120.000000,127.500000,112.000000,15.500000,48.000000,0.000000,0.000000,0.000000,1770371974.264375,0.000000
152.000000,11380.815373,10294.542944,-25093.610596,-3996.134281,-15677.222988,16548.851615,-10521.502557,-17747.642725,11592.441689,14304.043568,4780.702863,597.573888,9095.930647,15219.459262,-24746.867984,-8037.530844,0.000000,-0.007000,1.004000,192.000000,0.000000,0.000000,0.000000,0.000000,0.000000,0.000000,0.000000,0.000000,0.000000,1770371974.264387,0.000000
154.000000,11362.509294,10271.744164,-25112.117840,-4004.180909,-15689.114116,16537.809853,-10538.556938,-17766.999336,11573.286244,14282.183562,4772.075089,574.573943,9087.101708,15202.337826,-24759.653182,-8051.813609,0.000000,-0.007000,1.004000,192.000000,0.000000,0.000000,0.000000,0.000000,0.000000,0.000000,0.000000,0.000000,0.000000,1770371974.264400,0.000000
156.000000,11380.725966,10290.810202,-25098.170352,-3994.770824,-15678.027651,16559.267528,-10528.386894,-17750.682563,11570.961663,14281.848285,4778.981779,570.036539,9083.950112,15211.613800,-24758.356781,-8039.050763,0.000000,-0.007000,1.004000,192.000000,0.000000,0.000000,0.000000,0.000000,0.000000,0.000000,0.000000,0.000000,0.000000,1770371974.264412,0.000000
158.000000,11380.815373,10284.127031,-25112.095489,-4000.045836,-15675.077221,16575.360784,-10544.211929,-17764.071258,11595.816802,14299.260294,4788.302456,585.213373,9094.589543,15230.992762,-24741.391807,-8011.915745,0.000000,-0.007000,1.004000,192.000000,0.000000,0.000000,0.000000,0.000000,0.000000,0.000000,0.000000,0.000000,0.000000,1770371974.264424,0.000000
160.000000,11374.176904,10274.784002,-25117.303445,-4000.716388,-15671.299776,16577.506551,-10548.682278,-17777.459953,11568.994709,14283.077631,4765.034290,562.593408,9080.038557,15220.889773,-24754.691095,-8015.044989,-0.001000,-0.008500,1.005000,192.000000,127.500000,120.000000,127.500000,88.000000,15.500000,56.000000,0.000000,0.000000,0.000000,1770371974.264437,0.000000
162.000000,11371.092364,10273.420545,-25107.826305,-4005.007923,-15671.813866,16568.565854,-10542.356735,-17776.655290,11575.230846,14291.280722,4761.145086,570.774146,9084.844182,15232.222108,-24737.390845,-7999.488175,-0.001000,-0.008500,1.005000,192.000000,0.000000,0.000000,0.000000,0.000000,0.000000,0.000000,0.000000,0.000000,0.000000,1770371974.264449,0.000000
164.000000,11351.154608,10250.465304,-25126.467660,-4022.039953,-15674.943110,16561.301537,-10564.104982,-17800.571656,11560.545750,14277.646157,4745.677679,550.322300,9073.891827,15210.429157,-24739.536612,-8010.596992,-0.001000,-0.008500,1.005000,192.000000,0.000000,0.000000,0.000000,0.000000,0.000000,0.000000,0.000000,0.000000,0.000000,1770371974.264461,0.000000
166.000000,11357.882483,10260.992975,-25116.767003,-4015.625002,-15662.046154,16568.901130,-10551.610357,-17786.110078,11546.397095,14270.270082,4740.872054,541.761582,9068.035670,15200.795555,-24732.205240,-8007.043064,-0.001000,-0.008500,1.005000,192.000000,0.000000,0.000000,0.000000,0.000000,0.000000,0.000000,0.000000,0.000000,0.000000,1770371974.264474,0.000000
168.000000,11370.645329,10275.074574,-25125.037149,-4009.254755,-15650.780875,16582.289825,-10553.666717,-17774.487171,11569.464096,14291.548943,4758.954615,563.599236,9085.514734,15218.364026,-24714.189734,-7981.539724,-0.001000,-0.008500,1.005000,192.000000,0.000000,0.000000,0.000000,0.000000,0.000000,0.000000,0.000000,0.000000,0.000000,1770371974.264486,0.000000
170.000000,11396.059262,10300.644970,-25123.763099,-3990.993379,-15649.037439,16608.039034,-10542.334383,-17750.414342,11564.904340,14297.293341,4766.576560,571.332940,9086.542915,15221.873250,-24742.196470,-7980.600951,-0.001500,-0.011250,1.005500,192.000000,127.500000,120.000000,127.500000,72.000000,15.500000,56.000000,0.000000,0.000000,0.000000,1770371974.264499,0.000000
172.000000,11410.744358,10316.090025,-25108.139230,-3980.510411,-15656.346459,16622.701779,-10525.235298,-17734.097568,11598.297846,14323.735455,4790.828203,606.380475,9111.263944,15250.014097,-24740.274220,-7955.924625,-0.001500,-0.011250,1.005500,192.000000,0.000000,0.000000,0.000000,0.000000,0.000000,0.000000,0.000000,0.000000,0.000000,1770371974.264511,0.000000
174.000000,11391.052472,10295.615828,-25120.343282,-3985.807775,-15671.344479,16605.043901,-10540.792112,-17756.762237,11582.718680,14315.577068,4778.512392,597.149205,9103.664351,15240.000515,-24757.395656,-7969.425079,-0.001500,-0.011250,1.005500,192.000000,0.000000,0.000000,0.000000,0.000000,0.000000,0.000000,0.000000,0.000000,0.000000,1770371974.264523,0.000000
176.000000,11396.595704,10301.159060,-25098.170352,-3984.600781,-15671.769163,16600.059462,-10529.057447,-17747.419208,11576.035509,14306.055225,4774.310264,590.175461,9095.684778,15233.943192,-24759.340258,-7979.572771,-0.001500,-0.011250,1.005500,192.000000,0.000000,0.000000,0.000000,0.000000,0.000000,0.000000,0.000000,0.000000,0.000000,1770371974.264535,0.000000
178.000000,11383.899913,10284.015272,-25100.606692,-3995.039045,-15683.481477,16582.222770,-10539.294546,-17754.817635,11590.854715,14309.117414,4787.698959,597.663295,9101.540935,15239.128797,-24742.151766,-7983.439622,-0.001500,-0.011250,1.005500,192.000000,0.000000,0.000000,0.000000,0.000000,0.000000,0.000000,0.000000,0.000000,0.000000,1770371974.264547,0.000000
180.000000,11386.895047,10281.914208,-25097.589206,-3997.162461,-15682.073317,16579.406450,-10539.562766,-17751.107246,11568.301805,14284.083460,4789.352988,578.686664,9086.431156,15209.982122,-24754.378170,-8009.702922,-0.001750,-0.008625,1.008750,192.000000,127.500000,120.000000,127.500000,104.000000,15.500000,80.000000,0.000000,0.000000,0.000000,1770371974.744668,0.000000
182.000000,11390.180753,10287.122165,-25090.414296,-3999.151766,-15664.482494,16580.412278,-10533.706609,-17747.486263,11589.781831,14296.131050,4799.813604,594.109368,9095.327150,15223.035541,-24730.417100,-7998.571753,-0.001750,-0.008625,1.008750,192.000000,0.000000,0.000000,0.000000,0.000000,0.000000,0.000000,0.000000,0.000000,0.000000,1770371974.744751,0.000000
184.000000,11373.349890,10272.638234,-25103.601826,-4005.879641,-15651.965517,16573.438534,-10549.688107,-17770.329746,11569.240578,14290.364300,4777.059528,577.680835,9087.816964,15221.046236,-24729.366568,-8006.104291,-0.001750,-0.008625,1.008750,192.000000,0.000000,0.000000,0.000000,0.000000,0.000000,0.000000,0.000000,0.000000,0.000000,1770371974.744803,0.000000
186.000000,11385.106907,10286.742185,-25087.732087,-3999.777615,-15633.480624,16579.942892,-10540.255671,-17761.545510,11573.107430,14295.840477,4769.906970,576.831469,9102.725578,15213.558401,-24719.017711,-8000.918686,-0.001750,-0.008625,1.008750,192.000000,0.000000,0.000000,0.000000,0.000000,0.000000,0.000000,0.000000,0.000000,0.000000,1770371974.744860,0.000000
188.000000,11369.393631,10271.230074,-25101.165486,-4008.606554,-15632.050113,16577.484200,-10553.018517,-17777.303490,11590.944122,14308.335103,4771.650406,585.749815,9117.678895,15227.550593,-24701.359832,-7986.948846,-0.001750,-0.008625,1.008750,192.000000,0.000000,0.000000,0.000000,0.000000,0.000000,0.000000,0.000000,0.000000,0.000000,1770371974.744908,0.000000
190.000000,11357.368393,10259.495408,-25112.296654,-4015.490891,-15639.359133,16579.361746,-10557.555921,-17789.731060,11555.471904,14284.508143,4750.371546,557.050175,9097.897601,15207.858706,-24718.302455,-8000.628114,-0.002875,-0.009313,1.008375,192.000000,127.500000,112.000000,127.500000,88.000000,15.500000,64.000000,0.000000,0.000000,0.000000,1770371974.744956,0.000000
192.000000,11356.854303,10262.937577,-25110.977901,-4014.239194,-15647.338706,16580.345223,-10549.755162,-17783.941958,11564.434953,14289.581989,4754.484267,562.213428,9101.607990,15219.615724,-24708.132411,-7987.462936,-0.002875,-0.009313,1.008375,192.000000,0.000000,0.000000,0.000000,0.000000,0.000000,0.000000,0.000000,0.000000,0.000000,1770371974.744994,0.000000
194.000000,11342.705648,10244.787961,-25132.815556,-4019.044819,-15667.097648,16580.747554,-10563.725002,-17798.180020,11548.945194,14281.021271,4743.934243,549.696451,9084.643016,15202.740157,-24727.533725,-8000.158727,-0.002875,-0.009313,1.008375,192.000000,0.000000,0.000000,0.000000,0.000000,0.000000,0.000000,0.000000,0.000000,0.000000,1770371974.745006,0.000000
196.000000,11361.570521,10264.479847,-25117.795183,-4008.092464,-15665.264805,16591.163467,-10544.748371,-17775.135371,11550.956851,14288.419698,4746.683508,554.435021,9082.184325,15212.530221,-24737.614362,-8005.299628,-0.002875,-0.009313,1.008375,192.000000,0.000000,0.000000,0.000000,0.000000,0.000000,0.000000,0.000000,0.000000,0.000000,1770371974.745017,0.000000
198.000000,11365.079744,10263.138743,-25119.136288,-4008.986534,-15673.244378,16577.595958,-10546.581214,-17772.363755,11573.755631,14298.500335,4762.955578,574.350426,9090.521525,15221.962657,-24729.277161,-8000.046968,-0.002875,-0.009313,1.008375,192.000000,0.000000,0.000000,0.000000,0.000000,0.000000,0.000000,0.000000,0.000000,0.000000,1770371974.745028,0.000000
200.000000,11367.672547,10264.748068,-25116.968169,-4007.421912,-15684.532009,16581.351051,-10547.564691,-17770.799133,11553.750819,14284.061108,4754.908950,559.777088,9077.758679,15213.647808,-24748.879641,-8020.677629,-0.004438,-0.008656,1.004188,192.000000,127.500000,104.000000,127.500000,96.000000,15.500000,32.000000,0.000000,0.000000,0.000000,1770371974.745040,0.000000
202.000000,11378.021405,10277.980301,-25096.426916,-4000.068188,-15674.227855,16586.201380,-10533.259575,-17756.248147,11581.869314,14302.188373,4772.253903,579.759548,9091.303836,15232.400922,-24733.635751,-8009.077073,-0.004438,-0.008656,1.004188,192.000000,0.000000,0.000000,0.000000,0.000000,0.000000,0.000000,0.000000,0.000000,0.000000,1770371974.745052,0.000000
204.000000,11364.096268,10263.183446,-25106.172276,-4002.571583,-15669.869264,16573.885569,-10547.162360,-17773.168418,11570.380517,14295.147573,4769.616398,570.237705,9088.085185,15224.220183,-24735.937981,-8013.301553,-0.004438,-0.008656,1.004188,192.000000,0.000000,0.000000,0.000000,0.000000,0.000000,0.000000,0.000000,0.000000,0.000000,1770371974.745063,0.000000
206.000000,11373.685166,10273.800525,-25089.184950,-3998.637676,-15657.776971,16581.485162,-10534.712438,-17762.998374,11569.017061,14294.968759,4771.806869,566.907295,9094.053101,15227.461186,-24728.740719,-8007.534803,-0.004438,-0.008656,1.004188,192.000000,0.000000,0.000000,0.000000,0.000000,0.000000,0.000000,0.000000,0.000000,0.000000,1770371974.745075,0.000000
208.000000,11364.386840,10265.440972,-25093.230616,-4004.069150,-15646.087008,16583.094488,-10544.457799,-17772.117886,11579.812953,14305.742300,4773.751470,575.445661,9107.575906,15231.953887,-24707.148934,-7991.173326,-0.004438,-0.008656,1.004188,192.000000,0.000000,0.000000,0.000000,0.000000,0.000000,0.000000,0.000000,0.000000,0.000000,1770371974.745087,0.000000
210.000000,11365.124448,10259.696574,-25095.845770,-4007.243098,-15638.353305,16580.635796,-10549.643403,-17775.582406,11557.192988,14283.748184,4759.491057,554.569132,9101.160956,15217.045273,-24718.637731,-8004.025579,-0.004219,-0.010328,1.004094,192.000000,127.500000,112.000000,127.500000,80.000000,15.500000,48.000000,0.000000,0.000000,0.000000,1770371974.745098,0.000000
212.000000,11372.075840,10269.464287,-25089.475523,-4005.030275,-15635.179357,16579.495857,-10539.138083,-17764.071258,11580.930541,14297.069823,4769.057604,572.919914,9117.254212,15225.807157,-24699.839914,-7987.418233,-0.004219,-0.010328,1.004094,192.000000,0.000000,0.000000,0.000000,0.000000,0.000000,0.000000,0.000000,0.000000,0.000000,1770371974.745110,0.000000
214.000000,11351.489884,10247.760743,-25117.750480,-4017.167272,-15663.208445,16560.765095,-10558.852322,-17783.919607,11566.178389,14280.194256,4760.675700,559.888847,9100.892735,15210.675026,-24713.295664,-8000.024617,-0.004219,-0.010328,1.004094,192.000000,0.000000,0.000000,0.000000,0.000000,0.000000,0.000000,0.000000,0.000000,0.000000,1770371974.745122,0.000000
216.000000,11349.858206,10250.979394,-25118.465736,-4013.903918,-15670.092782,16562.039144,-10549.509293,-17778.622243,11553.192026,14273.533436,4756.227703,553.518600,9083.368967,15200.415576,-24726.662007,-8004.562021,-0.004219,-0.010328,1.004094,192.000000,0.000000,0.000000,0.000000,0.000000,0.000000,0.000000,0.000000,0.000000,0.000000,1770371974.745133,0.000000
218.000000,11333.340267,10234.461455,-25133.441405,-4020.229461,-15684.599064,16553.947813,-10560.439296,-17793.128525,11552.499122,14277.333233,4751.131505,557.117231,9078.161011,15203.075433,-24724.292722,-7992.670893,-0.004219,-0.010328,1.004094,192.000000,0.000000,0.000000,0.000000,0.000000,0.000000,0.000000,0.000000,0.000000,0.000000,1770371974.745153,0.000000
220.000000,11336.558919,10235.422580,-25127.160564,-4020.654144,-15679.815791,16560.653336,-10561.713345,-17794.939017,11525.073531,14259.518893,4737.161665,535.346631,9060.123153,15187.049232,-24744.789272,-8000.449300,-0.004219,-0.010328,1.004094,192.000000,0.000000,0.000000,0.000000,0.000000,0.000000,0.000000,0.000000,0.000000,0.000000,1770371974.745165,0.000000
222.000000,11360.095305,10259.629519,-25101.545465,-4013.211013,-15659.699221,16569.102296,-10544.994240,-17774.196598,11557.595319,14286.542152,4755.288929,560.000606,9080.686758,15210.205640,-24722.839859,-7985.361872,-0.002000,-0.014000,1.004000,192.000000,127.500000,120.000000,127.500000,72.000000,15.500000,48.000000,0.000000,0.000000,0.000000,1770371974.745177,0.000000
224.000000,11361.682279,10258.757801,-25105.948759,-4016.317906,-15652.546662,16563.424952,-10551.878578,-17778.376374,11561.216302,14287.927960,4760.698052,558.279521,9086.699377,15215.212430,-24723.644522,-8003.243268,-0.002000,-0.014000,1.004000,192.000000,0.000000,0.000000,0.000000,0.000000,0.000000,0.000000,0.000000,0.000000,0.000000,1770371974.745188,0.000000
