Sample_index,EXG Channel 0,EXG Channel 1,EXG Channel 2,EXG Channel 3,EXG Channel 4,EXG Channel 5,EXG Channel 6,EXG Channel 7,EXG Channel 8,EXG Channel 9,EXG Channel 10,EXG Channel 11,EXG Channel 12,EXG Channel 13,EXG Channel 14,EXG Channel 15,Accel Channel 0,Accel Channel 1,Accel Channel 2,Not Used,Digital Channel 0 (D11),Digital Channel 1 (D12),Digital Channel 2 (D13),Digital Channel 3 (D17),Not Used,Digital Channel 4 (D18),Analog Channel 0,Analog Channel 1,Analog Channel 2,Timestamp,Marker Channel
90.000000,11325.628916,10025.472644,-25685.082458,-5193.472528,-15021.623972,16436.891727,-16376.363203,-22572.512635,12194.284760,13926.142624,2297.446406,1325.681964,7831.961850,16142.854529,-24076.650927,-9087.593447,-0.002000,-0.012000,1.006000,192.000000,0.000000,0.000000,0.000000,0.000000,0.000000,0.000000,0.000000,0.000000,0.000000,1770371286.769482,101.000000
92.000000,11325.405398,10025.942031,-25680.790923,-5190.276228,-15022.294524,16427.056960,-16375.424430,-22575.127789,12178.124449,13912.329246,2285.152946,1308.582879,7819.310763,16131.298677,-24080.294261,-9105.206621,-0.002000,-0.012000,1.006000,192.000000,0.000000,0.000000,0.000000,0.000000,0.000000,0.000000,0.000000,0.000000,0.000000,1770371286.769539,0.000000
94.000000,11325.763026,10029.518310,-25675.180635,-5188.421033,-15032.553975,16425.917021,-16365.433200,-22568.377563,12189.389728,13926.589659,2295.904135,1323.826769,7827.670315,16154.969174,-24067.844339,-9096.824717,-0.004000,-0.014000,1.006000,192.000000,127.500000,112.000000,127.500000,72.000000,15.500000,56.000000,0.000000,0.000000,0.000000,1770371286.769580,0.000000
96.000000,11305.333532,10004.462004,-25696.839475,-5201.586211,-15071.401307,16412.148346,-16378.397212,-22587.421249,12168.937882,13904.573191,2285.801147,1301.922059,7797.897792,16137.691276,-24099.248540,-9116.762473,-0.004000,-0.014000,1.006000,192.000000,0.000000,0.000000,0.000000,0.000000,0.000000,0.000000,0.000000,0.000000,0.000000,1770371286.769622,0.000000
98.000000,11315.213003,10012.240411,-25685.417734,-5194.903039,-15075.581083,16397.530305,-16357.721848,-22569.606909,12160.064240,13896.392452,2284.348283,1298.815167,7778.898809,16122.022703,-24117.800488,-9123.780921,-0.004000,-0.014000,1.006000,192.000000,0.000000,0.000000,0.000000,0.000000,0.000000,0.000000,0.000000,0.000000,0.000000,1770371286.769670,0.000000
100.000000,11311.994351,10005.043150,-25691.005670,-5196.422958,-15093.171906,16385.236846,-16364.114447,-22574.099609,12179.130278,13897.822964,2293.870126,1310.549833,7787.481879,16117.775871,-24118.001654,-9113.253249,-0.004000,-0.014000,1.006000,192.000000,0.000000,0.000000,0.000000,0.000000,0.000000,0.000000,0.000000,0.000000,0.000000,1770371286.769714,0.000000
102.000000,11321.963229,10017.493071,-25678.734562,-5191.505574,-15080.185542,16389.371918,-16361.633403,-22566.701182,12164.758106,13889.843391,2288.371597,1302.011466,7806.279696,16095.826458,-24128.506974,-9121.389284,-0.004000,-0.014000,1.006000,192.000000,0.000000,0.000000,0.000000,0.000000,0.000000,0.000000,0.000000,0.000000,0.000000,1770371286.769742,0.000000
104.000000,11330.434541,10028.266612,-25658.595640,-5189.270400,-15061.097152,16413.422395,-16353.139741,-22556.911118,12189.702653,13908.954133,2305.940068,1326.710144,7826.642135,16116.702988,-24100.299072,-9097.942304,-0.006000,-0.014000,1.016000,192.000000,127.500000,104.000000,127.500000,72.000000,15.500000,96.000000,0.000000,0.000000,0.000000,1770371286.769753,0.000000
106.000000,11317.917564,10013.693275,-25678.265176,-5200.893307,-15060.784228,16398.267913,-16373.971566,-22580.514560,12178.392670,13896.772432,2295.479452,1310.080446,7814.438083,16106.778813,-24106.378747,-9105.050159,-0.006000,-0.014000,1.016000,192.000000,0.000000,0.000000,0.000000,0.000000,0.000000,0.000000,0.000000,0.000000,0.000000,1770371286.769763,0.000000
108.000000,11327.640573,10023.282173,-25663.155396,-5200.826252,-15042.679315,16409.220267,-16362.214549,-22569.383391,12186.036967,13893.106746,2291.880821,1302.994943,7823.669353,16102.889610,-24098.108601,-9102.278543,-0.006000,-0.014000,1.016000,192.000000,0.000000,0.000000,0.000000,0.000000,0.000000,0.000000,0.000000,0.000000,0.000000,1770371286.769773,0.000000
110.000000,11313.648380,10009.781719,-25682.869635,-5209.431673,-15045.652097,16417.579820,-16379.470096,-22582.883845,12202.197278,13899.655807,2297.088778,1311.265088,7820.651867,16116.859450,-24076.852092,-9089.694511,-0.006000,-0.014000,1.016000,192.000000,0.000000,0.000000,0.000000,0.000000,0.000000,0.000000,0.000000,0.000000,0.000000,1770371286.769784,0.000000
112.000000,11310.988523,10008.440615,-25690.715097,-5204.380179,-15047.395533,16435.863547,-16380.677090,-22583.353231,12176.537475,13884.546028,2279.386196,1294.747149,7804.268039,16102.621389,-24090.330194,-9101.697397,-0.006000,-0.014000,1.016000,192.000000,0.000000,0.000000,0.000000,0.000000,0.000000,0.000000,0.000000,0.000000,0.000000,1770371286.769795,0.000000
114.000000,11307.188726,10008.038283,-25689.485751,-5198.881650,-15046.210891,16422.765425,-16373.055145,-22578.726420,12188.652121,13895.900714,2284.214173,1310.236908,7821.210661,16118.424072,-24076.002726,-9093.807232,-0.006000,-0.009000,1.013000,192.000000,127.500000,104.000000,127.500000,112.000000,15.500000,72.000000,0.000000,0.000000,0.000000,1770371286.769805,0.000000
116.000000,11295.208191,9996.661245,-25704.975510,-5200.602734,-15052.357620,16413.087119,-16387.002633,-22593.947958,12164.758106,13883.003757,2267.495068,1295.976495,7793.136870,16123.050883,-24092.073630,-9109.699322,-0.006000,-0.009000,1.013000,192.000000,0.000000,0.000000,0.000000,0.000000,0.000000,0.000000,0.000000,0.000000,0.000000,1770371286.769816,0.000000
118.000000,11315.950610,10021.248164,-25680.254481,-5188.801013,-15049.742466,16430.722646,-16365.120276,-22568.757542,12172.380051,13895.431327,2274.714681,1307.934679,7790.141736,16128.236488,-24095.627558,-9110.526336,-0.006000,-0.009000,1.013000,192.000000,0.000000,0.000000,0.000000,0.000000,0.000000,0.000000,0.000000,0.000000,0.000000,1770371286.769827,0.000000
120.000000,11310.228564,10013.045074,-25688.703440,-5192.399644,-15054.011649,16420.865526,-16374.440953,-22577.653537,12190.999054,13911.256362,2290.807937,1325.056115,7812.225260,16144.307392,-24093.101811,-9105.206621,-0.006000,-0.009000,1.013000,192.000000,0.000000,0.000000,0.000000,0.000000,0.000000,0.000000,0.000000,0.000000,0.000000,1770371286.769837,0.000000
122.000000,11305.780566,10008.641780,-25692.369126,-5190.276228,-15066.305109,16394.848096,-16371.691689,-22579.620490,12170.278987,13895.833659,2280.257914,1300.737417,7785.269056,16123.386159,-24126.227096,-9124.496177,-0.006000,-0.009000,1.013000,192.000000,0.000000,0.000000,0.000000,0.000000,0.000000,0.000000,0.000000,0.000000,0.000000,1770371286.769848,0.000000
124.000000,11313.268401,10013.737978,-25679.986260,-5187.906943,-15089.349757,16387.315558,-16354.749066,-22564.734228,12177.900932,13906.316627,2292.707836,1315.266051,7802.926934,16137.467758,-24113.955988,-9117.611839,-0.006000,-0.009000,1.013000,192.000000,0.000000,0.000000,127.500000,104.000000,15.500000,72.000000,0.000000,0.000000,0.000000,1770371286.769858,0.000000
126.000000,11306.495822,10003.098548,-25690.201007,-5195.886516,-15097.955179,16382.532285,-16365.299090,-22572.758504,12181.320748,13891.363310,2289.377426,1305.118359,7818.014362,16107.270552,-24130.719797,-9138.577776,-0.006000,-0.009000,1.013000,192.000000,0.000000,0.000000,0.000000,0.000000,0.000000,0.000000,0.000000,0.000000,0.000000,1770371286.769871,0.000000
128.000000,11323.438445,10022.701028,-25666.083475,-5187.795185,-15081.325481,16398.960817,-16346.322459,-22552.329010,12191.937827,13899.052310,2297.938144,1317.300059,7792.309855,16107.583476,-24128.372863,-9138.331907,-0.006000,-0.009000,1.013000,192.000000,0.000000,0.000000,0.000000,0.000000,0.000000,0.000000,0.000000,0.000000,0.000000,1770371286.769886,0.000000
130.000000,11313.000180,10010.876955,-25676.275870,-5194.031321,-15083.314786,16397.060918,-16363.578005,-22568.198749,12201.258505,13905.422557,2306.610621,1327.604214,7814.639248,16118.602886,-24109.664453,-9116.360142,-0.006000,-0.009000,1.013000,192.000000,0.000000,0.000000,0.000000,0.000000,0.000000,0.000000,0.000000,0.000000,0.000000,1770371286.769901,0.000000
132.000000,11310.720302,10011.480452,-25679.181597,-5189.695083,-15059.353716,16417.669227,-16369.456514,-22574.300775,12173.363527,13885.484801,2289.131557,1305.073655,7809.543050,16117.395892,-24115.051224,-9106.234802,-0.006000,-0.009000,1.013000,192.000000,0.000000,0.000000,0.000000,0.000000,0.000000,0.000000,0.000000,0.000000,0.000000,1770371286.769916,0.000000
134.000000,11322.119692,10025.226775,-25665.792902,-5190.209173,-15042.165225,16448.939317,-16364.449723,-22564.980097,12195.827031,13908.574153,2297.200536,1322.418609,7837.862711,16138.630049,-24081.881235,-9075.858781,-0.006000,-0.009000,1.013000,192.000000,0.000000,0.000000,127.500000,88.000000,15.500000,40.000000,0.000000,0.000000,0.000000,1770371286.769931,0.000000
136.000000,11307.814575,10003.880859,-25679.449818,-5201.228583,-15026.966039,16444.558375,-16386.354433,-22588.158856,12198.241019,13896.168935,2287.946914,1305.163062,7823.535243,16120.078101,-24080.093095,-9084.508906,-0.006000,-0.009000,1.013000,192.000000,0.000000,0.000000,0.000000,0.000000,0.000000,0.000000,0.000000,0.000000,0.000000,1770371286.769946,0.000000
138.000000,11315.056540,10015.928449,-25667.312821,-5198.814595,-15010.649265,16457.880015,-16375.558540,-22578.704069,12195.894086,13892.212676,2283.945952,1295.842385,7827.513853,16127.632991,-24063.843377,-9094.388377,-0.006000,-0.009000,1.013000,192.000000,0.000000,0.000000,0.000000,0.000000,0.000000,0.000000,0.000000,0.000000,0.000000,1770371286.769962,0.000000
140.000000,11311.413206,10013.693275,-25684.277795,-5201.049769,-15020.439329,16444.290154,-16384.074555,-22584.604929,12201.884353,13907.277752,2291.456138,1308.091141,7837.639193,16153.002221,-24058.367200,-9095.148336,-0.006000,-0.009000,1.013000,192.000000,0.000000,0.000000,0.000000,0.000000,0.000000,0.000000,0.000000,0.000000,0.000000,1770371286.769973,0.000000
142.000000,11308.149851,10013.872089,-25696.191275,-5194.098377,-15030.609373,16429.962686,-16378.531322,-22583.107362,12178.817353,13895.386624,2279.006216,1298.189318,7803.373969,16130.069331,-24092.699479,-9115.443720,-0.006000,-0.009000,1.013000,192.000000,0.000000,0.000000,0.000000,0.000000,0.000000,0.000000,0.000000,0.000000,0.000000,1770371286.769984,0.000000
144.000000,11304.238296,10011.212231,-25683.137856,-5193.897211,-15050.681239,16415.299942,-16365.768476,-22577.340612,12182.594798,13901.555705,2282.716606,1312.114455,7835.627536,16137.400703,-24087.066840,-9104.670179,-0.004000,-0.009500,1.007500,192.000000,127.500000,120.000000,127.500000,88.000000,15.500000,40.000000,0.000000,0.000000,0.000000,1770371286.769995,0.000000
146.000000,11291.654264,9994.046091,-25701.913321,-5198.881650,-15057.990260,16377.570197,-16382.889912,-22597.211313,12171.687147,13882.936702,2271.898362,1296.200013,7799.775338,16112.813784,-24109.060956,-9128.720656,-0.004000,-0.009500,1.007500,192.000000,0.000000,0.000000,0.000000,0.000000,0.000000,0.000000,0.000000,0.000000,0.000000,1770371286.770005,0.000000
148.000000,11305.847622,10013.827385,-25684.344850,-5195.014798,-15077.212760,16375.111505,-16366.126104,-22581.967423,12178.079746,13887.027071,2274.535868,1299.530423,7793.002760,16115.898325,-24115.542962,-9136.364953,-0.004000,-0.009500,1.007500,192.000000,0.000000,0.000000,0.000000,0.000000,0.000000,0.000000,0.000000,0.000000,0.000000,1770371286.770016,0.000000
150.000000,11291.184877,10001.019836,-25698.985243,-5202.972019,-15094.110679,16354.190273,-16378.620729,-22595.177304,12173.743507,13888.189362,2277.910981,1305.498338,7793.718015,16127.700046,-24109.955026,-9127.357200,-0.004000,-0.009500,1.007500,192.000000,0.000000,0.000000,0.000000,0.000000,0.000000,0.000000,0.000000,0.000000,0.000000,1770371286.770026,0.000000
152.000000,11300.818479,10009.021760,-25691.072725,-5200.915659,-15081.504295,16375.312671,-16374.820933,-22588.203560,12155.616242,13881.103859,2266.869219,1291.796719,7776.663634,16100.319159,-24123.902514,-9138.845997,-0.004000,-0.009500,1.007500,192.000000,0.000000,0.000000,0.000000,0.000000,0.000000,0.000000,0.000000,0.000000,0.000000,1770371286.770036,0.000000
154.000000,11328.333477,10035.195653,-25670.129141,-5192.220830,-15080.789039,16392.814087,-16363.287433,-22565.605946,12195.737624,13905.511964,2289.556240,1318.037667,7806.167937,16116.188898,-24098.287415,-9104.603124,-0.004000,-0.009500,1.007500,192.000000,0.000000,0.000000,127.500000,88.000000,15.500000,88.000000,0.000000,0.000000,0.000000,1770371286.770047,0.000000
156.000000,11320.912697,10023.483339,-25684.411905,-5200.692141,-15070.440182,16426.118186,-16383.180485,-22585.811923,12192.362510,13897.063005,2290.182089,1307.085312,7808.045484,16128.057674,-24101.796639,-9094.388377,-0.004000,-0.009500,1.007500,192.000000,0.000000,0.000000,0.000000,0.000000,0.000000,0.000000,0.000000,0.000000,0.000000,1770371286.770058,0.000000
158.000000,11332.334439,10035.195653,-25673.347792,-5196.400606,-15058.794923,16441.026800,-16368.070706,-22571.685621,12197.324598,13896.481859,2291.500842,1306.079484,7810.884155,16121.888592,-24091.425430,-9092.019092,-0.004000,-0.009500,1.007500,192.000000,0.000000,0.000000,0.000000,0.000000,0.000000,0.000000,0.000000,0.000000,0.000000,1770371286.770069,0.000000
160.000000,11318.386950,10018.074217,-25689.508103,-5201.675618,-15064.226397,16427.571050,-16380.542979,-22588.225912,12206.533516,13901.354540,2293.132519,1312.449731,7813.812234,16120.368674,-24081.702421,-9099.909258,-0.004000,-0.009500,1.007500,192.000000,0.000000,0.000000,0.000000,0.000000,0.000000,0.000000,0.000000,0.000000,0.000000,1770371286.770079,0.000000
162.000000,11326.321820,10023.639801,-25687.675260,-5200.155699,-15050.614184,16426.766387,-16378.196046,-22581.810961,12179.979644,13882.154391,2281.442557,1291.953181,7811.085321,16127.320066,-24094.666433,-9126.552537,-0.004000,-0.009500,1.007500,192.000000,0.000000,0.000000,0.000000,0.000000,0.000000,0.000000,0.000000,0.000000,0.000000,1770371286.770090,0.000000
164.000000,11341.900985,10041.789417,-25671.559652,-5191.974961,-15043.707495,16425.112358,-16365.254386,-22563.102551,12212.903763,13902.606237,2301.536775,1315.400161,7820.562460,16132.148043,-24072.515854,-9117.857709,-0.001000,-0.008750,1.011750,192.000000,0.000000,8.000000,127.500000,96.000000,15.500000,96.000000,0.000000,0.000000,0.000000,1770371286.770100,0.000000
166.000000,11330.613355,10032.535795,-25691.676222,-5197.249972,-15050.904757,16423.435977,-16376.810238,-22574.434885,12201.370263,13900.795746,2290.450310,1313.835539,7820.920088,16121.776834,-24088.340889,-9133.481578,-0.001000,-0.008750,1.011750,192.000000,0.000000,0.000000,0.000000,0.000000,0.000000,0.000000,0.000000,0.000000,0.000000,1770371286.770110,0.000000
168.000000,11349.925262,10054.239339,-25662.574251,-5186.476432,-15052.961117,16411.924829,-16352.692706,-22550.049132,12204.790080,13907.970656,2306.521214,1321.166911,7818.394341,16121.687427,-24096.096944,-9134.599165,-0.001000,-0.008750,1.011750,192.000000,0.000000,0.000000,0.000000,0.000000,0.000000,0.000000,0.000000,0.000000,0.000000,1770371286.770121,0.000000
170.000000,11326.947668,10032.602851,-25681.416772,-5190.633856,-15069.233187,16397.776174,-16366.908415,-22574.904272,12213.909592,13920.800557,2310.119845,1325.950185,7828.005591,16141.044037,-24089.972566,-9122.126892,-0.001000,-0.008750,1.011750,192.000000,0.000000,0.000000,0.000000,0.000000,0.000000,0.000000,0.000000,0.000000,0.000000,1770371286.770131,0.000000
172.000000,11320.197442,10024.846795,-25685.484789,-5199.373388,-15082.867751,16383.225189,-16368.853017,-22581.587444,12176.470420,13887.764679,2282.828365,1294.166004,7800.892925,16127.677694,-24118.403985,-9135.314421,-0.001000,-0.008750,1.011750,192.000000,0.000000,0.000000,0.000000,0.000000,0.000000,0.000000,0.000000,0.000000,0.000000,1770371286.770142,0.000000
174.000000,11314.006008,10024.422112,-25679.226301,-5194.545411,-15080.543170,16379.581854,-16362.974508,-22579.151103,12192.630731,13902.338016,2286.203478,1307.666458,7799.037731,16116.233601,-24103.987110,-9121.948078,0.000500,-0.010375,1.010875,192.000000,0.000000,8.000000,127.500000,80.000000,15.500000,72.000000,0.000000,0.000000,0.000000,1770371286.770156,0.000000
176.000000,11298.158622,10009.088815,-25702.650929,-5205.073083,-15082.040737,16372.898683,-16383.269892,-22597.971272,12166.345080,13886.982368,2268.992635,1290.142690,7789.091204,16091.087889,-24115.610017,-9120.517566,0.000500,-0.010375,1.010875,192.000000,0.000000,0.000000,0.000000,0.000000,0.000000,0.000000,0.000000,0.000000,0.000000,1770371286.770175,0.000000
178.000000,11313.626029,10026.389066,-25686.825894,-5200.625086,-15094.267141,16396.904456,-16365.388497,-22581.051002,12155.325670,13881.752060,2267.718585,1291.170870,7785.961960,16104.230714,-24112.704290,-9099.842203,0.000500,-0.010375,1.010875,192.000000,0.000000,0.000000,0.000000,0.000000,0.000000,0.000000,0.000000,0.000000,0.000000,1770371286.770193,0.000000
180.000000,11300.214982,10012.933315,-25698.448801,-5208.090569,-15079.179714,16420.664361,-16379.425392,-22598.641825,12176.313958,13899.409938,2272.412452,1304.112530,7789.940571,16107.404662,-24098.823857,-9080.172668,0.000500,-0.010375,1.010875,192.000000,0.000000,0.000000,0.000000,0.000000,0.000000,0.000000,0.000000,0.000000,0.000000,1770371286.770204,0.000000
182.000000,11313.469567,10022.812786,-25689.575158,-5205.475414,-15060.516007,16426.744035,-16377.525494,-22594.193827,12154.096324,13884.456621,2255.715699,1281.358454,7775.367233,16108.768118,-24111.519648,-9094.366025,0.000500,-0.010375,1.010875,192.000000,0.000000,0.000000,0.000000,0.000000,0.000000,0.000000,0.000000,0.000000,0.000000,1770371286.770215,0.000000
184.000000,11334.480206,10040.224795,-25668.788036,-5196.288847,-15053.519911,16413.936486,-16361.834569,-22573.451409,12197.279894,13901.958037,2281.196687,1309.991039,7808.134891,16125.934258,-24081.992994,-9094.835412,0.000500,-0.010375,1.010875,192.000000,0.000000,0.000000,0.000000,0.000000,0.000000,0.000000,0.000000,0.000000,0.000000,1770371286.770226,0.000000
186.000000,11334.569613,10038.414304,-25684.210740,-5197.227621,-15049.295431,16423.994771,-16374.597415,-22579.955766,12195.000016,13895.297217,2283.700083,1303.285516,7816.807367,16116.121842,-24092.252444,-9118.058874,-0.002000,-0.012000,1.010000,192.000000,127.500000,120.000000,127.500000,80.000000,15.500000,72.000000,0.000000,0.000000,0.000000,1770371286.770236,0.000000
188.000000,11354.395611,10061.973043,-25666.105827,-5184.665940,-15036.800806,16438.456349,-16352.446837,-22551.837272,12203.225458,13913.290371,2292.730188,1313.746132,7818.617859,16128.080026,-24094.331157,-9121.724560,-0.002000,-0.012000,1.010000,192.000000,0.000000,0.000000,0.000000,0.000000,0.000000,0.000000,0.000000,0.000000,0.000000,1770371286.770247,0.000000
190.000000,11355.736715,10061.905987,-25677.751085,-5182.430766,-15047.328478,16446.726495,-16355.285508,-22549.624449,12212.546135,13922.186365,2307.415284,1334.130923,7853.419525,16146.788436,-24087.424467,-9112.001552,-0.002000,-0.012000,1.010000,192.000000,0.000000,0.000000,0.000000,0.000000,0.000000,0.000000,0.000000,0.000000,0.000000,1770371286.770257,0.000000
192.000000,11359.223587,10066.912778,-25665.681143,-5185.157679,-15057.073838,16407.566238,-16351.955098,-22546.562260,12208.902801,13918.878307,2308.845795,1325.078467,7809.766568,16134.807901,-24114.179506,-9130.128816,-0.002000,-0.012000,1.010000,192.000000,0.000000,0.000000,0.000000,0.000000,0.000000,0.000000,0.000000,0.000000,0.000000,1770371286.770268,0.000000
194.000000,11349.277061,10059.737868,-25663.200100,-5181.447289,-15056.492693,16396.077442,-16347.372991,-22549.758559,12213.395502,13930.121235,2311.416246,1335.986118,7811.085321,16128.080026,-24106.803430,-9121.791616,-0.002000,-0.012000,1.010000,192.000000,0.000000,0.000000,0.000000,0.000000,0.000000,0.000000,0.000000,0.000000,0.000000,1770371286.770288,0.000000
196.000000,11327.819386,10036.134426,-25690.558635,-5198.255801,-15089.237999,16389.170753,-16371.132895,-22580.469856,12182.147763,13899.901676,2289.846812,1309.901632,7814.683952,16123.028531,-24123.857811,-9131.984011,-0.002000,-0.012000,1.010000,192.000000,0.000000,0.000000,127.500000,112.000000,15.500000,72.000000,0.000000,0.000000,0.000000,1770371286.770298,0.000000
198.000000,11327.662924,10037.631993,-25685.395382,-5198.099339,-15089.305054,16397.575009,-16359.934671,-22572.400877,12166.032155,13896.571266,2276.748690,1299.530423,7802.323437,16111.226810,-24126.271799,-9126.641944,-0.002000,-0.012000,1.010000,192.000000,0.000000,0.000000,0.000000,0.000000,0.000000,0.000000,0.000000,0.000000,0.000000,1770371286.770308,0.000000
200.000000,11321.292677,10027.931336,-25698.180580,-5209.029342,-15092.344891,16396.233904,-16376.094982,-22585.700165,12181.007824,13891.676234,2279.788527,1302.883184,7791.169917,16108.343435,-24112.927808,-9094.678950,-0.002000,-0.012000,1.010000,192.000000,0.000000,0.000000,0.000000,0.000000,0.000000,0.000000,0.000000,0.000000,0.000000,1770371286.770319,0.000000
202.000000,11330.948631,10037.631993,-25693.620824,-5208.157624,-15084.857057,16406.336892,-16375.200912,-22578.748772,12169.899007,13882.109688,2273.284170,1285.314713,7779.971693,16100.922656,-24122.159078,-9084.888886,-0.002000,-0.012000,1.010000,192.000000,0.000000,0.000000,0.000000,0.000000,0.000000,0.000000,0.000000,0.000000,0.000000,1770371286.770329,0.000000
204.000000,11349.433523,10054.798133,-25680.343888,-5206.123615,-15059.554882,16426.431111,-16365.857883,-22565.382429,12196.139955,13904.148508,2292.953705,1310.549833,7813.476957,16110.533906,-24088.497351,-9072.997758,-0.002000,-0.012000,1.010000,192.000000,0.000000,0.000000,0.000000,0.000000,0.000000,0.000000,0.000000,0.000000,0.000000,1770371286.770339,0.000000
206.000000,11338.838796,10040.135388,-25683.517836,-5213.097359,-15042.411094,16420.127919,-16382.174657,-22587.644766,12195.894086,13901.242781,2286.091719,1298.211670,7829.436103,16106.242371,-24085.010479,-9106.704188,-0.002000,-0.010000,1.000000,192.000000,127.500000,120.000000,127.500000,88.000000,15.500000,32.000000,0.000000,0.000000,0.000000,1770371286.770350,0.000000
208.000000,11365.549131,10067.985662,-25657.746274,-5193.025493,-15028.843585,16433.963649,-16358.280642,-22560.040362,12213.037874,13908.328284,2289.153908,1293.137824,7820.584812,16122.782662,-24078.170845,-9115.689589,-0.002000,-0.010000,1.000000,192.000000,0.000000,0.000000,0.000000,0.000000,0.000000,0.000000,0.000000,0.000000,0.000000,1770371286.770361,0.000000
210.000000,11366.018518,10072.008976,-25682.288490,-5189.002179,-15026.116672,16460.986908,-16366.394325,-22560.308583,12211.674417,13940.559499,2308.532871,1334.645013,7839.203815,16143.592136,-24072.158226,-9112.135662,-0.002000,-0.010000,1.000000,192.000000,0.000000,0.000000,0.000000,0.000000,0.000000,0.000000,0.000000,0.000000,0.000000,1770371287.250480,0.000000
212.000000,11386.313902,10090.247999,-25662.686010,-5189.426862,-15014.493765,16462.417419,-16359.286470,-22540.527289,12245.336145,13934.993915,2313.651420,1322.977403,7856.414659,16150.342363,-24101.059032,-9123.289183,-0.002000,-0.010000,1.000000,192.000000,0.000000,0.000000,0.000000,0.000000,0.000000,0.000000,0.000000,0.000000,0.000000,1770371287.250537,0.000000
214.000000,11402.831841,10109.224631,-25643.776434,-5165.286978,-15025.826100,16460.070486,-16341.717999,-22516.432108,12255.483837,13965.504046,2344.206255,1357.957883,7857.219321,16176.717422,-24085.390459,-9104.759586,-0.002000,-0.010000,1.000000,192.000000,0.000000,0.000000,0.000000,0.000000,0.000000,0.000000,0.000000,0.000000,0.000000,1770371287.250580,0.000000
216.000000,11389.778422,10093.243133,-25664.585908,-5179.592094,-15038.521890,16447.240585,-16360.046430,-22537.398045,12246.297270,13960.430200,2344.608586,1351.632339,7853.173656,16148.710686,-24106.468154,-9112.537993,-0.004000,-0.006000,1.000000,192.000000,127.500000,112.000000,127.500000,104.000000,15.500000,32.000000,0.000000,0.000000,0.000000,1770371287.250621,0.000000
218.000000,11393.377053,10097.020578,-25652.761835,-5170.941969,-15044.825082,16440.445654,-16344.422560,-22529.999617,12250.477046,13953.791732,2339.780610,1338.020127,7873.223170,16160.892387,-24107.362224,-9103.105557,-0.004000,-0.006000,1.000000,192.000000,0.000000,0.000000,0.000000,0.000000,0.000000,0.000000,0.000000,0.000000,0.000000,1770371287.250671,0.000000
220.000000,11366.487904,10068.209179,-25671.269080,-5203.150833,-15053.497559,16448.112303,-16365.589662,-22560.979135,12248.375982,13954.261119,2328.940014,1338.645975,7843.472999,16165.943881,-24094.755840,-9100.468051,-0.004000,-0.006000,1.000000,192.000000,0.000000,0.000000,0.000000,0.000000,0.000000,0.000000,0.000000,0.000000,0.000000,1770371287.250708,0.000000
222.000000,11344.940823,10047.176188,-25686.356507,-5199.574554,-15054.950423,16408.773233,-16372.317537,-22577.362964,12226.806548,13919.280639,2303.771949,1308.426417,7823.110559,16098.016929,-24117.934599,-9122.462168,-0.004000,-0.006000,1.000000,192.000000,0.000000,0.000000,0.000000,0.000000,0.000000,0.000000,0.000000,0.000000,0.000000,1770371287.250733,0.000000
224.000000,11330.121616,10028.735999,-25697.532379,-5208.045865,-15072.764763,16383.828686,-16375.536189,-22589.991699,12200.967932,13902.114499,2290.874993,1300.245678,7830.307821,16105.974150,-24099.561465,-9090.543877,-0.004000,-0.006000,1.000000,192.000000,0.000000,0.000000,0.000000,0.000000,0.000000,0.000000,0.000000,0.000000,0.000000,1770371287.250744,0.000000
226.000000,11303.344226,10003.567934,-25703.790868,-5224.317935,-15086.958121,16376.184389,-16396.993863,-22615.852668,12146.720248,13873.593673,2262.331815,1264.371129,7781.826887,16082.035432,-24109.239770,-9088.040482,0.002000,-0.010000,1.004000,192.000000,0.000000,8.000000,127.500000,88.000000,15.500000,48.000000,0.000000,0.000000,0.000000,1770371287.250762,0.000000
228.000000,11336.402456,10033.698086,-25688.994013,-5220.115807,-15061.723001,16398.647892,-16373.345718,-22583.375583,12202.018464,13881.394432,2276.703987,1278.765652,7802.345789,16075.285205,-24097.169828,-9098.366988,0.002000,-0.010000,1.004000,192.000000,0.000000,0.000000,0.000000,0.000000,0.000000,0.000000,0.000000,0.000000,0.000000,1770371287.250773,0.000000
230.000000,11340.112846,10041.945880,-25687.384687,-5217.120673,-15049.206024,16414.450576,-16380.028889,-22584.515522,12195.715272,13904.975522,2294.428920,1301.363266,7843.428295,16109.684540,-24070.683011,-9103.418482,0.002000,-0.010000,1.004000,192.000000,0.000000,0.000000,0.000000,0.000000,0.000000,0.000000,0.000000,0.000000,0.000000,1770371287.250783,0.000000
232.000000,11370.466515,10071.651348,-25671.604356,-5205.475414,-15023.903850,16434.142463,-16367.310747,-22556.128807,12214.446034,13913.200964,2291.590249,1295.127129,7832.118312,16133.533851,-24079.869578,-9124.943212,0.002000,-0.010000,1.004000,192.000000,0.000000,0.000000,0.000000,0.000000,0.000000,0.000000,0.000000,0.000000,0.000000,1770371287.250794,0.000000
234.000000,11389.085518,10092.617284,-25659.310896,-5175.926408,-15027.994219,16446.525329,-16348.870557,-22534.626428,12237.848310,13951.444799,2328.649441,1340.098839,7842.489522,16138.697104,-24064.178653,-9105.608953,0.002000,-0.010000,1.004000,192.000000,0.000000,0.000000,0.000000,0.000000,0.000000,0.000000,0.000000,0.000000,0.000000,1770371287.250804,0.000000
236.000000,11383.050547,10087.342273,-25684.210740,-5181.089661,-15050.815350,16451.822692,-16361.186369,-22545.042341,12252.734572,13955.401058,2320.491054,1347.474914,7836.588661,16131.142215,-24093.951177,-9114.259078,0.006000,-0.012000,1.006000,192.000000,0.000000,24.000000,127.500000,80.000000,15.500000,56.000000,0.000000,0.000000,0.000000,1770371287.250815,0.000000
238.000000,11382.245884,10086.135278,-25679.896853,-5177.200458,-15045.629745,16447.084123,-16348.311764,-22537.733321,12205.885316,13946.862691,2312.779702,1344.613891,7857.152266,16144.575613,-24116.280570,-9116.918935,0.006000,-0.012000,1.006000,192.000000,0.000000,0.000000,0.000000,0.000000,0.000000,0.000000,0.000000,0.000000,0.000000,1770371287.250825,0.000000
240.000000,11353.970927,10056.116886,-25676.767609,-5200.580382,-15078.866789,16422.206631,-16368.338927,-22566.790589,12225.465444,13942.749970,2322.010973,1323.893824,7822.529414,16158.768971,-24103.070689,-9110.503985,0.006000,-0.012000,1.006000,192.000000,0.000000,0.000000,0.000000,0.000000,0.000000,0.000000,0.000000,0.000000,0.000000,1770371287.250836,0.000000
242.000000,11356.809599,10060.877807,-25691.139780,-5205.788339,-15085.974644,16416.059901,-16370.037659,-22566.879996,12188.830935,13925.427368,2295.144176,1306.146539,7810.168899,16117.284133,-24128.730491,-9124.719694,0.006000,-0.012000,1.006000,192.000000,0.000000,0.000000,0.000000,0.000000,0.000000,0.000000,0.000000,0.000000,0.000000,1770371287.250846,0.000000
244.000000,11348.584157,10053.032345,-25683.719001,-5186.096452,-15092.031967,16423.123052,-16363.354488,-22569.897481,12212.747301,13918.543031,2295.255935,1324.117342,7806.234992,16120.994523,-24113.643064,-9101.853860,0.006000,-0.012000,1.006000,192.000000,0.000000,0.000000,0.000000,0.000000,0.000000,0.000000,0.000000,0.000000,0.000000,1770371287.250856,0.000000
246.000000,11332.155625,10036.380295,-25708.328272,-5198.591077,-15079.380879,16404.504049,-16382.755802,-22589.499961,12184.226475,13907.613028,2277.195725,1301.273859,7795.774376,16099.670958,-24125.020102,-9098.903429,0.002000,-0.014000,1.000000,192.000000,0.000000,8.000000,127.500000,72.000000,15.500000,32.000000,0.000000,0.000000,0.000000,1770371287.250866,0.000000
248.000000,11348.628861,10051.981813,-25691.072725,-5200.647438,-15076.341042,16425.581744,-16366.573139,-22570.791551,12227.812377,13903.992045,2277.262780,1304.313696,7824.406961,16114.154889,-24122.784927,-9083.212505,0.002000,-0.014000,1.000000,192.000000,0.000000,0.000000,0.000000,0.000000,0.000000,0.000000,0.000000,0.000000,0.000000,1770371287.250877,0.000000
250.000000,11329.808692,10034.972135,-25697.711193,-5209.565784,-15083.337138,16422.005465,-16382.934616,-22589.254092,12184.762917,13914.922048,2292.014932,1313.209690,7763.274939,16112.210287,-24107.652796,-9067.722746,0.002000,-0.014000,1.000000,192.000000,0.000000,0.000000,0.000000,0.000000,0.000000,0.000000,0.000000,0.000000,0.000000,1770371287.250889,0.000000
252.000000,11337.743561,10043.666964,-25697.442972,-5204.693103,-15070.261368,16439.395122,-16381.638215,-22586.370717,12172.916493,13892.458545,2268.478545,1290.142690,7788.063024,16116.300656,-24114.045395,-9074.942359,0.002000,-0.014000,1.000000,192.000000,0.000000,0.000000,0.000000,0.000000,0.000000,0.000000,0.000000,0.000000,0.000000,1770371287.250899,0.000000
254.000000,11349.612337,10058.754392,-25693.352603,-5196.490013,-15033.828024,16433.784835,-16368.718906,-22574.524292,12190.082632,13927.327267,2279.766176,1316.361286,7799.574172,16122.805014,-24083.892892,-9072.885999,0.002000,-0.014000,1.000000,192.000000,0.000000,0.000000,0.000000,0.000000,0.000000,0.000000,0.000000,0.000000,0.000000,1770371287.250909,0.000000
0.000000,11354.172093,10057.882673,-25698.202932,-5196.042978,-15045.719152,16394.423413,-16376.564369,-22571.864435,12214.513089,13914.966752,2280.324969,1305.207766,7811.957039,16111.003293,-24086.731563,-9086.788784,0.003000,-0.013000,1.004000,192.000000,0.000000,16.000000,127.500000,80.000000,15.500000,64.000000,0.000000,0.000000,0.000000,1770371287.250920,0.000000
2.000000,11378.043756,10082.916627,-25663.378914,-5184.218905,-15041.517024,16423.972419,-16351.619822,-22541.846042,12231.008676,13933.094017,2312.153853,1330.398182,7807.263173,16126.783625,-24085.882197,-9102.949095,0.003000,-0.013000,1.004000,192.000000,0.000000,0.000000,0.000000,0.000000,0.000000,0.000000,0.000000,0.000000,0.000000,1770371287.250930,0.000000
4.000000,11367.739602,10071.807810,-25674.934766,-5195.439481,-15062.035926,16411.120166,-16362.438066,-22555.771179,12232.908575,13938.369028,2322.525063,1340.188246,7807.598449,16118.513479,-24084.451685,-9108.984066,0.003000,-0.013000,1.004000,192.000000,0.000000,0.000000,0.000000,0.000000,0.000000,0.000000,0.000000,0.000000,0.000000,1770371287.250941,0.000000
6.000000,11360.229416,10067.270406,-25683.316670,-5195.148909,-15064.941652,16410.784890,-16361.633403,-22562.588461,12196.072900,13918.163051,2299.435711,1314.550795,7803.306914,16116.613581,-24113.754822,-9129.033581,0.003000,-0.013000,1.004000,192.000000,0.000000,0.000000,0.000000,0.000000,0.000000,0.000000,0.000000,0.000000,0.000000,1770371287.250951,0.000000
8.000000,11357.636614,10066.219874,-25684.188388,-5188.063406,-15054.078705,16434.947125,-16354.771418,-22560.710914,12200.990284,13937.385552,2296.082949,1333.929757,7808.604277,16120.793357,-24106.222285,-9109.296991,0.003000,-0.013000,1.004000,192.000000,0.000000,0.000000,0.000000,0.000000,0.000000,0.000000,0.000000,0.000000,0.000000,1770371287.250962,0.000000
10.000000,11331.395666,10039.218967,-25699.052298,-5201.943839,-15092.076670,16413.936486,-16379.626558,-22589.924644,12192.116641,13914.542069,2284.325932,1306.638277,7787.705396,16107.941104,-24123.500183,-9110.325171,0.002500,-0.015500,1.004000,192.000000,0.000000,8.000000,127.500000,56.000000,15.500000,48.000000,0.000000,0.000000,0.000000,1770371287.250972,0.000000
12.000000,11343.979698,10052.182979,-25694.649004,-5195.193612,-15109.667493,16391.584741,-16366.640194,-22577.251205,12196.877563,13902.896810,2274.714681,1299.038684,7802.703417,16105.258895,-24129.021064,-9101.362121,0.002500,-0.015500,1.004000,192.000000,0.000000,0.000000,0.000000,0.000000,0.000000,0.000000,0.000000,0.000000,0.000000,1770371287.250983,0.000000
14.000000,11326.679447,10037.296717,-25707.165981,-5204.760159,-15106.270028,16415.814032,-16380.610035,-22591.444563,12183.824144,13911.546935,2280.704949,1304.850138,7780.888114,16094.932389,-24120.616808,-9085.425327,0.002500,-0.015500,1.004000,192.000000,0.000000,0.000000,0.000000,0.000000,0.000000,0.000000,0.000000,0.000000,0.000000,1770371287.250993,0.000000
16.000000,11337.676506,10043.734019,-25701.287472,-5208.962287,-15084.052394,16436.377637,-16377.950177,-22583.889673,12177.140972,13895.967769,2272.747728,1288.175736,7772.148582,16085.298787,-24132.016198,-9088.174592,0.002500,-0.015500,1.004000,192.000000,0.000000,0.000000,0.000000,0.000000,0.000000,0.000000,0.000000,0.000000,0.000000,1770371287.251004,0.000000
18.000000,11340.783398,10048.874920,-25691.586815,-5206.861223,-15068.182655,16432.823710,-16371.132895,-22578.815827,12194.485926,13913.759758,2287.097548,1305.386580,7790.499364,16114.043130,-24100.433183,-9062.112458,0.002500,-0.015500,1.004000,192.000000,0.000000,0.000000,0.000000,0.000000,0.000000,0.000000,0.000000,0.000000,0.000000,1770371287.251014,0.000000
20.000000,11322.812596,10026.903156,-25723.013368,-5220.272269,-15050.681239,16460.361059,-16394.803392,-22605.280293,12176.984510,13890.603350,2269.953760,1287.773405,7764.392527,16089.165639,-24112.793697,-9065.152295,0.002250,-0.017750,1.005000,192.000000,0.000000,8.000000,127.500000,48.000000,15.500000,56.000000,0.000000,0.000000,0.000000,1770371287.251025,0.000000
22.000000,11333.742599,10038.526063,-25699.901664,-5213.477339,-15062.572367,16429.515651,-16375.603244,-22589.455258,12175.777516,13892.615007,2267.249199,1287.683998,7785.805498,16085.388194,-24104.836476,-9073.131868,0.002250,-0.017750,1.005000,192.000000,0.000000,0.000000,0.000000,0.000000,0.000000,0.000000,0.000000,0.000000,0.000000,1770371287.251036,0.000000
24.000000,11324.511328,10028.110150,-25706.182504,-5207.643534,-15077.346871,16402.917076,-16383.560465,-22600.139391,12187.378071,13898.180592,2271.764251,1293.361341,7783.190344,16105.460060,-24088.631462,-9055.272824,0.002250,-0.017750,1.005000,192.000000,0.000000,0.000000,0.000000,0.000000,0.000000,0.000000,0.000000,0.000000,0.000000,1770371287.251046,0.000000
26.000000,11334.480206,10034.502749,-25694.961929,-5209.811653,-15043.618088,16518.520298,-16376.363203,-22592.539798,12173.967025,13893.062042,2265.706928,1277.938637,7783.972655,16086.550484,-24107.652796,-9079.680929,0.002250,-0.017750,1.005000,192.000000,0.000000,0.000000,0.000000,0.000000,0.000000,0.000000,0.000000,0.000000,0.000000,1770371287.251058,0.000000
28.000000,11360.140009,10061.101325,-25683.473132,-5196.132385,-15023.903850,16436.891727,-16359.599395,-22567.014106,12212.166156,13917.425444,2291.277324,1302.547908,7823.602298,16097.882819,-24098.041546,-9072.282502,0.002250,-0.017750,1.005000,192.000000,0.000000,0.000000,0.000000,0.000000,0.000000,0.000000,0.000000,0.000000,0.000000,1770371287.251071,0.000000
30.000000,11349.455875,10049.053734,-25696.928882,-5193.874859,-15059.688992,16404.191125,-16374.239787,-22580.827484,12204.544211,13912.575115,2289.310371,1305.051304,7793.896829,16103.806031,-24117.889895,-9084.285389,0.002250,-0.017750,1.005000,192.000000,0.000000,0.000000,127.500000,56.000000,15.500000,72.000000,0.000000,0.000000,0.000000,1770371287.251083,0.000000
32.000000,11356.876654,10062.353022,-25683.271966,-5187.012874,-15073.256501,16422.497204,-16355.419619,-22565.002449,12209.215726,13914.184441,2288.684522,1303.933716,7807.486690,16118.669941,-24117.107584,-9079.323301,0.002250,-0.017750,1.005000,192.000000,0.000000,0.000000,0.000000,0.000000,0.000000,0.000000,0.000000,0.000000,0.000000,1770371287.251093,0.000000
34.000000,11331.440369,10038.615470,-25698.672318,-5198.166394,-15074.508199,16423.078349,-16371.088191,-22587.220083,12207.226420,13917.894830,2293.199574,1315.646030,7800.155318,16113.193764,-24111.385538,-9074.920008,0.002250,-0.017750,1.005000,192.000000,0.000000,0.000000,0.000000,0.000000,0.000000,0.000000,0.000000,0.000000,0.000000,1770371287.251104,0.000000
36.000000,11320.733883,10027.841929,-25704.059089,-5202.972019,-15083.314786,16447.128826,-16379.179523,-22602.016938,12160.019536,13887.451755,2264.142306,1281.537268,7778.071794,16085.835229,-24124.483660,-9097.249400,0.002250,-0.017750,1.005000,192.000000,0.000000,0.000000,0.000000,0.000000,0.000000,0.000000,0.000000,0.000000,0.000000,1770371287.251114,0.000000
38.000000,11327.662924,10034.703914,-25699.298167,-5197.831118,-15080.386708,16420.440843,-16373.703346,-22590.103458,12195.089423,13899.856973,2264.835210,1299.843347,7800.334132,16086.528133,-24104.680014,-9075.881133,0.002250,-0.017750,1.005000,192.000000,0.000000,0.000000,0.000000,0.000000,0.000000,0.000000,0.000000,0.000000,0.000000,1770371287.251125,0.000000
40.000000,11312.016703,10020.868185,-25726.589647,-5209.096397,-15074.642310,16461.970384,-16397.776174,-22614.265694,12164.691051,13883.853124,2251.245350,1284.398292,7761.710317,16079.710851,-24111.296131,-9068.125077,-0.001875,-0.015875,1.008500,192.000000,127.500000,104.000000,127.500000,72.000000,15.500000,80.000000,0.000000,0.000000,0.000000,1770371287.251135,0.000000
42.000000,11321.091511,10028.914813,-25709.758784,-5209.901060,-15068.003841,16416.439881,-16381.705270,-22603.715671,12177.520952,13885.149525,2251.021832,1285.091196,7796.511983,16086.617540,-24107.250465,-9058.625586,-0.001875,-0.015875,1.008500,192.000000,0.000000,0.000000,0.000000,0.000000,0.000000,0.000000,0.000000,0.000000,0.000000,1770371287.251145,0.000000
44.000000,11308.127500,10018.901231,-25733.496336,-5220.473435,-15071.446010,16422.206631,-16391.920017,-22618.758395,12160.466571,13886.691795,2250.127763,1276.217553,7809.118367,16114.087834,-24093.817066,-9046.175664,-0.001875,-0.015875,1.008500,192.000000,0.000000,0.000000,0.000000,0.000000,0.000000,0.000000,0.000000,0.000000,0.000000,1770371287.251156,0.000000
46.000000,11323.639610,10032.960478,-25713.290359,-5202.457929,-15080.677281,16423.413625,-16377.167866,-22600.429964,12156.711478,13891.519772,2245.523303,1278.072748,7790.678178,16075.084040,-24126.271799,-9080.977330,-0.001875,-0.015875,1.008500,192.000000,0.000000,0.000000,0.000000,0.000000,0.000000,0.000000,0.000000,0.000000,0.000000,1770371287.251166,0.000000
48.000000,11345.410209,10052.674717,-25694.805467,-5197.875821,-15055.419809,16433.203689,-16359.755857,-22578.547606,12188.741528,13899.029958,2273.686501,1298.837519,7814.326324,16113.305523,-24108.300997,-9090.096842,-0.001875,-0.015875,1.008500,192.000000,0.000000,0.000000,0.000000,0.000000,0.000000,0.000000,0.000000,0.000000,0.000000,1770371287.251177,0.000000
50.000000,11347.824198,10056.072182,-25690.312766,-5199.798071,-15052.379972,16447.933489,-16368.450686,-22578.726420,12221.933868,13910.988141,2285.689388,1304.604269,7798.233068,16112.053825,-24108.613921,-9111.085130,-0.004938,-0.016938,1.011250,192.000000,127.500000,96.000000,127.500000,56.000000,15.500000,88.000000,0.000000,0.000000,0.000000,1770371287.251188,0.000000
52.000000,11378.848419,10082.536648,-25663.110693,-5187.459908,-15049.787170,16436.422340,-16346.948307,-22550.540870,12206.779385,13919.437101,2298.586345,1315.444865,7810.347713,16131.723360,-24106.758726,-9115.778996,-0.004938,-0.016938,1.011250,192.000000,0.000000,0.000000,0.000000,0.000000,0.000000,0.000000,0.000000,0.000000,0.000000,1770371287.251198,0.000000
54.000000,11371.449992,10080.256770,-25686.490618,-5183.727167,-15055.822141,16434.209518,-16358.213587,-22559.682734,12233.176796,13935.329191,2321.630993,1332.029859,7836.029868,16122.067406,-24099.963796,-9101.652694,-0.004938,-0.016938,1.011250,192.000000,0.000000,0.000000,0.000000,0.000000,0.000000,0.000000,0.000000,0.000000,0.000000,1770371287.251209,0.000000
56.000000,11376.702652,10080.592046,-25688.323461,-5186.677597,-15080.185542,16416.104605,-16357.878310,-22561.090894,12204.723025,13920.465281,2296.328818,1321.301022,7807.330228,16104.498935,-24122.583762,-9121.121063,-0.004938,-0.016938,1.011250,192.000000,0.000000,0.000000,0.000000,0.000000,0.000000,0.000000,0.000000,0.000000,0.000000,1770371287.251219,0.000000
58.000000,11382.603512,10090.404462,-25678.667507,-5188.443385,-15097.664606,16399.407852,-16349.496406,-22549.311525,12218.603458,13939.508967,2310.633935,1334.689717,7818.416693,16114.803089,-24114.693596,-9114.169671,-0.004938,-0.016938,1.011250,192.000000,0.000000,0.000000,0.000000,0.000000,0.000000,0.000000,0.000000,0.000000,0.000000,1770371287.251231,0.000000
60.000000,11356.027288,10062.688299,-25700.706327,-5203.150833,-15105.554772,16412.125994,-16374.865636,-22578.100571,12230.583993,13925.181499,2305.783606,1320.608118,7801.004684,16096.720528,-24136.330084,-9119.891717,-0.005469,-0.015469,1.011625,192.000000,127.500000,104.000000,127.500000,72.000000,15.500000,80.000000,0.000000,0.000000,0.000000,1770371287.251242,0.000000
62.000000,11358.709497,10071.383127,-25699.164057,-5201.519156,-15076.162228,16415.992846,-16368.137761,-22574.390182,12193.100118,13908.149470,2285.197650,1303.017295,7816.650905,16112.366749,-24119.432166,-9100.602162,-0.005469,-0.015469,1.011625,192.000000,0.000000,0.000000,0.000000,0.000000,0.000000,0.000000,0.000000,0.000000,0.000000,1770371287.251252,0.000000
64.000000,11350.618166,10062.330671,-25717.693653,-5200.178051,-15090.243827,16401.441860,-16383.404003,-22589.142333,12228.549985,13930.322400,2280.369673,1324.631432,7829.570214,16101.839078,-24104.434145,-9074.070641,-0.005469,-0.015469,1.011625,192.000000,0.000000,0.000000,0.000000,0.000000,0.000000,0.000000,0.000000,0.000000,0.000000,1770371287.251262,0.000000
66.000000,11340.626936,10054.619319,-25720.442917,-5199.574554,-15094.557714,16409.510840,-16383.716927,-22597.390127,12171.821257,13905.735481,2267.360958,1294.702446,7749.439210,16078.325043,-24123.343721,-9089.158069,-0.005469,-0.015469,1.011625,192.000000,0.000000,0.000000,0.000000,0.000000,0.000000,0.000000,0.000000,0.000000,0.000000,1770371287.251273,0.000000
68.000000,11331.596831,10049.187845,-25707.031871,-5208.470548,-15079.626749,16422.497204,-16378.441915,-22599.379432,12199.380958,13913.379778,2261.057766,1303.531385,7772.193285,16110.399796,-24100.053203,-9074.070641,-0.005469,-0.015469,1.011625,192.000000,0.000000,0.000000,0.000000,0.000000,0.000000,0.000000,0.000000,0.000000,0.000000,1770371287.251284,0.000000
70.000000,11327.573517,10038.190787,-25723.125127,-5221.166339,-15082.197199,16403.386462,-16390.154229,-22609.057737,12180.136106,13890.782164,2253.636986,1281.894896,7772.394451,16078.883836,-24108.591569,-9100.780976,-0.005469,-0.015469,1.011625,192.000000,0.000000,0.000000,0.000000,0.000000,0.000000,0.000000,0.000000,0.000000,0.000000,1770371287.251294,0.000000
72.000000,11350.662869,10062.509485,-25686.892949,-5208.135272,-15077.570388,16403.252352,-16361.566348,-22577.050039,12200.655007,13902.919162,2274.066481,1289.919173,7780.686948,16087.802182,-24107.831610,-9122.037485,0.004000,-0.010000,1.008000,192.000000,0.000000,16.000000,127.500000,88.000000,15.500000,64.000000,0.000000,0.000000,0.000000,1770371287.251304,0.000000
74.000000,11352.026326,10062.867113,-25695.766592,-5209.699894,-15091.428470,16393.059956,-16366.707249,-22577.295909,12208.969856,13919.839432,2287.969266,1321.166911,7792.287504,16100.922656,-24102.288378,-9122.640982,0.004000,-0.010000,1.008000,192.000000,0.000000,0.000000,0.000000,0.000000,0.000000,0.000000,0.000000,0.000000,0.000000,1770371287.731360,0.000000
76.000000,11361.034079,10072.254845,-25692.570292,-5203.866089,-15089.215647,16406.962741,-16363.466247,-22570.545682,12199.626827,13912.373950,2284.638856,1307.062961,7777.960036,16105.482412,-24123.522535,-9143.450456,0.004000,-0.010000,1.008000,192.000000,0.000000,0.000000,0.000000,0.000000,0.000000,0.000000,0.000000,0.000000,0.000000,1770371287.731464,0.000000
78.000000,11375.808582,10083.944808,-25675.962946,-5200.245106,-15093.238961,16403.632331,-16350.412828,-22553.714818,12239.927022,13932.490520,2305.314220,1331.292252,7826.977411,16091.780793,-24112.033738,-9138.957755,0.004000,-0.010000,1.008000,192.000000,0.000000,0.000000,0.000000,0.000000,0.000000,0.000000,0.000000,0.000000,0.000000,1770371287.731552,0.000000
80.000000,11360.967023,10070.064374,-25691.139780,-5203.486109,-15084.074746,16398.156154,-16368.003651,-22571.931490,12223.453787,13923.371008,2302.073217,1319.714048,7806.704379,16090.193819,-24124.975398,-9141.371744,0.004000,-0.010000,1.008000,192.000000,0.000000,0.000000,0.000000,0.000000,0.000000,0.000000,0.000000,0.000000,0.000000,1770371287.731640,0.000000
82.000000,11379.116640,10090.203296,-25676.119408,-5184.822403,-15084.119449,16395.071613,-16350.479883,-22551.613754,12233.132092,13929.160110,2305.984772,1323.066810,7808.760739,16107.717586,-24121.756747,-9129.301802,0.002000,-0.016000,1.008000,192.000000,0.000000,8.000000,127.500000,64.000000,15.500000,64.000000,0.000000,0.000000,0.000000,1770371287.731728,0.000000
84.000000,11370.622977,10083.676587,-25692.682051,-5183.034263,-15083.515952,16405.107546,-16367.601319,-22565.740057,12242.720991,13947.823816,2312.712647,1340.009432,7814.303972,16129.152909,-24111.340834,-9104.223145,0.002000,-0.016000,1.008000,192.000000,0.000000,0.000000,0.000000,0.000000,0.000000,0.000000,0.000000,0.000000,0.000000,1770371287.731815,0.000000
86.000000,11360.207064,10072.880694,-25698.404097,-5190.097414,-15074.374089,16407.633294,-16375.759706,-22574.591348,12210.690941,13931.842319,2293.981885,1321.390429,7805.162109,16108.522249,-24120.661512,-9105.854822,0.002000,-0.016000,1.008000,192.000000,0.000000,0.000000,0.000000,0.000000,0.000000,0.000000,0.000000,0.000000,0.000000,1770371287.731857,0.000000
88.000000,11356.541378,10071.070203,-25696.481847,-5197.428786,-15079.671452,16408.952047,-16370.998784,-22576.312432,12227.275935,13930.925897,2293.847775,1326.330164,7805.966771,16102.420223,-24096.074593,-9076.708147,0.002000,-0.016000,1.008000,192.000000,0.000000,0.000000,0.000000,0.000000,0.000000,0.000000,0.000000,0.000000,0.000000,1770371287.731946,0.000000
90.000000,11325.092474,10038.749580,-25722.856906,-5215.444292,-15083.694766,16424.017122,-16394.669282,-22606.934322,12191.066109,13912.485708,2266.310426,1297.496414,7783.838544,16089.344453,-24108.882142,-9076.194057,0.002000,-0.016000,1.008000,192.000000,0.000000,0.000000,0.000000,0.000000,0.000000,0.000000,0.000000,0.000000,0.000000,1770371287.731980,0.000000
92.000000,11332.289735,10048.360830,-25708.887066,-5211.555089,-15069.344946,16432.980172,-16379.425392,-22593.120944,12188.540362,13893.173801,2259.046109,1284.018312,7771.254512,16088.517438,-24099.449706,-9069.935569,0.002000,-0.020000,1.006000,192.000000,0.000000,8.000000,127.500000,48.000000,15.500000,56.000000,0.000000,0.000000,0.000000,1770371287.732003,0.000000
94.000000,11324.891308,10041.163569,-25718.364205,-5211.622144,-15093.328368,16414.025892,-16384.633349,-22597.770107,12193.278932,13909.490575,2267.249199,1298.569298,7765.577169,16097.972226,-24100.455535,-9068.795630,0.002000,-0.020000,1.006000,192.000000,0.000000,0.000000,0.000000,0.000000,0.000000,0.000000,0.000000,0.000000,0.000000,1770371287.732026,0.000000
96.000000,11339.531701,10052.987641,-25709.267045,-5209.878708,-15106.180621,16404.369939,-16376.765534,-22584.917853,12174.056432,13902.136851,2264.455231,1289.740359,7776.194248,16077.475676,-24126.562372,-9098.590505,0.002000,-0.020000,1.006000,192.000000,0.000000,0.000000,0.000000,0.000000,0.000000,0.000000,0.000000,0.000000,0.000000,1770371287.732050,0.000000
98.000000,11352.473361,10066.510447,-25695.341908,-5205.408359,-15098.916304,16403.609980,-16359.755857,-22566.388257,12216.345932,13905.489612,2292.663132,1311.980344,7802.636361,16104.677749,-24114.715947,-9107.821775,0.002000,-0.020000,1.006000,192.000000,0.000000,0.000000,0.000000,0.000000,0.000000,0.000000,0.000000,0.000000,0.000000,1770371287.732074,0.000000
100.000000,11349.053544,10060.654290,-25704.461420,-5217.120673,-15089.997958,16394.468116,-16374.887988,-22577.921757,12199.068034,13918.185403,2284.772966,1313.477911,7787.750100,16078.414450,-24126.875296,-9144.255119,0.002000,-0.020000,1.006000,192.000000,0.000000,0.000000,0.000000,0.000000,0.000000,0.000000,0.000000,0.000000,0.000000,1770371287.732097,0.000000
102.000000,11364.453896,10075.495848,-25682.444952,-5204.737807,-15117.334141,16371.132895,-16353.720886,-22555.435903,12213.082577,13907.009531,2297.312295,1314.684905,7785.067890,16082.795391,-24130.317465,-9155.430991,0.002000,-0.020000,1.006000,192.000000,0.000000,0.000000,127.500000,80.000000,15.500000,56.000000,0.000000,0.000000,0.000000,1770371287.732117,0.000000
104.000000,11365.683242,10078.647444,-25691.743278,-5199.462795,-15097.351682,16357.475979,-16364.896758,-22561.806150,12228.147653,13924.578002,2309.941031,1333.482722,7806.883193,16104.923618,-24121.153250,-9142.109351,0.002000,-0.020000,1.006000,192.000000,0.000000,0.000000,0.000000,0.000000,0.000000,0.000000,0.000000,0.000000,0.000000,1770371287.732129,0.000000
106.000000,11362.911625,10075.898180,-25693.106734,-5191.997313,-15084.879408,16368.338927,-16364.382668,-22561.269708,12210.087444,13919.124176,2298.832214,1320.786932,7805.810309,16091.445517,-24127.925828,-9139.762418,0.002000,-0.020000,1.006000,192.000000,0.000000,0.000000,0.000000,0.000000,0.000000,0.000000,0.000000,0.000000,0.000000,1770371287.732141,0.000000
108.000000,11375.875637,10091.969084,-25682.176731,-5188.733958,-15076.810429,16389.640139,-16354.458494,-22548.149234,12235.479025,13935.664467,2309.918679,1339.584749,7823.647001,16115.026607,-24106.423450,-9112.895621,0.002000,-0.020000,1.006000,192.000000,0.000000,0.000000,0.000000,0.000000,0.000000,0.000000,0.000000,0.000000,0.000000,1770371287.732160,0.000000
110.000000,11356.831951,10071.941921,-25702.270949,-5199.552202,-15075.514028,16383.716927,-16379.626558,-22574.770161,12218.201127,13921.336999,2296.328818,1325.279632,7790.968751,16111.025645,-24111.989035,-9121.456340,0.002000,-0.020000,1.006000,192.000000,0.000000,0.000000,0.000000,0.000000,0.000000,0.000000,0.000000,0.000000,0.000000,1770371287.732170,0.000000
112.000000,11347.913605,10068.052717,-25695.498371,-5195.059502,-15076.296339,16405.576933,-16371.602282,-22573.943147,12207.025255,13921.269944,2283.096586,1314.841368,7808.872498,16116.635933,-24101.908398,-9098.501098,-0.002000,-0.016000,1.012000,192.000000,127.500000,120.000000,127.500000,64.000000,15.500000,80.000000,0.000000,0.000000,0.000000,1770371287.732181,0.000000
114.000000,11336.357753,10054.574615,-25707.389499,-5201.273286,-15082.733641,16393.194067,-16385.058032,-22588.315319,12209.841574,13920.040598,2280.280266,1325.011411,7812.001742,16103.202534,-24091.067802,-9079.345653,-0.002000,-0.016000,1.012000,192.000000,0.000000,0.000000,0.000000,0.000000,0.000000,0.000000,0.000000,0.000000,0.000000,1770371287.732191,0.000000
116.000000,11348.762971,10062.755354,-25706.763650,-5200.423920,-15096.122336,16400.726605,-16382.241712,-22583.152066,12200.990284,13910.429348,2276.145193,1305.833615,7793.583905,16091.020833,-24117.576971,-9089.672159,-0.002000,-0.016000,1.012000,192.000000,0.000000,0.000000,0.000000,0.000000,0.000000,0.000000,0.000000,0.000000,0.000000,1770371287.732202,0.000000
118.000000,11344.002049,10059.246130,-25703.902627,-5201.273286,-15082.867751,16404.906381,-16373.435125,-22580.402801,12218.491700,13922.119310,2286.181126,1319.535234,7789.448832,16104.208363,-24096.432221,-9065.688737,-0.002000,-0.016000,1.012000,192.000000,0.000000,0.000000,0.000000,0.000000,0.000000,0.000000,0.000000,0.000000,0.000000,1770371287.732213,0.000000
120.000000,11325.427750,10042.638784,-25726.746109,-5205.922449,-15088.455688,16426.453462,-16387.852000,-22597.278368,12183.242999,13898.202944,2264.298769,1298.211670,7761.240931,16093.323063,-24117.800488,-9066.560455,-0.002000,-0.016000,1.012000,192.000000,0.000000,0.000000,0.000000,0.000000,0.000000,0.000000,0.000000,0.000000,0.000000,1770371287.732223,0.000000
122.000000,11351.355773,10066.398688,-25704.282606,-5195.461833,-15099.497449,16415.076424,-16367.601319,-22574.591348,12188.138031,13911.166955,2272.747728,1303.799606,7765.554817,16101.861429,-24120.348587,-9066.851028,0.002000,-0.010000,1.002000,192.000000,0.000000,8.000000,127.500000,88.000000,15.500000,40.000000,0.000000,0.000000,0.000000,1770371287.732235,0.000000
124.000000,11344.136160,10057.547397,-25713.782098,-5201.608563,-15121.312752,16407.320369,-16377.704308,-22583.643804,12206.175888,13924.823871,2283.878897,1321.859815,7776.261303,16102.397871,-24114.939465,-9068.125077,0.002000,-0.010000,1.002000,192.000000,0.000000,0.000000,0.000000,0.000000,0.000000,0.000000,0.000000,0.000000,0.000000,1770371287.732246,0.000000
126.000000,11349.299413,10062.218912,-25707.188333,-5201.049769,-15106.180621,16403.855849,-16375.402078,-22580.156932,12192.161345,13897.286522,2274.692330,1299.664533,7789.605294,16090.439688,-24132.820860,-9088.733386,0.002000,-0.010000,1.002000,192.000000,0.000000,0.000000,0.000000,0.000000,0.000000,0.000000,0.000000,0.000000,0.000000,1770371287.732256,0.000000
128.000000,11376.881466,10092.840802,-25688.457571,-5188.331626,-15102.783156,16427.101663,-16358.615918,-22558.095760,12220.101025,13935.038618,2296.217060,1331.068734,7799.373007,16121.598020,-24118.493392,-9081.111441,0.002000,-0.010000,1.002000,192.000000,0.000000,0.000000,0.000000,0.000000,0.000000,0.000000,0.000000,0.000000,0.000000,1770371287.732267,0.000000
130.000000,11375.026271,10086.850534,-25703.433240,-5188.085757,-15094.490659,16405.889858,-16373.502180,-22569.986888,12219.318714,13940.626555,2295.524156,1330.353478,7788.532411,16107.359959,-24127.009407,-9087.168764,0.002000,-0.010000,1.002000,192.000000,0.000000,0.000000,0.000000,0.000000,0.000000,0.000000,0.000000,0.000000,0.000000,1770371287.732277,0.000000
132.000000,11381.240056,10096.752357,-25687.854074,-5186.409376,-15090.981435,16405.621637,-16355.531377,-22553.446597,12222.894993,13946.281546,2299.279249,1343.295138,7800.244725,16115.630104,-24124.729529,-9091.013264,0.002000,-0.010000,1.002000,192.000000,0.000000,0.000000,127.500000,112.000000,15.500000,32.000000,0.000000,0.000000,0.000000,1770371287.732288,0.000000
134.000000,11366.420849,10078.781555,-25701.533342,-5195.662999,-15095.183563,16410.427262,-16370.484694,-22567.192920,12225.219575,13948.941404,2300.977981,1356.773240,7797.316646,16122.402683,-24109.217418,-9077.892790,0.002000,-0.010000,1.002000,192.000000,0.000000,0.000000,0.000000,0.000000,0.000000,0.000000,0.000000,0.000000,0.000000,1770371287.732298,0.000000
136.000000,11362.621053,10076.188752,-25706.450725,-5199.798071,-15081.571350,16414.249410,-16377.190218,-22575.954804,12209.595705,13931.998781,2288.773929,1338.333051,7788.308893,16110.578610,-24126.607076,-9096.087110,0.002000,-0.010000,1.002000,192.000000,0.000000,0.000000,0.000000,0.000000,0.000000,0.000000,0.000000,0.000000,0.000000,1770371287.732308,0.000000
138.000000,11348.472398,10064.118810,-25698.985243,-5202.837909,-15055.196292,16418.742111,-16376.072630,-22582.749734,12211.875583,13933.362238,2283.364807,1338.824789,7789.806460,16116.859450,-24091.872465,-9064.101763,0.002000,-0.010000,1.002000,192.000000,0.000000,0.000000,0.000000,0.000000,0.000000,0.000000,0.000000,0.000000,0.000000,1770371287.732319,0.000000
140.000000,11322.365561,10033.362810,-25724.734452,-5216.047790,-15068.674394,16404.906381,-16396.211552,-22612.075223,12185.165249,13905.199040,2261.929484,1306.638277,7779.368195,16092.764269,-24089.056145,-9074.472973,0.002000,-0.010000,1.002000,192.000000,0.000000,0.000000,0.000000,0.000000,0.000000,0.000000,0.000000,0.000000,0.000000,1770371287.732330,0.000000
142.000000,11335.776607,10044.806903,-25713.536228,-5211.286868,-15100.458574,16386.197971,-16377.257273,-22592.808019,12176.582179,13896.191287,2259.001405,1301.251507,7793.405091,16073.206493,-24099.226189,-9083.257208,0.003000,-0.012000,1.000000,192.000000,0.000000,16.000000,127.500000,72.000000,15.500000,24.000000,0.000000,0.000000,0.000000,1770371287.732340,0.000000
144.000000,11327.305296,10036.581461,-25726.008502,-5213.343229,-15122.475043,16365.500255,-16382.331119,-22596.451354,12185.902856,13902.829755,2268.880876,1314.371981,7774.607274,16092.808973,-24106.378747,-9087.839316,0.003000,-0.012000,1.000000,192.000000,0.000000,0.000000,0.000000,0.000000,0.000000,0.000000,0.000000,0.000000,0.000000,1770371287.732351,0.000000
146.000000,11351.713401,10062.330671,-25714.653816,-5202.592039,-15127.839461,16372.943386,-16370.149418,-22575.418362,12175.106964,13903.388548,2268.344434,1311.265088,7754.356593,16078.079173,-24144.846099,-9110.280467,0.003000,-0.012000,1.000000,192.000000,0.000000,0.000000,0.000000,0.000000,0.000000,0.000000,0.000000,0.000000,0.000000,1770371287.732361,0.000000
148.000000,11371.025308,10083.028386,-25698.672318,-5190.812670,-15106.202973,16398.066747,-16356.939537,-22558.654554,12211.160327,13930.612973,2296.909964,1346.245569,7775.970730,16112.567915,-24129.356340,-9103.083206,0.003000,-0.012000,1.000000,192.000000,0.000000,0.000000,0.000000,0.000000,0.000000,0.000000,0.000000,0.000000,0.000000,1770371287.732371,0.000000
150.000000,11371.606454,10088.839840,-25708.216513,-5186.163507,-15109.421624,16407.275666,-16369.724735,-22568.846949,12213.171984,13943.375819,2294.563031,1345.530313,7795.550858,16111.562087,-24137.425320,-9109.676970,0.003000,-0.012000,1.000000,192.000000,0.000000,0.000000,0.000000,0.000000,0.000000,0.000000,0.000000,0.000000,0.000000,1770371287.732382,0.000000
152.000000,11389.867829,10110.409273,-25684.724830,-5177.915714,-15095.228266,16400.503087,-16353.743238,-22550.183243,12219.497528,13952.897662,2303.056693,1357.019109,7804.603315,16107.136441,-24133.692579,-9112.090959,0.002500,-0.009000,1.003000,192.000000,0.000000,8.000000,127.500000,104.000000,15.500000,56.000000,0.000000,0.000000,0.000000,1770371287.732392,0.000000
154.000000,11378.110811,10095.858287,-25699.476981,-5187.661074,-15096.658778,16401.508916,-16369.389459,-22565.181263,12230.025200,13959.692593,2309.136368,1367.390319,7811.219431,16131.164566,-24110.513820,-9103.194964,0.002500,-0.009000,1.003000,192.000000,0.000000,0.000000,0.000000,0.000000,0.000000,0.000000,0.000000,0.000000,0.000000,1770371287.732404,0.000000
156.000000,11383.072899,10099.658084,-25698.337042,-5189.248048,-15080.565522,16409.309674,-16368.450686,-22564.018972,12212.210859,13941.542976,2295.390045,1348.681909,7800.691760,16108.924581,-24127.948180,-9117.678895,0.002500,-0.009000,1.003000,192.000000,0.000000,0.000000,0.000000,0.000000,0.000000,0.000000,0.000000,0.000000,0.000000,1770371287.732415,0.000000
158.000000,11394.315826,10109.962238,-25692.413830,-5189.493917,-15059.443123,16413.981189,-16362.348659,-22555.279440,12231.343953,13957.099790,2303.280211,1365.266903,7803.508079,16125.733093,-24096.879255,-9090.298008,0.002500,-0.009000,1.003000,192.000000,0.000000,0.000000,0.000000,0.000000,0.000000,0.000000,0.000000,0.000000,0.000000,1770371287.732425,0.000000
160.000000,11370.198294,10084.816526,-25714.899685,-5205.877746,-15089.282702,16398.424375,-16387.472020,-22580.358098,12212.121452,13945.208662,2290.785586,1349.866551,7790.856992,16102.375520,-24104.903532,-9099.216354,0.002500,-0.009000,1.003000,192.000000,0.000000,0.000000,0.000000,0.000000,0.000000,0.000000,0.000000,0.000000,0.000000,1770371287.732436,0.000000
162.000000,11364.811524,10082.715462,-25703.992033,-5205.765987,-15081.057260,16402.850020,-16378.061936,-22577.698240,12197.257542,13935.820930,2283.163641,1338.310699,7789.605294,16096.765232,-24101.170790,-9101.876211,0.002500,-0.009000,1.003000,192.000000,0.000000,0.000000,127.500000,112.000000,15.500000,72.000000,0.000000,0.000000,0.000000,1770371287.732446,0.000000
164.000000,11344.426733,10061.101325,-25719.370034,-5215.153720,-15079.537342,16387.852000,-16391.361224,-22597.881865,12194.374167,13930.411807,2276.949856,1338.623624,7785.626684,16100.185049,-24088.810276,-9096.757662,0.002500,-0.009000,1.003000,192.000000,0.000000,0.000000,0.000000,0.000000,0.000000,0.000000,0.000000,0.000000,0.000000,1770371287.732456,0.000000
166.000000,11347.511273,10062.978871,-25721.068766,-5216.293659,-15068.696745,16393.395232,-16388.299035,-22600.787592,12176.246902,13915.145566,2258.375556,1313.679077,7785.738443,16100.162697,-24108.233942,-9116.695418,0.002500,-0.009000,1.003000,192.000000,0.000000,0.000000,0.000000,0.000000,0.000000,0.000000,0.000000,0.000000,0.000000,1770371287.732467,0.000000
168.000000,11358.508332,10074.221799,-25709.132935,-5206.257726,-15080.654929,16391.428279,-16369.322404,-22582.168589,12194.061243,13929.025999,2270.311388,1330.375830,7786.073719,16108.969284,-24101.416660,-9108.872307,0.002500,-0.009000,1.003000,192.000000,0.000000,0.000000,0.000000,0.000000,0.000000,0.000000,0.000000,0.000000,0.000000,1770371287.732478,0.000000
170.000000,11354.775590,10070.153781,-25726.567295,-5208.314086,-15101.933789,16396.837401,-16379.224226,-22585.834275,12184.964083,13923.706284,2273.507687,1328.990022,7766.359480,16098.955703,-24129.669265,-9128.944174,0.002500,-0.009000,1.003000,192.000000,0.000000,0.000000,0.000000,0.000000,0.000000,0.000000,0.000000,0.000000,0.000000,1770371287.732488,0.000000
172.000000,11382.178829,10098.808718,-25702.226246,-5195.908868,-15111.343874,16398.290264,-16357.408924,-22556.933469,12197.414004,13938.883118,2288.840984,1346.245569,7775.724861,16110.176278,-24144.153195,-9138.287203,0.002500,-0.009000,1.003000,192.000000,0.000000,0.000000,127.500000,120.000000,15.500000,72.000000,0.000000,0.000000,0.000000,1770371287.732499,0.000000
174.000000,11373.595759,10088.415156,-25706.786002,-5195.126557,-15125.291362,16376.854941,-16365.679069,-22564.466007,12220.816281,13952.830607,2305.940068,1362.651749,7790.834640,16126.560107,-24133.781985,-9132.408694,0.002500,-0.009000,1.003000,192.000000,0.000000,0.000000,0.000000,0.000000,0.000000,0.000000,0.000000,0.000000,0.000000,1770371287.732510,0.000000
176.000000,11367.761954,10081.977854,-25705.713118,-5193.897211,-15115.255429,16388.366090,-16368.316575,-22571.059772,12196.207010,13933.406941,2290.919696,1342.445772,7786.252533,16101.101470,-24149.674076,-9148.099619,0.002500,-0.009000,1.003000,192.000000,0.000000,0.000000,0.000000,0.000000,0.000000,0.000000,0.000000,0.000000,0.000000,1770371287.732520,0.000000
178.000000,11373.886332,10088.146935,-25696.079516,-5196.333551,-15111.545040,16431.951992,-16363.443895,-22565.650650,12212.926115,13944.895738,2298.273420,1354.471011,7803.217507,16102.487278,-24126.182392,-9135.537939,0.002500,-0.009000,1.003000,192.000000,0.000000,0.000000,0.000000,0.000000,0.000000,0.000000,0.000000,0.000000,0.000000,1770371287.732530,0.000000
180.000000,11353.836817,10063.850589,-25714.676167,-5214.282002,-15115.255429,16391.383575,-16389.416622,-22594.439697,12195.558810,13924.488595,2280.950818,1329.861740,7784.956132,16100.609732,-24133.245544,-9147.741991,0.002500,-0.009000,1.003000,192.000000,0.000000,0.000000,0.000000,0.000000,0.000000,0.000000,0.000000,0.000000,0.000000,1770371287.732541,0.000000
182.000000,11357.480151,10070.109078,-25705.131972,-5211.331571,-15102.023196,16383.068726,-16380.230055,-22585.700165,12190.417908,13919.057121,2273.217115,1326.576033,7781.156335,16100.877953,-24127.814070,-9138.600128,0.000250,-0.008500,1.004500,192.000000,127.500000,120.000000,127.500000,96.000000,15.500000,56.000000,0.000000,0.000000,0.000000,1770371287.732551,0.000000
184.000000,11342.616241,10057.726211,-25719.437089,-5223.401514,-15092.456650,16375.625596,-16398.044395,-22601.122868,12190.417908,13916.687836,2273.351225,1332.007507,7777.714166,16113.104357,-24109.440936,-9114.214374,0.000250,-0.008500,1.004500,192.000000,0.000000,0.000000,0.000000,0.000000,0.000000,0.000000,0.000000,0.000000,0.000000,1770371287.732562,0.000000
186.000000,11342.459779,10056.675679,-25716.017272,-5222.216871,-15088.388632,16394.713985,-16399.385500,-22603.805078,12173.207065,13905.958999,2263.225885,1315.646030,7769.175800,16083.130668,-24108.122183,-9117.924764,0.000250,-0.008500,1.004500,192.000000,0.000000,0.000000,0.000000,0.000000,0.000000,0.000000,0.000000,0.000000,0.000000,1770371287.732573,0.000000
188.000000,11351.825160,10068.924435,-25706.271911,-5213.454987,-15091.294359,16404.638160,-16386.801468,-22589.857589,12184.964083,13915.324380,2270.356091,1328.140656,7781.558666,16084.717641,-24083.490560,-9085.626493,0.000250,-0.008500,1.004500,192.000000,0.000000,0.000000,0.000000,0.000000,0.000000,0.000000,0.000000,0.000000,0.000000,1770371287.732584,0.000000
190.000000,11340.224605,10052.942938,-25726.544944,-5221.546319,-15091.249656,16412.729491,-16399.720776,-22607.359005,12182.907722,13913.156261,2264.455231,1318.842330,7766.851219,16080.604920,-24103.987110,-9098.143470,0.000250,-0.008500,1.004500,192.000000,0.000000,0.000000,0.000000,0.000000,0.000000,0.000000,0.000000,0.000000,0.000000,1770371287.732594,0.000000
192.000000,11370.757088,10082.491944,-25698.873484,-5206.682409,-15064.025231,16414.227058,-16371.267005,-22575.820693,12194.485926,13917.984237,2275.206420,1324.452618,7779.994044,16091.177296,-24105.417622,-9104.223145,0.001125,-0.009250,1.005250,192.000000,0.000000,8.000000,127.500000,88.000000,15.500000,56.000000,0.000000,0.000000,0.000000,1770371287.732605,0.000000
194.000000,11379.407213,10089.555095,-25698.895836,-5201.183880,-15074.374089,16407.320369,-16375.156209,-22569.249281,12219.855156,13938.279621,2297.558164,1350.648862,7813.052274,16106.912924,-24089.570235,-9106.033636,0.001125,-0.009250,1.005250,192.000000,0.000000,0.000000,0.000000,0.000000,0.000000,0.000000,0.000000,0.000000,0.000000,1770371288.211626,0.000000
196.000000,11397.199201,10109.403444,-25684.411905,-5190.790318,-15071.334251,16432.667247,-16365.321441,-22547.724551,12219.721045,13944.716924,2307.102359,1355.409784,7812.627591,16111.338569,-24112.994863,-9127.960697,0.001125,-0.009250,1.005250,192.000000,0.000000,0.000000,0.000000,0.000000,0.000000,0.000000,0.000000,0.000000,0.000000,1770371288.211683,0.000000
198.000000,11404.351759,10118.925288,-25670.397362,-5187.683426,-15071.781286,16425.045303,-16351.351601,-22535.900478,12244.196206,13970.153209,2332.248072,1382.433043,7818.930783,16139.099436,-24100.299072,-9118.304744,0.001125,-0.009250,1.005250,192.000000,0.000000,0.000000,0.000000,0.000000,0.000000,0.000000,0.000000,0.000000,0.000000,1770371288.211731,0.000000
200.000000,11382.491753,10096.305322,-25696.057164,-5190.276228,-15102.425528,16393.506991,-16375.022098,-22563.393124,12225.107816,13956.764514,2314.076103,1365.043386,7804.871536,16110.578610,-24120.415642,-9133.861558,0.001125,-0.009250,1.005250,192.000000,0.000000,0.000000,0.000000,0.000000,0.000000,0.000000,0.000000,0.000000,0.000000,1770371288.211780,0.000000
202.000000,11379.429564,10093.846630,-25689.150475,-5186.610542,-15099.340987,16397.306788,-16366.148456,-22561.627336,12216.636505,13949.209624,2301.045036,1359.030766,7801.116443,16121.307447,-24124.193087,-9128.966526,0.001563,-0.009625,1.007625,192.000000,0.000000,8.000000,127.500000,88.000000,15.500000,72.000000,0.000000,0.000000,0.000000,1770371288.211825,0.000000
204.000000,11363.135143,10078.938017,-25705.646063,-5199.663961,-15107.074691,16386.734413,-16382.688747,-22580.067525,12213.998999,13944.091075,2294.630086,1358.963711,7802.390492,16112.322046,-24111.117317,-9122.752741,0.001563,-0.009625,1.007625,192.000000,0.000000,0.000000,0.000000,0.000000,0.000000,0.000000,0.000000,0.000000,0.000000,1770371288.211872,0.000000
206.000000,11359.402401,10074.512371,-25705.735470,-5208.828176,-15098.692787,16386.108564,-16384.096907,-22580.939243,12195.804679,13927.953115,2282.023702,1340.702336,7806.279696,16093.926560,-24124.215439,-9138.868348,0.001563,-0.009625,1.007625,192.000000,0.000000,0.000000,0.000000,0.000000,0.000000,0.000000,0.000000,0.000000,0.000000,1770371288.211897,0.000000
208.000000,11356.787247,10074.959406,-25697.353565,-5214.751388,-15103.297246,16386.667357,-16377.838418,-22578.726420,12209.059263,13930.858842,2289.198612,1352.101726,7785.134946,16096.005272,-24102.266026,-9123.043313,0.001563,-0.009625,1.007625,192.000000,0.000000,0.000000,0.000000,0.000000,0.000000,0.000000,0.000000,0.000000,0.000000,1770371288.211908,0.000000
210.000000,11329.875747,10048.226720,-25722.901609,-5230.330554,-15111.098005,16387.069689,-16407.767404,-22614.891543,12179.689071,13910.786976,2265.885742,1324.318507,7764.973672,16079.599092,-24112.100793,-9128.787712,0.001563,-0.009625,1.007625,192.000000,0.000000,0.000000,0.000000,0.000000,0.000000,0.000000,0.000000,0.000000,0.000000,1770371288.211920,0.000000
212.000000,11334.502558,10053.367621,-25715.413775,-5227.111903,-15107.208801,16400.167811,-16400.458384,-22610.041214,12165.674527,13900.751042,2252.295882,1310.795702,7757.195265,16081.923673,-24106.177581,-9118.505909,0.001563,-0.009625,1.007625,192.000000,0.000000,0.000000,0.000000,0.000000,0.000000,0.000000,0.000000,0.000000,0.000000,1770371288.211932,0.000000
214.000000,11322.991410,10040.090685,-25733.675150,-5228.341249,-15110.695673,16384.700404,-16413.534154,-22623.184040,12171.374222,13904.640246,2251.915902,1315.221347,7760.212750,16077.363918,-24090.039622,-9097.271752,0.004000,-0.010000,1.006000,192.000000,0.000000,16.000000,127.500000,88.000000,15.500000,56.000000,0.000000,0.000000,0.000000,1770371288.211945,0.000000
216.000000,11335.128407,10054.529912,-25727.439013,-5218.573537,-15100.100946,16401.486564,-16403.207648,-22607.046080,12155.392725,13893.307912,2245.143324,1304.783083,7752.590806,16069.160827,-24106.334043,-9098.568153,0.004000,-0.010000,1.006000,192.000000,0.000000,0.000000,0.000000,0.000000,0.000000,0.000000,0.000000,0.000000,0.000000,1770371288.211957,0.000000
218.000000,11354.753239,10073.126563,-25704.193199,-5207.017685,-15089.260350,16416.126956,-16380.855904,-22581.676851,12188.026272,13925.069740,2272.501859,1336.746077,7776.082489,16100.542677,-24087.022136,-9079.949150,0.004000,-0.010000,1.006000,192.000000,0.000000,0.000000,0.000000,0.000000,0.000000,0.000000,0.000000,0.000000,0.000000,1770371288.211975,0.000000
220.000000,11352.361602,10065.392860,-25709.803487,-5210.661019,-15097.754013,16404.481698,-16391.249465,-22592.092763,12185.679339,13920.934668,2276.055786,1329.638222,7775.970730,16092.406642,-24101.215494,-9099.618685,0.004000,-0.010000,1.006000,192.000000,0.000000,0.000000,0.000000,0.000000,0.000000,0.000000,0.000000,0.000000,0.000000,1770371288.211986,0.000000
222.000000,11372.768745,10085.330616,-25686.222397,-5205.810691,-15089.394461,16397.060918,-16372.272834,-22571.551510,12199.068034,13927.394322,2285.711740,1334.533254,7792.667483,16096.966397,-24101.774287,-9113.476767,0.004000,-0.010000,1.006000,192.000000,0.000000,0.000000,0.000000,0.000000,0.000000,0.000000,0.000000,0.000000,0.000000,1770371288.211998,0.000000
224.000000,11366.063221,10080.569694,-25697.375917,-5206.101263,-15084.410022,16387.382613,-16384.141610,-22580.581615,12217.664685,13941.766494,2294.205403,1351.073545,7804.916239,16106.845868,-24090.888988,-9116.226031,0.002000,-0.014000,1.006000,192.000000,0.000000,8.000000,127.500000,72.000000,15.500000,56.000000,0.000000,0.000000,0.000000,1770371288.212010,0.000000
226.000000,11363.738640,10076.971063,-25700.616920,-5203.195537,-15088.165115,16390.824782,-16385.952101,-22582.861493,12198.397481,13925.673238,2285.220001,1335.829656,7787.526582,16086.930464,-24113.665415,-9139.717715,0.002000,-0.014000,1.006000,192.000000,0.000000,0.000000,0.000000,0.000000,0.000000,0.000000,0.000000,0.000000,0.000000,1770371288.212021,0.000000
228.000000,11378.759012,10089.733909,-25687.608205,-5196.244144,-15089.975606,16403.587628,-16373.859808,-22566.120036,12215.965952,13938.167863,2295.211231,1355.946226,7802.993989,16109.662188,-24100.321424,-9129.011229,0.002000,-0.014000,1.006000,192.000000,0.000000,0.000000,0.000000,0.000000,0.000000,0.000000,0.000000,0.000000,0.000000,1770371288.212033,0.000000
230.000000,11369.930073,10081.866095,-25704.260254,-5202.927316,-15091.473173,16386.555599,-16394.713985,-22582.660327,12208.366359,13937.318496,2290.360903,1350.291234,7810.057141,16110.846831,-24112.056090,-9133.705095,0.002000,-0.014000,1.006000,192.000000,0.000000,0.000000,0.000000,0.000000,0.000000,0.000000,0.000000,0.000000,0.000000,1770371288.212045,0.000000
232.000000,11380.971835,10094.494831,-25686.714135,-5198.144042,-15084.901760,16394.490468,-16380.967662,-22565.114208,12214.736606,13942.012363,2294.227754,1353.666348,7798.858917,16116.010084,-24102.914226,-9119.578793,0.002000,-0.014000,1.006000,192.000000,0.000000,0.000000,0.000000,0.000000,0.000000,0.000000,0.000000,0.000000,0.000000,1770371288.212056,0.000000
234.000000,11360.810561,10073.417136,-25707.814182,-5211.130406,-15082.197199,16400.123107,-16397.150325,-22586.728345,12219.497528,13942.638212,2294.719493,1356.281502,7789.314722,16106.555296,-24088.139723,-9098.612857,0.002000,-0.014000,1.006000,192.000000,0.000000,0.000000,127.500000,80.000000,15.500000,24.000000,0.000000,0.000000,0.000000,1770371288.212068,0.000000
236.000000,11350.238186,10060.207255,-25713.804449,-5221.926298,-15093.820106,16412.505974,-16398.446727,-22597.010147,12188.316845,13913.357426,2271.898362,1321.077504,7772.237989,16086.662243,-24112.994863,-9114.706113,0.002000,-0.014000,1.006000,192.000000,0.000000,0.000000,0.000000,0.000000,0.000000,0.000000,0.000000,0.000000,0.000000,1770371288.212080,0.000000
238.000000,11347.667736,10060.609586,-25705.556656,-5216.114845,-15119.569316,16365.410848,-16387.740241,-22592.718612,12198.285723,13915.883173,2275.295827,1326.374868,7776.194248,16081.789563,-24102.333081,-9097.249400,0.002000,-0.014000,1.006000,192.000000,0.000000,0.000000,0.000000,0.000000,0.000000,0.000000,0.000000,0.000000,0.000000,1770371288.212091,0.000000
240.000000,11342.862110,10056.094534,-25719.079461,-5218.797054,-15105.331255,16363.980337,-16399.944293,-22601.949883,12180.404327,13906.160165,2263.225885,1314.863719,7761.889131,16072.982976,-24112.748994,-9105.564249,0.002000,-0.014000,1.006000,192.000000,0.000000,0.000000,0.000000,0.000000,0.000000,0.000000,0.000000,0.000000,0.000000,1770371288.212103,0.000000
242.000000,11375.048622,10087.141107,-25686.892949,-5203.307295,-15086.734603,16396.904456,-16374.798581,-22568.310507,12196.139955,13920.509985,2276.905152,1330.219368,7786.185478,16085.410546,-24111.139668,-9112.180366,0.002000,-0.014000,1.006000,192.000000,0.000000,0.000000,0.000000,0.000000,0.000000,0.000000,0.000000,0.000000,0.000000,1770371288.212114,0.000000
244.000000,11381.016538,10089.130412,-25683.316670,-5197.562897,-15083.493600,16386.041508,-16377.324328,-22564.398952,12229.779330,13948.740238,2305.425978,1358.337862,7815.019228,16113.014950,-24093.906473,-9113.812043,-0.006000,-0.018000,0.998000,192.000000,127.500000,104.000000,127.500000,56.000000,15.500000,24.000000,0.000000,0.000000,0.000000,1770371288.212126,0.000000
246.000000,11387.744413,10095.008921,-25678.019306,-5195.260667,-15081.526647,16397.217381,-16373.524532,-22560.085065,12224.213746,13942.280584,2305.850661,1347.340804,7809.051312,16101.861429,-24111.787869,-9134.733276,-0.006000,-0.018000,0.998000,192.000000,0.000000,0.000000,0.000000,0.000000,0.000000,0.000000,0.000000,0.000000,0.000000,1770371288.212137,0.000000
248.000000,11385.464535,10095.858287,-25674.308917,-5197.697007,-15088.433336,16397.217381,-16365.187331,-22553.446597,12238.451807,13952.830607,2314.724304,1362.003548,7814.035751,16118.669941,-24100.634348,-9128.720656,-0.006000,-0.018000,0.998000,192.000000,0.000000,0.000000,0.000000,0.000000,0.000000,0.000000,0.000000,0.000000,0.000000,1770371288.212149,0.000000
250.000000,11365.347965,10079.295645,-25700.818086,-5203.173185,-15100.659740,16389.573084,-16384.499238,-22575.239548,12213.686074,13935.999743,2298.698103,1346.916121,7797.361350,16106.465889,-24117.934599,-9142.198758,-0.006000,-0.018000,0.998000,192.000000,0.000000,0.000000,0.000000,0.000000,0.000000,0.000000,0.000000,0.000000,0.000000,1770371288.212162,0.000000
252.000000,11380.345986,10095.165383,-25686.803542,-5191.907906,-15095.675301,16387.695538,-16369.121238,-22559.123940,12206.399406,13937.497310,2291.210269,1350.559455,7795.304989,16108.499898,-24125.243619,-9143.137532,-0.006000,-0.018000,0.998000,192.000000,0.000000,0.000000,0.000000,0.000000,0.000000,0.000000,0.000000,0.000000,0.000000,1770371288.212174,0.000000
254.000000,11373.908684,10084.056566,-25695.900702,-5197.518193,-15099.698615,16381.973491,-16382.509933,-22569.450446,12223.900822,13948.494369,2300.195670,1364.261075,7813.856937,16114.423110,-24107.183410,-9128.251270,-0.006000,-0.018000,1.002000,192.000000,127.500000,104.000000,127.500000,56.000000,15.500000,40.000000,0.000000,0.000000,0.000000,1770371288.212186,0.000000
0.000000,11379.720137,10089.510392,-25692.816161,-5198.456967,-15102.157307,16390.489506,-16381.928787,-22562.923737,12207.338179,13935.105674,2291.970228,1350.179476,7805.743254,16102.084947,-24119.588628,-9138.957755,-0.006000,-0.018000,1.002000,192.000000,0.000000,0.000000,0.000000,0.000000,0.000000,0.000000,0.000000,0.000000,0.000000,1770371288.212198,0.000000
2.000000,11377.887294,10088.012825,-25686.065934,-5203.329647,-15102.626694,16387.315558,-16375.402078,-22560.554452,12226.068941,13949.902529,2304.531909,1364.305778,7824.965754,16121.173337,-24103.562427,-9119.645848,-0.006000,-0.018000,1.002000,192.000000,0.000000,0.000000,0.000000,0.000000,0.000000,0.000000,0.000000,0.000000,0.000000,1770371288.212210,0.000000
4.000000,11349.567634,10058.553226,-25713.290359,-5217.187729,-15121.089234,16372.921034,-16397.887933,-22590.371679,12196.430528,13923.728636,2282.113109,1334.689717,7790.097033,16090.707909,-24119.722738,-9129.994706,-0.006000,-0.018000,1.002000,192.000000,0.000000,0.000000,0.000000,0.000000,0.000000,0.000000,0.000000,0.000000,0.000000,1770371288.212221,0.000000
6.000000,11365.638538,10075.495848,-25697.532379,-5211.085702,-15108.058167,16380.878255,-16380.833552,-22571.305641,12190.909647,13918.721845,2279.497955,1330.509940,7778.027091,16091.221999,-24126.964703,-9141.259985,-0.006000,-0.018000,1.002000,192.000000,0.000000,0.000000,0.000000,0.000000,0.000000,0.000000,0.000000,0.000000,0.000000,1770371288.212233,0.000000
8.000000,11364.230378,10072.433659,-25703.120315,-5211.599792,-15085.281740,16401.777137,-16389.394270,-22574.613699,12206.958199,13932.177595,2291.612600,1343.183380,7800.803518,16095.155906,-24114.872410,-9136.230843,-0.004000,-0.016000,1.006000,192.000000,127.500000,112.000000,127.500000,64.000000,15.500000,56.000000,0.000000,0.000000,0.000000,1770371288.212245,0.000000
10.000000,11386.135088,10094.785404,-25688.189350,-5201.429749,-15082.130144,16414.897611,-16380.230055,-22557.022876,12205.795909,13934.949211,2296.172356,1339.182417,7789.739405,16092.384290,-24125.109509,-9146.602052,-0.004000,-0.016000,1.006000,192.000000,0.000000,0.000000,0.000000,0.000000,0.000000,0.000000,0.000000,0.000000,0.000000,1770371288.212256,0.000000
12.000000,11412.197222,10123.529747,-25662.820120,-5200.356865,-15072.116562,16431.840233,-16360.247595,-22531.765405,12246.632546,13967.135723,2324.715534,1373.805269,7823.848167,16133.980886,-24100.477886,-9130.441741,-0.004000,-0.016000,1.006000,192.000000,0.000000,0.000000,0.000000,0.000000,0.000000,0.000000,0.000000,0.000000,0.000000,1770371288.212267,0.000000
14.000000,11394.047605,10104.575468,-25684.478961,-5187.079929,-15092.076670,16402.537096,-16376.184389,-22552.463121,12240.798740,13971.427258,2319.485226,1365.289255,7847.920996,16134.249107,-24113.397195,-9139.516549,-0.004000,-0.016000,1.006000,192.000000,0.000000,0.000000,0.000000,0.000000,0.000000,0.000000,0.000000,0.000000,0.000000,1770371288.212279,0.000000
16.000000,11400.976646,10115.147843,-25666.374048,-5177.043996,-15085.661720,16404.884029,-16360.694630,-22538.269763,12235.277860,13957.725639,2316.244223,1365.423365,7833.012382,16118.580534,-24116.973474,-9140.052991,-0.004000,-0.016000,1.006000,192.000000,0.000000,0.000000,0.000000,0.000000,0.000000,0.000000,0.000000,0.000000,0.000000,1770371288.212290,0.000000
18.000000,11384.592817,10098.004055,-25685.976527,-5184.151850,-15098.491621,16406.806279,-16377.391383,-22554.005391,12243.078618,13968.454476,2320.446351,1376.420424,7826.619783,16134.942011,-24109.999729,-9122.395113,0.002000,-0.008000,1.006000,192.000000,0.000000,8.000000,127.500000,96.000000,15.500000,56.000000,0.000000,0.000000,0.000000,1770371288.212302,0.000000
20.000000,11378.043756,10094.114851,-25691.855036,-5185.291789,-15104.817165,16401.486564,-16384.990976,-22562.409647,12216.323580,13950.908357,2299.234545,1357.130868,7806.860841,16120.100453,-24134.564297,-9131.022886,0.002000,-0.008000,1.006000,192.000000,0.000000,0.000000,0.000000,0.000000,0.000000,0.000000,0.000000,0.000000,0.000000,1770371288.212321,0.000000
22.000000,11373.774573,10091.142069,-25685.574196,-5189.628028,-15106.448842,16397.999692,-16382.375822,-22562.879033,12229.108778,13958.709116,2299.569821,1365.177496,7814.058103,16124.950781,-24117.286398,-9106.391264,0.002000,-0.008000,1.006000,192.000000,0.000000,0.000000,0.000000,0.000000,0.000000,0.000000,0.000000,0.000000,0.000000,1770371288.212334,0.000000
24.000000,11349.500579,10063.045926,-25708.372975,-5209.565784,-15115.881278,16390.489506,-16405.532230,-22590.841066,12204.074824,13938.972525,2282.135461,1337.573092,7795.684969,16114.199592,-24126.271799,-9114.884927,0.002000,-0.008000,1.006000,192.000000,0.000000,0.000000,0.000000,0.000000,0.000000,0.000000,0.000000,0.000000,0.000000,1770371288.212345,0.000000
26.000000,11358.530683,10073.350081,-25690.223359,-5205.386007,-15108.952237,16397.038567,-16386.153267,-22575.664231,12196.609342,13928.444854,2276.368711,1324.318507,7794.120347,16103.001368,-24121.287360,-9119.534090,0.002000,-0.008000,1.006000,192.000000,0.000000,0.000000,0.000000,0.000000,0.000000,0.000000,0.000000,0.000000,0.000000,1770371288.212358,0.000000
28.000000,11348.628861,10061.548360,-25705.087269,-5205.944801,-15114.227249,16390.400099,-16393.037604,-22583.397935,12208.388711,13937.072627,2285.152946,1335.382621,7802.882231,16110.019816,-24112.346663,-9108.626438,0.002000,-0.008000,1.005000,192.000000,0.000000,8.000000,127.500000,96.000000,15.500000,48.000000,0.000000,0.000000,0.000000,1770371288.212370,0.000000
30.000000,11355.222625,10067.963310,-25700.080478,-5199.976885,-15108.169926,16408.080328,-16385.706232,-22575.999507,12190.194391,13925.159147,2277.173373,1323.737362,7801.429367,16092.585455,-24136.777119,-9121.009305,0.002000,-0.008000,1.005000,192.000000,0.000000,0.000000,0.000000,0.000000,0.000000,0.000000,0.000000,0.000000,0.000000,1770371288.212381,0.000000
32.000000,11373.416945,10085.352967,-25677.236995,-5188.912772,-15089.796792,16411.366035,-16366.439029,-22552.910155,12214.691903,13950.707191,2300.106263,1352.794630,7811.733521,16117.641761,-24121.175602,-9105.921877,0.002000,-0.008000,1.005000,192.000000,0.000000,0.000000,0.000000,0.000000,0.000000,0.000000,0.000000,0.000000,0.000000,1770371288.212393,0.000000
34.000000,11360.855265,10070.354947,-25690.312766,-5193.874859,-15085.952292,16400.927770,-16380.520628,-22567.550548,12211.160327,13939.039581,2300.128615,1344.725650,7809.654809,16108.142270,-24123.611942,-9121.322229,0.002000,-0.008000,1.005000,192.000000,0.000000,0.000000,0.000000,0.000000,0.000000,0.000000,0.000000,0.000000,0.000000,1770371288.212404,0.000000
36.000000,11385.509239,10097.266447,-25666.150530,-5179.547391,-15088.165115,16399.251389,-16359.755857,-22540.393179,12216.412987,13944.649869,2305.582441,1351.453525,7807.956077,16114.110185,-24120.348587,-9130.978183,0.002000,-0.008000,1.005000,192.000000,0.000000,0.000000,0.000000,0.000000,0.000000,0.000000,0.000000,0.000000,0.000000,1770371288.212417,0.000000
38.000000,11383.877562,10095.098328,-25673.817178,-5184.509478,-15090.601455,16395.138668,-16367.780133,-22544.572955,12237.714200,13970.734354,2324.156740,1375.749871,7833.928804,16133.243279,-24106.199933,-9125.569061,0.003000,-0.010000,1.003500,192.000000,0.000000,16.000000,127.500000,80.000000,15.500000,40.000000,0.000000,0.000000,0.000000,1770371288.212428,0.000000
40.000000,11375.294492,10082.268427,-25676.432333,-5190.656208,-15088.299225,16388.567256,-16370.060011,-22552.843100,12217.329409,13947.510892,2312.176205,1355.946226,7818.662562,16121.977999,-24124.640122,-9145.842093,0.003000,-0.010000,1.003500,192.000000,0.000000,0.000000,0.000000,0.000000,0.000000,0.000000,0.000000,0.000000,0.000000,1770371288.212440,0.000000
42.000000,11369.930073,10079.273293,-25671.984335,-5190.075063,-15087.628673,16393.037604,-16362.862749,-22550.809091,12224.593726,13952.160055,2311.483301,1361.332996,7820.093074,16113.797261,-24109.083308,-9131.827549,0.003000,-0.010000,1.003500,192.000000,0.000000,0.000000,0.000000,0.000000,0.000000,0.000000,0.000000,0.000000,0.000000,1770371288.212451,0.000000
44.000000,11348.561805,10057.703860,-25695.297205,-5198.054635,-15086.667548,16398.536134,-16387.181447,-22577.094743,12204.275990,13932.691685,2294.071292,1338.288348,7807.352580,16103.627217,-24115.051224,-9129.100636,0.003000,-0.010000,1.003500,192.000000,0.000000,0.000000,0.000000,0.000000,0.000000,0.000000,0.000000,0.000000,0.000000,1770371288.212463,0.000000
46.000000,11355.557901,10064.185865,-25681.863806,-5192.779624,-15086.511086,16402.000654,-16376.765534,-22567.371734,12199.738586,13928.534261,2286.583458,1328.230063,7803.172803,16113.886668,-24111.229075,-9110.995723,0.003000,-0.010000,1.003500,192.000000,0.000000,0.000000,0.000000,0.000000,0.000000,0.000000,0.000000,0.000000,0.000000,1770371288.212474,0.000000
48.000000,11338.637631,10046.840912,-25698.918187,-5198.300504,-15109.019292,16410.181392,-16388.209628,-22581.632147,12208.992208,13936.111502,2289.019798,1334.443847,7804.580963,16125.598982,-24100.969625,-9091.572057,0.003000,-0.010000,1.003500,192.000000,0.000000,0.000000,127.500000,104.000000,15.500000,56.000000,0.000000,0.000000,0.000000,1770371288.212487,0.000000
50.000000,11332.289735,10037.855510,-25706.026042,-5201.630914,-15109.466327,16407.409776,-16389.506029,-22582.257996,12176.336309,13910.429348,2270.758423,1311.332144,7785.783146,16100.386214,-24125.109509,-9107.061816,0.003000,-0.010000,1.003500,192.000000,0.000000,0.000000,0.000000,0.000000,0.000000,0.000000,0.000000,0.000000,0.000000,1770371288.212498,0.000000
52.000000,11340.045791,10045.499807,-25695.230150,-5200.133348,-15116.350665,16389.483677,-16378.933654,-22573.898443,12200.297380,13919.839432,2283.275400,1325.972536,7802.323437,16101.637912,-24115.297093,-9101.496232,0.003000,-0.010000,1.003500,192.000000,0.000000,0.000000,0.000000,0.000000,0.000000,0.000000,0.000000,0.000000,0.000000,1770371288.212510,0.000000
54.000000,11327.305296,10032.178167,-25708.194161,-5205.698932,-15118.943467,16379.514799,-16392.255293,-22588.270615,12184.762917,13899.476993,2273.328873,1307.845272,7785.202001,16085.835229,-24134.117262,-9118.349447,0.003000,-0.010000,1.003500,192.000000,0.000000,0.000000,0.000000,0.000000,0.000000,0.000000,0.000000,0.000000,0.000000,1770371288.212522,0.000000
56.000000,11351.802808,10058.352060,-25682.891987,-5193.941914,-15099.586856,16393.283474,-16367.780133,-22558.587498,12193.144821,13912.239839,2283.610676,1319.043496,7788.890039,16092.384290,-24136.151270,-9121.679857,0.003000,-0.010000,1.003500,192.000000,0.000000,0.000000,0.000000,0.000000,0.000000,0.000000,0.000000,0.000000,0.000000,1770371288.212534,0.000000
58.000000,11351.981622,10056.541569,-25682.377897,-5192.556106,-15102.134955,16379.872427,-16371.401116,-22555.167682,12216.971781,13930.791787,2303.928411,1344.278615,7816.628553,16105.303598,-24121.734395,-9125.010267,0.003000,-0.010000,1.003500,192.000000,0.000000,0.000000,127.500000,112.000000,15.500000,64.000000,0.000000,0.000000,0.000000,1770371288.691931,0.000000
60.000000,11364.275082,10068.477400,-25672.163149,-5186.319969,-15078.844437,16400.078404,-16365.768476,-22544.237679,12209.327484,13925.963810,2306.096531,1336.276691,7812.046446,16101.883781,-24129.848078,-9149.865407,0.003000,-0.010000,1.003500,192.000000,0.000000,0.000000,0.000000,0.000000,0.000000,0.000000,0.000000,0.000000,0.000000,1770371288.692000,0.000000
62.000000,11378.356681,10087.096403,-25654.751140,-5176.887533,-15059.621937,16414.160003,-16351.351601,-22525.350454,12234.160272,13952.741200,2324.782589,1362.696452,7832.744161,16129.354075,-24103.517724,-9132.766322,0.003000,-0.010000,1.003500,192.000000,0.000000,0.000000,0.000000,0.000000,0.000000,0.000000,0.000000,0.000000,0.000000,1770371288.692047,0.000000
64.000000,11365.571483,10069.572636,-25671.403190,-5183.727167,-15060.136027,16418.473890,-16369.747087,-22546.048170,12233.489720,13948.002630,2321.452179,1353.152258,7833.101789,16130.762235,-24110.558523,-9132.587508,0.003000,-0.010000,1.003500,192.000000,0.000000,0.000000,0.000000,0.000000,0.000000,0.000000,0.000000,0.000000,0.000000,1770371288.692090,0.000000
66.000000,11367.247864,10071.427831,-25657.790978,-5181.179068,-15063.488789,16425.469986,-16359.822912,-22540.750806,12233.333258,13939.710133,2317.875900,1344.926816,7832.408885,16131.075159,-24104.992939,-9125.949040,0.003000,-0.010000,1.003500,192.000000,0.000000,0.000000,0.000000,0.000000,0.000000,0.000000,0.000000,0.000000,0.000000,1770371288.692131,0.000000
68.000000,11348.204177,10052.071220,-25675.560615,-5190.075063,-15072.317728,16411.030759,-16378.240750,-22563.147254,12237.401275,13943.778151,2312.444426,1347.206694,7846.579891,16140.485244,-24094.085287,-9110.660447,0.000500,-0.006000,1.004750,192.000000,127.500000,120.000000,127.500000,120.000000,15.500000,56.000000,0.000000,0.000000,0.000000,1770371288.692169,0.000000
70.000000,11333.407323,10039.934223,-25685.931824,-5196.087682,-15077.056298,16433.762483,-16385.639177,-22576.781818,12204.499507,13917.000761,2289.198612,1317.523577,7813.789882,16113.171412,-24114.693596,-9115.689589,0.000500,-0.006000,1.004750,192.000000,0.000000,0.000000,0.000000,0.000000,0.000000,0.000000,0.000000,0.000000,0.000000,1770371288.692207,0.000000
72.000000,11328.199366,10037.184958,-25683.696650,-5194.254839,-15075.737545,16423.570087,-16380.207703,-22575.328955,12200.453842,13921.158185,2285.443519,1323.424437,7805.765606,16123.810842,-24099.025023,-9092.667293,0.000500,-0.006000,1.004750,192.000000,0.000000,0.000000,0.000000,0.000000,0.000000,0.000000,0.000000,0.000000,0.000000,1770371288.692220,0.000000
74.000000,11308.887459,10016.241374,-25707.858885,-5198.971057,-15087.673377,16405.062843,-16399.206686,-22598.932397,12177.945635,13907.903601,2267.070385,1304.537213,7791.684007,16109.706892,-24110.737337,-9089.739214,0.000500,-0.006000,1.004750,192.000000,0.000000,0.000000,0.000000,0.000000,0.000000,0.000000,0.000000,0.000000,0.000000,1770371288.692231,0.000000
76.000000,11320.979753,10025.562051,-25692.592644,-5197.920525,-15082.018385,16414.294113,-16384.342776,-22586.147199,12181.745432,13901.801574,2267.092737,1301.072693,7797.249591,16112.478508,-24108.546866,-9089.091014,0.000500,-0.006000,1.004750,192.000000,0.000000,0.000000,0.000000,0.000000,0.000000,0.000000,0.000000,0.000000,0.000000,1770371288.692251,0.000000
78.000000,11304.215944,10009.245278,-25709.825839,-5207.509423,-15098.335159,16397.664416,-16397.105622,-22601.279330,12185.567580,13906.182516,2267.852696,1306.057132,7803.373969,16120.547488,-24101.617825,-9090.588580,0.000500,-0.006000,1.004750,192.000000,0.000000,0.000000,127.500000,96.000000,15.500000,32.000000,0.000000,0.000000,0.000000,1770371288.692263,0.000000
80.000000,11310.720302,10014.922621,-25705.333138,-5206.525946,-15096.122336,16401.955950,-16391.718852,-22594.015013,12163.037022,13895.230162,2254.933388,1287.728702,7778.742347,16099.961531,-24128.015235,-9118.572964,0.000500,-0.006000,1.004750,192.000000,0.000000,0.000000,0.000000,0.000000,0.000000,0.000000,0.000000,0.000000,0.000000,1770371288.692279,0.000000
82.000000,11339.442294,10043.108170,-25677.952251,-5198.971057,-15090.132068,16408.281494,-16367.869540,-22561.426170,12204.901839,13914.966752,2285.734091,1316.271879,7805.229164,16112.590267,-24111.564352,-9118.751778,0.000500,-0.006000,1.004750,192.000000,0.000000,0.000000,0.000000,0.000000,0.000000,0.000000,0.000000,0.000000,0.000000,1770371288.692304,0.000000
84.000000,11336.938898,10034.390990,-25684.367202,-5204.357827,-15087.136935,16411.589552,-16378.285453,-22566.388257,12210.914458,13917.067816,2297.982847,1317.165949,7826.150397,16116.524174,-24122.293189,-9140.030639,0.000500,-0.006000,1.004750,192.000000,0.000000,0.000000,0.000000,0.000000,0.000000,0.000000,0.000000,0.000000,0.000000,1770371288.692320,0.000000
86.000000,11363.291605,10060.497828,-25656.762797,-5190.075063,-15069.076725,16413.042416,-16356.648964,-22540.035551,12223.431435,13921.694627,2310.656287,1327.760676,7835.202853,16124.391988,-24112.614883,-9146.579700,0.000500,-0.006000,1.004750,192.000000,0.000000,0.000000,0.000000,0.000000,0.000000,0.000000,0.000000,0.000000,0.000000,1770371288.692331,0.000000
88.000000,11351.467532,10047.913795,-25669.637402,-5186.319969,-15075.223455,16401.821840,-16367.534264,-22551.591402,12238.675325,13937.542014,2322.301545,1343.138676,7849.150342,16139.725285,-24102.198971,-9133.906261,-0.000750,-0.008000,1.001375,192.000000,127.500000,120.000000,127.500000,88.000000,15.500000,24.000000,0.000000,0.000000,0.000000,1770371288.692343,0.000000
90.000000,11346.304279,10043.979888,-25675.672373,-5181.648455,-15076.966891,16419.122090,-16369.232997,-22555.704123,12214.155461,13924.309781,2306.744731,1323.893824,7825.569251,16126.358941,-24125.802413,-9141.617613,-0.000750,-0.008000,1.001375,192.000000,0.000000,0.000000,0.000000,0.000000,0.000000,0.000000,0.000000,0.000000,0.000000,1770371288.692363,0.000000
92.000000,11345.901948,10046.505636,-25670.576176,-5177.334568,-15072.183618,16427.034608,-16358.235938,-22546.830481,12221.285668,13934.122197,2310.321010,1336.410801,7835.962812,16153.024572,-24111.609055,-9122.305706,-0.000750,-0.008000,1.001375,192.000000,0.000000,0.000000,0.000000,0.000000,0.000000,0.000000,0.000000,0.000000,0.000000,1770371288.692374,0.000000
94.000000,11333.183805,10031.641725,-25685.082458,-5186.096452,-15082.711289,16415.054073,-16378.888950,-22564.957746,12206.779385,13918.408921,2299.368656,1324.810246,7813.141681,16129.957572,-24117.822840,-9120.361104,-0.000750,-0.008000,1.001375,192.000000,0.000000,0.000000,0.000000,0.000000,0.000000,0.000000,0.000000,0.000000,0.000000,1770371288.692386,0.000000
96.000000,11345.052581,10044.583386,-25669.860920,-5186.431728,-15072.809466,16431.281439,-16367.467209,-22552.396065,12212.568487,13920.867612,2300.061560,1324.452618,7823.222318,16125.353113,-24110.491468,-9111.107482,-0.000750,-0.008000,1.001375,192.000000,0.000000,0.000000,0.000000,0.000000,0.000000,0.000000,0.000000,0.000000,0.000000,1770371288.692397,0.000000
98.000000,11319.817462,10022.186938,-25688.502275,-5200.490975,-15073.837647,16429.917983,-16385.929750,-22575.328955,12221.442130,13925.673238,2301.380313,1327.984193,7825.904527,16131.365732,-24091.157209,-9092.756700,-0.000750,-0.008000,1.001375,192.000000,0.000000,0.000000,0.000000,0.000000,0.000000,0.000000,0.000000,0.000000,0.000000,1770371288.692408,0.000000
100.000000,11314.028360,10018.744769,-25695.364260,-5205.006028,-15074.999937,16433.136634,-16390.824782,-22582.213292,12185.679339,13904.997874,2277.866277,1299.329257,7808.537222,16112.880839,-24107.809258,-9102.658522,-0.006000,-0.014000,1.008000,192.000000,127.500000,104.000000,127.500000,72.000000,15.500000,64.000000,0.000000,0.000000,0.000000,1770371288.692420,0.000000
102.000000,11320.510366,10027.216080,-25685.440086,-5206.168319,-15065.813370,16463.624413,-16380.811200,-22575.127789,12204.834784,13916.263153,2283.320103,1311.019219,7822.730580,16129.868165,-24087.245654,-9079.122136,-0.006000,-0.014000,1.008000,192.000000,0.000000,0.000000,0.000000,0.000000,0.000000,0.000000,0.000000,0.000000,0.000000,1770371288.692430,0.000000
104.000000,11310.608543,10020.398798,-25707.478906,-5206.302429,-15064.807542,16458.416457,-16396.055090,-22588.985871,12190.194391,13909.714092,2272.390100,1300.044513,7798.233068,16117.239430,-24105.283511,-9080.396185,-0.006000,-0.014000,1.008000,192.000000,0.000000,0.000000,0.000000,0.000000,0.000000,0.000000,0.000000,0.000000,0.000000,1770371288.692442,0.000000
106.000000,11333.384971,10049.143141,-25686.065934,-5184.844754,-15078.486810,16452.627355,-16373.725697,-22561.627336,12193.569504,13927.126101,2277.642760,1316.026010,7820.227184,16141.893404,-24113.508953,-9072.774240,-0.006000,-0.014000,1.008000,192.000000,0.000000,0.000000,0.000000,0.000000,0.000000,0.000000,0.000000,0.000000,0.000000,1770371288.692453,0.000000
108.000000,11326.053599,10032.021705,-25692.190312,-5188.957475,-15075.111696,16446.570032,-16381.660567,-22572.914967,12218.022313,13938.100807,2295.010065,1334.555606,7829.369048,16146.900195,-24100.030851,-9064.548798,-0.006000,-0.014000,1.008000,192.000000,0.000000,0.000000,0.000000,0.000000,0.000000,0.000000,0.000000,0.000000,0.000000,1770371288.692464,0.000000
110.000000,11320.309200,10024.623278,-25691.966795,-5190.231525,-15085.281740,16433.047227,-16378.464267,-22576.603005,12199.291551,13911.546935,2279.676769,1305.453635,7823.199966,16122.000351,-24126.584724,-9090.074490,-0.006000,-0.014000,1.008000,192.000000,0.000000,0.000000,127.500000,64.000000,15.500000,88.000000,0.000000,0.000000,0.000000,1770371288.692475,0.000000
112.000000,11333.384971,10041.074162,-25674.554786,-5187.146984,-15095.787060,16429.538003,-16364.360316,-22558.788664,12215.429511,13923.192194,2290.897344,1323.379734,7827.916184,16132.617430,-24114.470078,-9089.761566,-0.006000,-0.014000,1.008000,192.000000,0.000000,0.000000,0.000000,0.000000,0.000000,0.000000,0.000000,0.000000,0.000000,1770371288.692487,0.000000
114.000000,11329.182843,10036.112074,-25692.123257,-5192.354940,-15094.021272,16413.020064,-16379.559503,-22568.444618,12213.216688,13919.280639,2291.322028,1320.742228,7835.940461,16116.345360,-24122.695520,-9113.834395,-0.006000,-0.014000,1.008000,192.000000,0.000000,0.000000,0.000000,0.000000,0.000000,0.000000,0.000000,0.000000,0.000000,1770371288.692498,0.000000
116.000000,11340.492826,10047.399705,-25673.124274,-5187.057577,-15085.549961,16410.404910,-16363.198026,-22554.295964,12211.473252,13921.515813,2292.663132,1324.474969,7825.278679,16130.270497,-24121.466174,-9123.736217,-0.006000,-0.014000,1.008000,192.000000,0.000000,0.000000,0.000000,0.000000,0.000000,0.000000,0.000000,0.000000,0.000000,1770371288.692509,0.000000
118.000000,11339.531701,10042.817598,-25681.796751,-5189.069234,-15081.794868,16417.803337,-16372.518703,-22561.269708,12223.386732,13932.445816,2303.168452,1335.047345,7832.967679,16121.776834,-24103.227151,-9113.633229,-0.006000,-0.014000,1.008000,192.000000,0.000000,0.000000,0.000000,0.000000,0.000000,0.000000,0.000000,0.000000,0.000000,1770371288.692520,0.000000
120.000000,11334.256689,10038.660173,-25681.863806,-5192.779624,-15071.021327,16430.499128,-16376.743183,-22566.432961,12207.025255,13918.721845,2293.601906,1316.920080,7836.007516,16114.959552,-24113.799526,-9120.137587,-0.002000,-0.012000,1.014000,192.000000,127.500000,120.000000,127.500000,80.000000,15.500000,88.000000,0.000000,0.000000,0.000000,1770371288.692531,0.000000
122.000000,11324.824253,10033.295755,-25678.466341,-5197.182917,-15077.011594,16439.506881,-16375.200912,-22569.562205,12212.993170,13922.387531,2295.032417,1322.172740,7836.275737,16128.325895,-24088.877331,-9091.728519,-0.002000,-0.012000,1.014000,192.000000,0.000000,0.000000,0.000000,0.000000,0.000000,0.000000,0.000000,0.000000,0.000000,1770371288.692549,0.000000
124.000000,11294.336473,10003.702045,-25709.132935,-5210.638667,-15100.324464,16429.448596,-16397.977340,-22601.994586,12180.985472,13908.060063,2267.316254,1298.792815,7803.575135,16117.284133,-24109.239770,-9092.779051,-0.002000,-0.012000,1.014000,192.000000,0.000000,0.000000,0.000000,0.000000,0.000000,0.000000,0.000000,0.000000,0.000000,1770371288.692560,0.000000
126.000000,11306.540526,10017.537775,-25692.704403,-5201.854432,-15092.009615,16418.742111,-16379.425392,-22583.643804,12167.306205,13900.035787,2257.749707,1294.970667,7795.416748,16100.967360,-24117.308750,-9102.703226,-0.002000,-0.012000,1.014000,192.000000,0.000000,0.000000,0.000000,0.000000,0.000000,0.000000,0.000000,0.000000,0.000000,1770371288.692571,0.000000
128.000000,11307.524002,10017.649533,-25702.315653,-5201.317990,-15095.608246,16416.059901,-16389.304863,-22584.560226,12190.730833,13915.726711,2271.764251,1312.874414,7811.510004,16115.585401,-24105.618787,-9101.116252,-0.002000,-0.012000,1.014000,192.000000,0.000000,0.000000,0.000000,0.000000,0.000000,0.000000,0.000000,0.000000,0.000000,1770371288.692582,0.000000
130.000000,11307.367540,10018.789472,-25697.152400,-5197.317028,-15093.104850,16419.032683,-16386.041508,-22580.358098,12171.597740,13904.439080,2270.736071,1298.591649,7795.707321,16112.299694,-24127.299980,-9119.712903,0.002000,-0.016000,1.008000,192.000000,0.000000,8.000000,127.500000,64.000000,15.500000,64.000000,0.000000,0.000000,0.000000,1770371288.692593,0.000000
132.000000,11312.508442,10027.327839,-25684.098981,-5189.829193,-15094.669473,16422.787776,-16372.049316,-22569.293984,12191.177868,13918.654790,2282.291923,1315.690734,7813.074626,16118.357017,-24106.803430,-9105.541897,0.002000,-0.016000,1.008000,192.000000,0.000000,0.000000,0.000000,0.000000,0.000000,0.000000,0.000000,0.000000,0.000000,1770371288.692604,0.000000
134.000000,11301.980770,10015.794339,-25700.549865,-5190.231525,-15095.362377,16424.620619,-16387.561427,-22586.080144,12177.520952,13914.743234,2272.166583,1307.509995,7808.805443,16115.875973,-24118.828668,-9115.577831,0.002000,-0.016000,1.008000,192.000000,0.000000,0.000000,0.000000,0.000000,0.000000,0.000000,0.000000,0.000000,0.000000,1770371288.692615,0.000000
136.000000,11332.133273,10046.885615,-25678.756914,-5173.355958,-15088.276874,16444.334858,-16367.020174,-22559.012182,12189.501487,13930.300049,2280.347321,1317.434170,7825.368086,16125.442520,-24119.834497,-9111.800386,0.002000,-0.016000,1.008000,192.000000,0.000000,0.000000,0.000000,0.000000,0.000000,0.000000,0.000000,0.000000,0.000000,1770371288.692626,0.000000
138.000000,11331.932107,10045.656269,-25678.958080,-5173.668882,-15082.666586,16436.511747,-16371.043488,-22556.888766,12211.696769,13954.954023,2299.301600,1344.032746,7844.322365,16154.008049,-24104.255331,-9103.977275,0.002000,-0.016000,1.008000,192.000000,0.000000,0.000000,0.000000,0.000000,0.000000,0.000000,0.000000,0.000000,0.000000,1770371288.692637,0.000000
140.000000,11344.158512,10057.703860,-25672.610184,-5173.624179,-15083.024214,16440.423303,-16366.997822,-22547.813958,12202.912534,13946.415656,2300.553298,1333.639185,7826.999763,16137.311296,-24118.962779,-9125.390247,0.004000,-0.018000,1.002000,192.000000,0.000000,16.000000,127.500000,56.000000,15.500000,40.000000,0.000000,0.000000,0.000000,1770371288.692648,0.000000
142.000000,11349.969965,10066.376336,-25663.937707,-5171.947798,-15079.112658,16436.981134,-16356.805427,-22539.029722,12222.917345,13963.313575,2314.970173,1352.995795,7853.575987,16140.373485,-24101.684880,-9116.382494,0.004000,-0.018000,1.002000,192.000000,0.000000,0.000000,0.000000,0.000000,0.000000,0.000000,0.000000,0.000000,0.000000,1770371288.692660,0.000000
144.000000,11336.469512,10052.272386,-25684.076629,-5180.240295,-15087.203990,16438.232832,-16378.352508,-22560.621507,12207.427586,13954.886968,2300.642705,1337.394278,7843.383592,16137.892441,-24114.939465,-9122.998610,0.004000,-0.018000,1.002000,192.000000,0.000000,0.000000,0.000000,0.000000,0.000000,0.000000,0.000000,0.000000,0.000000,1770371288.692671,0.000000
146.000000,11332.267384,10048.249072,-25673.012516,-5181.246123,-15069.188484,16441.563242,-16366.707249,-22555.525310,12199.649179,13950.394267,2297.893440,1332.678060,7822.417655,16132.438616,-24114.917113,-9117.813005,0.004000,-0.018000,1.002000,192.000000,0.000000,0.000000,0.000000,0.000000,0.000000,0.000000,0.000000,0.000000,0.000000,1770371288.692683,0.000000
148.000000,11316.822328,10030.770007,-25688.658737,-5193.450176,-15085.952292,16432.108454,-16381.079421,-22575.306603,12197.369301,13942.727619,2291.009103,1330.264071,7828.027943,16139.769988,-24102.601302,-9114.996685,0.004000,-0.018000,1.002000,192.000000,0.000000,0.000000,0.000000,0.000000,0.000000,0.000000,0.000000,0.000000,0.000000,1770371288.692694,0.000000
150.000000,11308.798052,10022.991600,-25691.139780,-5201.787377,-15098.625731,16421.133747,-16386.421488,-22583.017955,12165.383955,13920.442929,2272.881838,1303.710199,7813.342847,16102.420223,-24116.168811,-9145.730334,0.002000,-0.008000,1.012000,192.000000,0.000000,8.000000,127.500000,96.000000,15.500000,80.000000,0.000000,0.000000,0.000000,1770371288.692705,0.000000
152.000000,11312.508442,10031.373505,-25681.237958,-5200.178051,-15090.824972,16423.726550,-16377.614901,-22572.087952,12183.466516,13931.439988,2282.023702,1318.194129,7823.021152,16128.191784,-24097.795677,-9141.304689,0.002000,-0.008000,1.012000,192.000000,0.000000,0.000000,0.000000,0.000000,0.000000,0.000000,0.000000,0.000000,0.000000,1770371288.692716,0.000000
154.000000,11299.812651,10018.834176,-25705.534304,-5201.943839,-15084.208856,16427.951029,-16396.680939,-22591.533970,12170.703670,13918.833604,2272.390100,1305.833615,7814.326324,16123.900249,-24108.457459,-9142.466979,0.002000,-0.008000,1.012000,192.000000,0.000000,0.000000,0.000000,0.000000,0.000000,0.000000,0.000000,0.000000,0.000000,1770371288.692727,0.000000
156.000000,11323.952535,10043.152874,-25681.193254,-5184.978865,-15068.205007,16451.219195,-16373.636290,-22564.711876,12175.688109,13928.064874,2276.882801,1317.121246,7819.266059,16118.044092,-24104.478849,-9134.599165,0.002000,-0.008000,1.012000,192.000000,0.000000,0.000000,0.000000,0.000000,0.000000,0.000000,0.000000,0.000000,0.000000,1770371288.692739,0.000000
158.000000,11324.868956,10043.041115,-25682.891987,-5181.626103,-15070.686051,16452.672059,-16379.201875,-22568.243452,12207.606400,13945.119255,2293.713664,1340.121191,7843.562406,16146.319049,-24093.325328,-9119.668200,0.002000,-0.008000,1.012000,192.000000,0.000000,0.000000,0.000000,0.000000,0.000000,0.000000,0.000000,0.000000,0.000000,1770371288.692750,0.000000
160.000000,11337.900023,10053.099400,-25674.286565,-5173.847696,-15065.343984,16458.103533,-16375.267968,-22559.727437,12199.626827,13943.956964,2293.646609,1330.778161,7859.186275,16135.769026,-24110.044433,-9130.888776,0.002000,-0.007000,1.010000,192.000000,0.000000,8.000000,127.500000,104.000000,15.500000,64.000000,0.000000,0.000000,0.000000,1770371288.692761,0.000000
162.000000,11352.629823,10065.325804,-25657.679219,-5169.891437,-15062.259443,16462.417419,-16361.678107,-22542.449539,12224.616077,13962.911244,2314.076103,1352.012319,7863.477810,16158.612509,-24088.743220,-9115.734293,0.002000,-0.007000,1.010000,192.000000,0.000000,0.000000,0.000000,0.000000,0.000000,0.000000,0.000000,0.000000,0.000000,1770371288.692771,0.000000
164.000000,11333.250860,10042.661136,-25677.371106,-5185.314141,-15082.890103,16446.055942,-16379.626558,-22562.342592,12205.952371,13950.863654,2307.281173,1337.684850,7835.314612,16149.425942,-24105.149401,-9127.871290,0.002000,-0.007000,1.010000,192.000000,0.000000,0.000000,0.000000,0.000000,0.000000,0.000000,0.000000,0.000000,0.000000,1770371288.692782,0.000000
166.000000,11345.276099,10053.188807,-25667.268117,-5179.279170,-15084.119449,16452.515596,-16364.405020,-22548.104530,12196.721100,13939.196043,2303.257859,1331.806342,7829.145530,16147.771913,-24109.887971,-9129.145340,0.002000,-0.007000,1.010000,192.000000,0.000000,0.000000,0.000000,0.000000,0.000000,0.000000,0.000000,0.000000,0.000000,1770371288.692793,0.000000
168.000000,11333.407323,10045.030420,-25686.490618,-5183.213077,-15087.271045,16452.470893,-16375.290319,-22557.671077,12201.705539,13947.913223,2306.811787,1345.262092,7822.976449,16145.849663,-24103.696537,-9109.542860,0.002000,-0.007000,1.010000,192.000000,0.000000,0.000000,0.000000,0.000000,0.000000,0.000000,0.000000,0.000000,0.000000,1770371288.692804,0.000000
170.000000,11331.753293,10043.756371,-25689.373993,-5180.240295,-15101.553810,16431.996695,-16377.100811,-22560.196824,12181.588969,13936.267964,2292.730188,1332.432190,7808.693684,16131.231622,-24129.401044,-9121.389284,0.003000,-0.008500,1.007000,192.000000,0.000000,16.000000,127.500000,88.000000,15.500000,48.000000,0.000000,0.000000,0.000000,1770371288.692815,0.000000
172.000000,11323.885479,10040.537720,-25682.824931,-5186.476432,-15117.557659,16415.076424,-16369.970604,-22560.330935,12190.440260,13950.036639,2295.904135,1346.424382,7823.602298,16140.932279,-24114.581837,-9122.663334,0.003000,-0.008500,1.007000,192.000000,0.000000,0.000000,0.000000,0.000000,0.000000,0.000000,0.000000,0.000000,0.000000,1770371288.692826,0.000000
174.000000,11289.173220,10006.406606,-25705.869580,-5206.838871,-15124.017313,16398.960817,-16391.987072,-22592.785668,12155.862112,13923.013380,2270.780774,1319.177606,7795.506155,16115.697159,-24127.747014,-9153.933424,0.003000,-0.008500,1.007000,192.000000,0.000000,0.000000,0.000000,0.000000,0.000000,0.000000,0.000000,0.000000,0.000000,1770371288.692836,0.000000
176.000000,11292.794203,10012.329818,-25689.776324,-5207.285906,-15104.906571,16401.575971,-16379.805372,-22582.481513,12139.053600,13911.211659,2261.057766,1307.398237,7799.305952,16114.601924,-24119.946256,-9166.115125,0.003000,-0.008500,1.007000,192.000000,0.000000,0.000000,0.000000,0.000000,0.000000,0.000000,0.000000,0.000000,0.000000,1770371288.692846,0.000000
178.000000,11296.214020,10010.698141,-25690.737449,-5207.867051,-15094.937693,16417.468061,-16387.516724,-22582.772086,12161.003013,13919.750025,2275.787565,1314.975478,7813.968696,16126.537755,-24095.851075,-9153.955776,0.003000,-0.008500,1.007000,192.000000,0.000000,0.000000,0.000000,0.000000,0.000000,0.000000,0.000000,0.000000,0.000000,1770371289.172761,0.000000
180.000000,11315.481224,10026.925507,-25680.857978,-5193.941914,-15052.379972,16434.231869,-16383.046375,-22568.221100,12159.952481,13916.799595,2285.018836,1306.325353,7813.476957,16129.331723,-24100.813162,-9160.907168,0.004500,-0.010250,1.003500,192.000000,0.000000,24.000000,127.500000,80.000000,15.500000,32.000000,0.000000,0.000000,0.000000,1770371289.172824,0.000000
182.000000,11348.494750,10059.022612,-25657.634515,-5174.562952,-15041.941707,16467.915948,-16365.008517,-22538.761501,12199.760938,13953.545863,2314.679601,1344.837409,7844.679993,16155.215043,-24077.209720,-9133.168654,0.004500,-0.010250,1.003500,192.000000,0.000000,0.000000,0.000000,0.000000,0.000000,0.000000,0.000000,0.000000,0.000000,1770371289.172867,0.000000
184.000000,11343.487959,10052.764124,-25673.638365,-5177.736900,-15040.801768,16474.599120,-16381.705270,-22555.570013,12205.550039,13962.575968,2314.344324,1351.945263,7862.427278,16163.015802,-24088.385593,-9129.122988,0.004500,-0.010250,1.003500,192.000000,0.000000,0.000000,0.000000,0.000000,0.000000,0.000000,0.000000,0.000000,0.000000,1770371289.172909,0.000000
186.000000,11354.306204,10062.375374,-25660.495539,-5176.507554,-15033.515100,16472.229835,-16369.210645,-22548.708027,12203.538382,13961.659546,2304.464853,1349.888903,7855.118257,16170.816561,-24085.837494,-9120.562270,0.004500,-0.010250,1.003500,192.000000,0.000000,0.000000,0.000000,0.000000,0.000000,0.000000,0.000000,0.000000,0.000000,1770371289.172959,0.000000
188.000000,11340.626936,10045.320993,-25681.573234,-5184.129498,-15070.373126,16447.598213,-16379.157171,-22562.700219,12213.909592,13960.296090,2303.280211,1350.402993,7853.665394,16162.144084,-24084.295223,-9107.374741,0.004500,-0.010250,1.003500,192.000000,0.000000,0.000000,0.000000,0.000000,0.000000,0.000000,0.000000,0.000000,0.000000,1770371289.173000,0.000000
190.000000,11334.994296,10045.343345,-25683.853112,-5180.910847,-15095.027100,16436.087064,-16376.363203,-22561.225004,12182.103060,13936.782055,2285.354112,1329.191188,7823.736408,16151.415247,-24115.542962,-9123.311534,0.005250,-0.011125,1.003750,192.000000,0.000000,24.000000,127.500000,80.000000,15.500000,48.000000,0.000000,0.000000,0.000000,1770371289.173034,0.000000
192.000000,11340.917509,10055.334575,-25670.933803,-5177.289865,-15104.995978,16446.525329,-16364.002688,-22546.942240,12195.961141,13947.555595,2302.967286,1348.100763,7819.713094,16149.023610,-24102.422488,-9106.525374,0.005250,-0.011125,1.003750,192.000000,0.000000,0.000000,0.000000,0.000000,0.000000,0.000000,0.000000,0.000000,0.000000,1770371289.173045,0.000000
194.000000,11324.936011,10035.150949,-25689.753972,-5184.330664,-15110.494508,16444.357210,-16382.398174,-22567.416438,12181.767783,13937.497310,2297.111129,1337.729554,7797.026074,16137.646572,-24118.314578,-9106.815947,0.005250,-0.011125,1.003750,192.000000,0.000000,0.000000,0.000000,0.000000,0.000000,0.000000,0.000000,0.000000,0.000000,1770371289.173056,0.000000
196.000000,11335.195462,10042.772894,-25671.269080,-5178.876839,-15108.393444,16439.976268,-16366.327270,-22550.786740,12184.315882,13931.931726,2300.642705,1336.679022,7805.296219,16143.167453,-24120.214477,-9100.400996,0.005250,-0.011125,1.003750,192.000000,0.000000,0.000000,0.000000,0.000000,0.000000,0.000000,0.000000,0.000000,0.000000,1770371289.173066,0.000000
198.000000,11317.559936,10023.550394,-25686.535321,-5195.439481,-15108.482851,16429.113320,-16382.688747,-22567.259975,12193.927132,13933.205775,2309.583403,1341.439943,7821.009495,16135.679619,-24107.049299,-9101.943267,0.005250,-0.011125,1.003750,192.000000,0.000000,0.000000,0.000000,0.000000,0.000000,0.000000,0.000000,0.000000,0.000000,1770371289.173077,0.000000
200.000000,11314.698912,10017.470720,-25689.485751,-5203.419054,-15104.660702,16419.345608,-16386.130915,-22571.484455,12162.925263,13907.613028,2293.288981,1309.655763,7791.706358,16121.799185,-24120.885029,-9132.296936,0.005625,-0.012563,1.003875,192.000000,0.000000,24.000000,127.500000,72.000000,15.500000,48.000000,0.000000,0.000000,0.000000,1770371289.173087,0.000000
202.000000,11322.209099,10028.199557,-25674.621841,-5205.631877,-15093.283664,16403.274703,-16375.469133,-22559.839196,12184.181772,13916.129043,2302.542603,1322.038629,7811.264135,16139.211194,-24098.689747,-9132.073418,0.005625,-0.012563,1.003875,192.000000,0.000000,0.000000,0.000000,0.000000,0.000000,0.000000,0.000000,0.000000,0.000000,1770371289.173098,0.000000
204.000000,11314.341285,10019.884708,-25684.411905,-5208.872880,-15082.152496,16393.641102,-16388.388442,-22572.155007,12175.978682,13911.703397,2289.176260,1310.527481,7821.635344,16112.702025,-24099.159133,-9151.519436,0.005625,-0.012563,1.003875,192.000000,0.000000,0.000000,0.000000,0.000000,0.000000,0.000000,0.000000,0.000000,0.000000,1770371289.173108,0.000000
206.000000,11343.420904,10050.864226,-25658.103902,-5192.891382,-15056.358583,16422.720721,-16366.506084,-22544.192975,12191.267275,13924.801519,2295.345342,1325.011411,7833.638231,16126.001313,-24099.136782,-9151.541788,0.005625,-0.012563,1.003875,192.000000,0.000000,0.000000,0.000000,0.000000,0.000000,0.000000,0.000000,0.000000,0.000000,1770371289.173119,0.000000
208.000000,11345.454913,10051.959461,-25657.813329,-5187.951647,-15063.689955,16440.199785,-16372.094020,-22543.522423,12228.035894,13953.255290,2317.853548,1352.973444,7878.341720,16155.483264,-24080.964813,-9128.407732,0.005625,-0.012563,1.003875,192.000000,0.000000,0.000000,0.000000,0.000000,0.000000,0.000000,0.000000,0.000000,0.000000,1770371289.173129,0.000000
210.000000,11342.571538,10049.679583,-25654.415864,-5185.202382,-15066.774495,16442.502015,-16371.870502,-22544.997638,12217.128243,13935.753874,2312.980868,1337.237816,7879.615769,16142.362790,-24099.047375,-9132.296936,0.001812,-0.013281,1.001937,192.000000,127.500000,120.000000,127.500000,72.000000,15.500000,32.000000,0.000000,0.000000,0.000000,1770371289.173140,0.000000
212.000000,11347.511273,10052.585310,-25644.335228,-5184.777699,-15060.761876,16453.946108,-16361.499293,-22538.023894,12233.981458,13948.002630,2326.995412,1350.023013,7874.608979,16160.490055,-24084.406982,-9108.559383,0.001812,-0.013281,1.001937,192.000000,0.000000,0.000000,0.000000,0.000000,0.000000,0.000000,0.000000,0.000000,0.000000,1770371289.173150,0.000000
214.000000,11325.383046,10031.686429,-25672.207853,-5192.042016,-15069.032022,16456.293041,-16383.158133,-22560.889728,12214.513089,13928.087226,2317.071237,1328.520635,7852.547807,16142.988639,-24097.438049,-9107.285334,0.001812,-0.013281,1.001937,192.000000,0.000000,0.000000,0.000000,0.000000,0.000000,0.000000,0.000000,0.000000,0.000000,1770371289.173160,0.000000
216.000000,11338.503520,10052.518255,-25665.167053,-5179.033301,-15077.279815,16458.505864,-16368.137761,-22546.294039,12198.129260,13933.764569,2312.891461,1331.024031,7843.942385,16150.901157,-24101.863694,-9092.644941,0.001812,-0.013281,1.001937,192.000000,0.000000,0.000000,0.000000,0.000000,0.000000,0.000000,0.000000,0.000000,0.000000,1770371289.173171,0.000000
218.000000,11325.695971,10039.621298,-25680.500350,-5182.363711,-15081.973682,16458.394105,-16380.230055,-22563.191958,12213.261391,13952.450627,2312.936164,1345.195037,7864.505990,16169.318994,-24098.577988,-9077.579865,0.001812,-0.013281,1.001937,192.000000,0.000000,0.000000,0.000000,0.000000,0.000000,0.000000,0.000000,0.000000,0.000000,1770371289.173181,0.000000
220.000000,11315.481224,10030.054752,-25688.725792,-5187.795185,-15096.323502,16453.230852,-16383.404003,-22576.178321,12183.086536,13928.109578,2287.969266,1319.557586,7812.404074,16142.027514,-24122.047320,-9092.555534,-0.001094,-0.012641,1.000969,192.000000,127.500000,112.000000,127.500000,80.000000,15.500000,32.000000,0.000000,0.000000,0.000000,1770371289.173192,0.000000
222.000000,11309.088625,10026.433769,-25685.305975,-5192.399644,-15093.082499,16442.300849,-16377.950177,-22577.050039,12188.227438,13933.429293,2284.683559,1323.379734,7815.488614,16154.432732,-24104.232979,-9085.827659,-0.001094,-0.012641,1.000969,192.000000,0.000000,0.000000,0.000000,0.000000,0.000000,0.000000,0.000000,0.000000,0.000000,1770371289.173202,0.000000
