Sample_index,EXG Channel 0,EXG Channel 1,EXG Channel 2,EXG Channel 3,EXG Channel 4,EXG Channel 5,EXG Channel 6,EXG Channel 7,EXG Channel 8,EXG Channel 9,EXG Channel 10,EXG Channel 11,EXG Channel 12,EXG Channel 13,EXG Channel 14,EXG Channel 15,Accel Channel 0,Accel Channel 1,Accel Channel 2,Not Used,Digital Channel 0 (D11),Digital Channel 1 (D12),Digital Channel 2 (D13),Digital Channel 3 (D17),Not Used,Digital Channel 4 (D18),Analog Channel 0,Analog Channel 1,Analog Channel 2,Timestamp,Marker Channel
90.000000,11102.871430,11108.481718,-23704.874361,-3709.651972,-13254.159779,13519.899669,-6346.979004,-11866.965814,9948.962623,14235.803692,7151.150066,-559.106536,8390.263723,13373.428687,-24264.115007,-6282.829497,-0.002000,-0.018000,1.000000,192.000000,0.000000,0.000000,0.000000,0.000000,0.000000,0.000000,0.000000,0.000000,0.000000,1770373062.513313,101.000000
92.000000,11097.104680,11103.787852,-23707.221294,-3704.265202,-13251.119942,13517.955067,-6345.570844,-11873.090192,9943.553501,14225.208965,7122.226908,-574.238667,8381.747709,13354.519111,-24274.039182,-6278.761480,-0.002000,-0.018000,1.000000,192.000000,0.000000,0.000000,0.000000,0.000000,0.000000,0.000000,0.000000,0.000000,0.000000,1770373062.513376,0.000000
94.000000,11094.936561,11096.210610,-23703.555608,-3705.472196,-13234.199671,13532.975439,-6348.275405,-11879.885123,9936.400942,14225.544241,7132.374600,-580.117176,8416.057636,13383.129344,-24259.197624,-6278.448555,-0.002000,-0.018000,1.000000,192.000000,0.000000,0.000000,127.500000,80.000000,15.500000,48.000000,0.000000,0.000000,0.000000,1770373062.513419,0.000000
96.000000,11081.704328,11087.225209,-23703.309739,-3720.000830,-13248.035401,13517.843308,-6359.808905,-11889.719890,9933.115236,14212.289657,7114.381446,-586.710940,8388.073252,13348.774713,-24253.207356,-6266.244503,-0.002000,-0.018000,1.000000,192.000000,0.000000,0.000000,0.000000,0.000000,0.000000,0.000000,0.000000,0.000000,0.000000,1770373062.513460,0.000000
98.000000,11088.990997,11093.930732,-23691.798591,-3699.750149,-13225.415435,13543.100779,-6350.465876,-11882.723794,9934.791617,14213.451947,7110.894574,-586.956809,8375.265703,13350.518149,-24245.898336,-6252.341718,-0.002000,-0.018000,1.000000,192.000000,0.000000,0.000000,0.000000,0.000000,0.000000,0.000000,0.000000,0.000000,0.000000,1770373062.513502,0.000000
100.000000,11085.884104,11092.008482,-23706.573094,-3703.885222,-13239.497034,13517.865660,-6353.304547,-11881.986187,9934.545748,14219.039883,7127.300754,-578.887830,8400.322008,13355.591995,-24245.048969,-6239.668279,-0.002000,-0.018000,1.000000,192.000000,0.000000,0.000000,0.000000,0.000000,0.000000,0.000000,0.000000,0.000000,0.000000,1770373062.513531,0.000000
102.000000,11088.633369,11094.847154,-23712.071623,-3699.191356,-13244.436770,13524.638239,-6346.308451,-11871.883198,9942.145341,14212.513174,7114.113225,-576.920876,8372.985825,13372.892245,-24259.801121,-6237.790732,-0.002000,-0.018000,1.000000,192.000000,0.000000,0.000000,0.000000,0.000000,0.000000,0.000000,0.000000,0.000000,0.000000,1770373062.513547,0.000000
104.000000,11093.215477,11100.390387,-23716.340806,-3704.511071,-13235.004334,13530.449692,-6343.603890,-11870.318576,9935.037486,14220.917430,7133.894519,-571.288237,8385.458098,13369.315966,-24261.812778,-6244.004517,-0.002000,-0.018000,1.000000,192.000000,0.000000,0.000000,127.500000,80.000000,15.500000,56.000000,0.000000,0.000000,0.000000,1770373062.513589,0.000000
106.000000,11079.245636,11088.298093,-23720.207658,-3695.302152,-13258.831293,13513.417663,-6353.282196,-11880.198047,9935.708038,14220.291581,7118.762388,-572.517582,8379.825459,13352.306289,-24269.434723,-6247.178465,-0.002000,-0.018000,1.000000,192.000000,0.000000,0.000000,0.000000,0.000000,0.000000,0.000000,0.000000,0.000000,0.000000,1770373062.513602,0.000000
108.000000,11091.852020,11098.848116,-23704.270864,-3691.323542,-13227.583555,13548.778123,-6345.079106,-11869.625672,9943.508797,14212.401415,7119.499996,-576.607952,8372.829362,13366.074963,-24260.561080,-6251.268834,-0.002000,-0.018000,1.000000,192.000000,0.000000,0.000000,0.000000,0.000000,0.000000,0.000000,0.000000,0.000000,0.000000,1770373062.513614,0.000000
110.000000,11087.135802,11091.002654,-23703.533256,-3713.876452,-13227.628258,13536.775236,-6353.371603,-11877.538190,9943.128817,14218.190517,7134.833292,-575.959751,8401.596058,13364.487989,-24249.720484,-6260.522456,-0.002000,-0.018000,1.000000,192.000000,0.000000,0.000000,0.000000,0.000000,0.000000,0.000000,0.000000,0.000000,0.000000,1770373062.513627,0.000000
112.000000,11095.003616,11100.748015,-23693.273806,-3708.243812,-13240.212290,13536.641125,-6346.330803,-11869.871541,9954.796428,14215.038921,7119.768217,-582.777033,8388.095604,13354.273242,-24251.978010,-6267.742070,-0.002000,-0.018000,1.000000,192.000000,0.000000,0.000000,0.000000,0.000000,0.000000,0.000000,0.000000,0.000000,0.000000,1770373062.513639,0.000000
114.000000,11099.161041,11105.687750,-23697.744155,-3688.484870,-13236.948936,13543.659573,-6341.301661,-11866.384669,9948.470884,14233.143834,7144.891577,-569.187173,8386.642741,13371.685251,-24255.353124,-6276.995692,-0.002000,-0.018000,1.000000,192.000000,0.000000,0.000000,127.500000,72.000000,15.500000,48.000000,0.000000,0.000000,0.000000,1770373062.513652,0.000000
116.000000,11089.035700,11095.160078,-23707.869495,-3708.869661,-13261.804075,13522.291305,-6348.141294,-11876.666472,9947.398001,14225.566593,7130.787627,-570.863553,8392.722415,13363.772734,-24266.506644,-6270.692500,-0.002000,-0.018000,1.000000,192.000000,0.000000,0.000000,0.000000,0.000000,0.000000,0.000000,0.000000,0.000000,0.000000,1770373062.513663,0.000000
118.000000,11085.973511,11088.365148,-23700.024033,-3695.883297,-13249.711782,13535.791759,-6341.502826,-11879.661605,9944.715791,14220.224526,7121.690467,-577.591428,8405.194688,13383.352862,-24266.998382,-6267.987939,-0.002000,-0.018000,1.000000,192.000000,0.000000,0.000000,0.000000,0.000000,0.000000,0.000000,0.000000,0.000000,0.000000,1770373062.513674,0.000000
120.000000,11067.622729,11070.103773,-23702.661538,-3716.603365,-13271.258863,13512.165965,-6354.243321,-11899.107623,9926.074436,14209.048654,7118.605926,-587.761472,8376.651511,13375.440344,-24259.622307,-6262.489410,-0.002000,-0.018000,1.000000,192.000000,0.000000,0.000000,0.000000,0.000000,0.000000,0.000000,0.000000,0.000000,0.000000,1770373062.513685,0.000000
122.000000,11065.566369,11065.119334,-23698.817038,-3709.383751,-13255.836160,13516.569259,-6356.076164,-11903.130937,9936.915032,14196.844601,7096.544754,-598.892641,8375.176296,13333.284954,-24253.676743,-6253.101677,-0.002000,-0.018000,1.000000,192.000000,0.000000,0.000000,0.000000,0.000000,0.000000,0.000000,0.000000,0.000000,0.000000,1770373062.513697,0.000000
124.000000,11074.954101,11075.244674,-23700.940454,-3695.771539,-13233.506767,13538.518672,-6347.403687,-11892.200934,9931.438855,14199.437404,7118.807092,-596.031618,8380.697177,13335.765998,-24233.493118,-6247.357279,-0.002000,-0.018000,1.000000,192.000000,0.000000,0.000000,127.500000,120.000000,15.500000,56.000000,0.000000,0.000000,0.000000,1770373062.513708,0.000000
126.000000,11075.825819,11079.513857,-23714.329149,-3712.870623,-13241.508691,13508.701445,-6350.935263,-11887.819992,9937.652640,14206.858183,7120.103493,-589.527260,8369.722470,13344.393771,-24241.629152,-6256.208570,-0.002000,-0.018000,1.000000,192.000000,0.000000,0.000000,0.000000,0.000000,0.000000,0.000000,0.000000,0.000000,0.000000,1770373062.513720,0.000000
128.000000,11091.628503,11092.768442,-23705.008472,-3691.077672,-13238.647668,13524.817052,-6335.065524,-11870.832666,9946.839207,14220.224526,7127.568975,-577.725539,8395.382273,13380.625949,-24248.334676,-6266.311558,-0.002000,-0.018000,1.000000,192.000000,0.000000,0.000000,0.000000,0.000000,0.000000,0.000000,0.000000,0.000000,0.000000,1770373062.513731,0.000000
130.000000,11077.099869,11079.737375,-23718.553629,-3705.002809,-13266.497942,13508.701445,-6344.252091,-11882.343815,9939.060800,14222.035017,7136.889653,-570.952960,8376.472697,13366.812571,-24263.802083,-6273.933503,-0.002000,-0.018000,1.000000,192.000000,0.000000,0.000000,0.000000,0.000000,0.000000,0.000000,0.000000,0.000000,0.000000,1770373062.513742,0.000000
132.000000,11068.539151,11070.774325,-23720.632341,-3714.591708,-13278.791401,13496.206820,-6349.191826,-11894.078480,9936.959736,14206.344093,7104.792548,-583.671103,8360.848827,13330.111007,-24279.805932,-6277.532134,-0.002000,-0.018000,1.000000,192.000000,0.000000,0.000000,0.000000,0.000000,0.000000,0.000000,0.000000,0.000000,0.000000,1770373062.513753,0.000000
134.000000,11062.012441,11063.331194,-23717.704262,-3705.807472,-13266.386183,13518.402102,-6350.354117,-11900.135803,9924.845090,14203.974808,7111.989810,-594.109368,8353.271586,13366.298481,-24273.569795,-6277.509782,-0.003000,-0.011000,1.004000,192.000000,127.500000,112.000000,127.500000,112.000000,15.500000,64.000000,0.000000,0.000000,0.000000,1770373062.513764,0.000000
136.000000,11066.907473,11066.661604,-23707.042480,-3726.751057,-13271.862360,13524.392369,-6355.942053,-11899.331140,9931.863538,14198.722148,7102.803243,-603.899432,8369.700118,13349.959356,-24271.826359,-6279.141459,-0.003000,-0.011000,1.004000,192.000000,0.000000,0.000000,0.000000,0.000000,0.000000,0.000000,0.000000,0.000000,0.000000,1770373062.513775,0.000000
138.000000,11094.109546,11092.410814,-23686.970614,-3693.424606,-13232.098607,13549.023992,-6341.748696,-11875.504181,9949.432009,14216.134157,7113.912060,-592.589449,8383.737014,13357.626004,-24257.096560,-6273.777041,-0.003000,-0.011000,1.004000,192.000000,0.000000,0.000000,0.000000,0.000000,0.000000,0.000000,0.000000,0.000000,0.000000,1770373062.513786,0.000000
140.000000,11106.738282,11105.777157,-23676.688811,-3736.831693,-13231.361000,13561.652727,-6341.726344,-11861.020250,9961.032565,14232.607392,7148.177284,-575.199792,8406.669904,13433.085493,-24249.206394,-6274.693462,-0.003000,-0.011000,1.004000,192.000000,0.000000,0.000000,0.000000,0.000000,0.000000,0.000000,0.000000,0.000000,0.000000,1770373062.513798,0.000000
142.000000,11098.512840,11098.401081,-23681.539140,-3680.818222,-13233.082084,13525.889936,-6334.596137,-11859.969718,9974.711832,14237.569480,7143.259900,-558.994777,8404.747654,13384.291635,-24248.267621,-6281.041358,-0.003000,-0.011000,1.004000,192.000000,0.000000,0.000000,0.000000,0.000000,0.000000,0.000000,0.000000,0.000000,0.000000,1770373062.513810,0.000000
144.000000,11078.552732,11078.306863,-23690.748059,-3716.089274,-13244.414418,13525.465253,-6337.658326,-11874.140724,9948.604995,14209.942724,7147.439676,-563.599236,8379.132554,13339.744608,-24246.010094,-6272.793564,-0.003000,-0.011000,1.004000,192.000000,0.000000,0.000000,127.500000,96.000000,15.500000,56.000000,0.000000,0.000000,0.000000,1770373062.513821,0.000000
146.000000,11048.064953,11051.462418,-23709.858800,-3712.758864,-13284.871076,13494.128107,-6351.717574,-11898.638236,9921.402922,14192.865991,7110.246373,-588.230859,8372.784659,13323.293724,-24252.782673,-6274.581703,-0.003000,-0.011000,1.004000,192.000000,0.000000,0.000000,0.000000,0.000000,0.000000,0.000000,0.000000,0.000000,0.000000,1770373062.513833,0.000000
148.000000,11063.398250,11066.147514,-23706.774259,-3692.910515,-13257.825465,13530.181471,-6346.040231,-11887.998806,9914.585640,14185.668729,7097.639990,-599.250269,8330.741028,13332.435588,-24253.810853,-6256.879122,-0.003000,-0.011000,1.004000,192.000000,0.000000,0.000000,0.000000,0.000000,0.000000,0.000000,0.000000,0.000000,0.000000,1770373062.513844,0.000000
150.000000,11075.781116,11078.262160,-23711.244608,-3700.465405,-13277.763221,13514.982285,-6349.124771,-11880.175695,9927.259079,14206.813479,7124.439731,-583.782862,8352.578682,13371.394679,-24257.811815,-6249.212474,-0.003000,-0.011000,1.004000,192.000000,0.000000,0.000000,0.000000,0.000000,0.000000,0.000000,0.000000,0.000000,0.000000,1770373062.513855,0.000000
152.000000,11086.398195,11088.923942,-23710.797573,-3702.365303,-13271.258863,13512.523593,-6341.994565,-11867.122277,9941.877120,14204.555953,7115.722551,-580.184231,8379.289017,13352.328641,-24271.982821,-6257.303805,-0.003000,-0.011000,1.004000,192.000000,0.000000,0.000000,0.000000,0.000000,0.000000,0.000000,0.000000,0.000000,0.000000,1770373062.513867,0.000000
154.000000,11095.495355,11100.010407,-23698.884094,-3698.140824,-13249.532968,13529.577974,-6335.601966,-11857.779247,9952.561254,14226.885346,7147.864359,-554.904408,8371.890589,13381.810591,-24265.187891,-6268.792602,-0.003000,-0.011000,1.004000,192.000000,0.000000,0.000000,0.000000,0.000000,0.000000,0.000000,0.000000,0.000000,0.000000,1770373062.513878,0.000000
156.000000,11068.002709,11077.345738,-23714.038576,-3712.356533,-13265.358003,13499.738395,-6350.108248,-11883.953140,9945.207530,14221.565631,7129.446522,-562.615760,8373.142287,13381.475315,-24267.378362,-6276.571009,-0.002000,-0.012000,1.006000,192.000000,127.500000,120.000000,127.500000,80.000000,15.500000,56.000000,0.000000,0.000000,0.000000,1770373062.513889,0.000000
158.000000,11062.303014,11074.931750,-23710.283483,-3701.694751,-13239.161758,13528.080407,-6348.342460,-11890.278684,9930.343620,14210.143889,7104.501975,-580.251286,8367.599054,13363.929196,-24263.980897,-6276.280436,-0.002000,-0.012000,1.006000,192.000000,0.000000,0.000000,0.000000,0.000000,0.000000,0.000000,0.000000,0.000000,0.000000,1770373062.513924,0.000000
160.000000,11048.601395,11058.503218,-23717.301931,-3721.721914,-13250.024706,13530.047361,-6356.366736,-11902.773309,9918.564250,14203.773642,7112.481548,-588.409673,8383.960531,13368.153676,-24251.553327,-6276.526305,-0.002000,-0.012000,1.006000,192.000000,0.000000,0.000000,0.000000,0.000000,0.000000,0.000000,0.000000,0.000000,0.000000,1770373062.513937,0.000000
162.000000,11061.520703,11068.472096,-23704.337919,-3713.451769,-13248.303622,13543.413704,-6351.091725,-11896.000731,9925.716809,14196.665787,7091.292094,-598.266792,8357.674880,13383.755193,-24255.017847,-6260.567160,-0.002000,-0.012000,1.006000,192.000000,0.000000,0.000000,0.000000,0.000000,0.000000,0.000000,0.000000,0.000000,0.000000,1770373062.513948,0.000000
164.000000,11083.201895,11085.817049,-23690.345727,-3677.621922,-13237.731247,13563.686736,-6341.011088,-11880.510972,9944.268756,14209.830965,7121.668115,-584.609876,8384.765194,13361.694021,-24246.635943,-6251.380593,-0.002000,-0.012000,1.006000,192.000000,0.000000,0.000000,0.000000,0.000000,0.000000,0.000000,0.000000,0.000000,0.000000,1770373062.513959,0.000000
166.000000,11084.520648,11086.286436,-23694.704317,-3695.950353,-13250.315279,13543.279593,-6343.536835,-11876.465306,9963.357146,14215.776529,7127.233699,-572.025844,8387.089775,13371.864065,-24249.921650,-6243.825703,-0.002000,-0.012000,1.006000,192.000000,0.000000,0.000000,127.500000,88.000000,15.500000,40.000000,0.000000,0.000000,0.000000,1770373062.513971,0.000000
168.000000,11083.715985,11085.079442,-23686.501227,-3683.209858,-13234.870223,13551.952070,-6333.210329,-11871.771440,9959.780867,14220.246878,7127.099589,-568.494268,8396.522212,13377.742574,-24250.838071,-6240.607052,-0.002000,-0.012000,1.006000,192.000000,0.000000,0.000000,0.000000,0.000000,0.000000,0.000000,0.000000,0.000000,0.000000,1770373062.513981,0.000000
170.000000,11049.808389,11055.888063,-23693.072640,-3710.277821,-13248.393029,13516.792776,-6347.940129,-11897.475946,9935.439817,14203.773642,7128.083066,-580.363045,8372.717604,13372.869894,-24249.541670,-6248.944253,-0.002000,-0.012000,1.006000,192.000000,0.000000,0.000000,0.000000,0.000000,0.000000,0.000000,0.000000,0.000000,0.000000,1770373062.513992,0.000000
172.000000,11041.582947,11048.959023,-23690.971576,-3721.140769,-13259.948881,13503.269971,-6351.494056,-11905.813146,9927.348486,14186.406337,7090.733301,-597.976219,8382.775889,13364.018603,-24247.708827,-6268.122049,-0.002000,-0.012000,1.006000,192.000000,0.000000,0.000000,0.000000,0.000000,0.000000,0.000000,0.000000,0.000000,0.000000,1770373062.514004,0.000000
174.000000,11046.522682,11051.775342,-23693.720841,-3722.124245,-13244.257956,13511.562468,-6349.862379,-11903.332103,9912.573983,14183.679424,7099.405777,-598.825586,8368.448421,13329.999248,-24242.232650,-6281.063709,-0.002000,-0.012000,1.006000,192.000000,0.000000,0.000000,0.000000,0.000000,0.000000,0.000000,0.000000,0.000000,0.000000,1770373062.514019,0.000000
176.000000,11053.608185,11060.000784,-23707.288350,-3716.558661,-13262.944014,13498.374939,-6353.170437,-11898.615885,9922.162881,14192.530715,7100.255144,-594.846975,8354.053897,13350.965184,-24243.439644,-6280.661378,-0.002000,-0.012000,1.006000,192.000000,0.000000,0.000000,127.500000,96.000000,15.500000,56.000000,0.000000,0.000000,0.000000,1770373062.514030,0.000000
178.000000,11071.958968,11077.479849,-23700.426364,-3694.743358,-13238.580613,13527.789834,-6339.133541,-11878.566370,9935.283355,14204.354787,7109.106434,-584.900449,8353.673917,13348.260623,-24243.171423,-6273.218247,-0.002000,-0.012000,1.006000,192.000000,0.000000,0.000000,0.000000,0.000000,0.000000,0.000000,0.000000,0.000000,0.000000,1770373062.514040,0.000000
180.000000,11071.333119,11076.585779,-23704.427326,-3704.466367,-13250.695258,13519.899669,-6345.324975,-11879.192219,9938.412599,14218.950477,7131.458179,-576.451490,8376.472697,13387.800859,-24241.003304,-6269.999596,-0.002000,-0.012000,1.006000,192.000000,0.000000,0.000000,0.000000,0.000000,0.000000,0.000000,0.000000,0.000000,0.000000,1770373062.514051,0.000000
182.000000,11071.601340,11071.176657,-23704.494381,-3704.175795,-13252.997488,13523.654762,-6348.901254,-11881.963835,9951.577777,14209.115709,7114.716722,-577.144394,8372.181162,13377.496705,-24250.033408,-6266.378613,-0.002000,-0.012000,1.006000,192.000000,0.000000,0.000000,0.000000,0.000000,0.000000,0.000000,0.000000,0.000000,0.000000,1770373062.514062,0.000000
184.000000,11065.834590,11065.700479,-23705.544913,-3690.652989,-13238.915889,13542.989021,-6347.716611,-11884.467230,9944.358163,14206.724072,7128.440693,-578.306684,8386.888610,13371.417030,-24243.797272,-6259.494276,-0.002000,-0.012000,1.006000,192.000000,0.000000,0.000000,0.000000,0.000000,0.000000,0.000000,0.000000,0.000000,0.000000,1770373062.514072,0.000000
186.000000,11062.839456,11063.152380,-23705.366100,-3713.250603,-13240.391104,13522.291305,-6355.673832,-11889.719890,9943.508797,14194.609427,7114.739074,-589.683722,8386.419223,13378.904865,-24247.060626,-6254.711003,0.002000,-0.008000,1.008000,192.000000,0.000000,8.000000,127.500000,96.000000,15.500000,64.000000,0.000000,0.000000,0.000000,1770373062.514083,0.000000
188.000000,11077.613959,11075.758764,-23688.959919,-3695.346856,-13220.296886,13559.082277,-6344.967347,-11875.191256,9949.230844,14203.617180,7114.716722,-586.621533,8382.150040,13378.167257,-24245.741873,-6247.513741,0.002000,-0.008000,1.008000,192.000000,0.000000,0.000000,0.000000,0.000000,0.000000,0.000000,0.000000,0.000000,0.000000,1770373062.514094,0.000000
190.000000,11083.023081,11079.066822,-23688.177608,-3712.423588,-13237.306564,13560.021050,-6346.956652,-11876.353547,9956.092829,14210.076834,7139.951842,-576.429138,8416.124692,13391.779469,-24238.879888,-6238.640098,0.002000,-0.008000,1.008000,192.000000,0.000000,0.000000,0.000000,0.000000,0.000000,0.000000,0.000000,0.000000,0.000000,1770373062.514105,0.000000
192.000000,11081.100831,11079.983244,-23689.608120,-3699.079597,-13243.855625,13558.031745,-6343.112152,-11875.526533,9964.340623,14207.573439,7120.282307,-582.799385,8392.364787,13370.835885,-24246.323019,-6230.437008,0.002000,-0.008000,1.008000,192.000000,0.000000,0.000000,0.000000,0.000000,0.000000,0.000000,0.000000,0.000000,0.000000,1770373062.514116,0.000000
194.000000,11078.329215,11080.542038,-23689.228140,-3695.369207,-13236.412494,13563.731440,-6338.865321,-11873.894855,9952.784771,14215.485956,7136.420266,-572.092899,8391.783642,13376.669690,-24241.092711,-6243.333965,0.002000,-0.008000,1.008000,192.000000,0.000000,0.000000,0.000000,0.000000,0.000000,0.000000,0.000000,0.000000,0.000000,1770373062.514126,0.000000
196.000000,11057.832665,11061.632462,-23699.867570,-3712.982382,-13264.687450,13517.016294,-6353.013975,-11890.032815,9944.045239,14206.165279,7116.884842,-578.574905,8386.978017,13367.684289,-24251.687437,-6263.137610,0.002000,-0.008000,1.008000,192.000000,0.000000,0.000000,127.500000,96.000000,15.500000,64.000000,0.000000,0.000000,0.000000,1770373062.514136,0.000000
198.000000,11055.262215,11059.441991,-23689.831637,-3707.953239,-13240.815787,13526.381675,-6350.376469,-11892.491507,9935.819797,14195.101165,7100.255144,-584.900449,8360.535903,13349.177045,-24250.860423,-6273.464116,0.002000,-0.008000,1.008000,192.000000,0.000000,0.000000,0.000000,0.000000,0.000000,0.000000,0.000000,0.000000,0.000000,1770373062.514148,0.000000
200.000000,11042.298203,11044.242805,-23695.866608,-3720.894899,-13253.600985,13514.758767,-6358.825428,-11907.757748,9922.274640,14190.608465,7105.731321,-595.696341,8381.255970,13353.625042,-24240.600972,-6275.699291,0.002000,-0.008000,1.008000,192.000000,0.000000,0.000000,0.000000,0.000000,0.000000,0.000000,0.000000,0.000000,0.000000,1770373062.514159,0.000000
202.000000,11052.378840,11057.430334,-23689.295195,-3712.267126,-13248.303622,13524.615887,-6354.153914,-11900.940466,9931.684724,14184.729956,7085.055957,-605.933440,8359.261854,13362.565739,-24241.092711,-6271.295997,0.002000,-0.008000,1.008000,192.000000,0.000000,0.000000,0.000000,0.000000,0.000000,0.000000,0.000000,0.000000,0.000000,1770373062.514170,0.000000
204.000000,11064.672299,11070.103773,-23691.128038,-3692.239963,-13217.949953,13543.659573,-6345.749658,-11891.485678,9937.764399,14209.205116,7116.728379,-591.293048,8378.171429,13371.037051,-24230.386225,-6266.780945,0.002000,-0.008000,1.008000,192.000000,0.000000,0.000000,0.000000,0.000000,0.000000,0.000000,0.000000,0.000000,0.000000,1770373062.514181,0.000000
206.000000,11066.147514,11066.773363,-23700.538123,-3713.049437,-13234.937279,13524.370018,-6352.522236,-11893.810260,9946.928614,14204.108918,7118.337705,-590.153109,8374.885723,13371.461734,-24236.421196,-6262.623520,-0.002000,-0.014000,1.002000,192.000000,127.500000,120.000000,127.500000,72.000000,15.500000,40.000000,0.000000,0.000000,0.000000,1770373062.514192,0.000000
208.000000,11071.064898,11070.841380,-23702.661538,-3689.825975,-13220.296886,13543.190186,-6345.123809,-11886.255370,9951.600129,14200.242066,7113.599135,-588.677894,8381.904171,13363.616271,-24240.198641,-6257.393212,-0.002000,-0.014000,1.002000,192.000000,0.000000,0.000000,0.000000,0.000000,0.000000,0.000000,0.000000,0.000000,0.000000,1770373062.514203,0.000000
210.000000,11065.789886,11070.640215,-23710.127021,-3698.923135,-13243.408590,13551.080352,-6351.248187,-11890.166925,9940.312498,14206.947590,7124.462083,-582.441757,8381.099508,13384.559856,-24246.255964,-6246.127933,-0.002000,-0.014000,1.002000,192.000000,0.000000,0.000000,0.000000,0.000000,0.000000,0.000000,0.000000,0.000000,0.000000,1770373062.994277,0.000000
212.000000,11070.528456,11074.104735,-23704.539085,-3701.068902,-13243.319183,13565.161951,-6350.287062,-11888.132916,9944.156998,14207.975770,7105.641914,-587.068568,8366.235598,13393.545257,-24255.755455,-6231.286374,-0.002000,-0.014000,1.002000,192.000000,0.000000,0.000000,0.000000,0.000000,0.000000,0.000000,0.000000,0.000000,0.000000,1770373062.994339,0.000000
214.000000,11082.844267,11081.659625,-23697.878265,-3681.756995,-13227.404741,13579.981158,-6341.636937,-11877.247617,9948.202663,14217.162337,7132.821635,-581.167708,8396.701026,13377.273187,-24248.625249,-6224.580851,-0.002000,-0.014000,1.002000,192.000000,0.000000,0.000000,0.000000,0.000000,0.000000,0.000000,0.000000,0.000000,0.000000,1770373062.994384,0.000000
216.000000,11085.682939,11084.766517,-23698.280597,-3705.941582,-13250.002354,13560.512788,-6345.347326,-11875.615940,9959.937329,14218.950477,7133.894519,-580.161879,8382.977054,13395.668673,-24255.040199,-6223.753837,-0.002000,-0.014000,1.002000,192.000000,0.000000,0.000000,127.500000,72.000000,15.500000,64.000000,0.000000,0.000000,0.000000,1770373062.994421,0.000000
218.000000,11093.193125,11093.237828,-23692.402088,-3687.143765,-13234.132616,13575.533161,-6337.814789,-11867.569312,9965.949949,14223.420825,7130.944089,-575.803289,8373.231694,13393.008815,-24254.526109,-6231.845168,-0.002000,-0.014000,1.002000,192.000000,0.000000,0.000000,0.000000,0.000000,0.000000,0.000000,0.000000,0.000000,0.000000,1770373062.994476,0.000000
220.000000,11070.126125,11073.255369,-23705.969597,-3723.845330,-13250.628203,13544.196015,-6351.136428,-11883.081422,9946.906262,14221.319761,7139.169531,-574.730405,8374.438688,13389.611350,-24257.051856,-6253.593415,-0.002000,-0.014000,1.002000,192.000000,0.000000,0.000000,0.000000,0.000000,0.000000,0.000000,0.000000,0.000000,0.000000,1770373062.994513,0.000000
222.000000,11050.769514,11053.094095,-23708.271826,-3726.616946,-13272.443506,13517.440977,-6357.283158,-11898.392367,9932.042352,14191.435479,7100.076330,-596.098673,8339.659374,13358.989460,-24268.093618,-6277.867410,-0.002000,-0.014000,1.002000,192.000000,0.000000,0.000000,0.000000,0.000000,0.000000,0.000000,0.000000,0.000000,0.000000,1770373062.994550,0.000000
224.000000,11062.817104,11062.191255,-23703.108573,-3712.088312,-13243.095665,13522.134843,-6347.984832,-11889.876353,9925.068608,14188.015662,7111.185147,-597.707998,8363.173409,13348.193568,-24253.430874,-6295.234715,-0.002000,-0.014000,1.002000,192.000000,0.000000,0.000000,0.000000,0.000000,0.000000,0.000000,0.000000,0.000000,0.000000,1770373062.994587,0.000000
226.000000,11059.866674,11061.587758,-23710.194076,-3721.319583,-13253.802151,13514.267029,-6353.081030,-11889.429318,9939.261966,14197.313988,7112.481548,-588.834356,8371.220037,13345.690172,-24247.440606,-6289.758538,-0.002000,-0.012000,1.008000,192.000000,127.500000,120.000000,127.500000,88.000000,15.500000,88.000000,0.000000,0.000000,0.000000,1770373062.994625,0.000000
228.000000,11081.972549,11080.944369,-23695.151352,-3685.556791,-13216.854717,13550.946242,-6338.485341,-11871.056184,9947.777980,14210.210944,7111.162795,-581.234763,8382.954703,13362.610443,-24239.237516,-6274.782869,-0.002000,-0.012000,1.008000,192.000000,0.000000,0.000000,0.000000,0.000000,0.000000,0.000000,0.000000,0.000000,0.000000,1770373062.994662,0.000000
230.000000,11085.548828,11082.419584,-23698.191190,-3688.551925,-13223.739055,13557.003564,-6341.547530,-11872.240826,9954.729373,14223.018494,7137.381391,-568.829545,8391.023682,13382.794068,-24234.610705,-6260.611863,-0.002000,-0.012000,1.008000,192.000000,0.000000,0.000000,0.000000,0.000000,0.000000,0.000000,0.000000,0.000000,0.000000,1770373062.994700,0.000000
232.000000,11076.406965,11076.004633,-23697.900617,-3696.017408,-13238.759427,13546.587652,-6342.083972,-11877.962873,9957.836265,14213.116671,7115.051999,-578.709016,8378.283188,13371.886417,-24249.318153,-6250.799447,-0.002000,-0.012000,1.008000,192.000000,0.000000,0.000000,0.000000,0.000000,0.000000,0.000000,0.000000,0.000000,0.000000,1770373062.994737,0.000000
234.000000,11070.617863,11071.243712,-23701.320434,-3693.290495,-13230.332819,13566.346594,-6341.771047,-11881.941483,9947.196835,14209.920372,7129.133598,-585.705112,8376.763270,13381.072984,-24249.519318,-6245.278567,-0.002000,-0.012000,1.008000,192.000000,0.000000,0.000000,0.000000,0.000000,0.000000,0.000000,0.000000,0.000000,0.000000,1770373062.994774,0.000000
236.000000,11052.445895,11056.849188,-23714.172687,-3716.312792,-13259.725363,13539.524500,-6354.019803,-11898.727643,9935.372762,14194.296502,7111.363961,-597.573888,8362.011118,13375.552103,-24259.734066,-6232.828645,-0.002000,-0.012000,1.007000,192.000000,127.500000,120.000000,127.500000,80.000000,15.500000,56.000000,0.000000,0.000000,0.000000,1770373062.994811,0.000000
238.000000,11063.286491,11062.660642,-23707.377757,-3697.671437,-13237.083046,13564.290233,-6344.475608,-11891.888010,9937.652640,14189.736747,7099.271667,-604.637039,8359.083040,13362.811609,-24261.253984,-6217.338886,-0.002000,-0.012000,1.007000,192.000000,0.000000,0.000000,0.000000,0.000000,0.000000,0.000000,0.000000,0.000000,0.000000,1770373062.994824,0.000000
240.000000,11063.286491,11062.437125,-23709.165896,-3710.836614,-13250.114113,13565.005489,-6350.845856,-11893.474983,9931.260041,14193.715357,7116.750731,-601.485443,8376.427993,13366.656109,-24259.622307,-6217.361238,-0.002000,-0.012000,1.007000,192.000000,0.000000,0.000000,0.000000,0.000000,0.000000,0.000000,0.000000,0.000000,0.000000,1770373062.994843,0.000000
242.000000,11074.104735,11071.377822,-23698.437059,-3715.552833,-13242.425113,13563.485570,-6349.728268,-11887.261198,9946.638041,14194.072985,7103.965533,-601.038408,8366.615578,13355.301423,-24258.795292,-6219.507005,-0.002000,-0.012000,1.007000,192.000000,0.000000,0.000000,0.000000,0.000000,0.000000,0.000000,0.000000,0.000000,0.000000,1770373062.994860,0.000000
244.000000,11082.553695,11077.636311,-23689.831637,-3704.667533,-13222.509709,13576.181361,-6340.921681,-11879.549847,9947.487408,14206.858183,7129.468874,-590.622495,8377.992615,13388.851391,-24247.574717,-6239.802389,-0.002000,-0.012000,1.007000,192.000000,0.000000,0.000000,0.000000,0.000000,0.000000,0.000000,0.000000,0.000000,0.000000,1770373062.994878,0.000000
246.000000,11069.723793,11065.767534,-23696.514809,-3720.246699,-13256.707878,13517.865660,-6348.565978,-11889.161097,9949.364954,14204.690064,7121.377542,-589.706074,8401.149023,13377.429650,-24256.649525,-6266.333910,-0.002000,-0.011000,1.005500,192.000000,127.500000,120.000000,127.500000,88.000000,15.500000,48.000000,0.000000,0.000000,0.000000,1770373062.994892,0.000000
248.000000,11073.545942,11071.310767,-23696.805381,-3702.342952,-13248.974174,13511.651875,-6336.943071,-11878.275797,9947.509759,14199.280941,7113.889708,-591.494214,8352.265758,13353.826207,-24257.901222,-6288.462137,-0.002000,-0.011000,1.005500,192.000000,0.000000,0.000000,0.000000,0.000000,0.000000,0.000000,0.000000,0.000000,0.000000,1770373062.994904,0.000000
250.000000,11066.281625,11064.851113,-23706.774259,-3714.658763,-13258.697183,13500.855982,-6341.614585,-11881.337986,9931.774131,14198.833907,7130.921737,-587.090920,8362.860484,13355.591995,-24255.174310,-6295.033550,-0.002000,-0.011000,1.005500,192.000000,0.000000,0.000000,0.000000,0.000000,0.000000,0.000000,0.000000,0.000000,0.000000,1770373062.994918,0.000000
252.000000,11062.928863,11061.073668,-23706.103707,-3714.167024,-13263.458105,13496.251523,-6343.559187,-11884.400175,9938.747876,14194.698834,7109.620525,-593.684684,8357.518418,13345.332544,-24257.878871,-6289.669131,-0.002000,-0.011000,1.005500,192.000000,0.000000,0.000000,0.000000,0.000000,0.000000,0.000000,0.000000,0.000000,0.000000,1770373062.994931,0.000000
254.000000,11072.026023,11070.662567,-23700.024033,-3698.677265,-13237.194805,13520.324352,-6337.568919,-11877.426431,9938.725524,14200.689101,7126.227871,-590.823661,8383.781717,13354.764981,-24248.357028,-6283.947084,-0.002000,-0.011000,1.005500,192.000000,0.000000,0.000000,0.000000,0.000000,0.000000,0.000000,0.000000,0.000000,0.000000,1770373062.994942,0.000000
0.000000,11066.505142,11066.102811,-23703.779126,-3709.562565,-13257.803113,13511.651875,-6343.469780,-11880.108640,9942.570024,14206.053520,7123.858586,-584.855745,8375.668034,13372.199341,-24248.602897,-6269.887837,-0.002000,-0.011000,1.005500,192.000000,0.000000,0.000000,127.500000,104.000000,15.500000,56.000000,0.000000,0.000000,0.000000,1770373062.994955,0.000000
2.000000,11076.854000,11075.088212,-23698.459410,-3682.986341,-13238.580613,13543.860739,-6334.171454,-11871.525570,9947.733277,14208.713378,7119.522347,-583.291123,8374.371633,13380.536542,-24255.844862,-6250.955910,-0.002000,-0.011000,1.005500,192.000000,0.000000,0.000000,0.000000,0.000000,0.000000,0.000000,0.000000,0.000000,0.000000,1770373062.994967,0.000000
4.000000,11068.136819,11063.957043,-23703.220332,-3691.859983,-13249.756485,13553.963727,-6338.641803,-11879.683957,9939.530187,14210.367407,7134.229795,-579.871306,8383.044110,13390.795993,-24258.929403,-6235.555558,-0.002000,-0.011000,1.005500,192.000000,0.000000,0.000000,0.000000,0.000000,0.000000,0.000000,0.000000,0.000000,0.000000,1770373062.994979,0.000000
6.000000,11061.990090,11055.150456,-23706.953073,-3700.890088,-13258.741886,13546.565300,-6344.319146,-11887.574123,9945.162826,14195.369386,7110.514594,-592.276525,8368.001386,13360.777600,-24265.053781,-6221.943345,-0.002000,-0.011000,1.005500,192.000000,0.000000,0.000000,0.000000,0.000000,0.000000,0.000000,0.000000,0.000000,0.000000,1770373062.994991,0.000000
8.000000,11056.268043,11049.383706,-23707.981254,-3693.938696,-13230.936316,13578.818867,-6343.693297,-11892.446803,9935.082189,14195.682311,7121.891632,-597.976219,8381.837116,13378.167257,-24257.722409,-6212.130929,-0.002000,-0.011000,1.005500,192.000000,0.000000,0.000000,0.000000,0.000000,0.000000,0.000000,0.000000,0.000000,0.000000,1770373062.995003,0.000000
10.000000,11038.163130,11030.563537,-23720.051196,-3719.665554,-13268.800171,13551.639146,-6360.233588,-11910.551716,9921.738198,14183.768831,7105.440748,-611.789597,8355.819685,13356.620175,-24261.946888,-6211.549784,-0.002000,-0.011000,1.005500,192.000000,0.000000,0.000000,127.500000,120.000000,15.500000,64.000000,0.000000,0.000000,0.000000,1770373062.995015,0.000000
12.000000,11046.612089,11036.151473,-23711.021091,-3705.092216,-13259.747715,13572.359213,-6354.243321,-11904.829670,9921.559384,14172.905883,7090.688597,-622.294917,8362.905188,13369.852408,-24270.664069,-6218.791749,-0.002000,-0.011000,1.005500,192.000000,0.000000,0.000000,0.000000,0.000000,0.000000,0.000000,0.000000,0.000000,0.000000,1770373062.995028,0.000000
14.000000,11046.366220,11039.459531,-23711.557533,-3717.184510,-13272.488209,13557.517655,-6355.539722,-11901.432204,9922.967544,14180.036089,7113.979115,-614.985897,8359.015984,13376.692042,-24266.640755,-6222.524491,-0.002000,-0.011000,1.005500,192.000000,0.000000,0.000000,0.000000,0.000000,0.000000,0.000000,0.000000,0.000000,0.000000,1770373062.995040,0.000000
16.000000,11062.280662,11054.457552,-23707.556570,-3719.777312,-13268.397840,13530.159119,-6347.873074,-11889.317559,9933.517567,14185.355805,7101.819766,-609.710885,8351.639909,13367.460771,-24273.525092,-6237.544863,-0.002000,-0.011000,1.005500,192.000000,0.000000,0.000000,0.000000,0.000000,0.000000,0.000000,0.000000,0.000000,0.000000,1770373062.995053,0.000000
18.000000,11069.857904,11062.593587,-23702.102745,-3704.332257,-13255.836160,13541.267936,-6339.491169,-11881.002710,9944.022887,14197.828078,7130.832330,-598.043275,8369.811877,13368.712469,-24263.243289,-6254.554540,-0.002000,-0.011000,1.005500,192.000000,0.000000,0.000000,0.000000,0.000000,0.000000,0.000000,0.000000,0.000000,0.000000,1770373062.995065,0.000000
20.000000,11057.340927,11052.647060,-23708.674158,-3716.849234,-13278.411422,13500.811279,-6347.023707,-11890.748071,9936.266832,14199.571514,7122.539833,-597.305667,8355.327947,13364.644452,-24269.479426,-6265.015157,-0.002000,-0.009500,1.004750,192.000000,127.500000,120.000000,127.500000,96.000000,15.500000,48.000000,0.000000,0.000000,0.000000,1770373062.995077,0.000000
22.000000,11053.563482,11044.734543,-23705.857838,-3702.231193,-13270.141276,13503.605247,-6341.435771,-11889.921056,9932.355277,14181.824229,7108.569993,-603.139472,8352.221054,13345.019620,-24270.395848,-6270.938369,-0.002000,-0.009500,1.004750,192.000000,0.000000,0.000000,0.000000,0.000000,0.000000,0.000000,0.000000,0.000000,0.000000,1770373062.995089,0.000000
24.000000,11041.582947,11031.837586,-23715.670254,-3715.262260,-13271.907064,13496.676206,-6349.437696,-11906.774271,9916.507890,14173.844656,7116.504862,-611.051990,8350.477618,13348.864120,-24264.919670,-6271.474811,-0.002000,-0.009500,1.004750,192.000000,0.000000,0.000000,0.000000,0.000000,0.000000,0.000000,0.000000,0.000000,0.000000,1770373062.995101,0.000000
26.000000,11044.086342,11035.413865,-23715.402033,-3715.441074,-13262.295814,13488.517819,-6350.220007,-11905.209649,9922.185233,14167.675575,7092.454385,-620.730295,8356.400830,13341.152768,-24261.544557,-6261.975320,-0.002000,-0.009500,1.004750,192.000000,0.000000,0.000000,0.000000,0.000000,0.000000,0.000000,0.000000,0.000000,0.000000,1770373062.995115,0.000000
28.000000,11058.950252,11051.931805,-23706.595445,-3696.643257,-13233.171491,13528.192166,-6341.972213,-11892.245637,9924.331000,14184.461735,7115.610792,-610.493196,8354.433877,13344.796103,-24245.786577,-6249.726564,-0.002000,-0.009500,1.004750,192.000000,0.000000,0.000000,0.000000,0.000000,0.000000,0.000000,0.000000,0.000000,0.000000,1770373062.995127,0.000000
30.000000,11049.249595,11042.119389,-23709.925855,-3712.133016,-13258.294852,13516.323390,-6350.443524,-11900.560486,9930.254213,14184.461735,7114.604964,-605.218185,8371.376499,13351.479274,-24247.418254,-6239.847093,-0.002000,-0.007750,1.004375,192.000000,127.500000,120.000000,127.500000,104.000000,15.500000,48.000000,0.000000,0.000000,0.000000,1770373062.995139,0.000000
32.000000,11055.217511,11046.455627,-23700.001681,-3697.492623,-13245.509654,13535.590593,-6342.866283,-11895.978379,9937.585585,14181.041918,7103.630257,-608.056856,8355.372650,13352.641565,-24250.905126,-6232.985107,-0.002000,-0.007750,1.004375,192.000000,0.000000,0.000000,0.000000,0.000000,0.000000,0.000000,0.000000,0.000000,0.000000,1770373062.995151,0.000000
34.000000,11045.427447,11035.458569,-23709.769393,-3710.926021,-13269.381317,13524.079445,-6350.935263,-11905.187297,9926.700285,14182.137153,7117.018952,-607.185138,8352.623386,13345.489007,-24252.827376,-6229.051200,-0.002000,-0.007750,1.004375,192.000000,0.000000,0.000000,0.000000,0.000000,0.000000,0.000000,0.000000,0.000000,0.000000,1770373062.995163,0.000000
36.000000,11031.770531,11026.003781,-23721.995797,-3726.572243,-13292.537724,13519.609096,-6359.071298,-11916.005542,9921.201756,14160.500665,7085.435937,-624.261871,8334.205548,13326.177099,-24273.346278,-6224.022058,-0.002000,-0.007750,1.004375,192.000000,0.000000,0.000000,0.000000,0.000000,0.000000,0.000000,0.000000,0.000000,0.000000,1770373062.995185,0.000000
38.000000,11046.790903,11037.716095,-23718.352463,-3704.086388,-13273.248169,13554.455466,-6349.817675,-11905.142594,9916.105558,14171.721240,7100.165737,-618.226900,8347.929519,13348.439437,-24273.189816,-6218.434121,-0.002000,-0.007750,1.004375,192.000000,0.000000,0.000000,0.000000,0.000000,0.000000,0.000000,0.000000,0.000000,0.000000,1770373062.995197,0.000000
40.000000,11046.902662,11038.766627,-23722.308722,-3715.396370,-13283.149991,13546.386486,-6353.818638,-11904.494393,9925.336829,14178.002081,7102.646780,-611.409618,8353.383345,13355.167312,-24275.290880,-6214.477863,-0.002000,-0.007750,1.004375,192.000000,0.000000,0.000000,0.000000,0.000000,0.000000,0.000000,0.000000,0.000000,0.000000,1770373062.995210,0.000000
42.000000,11069.209703,11061.073668,-23708.048309,-3695.793890,-13248.147160,13567.218312,-6343.469780,-11887.797640,9939.731352,14183.455906,7100.925696,-608.660353,8364.112182,13375.261530,-24274.977955,-6220.557537,-0.002000,-0.007750,1.004375,192.000000,0.000000,0.000000,127.500000,88.000000,15.500000,56.000000,0.000000,0.000000,0.000000,1770373062.995223,0.000000
44.000000,11072.182485,11066.125162,-23704.516733,-3710.322524,-13246.001392,13552.913195,-6344.788533,-11886.367129,9950.773114,14204.488898,7129.580632,-593.438815,8358.278377,13379.955397,-24259.443493,-6228.335944,-0.002000,-0.007750,1.004375,192.000000,0.000000,0.000000,0.000000,0.000000,0.000000,0.000000,0.000000,0.000000,0.000000,1770373062.995236,0.000000
46.000000,11069.142648,11059.374936,-23699.040556,-3704.846347,-13254.115075,13537.870471,-6345.257919,-11888.132916,9956.830437,14189.602636,7114.180280,-599.160862,8377.098546,13348.394733,-24257.722409,-6237.924843,-0.002000,-0.007750,1.004375,192.000000,0.000000,0.000000,0.000000,0.000000,0.000000,0.000000,0.000000,0.000000,0.000000,1770373062.995250,0.000000
48.000000,11072.182485,11064.895816,-23697.945320,-3693.201088,-13237.977116,13553.762562,-6342.285137,-11887.015329,9954.058820,14197.224581,7130.631164,-594.377589,8365.453287,13357.000155,-24247.798234,-6242.618709,-0.002000,-0.007750,1.004375,192.000000,0.000000,0.000000,0.000000,0.000000,0.000000,0.000000,0.000000,0.000000,0.000000,1770373062.995262,0.000000
50.000000,11057.944424,11049.607223,-23711.535181,-3719.531443,-13259.904177,13524.302962,-6357.707841,-11904.248524,9946.079248,14191.748404,7117.600097,-601.798368,8361.340566,13352.328641,-24250.882775,-6245.792657,-0.002000,-0.007750,1.004375,192.000000,0.000000,0.000000,0.000000,0.000000,0.000000,0.000000,0.000000,0.000000,0.000000,1770373062.995274,0.000000
52.000000,11056.960947,11049.070781,-23707.087184,-3703.862870,-13236.568956,13547.749942,-6352.633995,-11903.443861,9946.995669,14181.198380,7100.679827,-613.220109,8359.753592,13348.953527,-24246.837109,-6244.093924,-0.004000,-0.010000,1.004000,192.000000,127.500000,112.000000,127.500000,88.000000,15.500000,48.000000,0.000000,0.000000,0.000000,1770373062.995286,0.000000
54.000000,11055.955119,11051.507122,-23708.450640,-3706.098045,-13231.495110,13558.121152,-6355.226797,-11904.382635,9937.540881,14189.937912,7115.119054,-607.140435,8375.288054,13365.270301,-24240.332751,-6233.879177,-0.004000,-0.010000,1.004000,192.000000,0.000000,0.000000,0.000000,0.000000,0.000000,0.000000,0.000000,0.000000,0.000000,1770373062.995298,0.000000
56.000000,11059.263177,11056.156284,-23705.187286,-3710.970725,-13231.740979,13555.461294,-6355.115039,-11900.269914,9950.415486,14189.446174,7099.338722,-606.089903,8368.448421,13353.781504,-24242.903202,-6221.228089,-0.004000,-0.010000,1.004000,192.000000,0.000000,0.000000,0.000000,0.000000,0.000000,0.000000,0.000000,0.000000,0.000000,1770373062.995310,0.000000
58.000000,11064.225264,11058.100886,-23704.494381,-3697.179699,-13218.061712,13566.301890,-6351.561111,-11894.145536,9940.200739,14193.201267,7114.672019,-594.064664,8363.508685,13367.438420,-24237.382321,-6214.567270,-0.004000,-0.010000,1.004000,192.000000,0.000000,0.000000,0.000000,0.000000,0.000000,0.000000,0.000000,0.000000,0.000000,1770373062.995324,0.000000
60.000000,11059.978433,11051.529473,-23701.923931,-3719.464388,-13241.665154,13558.165855,-6357.260806,-11899.040568,9945.118123,14189.423822,7116.393103,-597.037446,8377.478525,13349.221748,-24241.830318,-6219.954040,-0.004000,-0.010000,1.004000,192.000000,0.000000,0.000000,0.000000,0.000000,0.000000,0.000000,0.000000,0.000000,0.000000,1770373062.995336,0.000000
62.000000,11059.933729,11054.792828,-23699.040556,-3701.962972,-13240.122883,13564.066716,-6347.493094,-11894.503164,9948.649698,14186.428688,7107.206536,-602.714789,8340.419333,13356.039030,-24244.713693,-6232.269851,-0.006000,-0.008000,1.008000,192.000000,127.500000,104.000000,127.500000,96.000000,15.500000,64.000000,0.000000,0.000000,0.000000,1770373062.995348,0.000000
64.000000,11063.308843,11059.419639,-23705.053175,-3702.432359,-13245.956689,13561.496265,-6347.180169,-11890.971588,9939.865463,14194.341206,7124.663249,-595.092844,8349.069458,13372.668728,-24250.055760,-6240.338831,-0.006000,-0.008000,1.008000,192.000000,0.000000,0.000000,0.000000,0.000000,0.000000,0.000000,0.000000,0.000000,0.000000,1770373062.995360,0.000000
66.000000,11066.795715,11065.879293,-23710.439946,-3705.852175,-13254.562110,13552.823788,-6347.694260,-11886.367129,9950.370783,14196.308159,7110.067559,-590.957772,8352.824551,13354.742629,-24265.634926,-6238.349526,-0.006000,-0.008000,1.008000,192.000000,0.000000,0.000000,0.000000,0.000000,0.000000,0.000000,0.000000,0.000000,0.000000,1770373062.995373,0.000000
68.000000,11072.137782,11070.439049,-23705.544913,-3685.936771,-13241.642802,13554.343707,-6339.222948,-11880.510972,9952.896530,14207.305218,7130.228833,-578.105519,8371.734127,13361.895187,-24260.806949,-6240.450590,-0.006000,-0.008000,1.008000,192.000000,0.000000,0.000000,0.000000,0.000000,0.000000,0.000000,0.000000,0.000000,0.000000,1770373062.995386,0.000000
70.000000,11053.988165,11051.887101,-23712.295140,-3713.205899,-13256.350250,13525.308791,-6351.583463,-11897.632408,9943.978184,14195.838773,7122.629240,-587.537955,8349.292976,13357.402486,-24261.835129,-6243.065744,-0.006000,-0.008000,1.008000,192.000000,0.000000,0.000000,0.000000,0.000000,0.000000,0.000000,0.000000,0.000000,0.000000,1770373062.995398,0.000000
72.000000,11048.534339,11047.349697,-23707.891847,-3702.320600,-13251.186997,13541.357343,-6348.208350,-11904.807318,9937.853806,14181.533656,7101.730359,-607.095731,8350.008231,13360.174103,-24256.068379,-6244.160979,-0.002000,-0.008000,1.008000,192.000000,127.500000,120.000000,127.500000,96.000000,15.500000,64.000000,0.000000,0.000000,0.000000,1770373062.995410,0.000000
74.000000,11031.211738,11030.340020,-23716.363158,-3712.825920,-13269.291910,13532.930736,-6358.043117,-11922.018161,9917.781939,14176.884493,7102.915001,-616.751685,8354.657394,13338.559966,-24248.111158,-6242.596357,-0.002000,-0.008000,1.008000,192.000000,0.000000,0.000000,0.000000,0.000000,0.000000,0.000000,0.000000,0.000000,0.000000,1770373063.474452,0.000000
76.000000,11030.116502,11029.356543,-23716.474917,-3723.465350,-13271.504733,13520.681980,-6363.362832,-11922.241679,9920.508852,14167.206188,7079.222152,-624.686554,8329.623440,13319.359817,-24246.323019,-6238.170712,-0.002000,-0.008000,1.008000,192.000000,0.000000,0.000000,0.000000,0.000000,0.000000,0.000000,0.000000,0.000000,0.000000,1770373063.474513,0.000000
78.000000,11037.626688,11035.905604,-23714.306797,-3702.275896,-13245.286136,13535.702352,-6358.691318,-11916.184356,9921.268811,14174.381098,7095.740091,-614.225938,8330.942193,13336.548309,-24230.855612,-6230.660526,-0.002000,-0.008000,1.008000,192.000000,0.000000,0.000000,0.000000,0.000000,0.000000,0.000000,0.000000,0.000000,0.000000,1770373063.474563,0.000000
80.000000,11032.508139,11029.736522,-23717.368986,-3725.722876,-13263.033421,13526.560489,-6363.988681,-11922.755769,9919.324210,14173.621139,7094.443690,-615.499987,8352.355165,13334.223727,-24233.157841,-6221.608069,-0.002000,-0.008000,1.008000,192.000000,0.000000,0.000000,0.000000,0.000000,0.000000,0.000000,0.000000,0.000000,0.000000,1770373063.474613,0.000000
82.000000,11045.226281,11037.693743,-23703.645015,-3702.074731,-13243.229776,13533.601288,-6353.706879,-11913.032760,9931.863538,14166.200360,7087.402891,-622.719601,8339.145284,13338.068228,-24241.740911,-6226.637212,-0.004000,-0.010000,1.004000,192.000000,127.500000,112.000000,127.500000,88.000000,15.500000,48.000000,0.000000,0.000000,0.000000,1770373063.474661,0.000000
84.000000,11043.102866,11039.280717,-23697.677099,-3705.852175,-13248.974174,13533.869509,-6349.460047,-11907.333065,9926.990858,14174.850485,7109.084083,-616.908147,8358.546598,13356.486065,-24245.183080,-6241.746991,-0.004000,-0.010000,1.004000,192.000000,0.000000,0.000000,0.000000,0.000000,0.000000,0.000000,0.000000,0.000000,0.000000,1770373063.474709,0.000000
86.000000,11058.726735,11057.028002,-23689.183437,-3710.702504,-13253.757447,13522.805395,-6341.703992,-11890.770422,9947.018021,14183.411203,7104.367865,-609.062685,8346.566063,13349.333507,-24254.548461,-6261.818857,-0.004000,-0.010000,1.004000,192.000000,0.000000,0.000000,0.000000,0.000000,0.000000,0.000000,0.000000,0.000000,0.000000,1770373063.474749,0.000000
88.000000,11085.660587,11080.452631,-23681.092105,-3684.394501,-13225.482491,13561.317451,-6325.320163,-11866.585835,9961.233730,14209.383930,7138.163702,-586.062740,8371.242389,13362.521036,-24253.028542,-6269.731375,-0.004000,-0.010000,1.004000,192.000000,0.000000,0.000000,0.000000,0.000000,0.000000,0.000000,0.000000,0.000000,0.000000,1770373063.474763,0.000000
90.000000,11080.720852,11075.892875,-23689.161085,-3708.422626,-13231.584517,13547.079390,-6331.355134,-11870.184466,9976.075289,14215.597715,7147.953766,-573.143431,8393.571781,13375.395641,-24251.419217,-6265.417488,-0.004000,-0.010000,1.004000,192.000000,0.000000,0.000000,0.000000,0.000000,0.000000,0.000000,0.000000,0.000000,0.000000,1770373063.474782,0.000000
92.000000,11068.382689,11064.471133,-23696.693623,-3691.502356,-13220.699217,13557.472951,-6329.701105,-11879.974530,9971.023795,14211.239125,7127.300754,-581.011245,8370.840057,13378.591940,-24251.083940,-6258.935482,-0.006000,-0.014000,1.004000,192.000000,127.500000,104.000000,127.500000,72.000000,15.500000,48.000000,0.000000,0.000000,0.000000,1770373063.474795,0.000000
94.000000,11038.856034,11039.168959,-23714.887943,-3704.421664,-13233.596174,13546.632355,-6343.939167,-11906.662513,9933.919899,14196.039938,7123.635068,-598.758530,8369.655415,13379.284844,-24250.167519,-6258.801372,-0.006000,-0.014000,1.004000,192.000000,0.000000,0.000000,0.000000,0.000000,0.000000,0.000000,0.000000,0.000000,0.000000,1770373063.474807,0.000000
96.000000,11019.521775,11019.141796,-23723.515716,-3716.513958,-13251.969308,13518.938544,-6357.461972,-11929.595402,9920.486500,14173.218807,7081.412623,-625.088885,8322.917917,13330.423931,-24260.583432,-6255.739183,-0.006000,-0.014000,1.004000,192.000000,0.000000,0.000000,0.000000,0.000000,0.000000,0.000000,0.000000,0.000000,0.000000,1770373063.474819,0.000000
98.000000,11012.860955,11012.659790,-23723.515716,-3701.717103,-13244.034439,13537.378733,-6359.116001,-11934.803359,9905.287314,14164.546331,7080.295036,-633.046106,8337.424199,13338.850539,-24253.140301,-6249.994785,-0.006000,-0.014000,1.004000,192.000000,0.000000,0.000000,0.000000,0.000000,0.000000,0.000000,0.000000,0.000000,0.000000,1770373063.474832,0.000000
100.000000,11008.144737,11007.362426,-23724.387434,-3724.158254,-13269.135448,13516.122224,-6370.135411,-11938.960783,9903.946209,14159.517188,7075.400004,-634.051935,8331.970374,13361.336394,-24252.357990,-6241.501122,-0.006000,-0.014000,1.004000,192.000000,0.000000,0.000000,0.000000,0.000000,0.000000,0.000000,0.000000,0.000000,0.000000,1770373063.474844,0.000000
102.000000,11006.311894,11006.311894,-23721.392300,-3716.089274,-13260.597081,13521.285477,-6366.000338,-11937.306754,9908.908297,14161.394735,7069.365033,-634.074287,8316.145339,13335.520129,-24244.378417,-6235.309688,-0.005000,-0.012000,1.004000,192.000000,127.500000,112.000000,127.500000,88.000000,15.500000,48.000000,0.000000,0.000000,0.000000,1770373063.474857,0.000000
104.000000,11001.483917,10998.935819,-23729.036597,-3728.069809,-13273.628148,13508.924962,-6371.051833,-11942.604118,9892.703282,14145.837920,7079.289207,-641.115086,8315.184214,13312.944867,-24234.856574,-6232.381610,-0.005000,-0.012000,1.004000,192.000000,0.000000,0.000000,0.000000,0.000000,0.000000,0.000000,0.000000,0.000000,0.000000,1770373063.474869,0.000000
106.000000,10995.270132,10993.392586,-23731.204716,-3746.599406,-13281.272445,13492.116450,-6374.270484,-11944.258147,9895.832526,14134.684400,7060.491390,-647.239464,8318.492272,13304.741777,-24237.650542,-6233.700363,-0.005000,-0.012000,1.004000,192.000000,0.000000,0.000000,0.000000,0.000000,0.000000,0.000000,0.000000,0.000000,0.000000,1770373063.474881,0.000000
108.000000,11006.602467,11000.187516,-23719.246533,-3728.807417,-13268.308433,13512.300076,-6362.379356,-11934.333972,9899.453509,14141.836958,7078.953931,-642.612653,8326.270679,13331.876794,-24226.094690,-6236.941366,-0.005000,-0.012000,1.004000,192.000000,0.000000,0.000000,0.000000,0.000000,0.000000,0.000000,0.000000,0.000000,0.000000,1770373063.474894,0.000000
110.000000,11012.123348,11006.356598,-23717.771318,-3739.893882,-13279.327843,13498.598456,-6359.384222,-11927.226118,9907.366026,14147.313136,7085.368882,-635.415391,8332.082132,13318.823376,-24234.342484,-6240.472941,-0.005000,-0.012000,1.004000,192.000000,0.000000,0.000000,0.000000,0.000000,0.000000,0.000000,0.000000,0.000000,0.000000,1770373063.474906,0.000000
112.000000,11036.129121,11029.311839,-23703.220332,-3709.584917,-13253.869206,13511.003674,-6339.580576,-11903.242696,9924.889794,14157.170255,7087.805222,-621.736124,8353.763324,13319.695094,-24242.433815,-6244.093924,-0.005500,-0.012000,1.004000,192.000000,127.500000,104.000000,127.500000,80.000000,15.500000,48.000000,0.000000,0.000000,0.000000,1770373063.474918,0.000000
114.000000,11047.930842,11041.292374,-23697.498285,-3708.959068,-13247.431904,13518.245640,-6333.791475,-11889.943408,9934.009306,14178.270302,7124.216214,-599.987876,8345.470827,13345.131379,-24243.149071,-6250.263006,-0.005500,-0.012000,1.004000,192.000000,0.000000,0.000000,0.000000,0.000000,0.000000,0.000000,0.000000,0.000000,0.000000,1770373063.474931,0.000000
116.000000,11051.305956,11047.372049,-23694.905483,-3717.430379,-13251.075238,13521.553698,-6332.830350,-11883.550809,9946.816855,14179.298482,7116.951897,-594.645809,8367.062612,13358.788295,-24257.253022,-6257.840247,-0.005500,-0.012000,1.004000,192.000000,0.000000,0.000000,0.000000,0.000000,0.000000,0.000000,0.000000,0.000000,0.000000,1770373063.474943,0.000000
118.000000,11057.206816,11053.362316,-23687.909387,-3692.284667,-13228.924659,13527.655724,-6326.482454,-11878.320501,9948.716754,14193.313026,7137.135522,-582.151184,8367.397889,13355.793161,-24250.346333,-6255.962700,-0.005500,-0.012000,1.004000,192.000000,0.000000,0.000000,0.000000,0.000000,0.000000,0.000000,0.000000,0.000000,0.000000,1770373063.474955,0.000000
120.000000,11041.359430,11042.365258,-23699.845219,-3708.221460,-13258.317203,13507.226230,-6340.742867,-11897.319483,9944.201701,14196.017587,7129.044191,-583.134661,8369.275435,13359.615309,-24252.916783,-6246.597319,-0.005500,-0.012000,1.004000,192.000000,0.000000,0.000000,0.000000,0.000000,0.000000,0.000000,0.000000,0.000000,0.000000,1770373063.474967,0.000000
122.000000,11036.889081,11040.867691,-23702.482724,-3690.854155,-13234.534947,13526.493433,-6340.921681,-11902.214515,9934.031657,14187.859200,7103.451443,-593.595277,8344.129723,13376.066193,-24253.185004,-6236.963718,-0.004750,-0.012000,1.005000,192.000000,127.500000,112.000000,127.500000,80.000000,15.500000,56.000000,0.000000,0.000000,0.000000,1770373063.474982,0.000000
124.000000,11035.927956,11039.213662,-23711.803402,-3695.145690,-13235.384314,13540.507977,-6347.157818,-11906.550754,9923.124006,14197.850430,7115.856661,-592.544746,8354.836208,13371.372327,-24248.044103,-6231.398133,-0.004750,-0.012000,1.005000,192.000000,0.000000,0.000000,0.000000,0.000000,0.000000,0.000000,0.000000,0.000000,0.000000,1770373063.474994,0.000000
126.000000,11021.734598,11024.752083,-23722.576943,-3709.495510,-13256.998450,13532.260183,-6357.841952,-11918.799510,9923.839262,14181.511305,7090.800356,-602.759493,8329.779903,13346.852463,-24252.805025,-6217.629459,-0.004750,-0.012000,1.005000,192.000000,0.000000,0.000000,0.000000,0.000000,0.000000,0.000000,0.000000,0.000000,0.000000,1770373063.475006,0.000000
128.000000,11021.891060,11020.773473,-23725.080338,-3697.514975,-13237.105398,13555.885977,-6357.953710,-11921.168795,9909.556497,14175.275168,7093.616676,-613.018943,8333.780865,13355.949623,-24247.708827,-6208.219374,-0.004750,-0.012000,1.005000,192.000000,0.000000,0.000000,0.000000,0.000000,0.000000,0.000000,0.000000,0.000000,0.000000,1770373063.475019,0.000000
130.000000,11005.060197,11006.960095,-23736.904411,-3726.952222,-13262.631090,13541.424399,-6373.532876,-11937.910251,9907.120157,14168.055554,7087.380539,-618.070438,8335.859577,13353.178007,-24243.126719,-6194.696569,-0.004750,-0.012000,1.005000,192.000000,0.000000,0.000000,0.000000,0.000000,0.000000,0.000000,0.000000,0.000000,0.000000,1770373063.475031,0.000000
132.000000,11001.796842,11006.736577,-23733.752815,-3718.927946,-13251.611680,13554.656631,-6367.743774,-11937.709086,9898.447680,14150.934118,7063.106544,-632.621423,8317.195871,13357.514245,-24243.730216,-6196.775281,-0.004375,-0.014000,1.006500,192.000000,127.500000,112.000000,127.500000,64.000000,15.500000,64.000000,0.000000,0.000000,0.000000,1770373063.475043,0.000000
134.000000,10995.314836,11000.634551,-23742.291181,-3729.008583,-13251.410514,13545.537120,-6371.901199,-11943.207615,9886.645959,14153.281051,7076.428184,-632.107333,8319.922783,13349.735838,-24235.437719,-6205.447758,-0.004375,-0.014000,1.006500,192.000000,0.000000,0.000000,0.000000,0.000000,0.000000,0.000000,0.000000,0.000000,0.000000,1770373063.475055,0.000000
136.000000,10997.080624,11000.388682,-23741.464167,-3740.989118,-13275.572750,13517.552736,-6371.565923,-11939.586632,9891.384529,14143.870967,7057.608015,-637.941138,8318.782844,13322.153785,-24248.915821,-6215.103711,-0.004375,-0.014000,1.006500,192.000000,0.000000,0.000000,0.000000,0.000000,0.000000,0.000000,0.000000,0.000000,0.000000,1770373063.475067,0.000000
138.000000,11020.281735,11019.700589,-23728.276638,-3720.358458,-13255.880863,13516.613962,-6353.684527,-11916.072597,9898.514736,14157.326717,7084.318350,-625.267699,8318.514623,13319.270410,-24247.686475,-6231.062857,-0.004375,-0.014000,1.006500,192.000000,0.000000,0.000000,0.000000,0.000000,0.000000,0.000000,0.000000,0.000000,0.000000,1770373063.475079,0.000000
140.000000,11021.309915,11020.751121,-23730.735329,-3737.368135,-13277.450297,13501.325369,-6356.322033,-11917.793681,9908.841241,14161.282976,7096.410644,-616.014077,8332.775036,13343.052667,-24255.867214,-6242.395191,-0.004375,-0.014000,1.006500,192.000000,0.000000,0.000000,0.000000,0.000000,0.000000,0.000000,0.000000,0.000000,0.000000,1770373063.475091,0.000000
142.000000,11032.239918,11032.731656,-23715.379681,-3710.456635,-13257.467837,13511.473061,-6343.849760,-11905.991960,9920.508852,14166.334470,7089.816879,-611.029638,8347.951871,13331.228594,-24254.637868,-6247.804314,-0.004188,-0.015000,1.010250,192.000000,127.500000,112.000000,127.500000,64.000000,15.500000,88.000000,0.000000,0.000000,0.000000,1770373063.475104,0.000000
144.000000,11038.051371,11036.978488,-23708.785916,-3706.701542,-13261.513503,13508.477927,-6344.587367,-11900.605190,9925.068608,14179.410241,7115.834310,-595.986914,8344.487351,13352.283937,-24246.278315,-6248.519569,-0.004188,-0.015000,1.010250,192.000000,0.000000,0.000000,0.000000,0.000000,0.000000,0.000000,0.000000,0.000000,0.000000,1770373063.475116,0.000000
146.000000,11042.655831,11041.582947,-23704.650844,-3711.328353,-13265.268596,13512.545945,-6347.873074,-11897.319483,9939.261966,14182.740651,7105.351341,-590.309571,8345.180255,13345.734876,-24250.189871,-6245.166808,-0.004188,-0.015000,1.010250,192.000000,0.000000,0.000000,0.000000,0.000000,0.000000,0.000000,0.000000,0.000000,0.000000,1770373063.475128,0.000000
148.000000,11041.426485,11041.806464,-23705.321396,-3691.569411,-13235.853700,13530.494396,-6340.608757,-11894.480812,9931.617669,14193.402433,7119.589403,-583.469937,8355.082077,13373.249873,-24244.356065,-6235.890834,-0.004188,-0.015000,1.010250,192.000000,0.000000,0.000000,0.000000,0.000000,0.000000,0.000000,0.000000,0.000000,0.000000,1770373063.475141,0.000000
150.000000,11024.953249,11022.405150,-23716.340806,-3722.414818,-13257.356078,13518.469157,-6355.539722,-11912.652780,9926.387361,14183.277092,7111.654533,-595.763397,8355.216188,13359.548254,-24250.838071,-6230.615822,-0.004188,-0.015000,1.010250,192.000000,0.000000,0.000000,0.000000,0.000000,0.000000,0.000000,0.000000,0.000000,0.000000,1770373063.475153,0.000000
152.000000,11021.891060,11021.242860,-23715.357329,-3700.577164,-13239.608793,13522.067788,-6353.840989,-11918.397178,9935.305707,14174.291691,7092.387330,-614.449455,8348.018926,13369.092449,-24243.394940,-6222.189214,-0.005094,-0.013500,1.012125,192.000000,127.500000,104.000000,127.500000,80.000000,15.500000,88.000000,0.000000,0.000000,0.000000,1770373063.475165,0.000000
154.000000,11015.789034,11016.280772,-23723.381606,-3705.807472,-13239.273517,13531.656686,-6361.328824,-11929.930679,9915.680875,14180.572531,7096.857679,-612.102522,8331.836263,13351.121646,-24231.213240,-6220.043447,-0.005094,-0.013500,1.012125,192.000000,0.000000,0.000000,0.000000,0.000000,0.000000,0.000000,0.000000,0.000000,0.000000,1770373063.475179,0.000000
156.000000,11006.937743,11009.910525,-23735.965638,-3725.052324,-13252.729267,13532.237832,-6371.722385,-11940.815978,9916.016151,14174.917540,7069.186219,-619.724467,8329.042295,13349.154693,-24239.192812,-6203.950191,-0.005094,-0.013500,1.012125,192.000000,0.000000,0.000000,0.000000,0.000000,0.000000,0.000000,0.000000,0.000000,0.000000,1770373063.475191,0.000000
158.000000,11012.548031,11013.263287,-23731.428234,-3706.165100,-13252.148122,13550.476855,-6360.457106,-11932.277612,9906.606067,14171.229502,7074.125954,-620.931461,8334.250252,13348.819417,-24249.228746,-6199.658656,-0.005094,-0.013500,1.012125,192.000000,0.000000,0.000000,0.000000,0.000000,0.000000,0.000000,0.000000,0.000000,0.000000,1770373063.475203,0.000000
160.000000,11016.437234,11013.419749,-23732.076434,-3729.902652,-13274.052831,13517.709198,-6362.468763,-11930.288307,9910.182346,14162.758191,7080.943236,-622.898414,8321.241536,13350.987536,-24266.260775,-6213.583793,-0.005094,-0.013500,1.012125,192.000000,0.000000,0.000000,0.000000,0.000000,0.000000,0.000000,0.000000,0.000000,0.000000,1770373063.475216,0.000000
162.000000,11039.973621,11035.413865,-23716.877248,-3709.830786,-13258.116038,13543.614870,-6346.464914,-11908.808280,9930.187157,14168.927272,7084.295998,-617.981031,8329.109350,13373.227522,-24275.268528,-6231.420485,-0.003547,-0.012750,1.012063,192.000000,127.500000,120.000000,127.500000,80.000000,15.500000,80.000000,0.000000,0.000000,0.000000,1770373063.475228,0.000000
164.000000,11052.825874,11048.556691,-23705.008472,-3706.589783,-13239.273517,13545.894747,-6341.949861,-11896.224248,9938.680820,14195.749366,7123.612717,-598.713827,8372.359976,13392.047690,-24260.784597,-6247.446686,-0.003547,-0.012750,1.012063,192.000000,0.000000,0.000000,0.000000,0.000000,0.000000,0.000000,0.000000,0.000000,0.000000,1770373063.475241,0.000000
166.000000,11049.316651,11044.332212,-23693.720841,-3708.467330,-13260.530026,13518.692674,-6342.039268,-11892.715024,9958.864446,14195.414090,7115.566089,-591.471862,8350.343508,13372.847542,-24255.464882,-6261.014195,-0.003547,-0.012750,1.012063,192.000000,0.000000,0.000000,0.000000,0.000000,0.000000,0.000000,0.000000,0.000000,0.000000,1770373063.475253,0.000000
168.000000,11056.357450,11053.541130,-23688.267015,-3689.870678,-13226.331857,13536.395256,-6333.724419,-11883.483754,9951.466018,14203.661883,7129.826502,-581.771205,8360.290034,13358.073039,-24242.456167,-6268.434974,-0.003547,-0.012750,1.012063,192.000000,0.000000,0.000000,0.000000,0.000000,0.000000,0.000000,0.000000,0.000000,0.000000,1770373063.475265,0.000000
170.000000,11052.088267,11049.115485,-23697.699451,-3710.411931,-13242.492168,13518.603268,-6345.101457,-11893.184411,9953.187102,14204.108918,7131.949917,-580.318341,8362.078173,13373.607501,-24238.857536,-6267.004462,-0.003547,-0.012750,1.012063,192.000000,0.000000,0.000000,0.000000,0.000000,0.000000,0.000000,0.000000,0.000000,0.000000,1770373063.475278,0.000000
172.000000,11057.787962,11055.597491,-23694.749021,-3695.145690,-13235.585479,13537.646954,-6342.218082,-11889.764594,9960.876103,14205.070043,7115.566089,-585.213373,8378.618464,13376.423821,-24241.383283,-6257.169695,-0.003547,-0.012750,1.012063,192.000000,0.000000,0.000000,0.000000,0.000000,0.000000,0.000000,0.000000,0.000000,0.000000,1770373063.475290,0.000000
174.000000,11049.853092,11051.417715,-23707.265998,-3698.923135,-13241.016953,13542.318468,-6346.777838,-11896.000731,9954.125876,14209.965075,7133.827464,-575.065681,8355.685574,13391.041862,-24238.455205,-6250.285357,-0.003547,-0.012750,1.012063,192.000000,0.000000,0.000000,127.500000,88.000000,15.500000,56.000000,0.000000,0.000000,0.000000,1770373063.475302,0.000000
176.000000,11035.950307,11039.414828,-23713.144507,-3708.064998,-13251.388163,13538.853948,-6355.383260,-11908.852984,9947.398001,14204.243029,7106.513632,-582.531164,8344.777923,13387.331472,-24248.245269,-6238.953023,-0.003547,-0.012750,1.012063,192.000000,0.000000,0.000000,0.000000,0.000000,0.000000,0.000000,0.000000,0.000000,0.000000,1770373063.475314,0.000000
178.000000,11028.909508,11032.530490,-23710.931684,-3697.917306,-13234.087912,13553.494341,-6353.170437,-11914.530327,9934.009306,14190.966092,7105.776025,-594.243478,8353.785676,13382.279978,-24239.997475,-6228.112427,-0.003547,-0.012750,1.012063,192.000000,0.000000,0.000000,0.000000,0.000000,0.000000,0.000000,0.000000,0.000000,0.000000,1770373063.475327,0.000000
180.000000,11007.854165,11012.235106,-23724.320379,-3723.398295,-13260.507674,13522.961858,-6364.592178,-11933.283440,9922.006419,14183.545313,7096.298885,-605.687571,8347.482484,13370.612367,-24243.819623,-6223.217395,-0.003547,-0.012750,1.012063,192.000000,0.000000,0.000000,0.000000,0.000000,0.000000,0.000000,0.000000,0.000000,0.000000,1770373063.475339,0.000000
182.000000,11005.306066,11008.837641,-23722.711053,-3714.971687,-13251.656383,13527.074579,-6358.356042,-11934.244565,9916.642000,14169.396659,7071.555504,-621.199682,8321.241536,13340.146940,-24248.960525,-6223.373857,-0.003547,-0.012750,1.012063,192.000000,0.000000,0.000000,0.000000,0.000000,0.000000,0.000000,0.000000,0.000000,0.000000,1770373063.475351,0.000000
184.000000,11001.260400,10999.628723,-23727.114347,-3724.627641,-13262.295814,13526.113454,-6361.775859,-11937.597327,9897.352445,14164.233406,7085.614751,-621.825531,8339.525263,13343.410294,-24245.652466,-6236.807255,-0.003547,-0.012750,1.012063,192.000000,0.000000,0.000000,127.500000,64.000000,15.500000,40.000000,0.000000,0.000000,0.000000,1770373063.475363,0.000000
186.000000,11015.990200,11012.905659,-23717.637207,-3734.305946,-13275.684509,13523.274782,-6359.920664,-11925.616792,9912.931611,14163.696964,7075.601170,-621.981993,8331.210414,13345.712524,-24253.229708,-6244.876235,-0.003547,-0.012750,1.012063,192.000000,0.000000,0.000000,0.000000,0.000000,0.000000,0.000000,0.000000,0.000000,0.000000,1770373063.475377,0.000000
188.000000,11038.923089,11034.676258,-23700.739288,-3710.143710,-13244.839101,13551.326221,-6344.341498,-11903.756786,9932.489387,14184.260569,7107.921792,-606.067551,8341.134589,13371.171161,-24250.279278,-6248.810142,-0.003547,-0.012750,1.012063,192.000000,0.000000,0.000000,0.000000,0.000000,0.000000,0.000000,0.000000,0.000000,0.000000,1770373063.475389,0.000000
190.000000,11042.544072,11040.711229,-23694.100820,-3722.928908,-13251.075238,13540.284460,-6345.637899,-11900.135803,9944.000535,14199.996197,7125.646725,-596.210432,8357.965452,13380.134211,-24250.212222,-6252.475828,-0.003547,-0.012750,1.012063,192.000000,0.000000,0.000000,0.000000,0.000000,0.000000,0.000000,0.000000,0.000000,0.000000,1770373063.475402,0.000000
192.000000,11064.113505,11059.330232,-23679.505131,-3693.849289,-13230.936316,13559.775181,-6333.478550,-11878.365204,9963.446553,14207.327569,7127.256051,-587.292086,8362.681671,13377.720222,-24253.900260,-6250.195950,-0.003547,-0.012750,1.012063,192.000000,0.000000,0.000000,0.000000,0.000000,0.000000,0.000000,0.000000,0.000000,0.000000,1770373063.475414,0.000000
194.000000,11080.653796,11077.457497,-23680.756829,-3687.657855,-13229.058770,13579.668233,-6332.383315,-11866.854056,9970.308539,14227.220622,7160.046060,-564.962693,8387.492107,13396.629798,-24245.183080,-6243.669241,-0.003547,-0.012750,1.012063,192.000000,0.000000,0.000000,127.500000,48.000000,15.500000,32.000000,0.000000,0.000000,0.000000,1770373063.956285,0.000000
196.000000,11080.430279,11074.797639,-23683.550797,-3695.525670,-13232.523290,13555.416591,-6334.998469,-11868.888064,9985.753594,14232.026247,7147.484380,-553.675062,8404.412377,13411.672522,-24248.871118,-6240.785866,-0.003547,-0.012750,1.012063,192.000000,0.000000,0.000000,0.000000,0.000000,0.000000,0.000000,0.000000,0.000000,0.000000,1770373063.956348,0.000000
198.000000,11076.831648,11072.070726,-23683.953128,-3679.007730,-13217.815842,13556.623585,-6330.237547,-11869.089230,9976.030585,14225.119558,7147.685545,-559.486515,8411.654343,13394.953417,-24237.449376,-6237.835436,-0.003547,-0.012750,1.012063,192.000000,0.000000,0.000000,0.000000,0.000000,0.000000,0.000000,0.000000,0.000000,0.000000,1770373063.956393,0.000000
200.000000,11054.502255,11050.702459,-23688.848160,-3708.444978,-13239.452331,13536.216442,-6345.101457,-11886.814164,9962.686594,14213.027264,7141.471760,-568.784841,8385.927485,13389.454888,-24237.427025,-6240.271776,-0.003547,-0.012750,1.012063,192.000000,0.000000,0.000000,0.000000,0.000000,0.000000,0.000000,0.000000,0.000000,0.000000,1770373063.956438,0.000000
202.000000,11038.006668,11035.570328,-23699.107611,-3705.449844,-13236.077218,13547.571128,-6350.667042,-11906.640161,9954.282338,14193.201267,7098.802280,-590.220164,8350.745839,13368.712469,-24241.338580,-6239.355354,-0.003547,-0.012750,1.012063,192.000000,0.000000,0.000000,0.000000,0.000000,0.000000,0.000000,0.000000,0.000000,0.000000,1770373063.956480,0.000000
204.000000,11025.132063,11024.126235,-23712.563361,-3712.714161,-13231.875090,13532.438997,-6360.747678,-11925.035647,9927.773169,14185.154639,7092.633199,-606.849862,8353.696269,13381.721184,-24234.588353,-6236.650793,-0.003547,-0.012750,1.012063,192.000000,0.000000,0.000000,127.500000,72.000000,15.500000,56.000000,0.000000,0.000000,0.000000,1770373063.956523,0.000000
206.000000,11012.682141,11014.269115,-23722.465184,-3730.796722,-13242.179244,13521.687808,-6369.509562,-11936.479740,9920.307686,14174.984595,7059.060879,-621.557310,8330.204586,13360.509379,-24238.477557,-6227.061895,-0.003547,-0.012750,1.012063,192.000000,0.000000,0.000000,0.000000,0.000000,0.000000,0.000000,0.000000,0.000000,0.000000,1770373063.956565,0.000000
208.000000,11025.087360,11028.976563,-23712.026919,-3699.660742,-13205.432976,13564.133771,-6356.187923,-11923.851004,9915.032675,14179.700813,7064.268835,-620.998516,8334.429066,13362.923367,-24225.915876,-6209.225203,-0.003547,-0.012750,1.012063,192.000000,0.000000,0.000000,0.000000,0.000000,0.000000,0.000000,0.000000,0.000000,0.000000,1770373063.956576,0.000000
210.000000,11030.854110,11033.469264,-23706.215466,-3716.938641,-13227.672962,13569.252320,-6359.563036,-11920.811167,9926.767341,14187.613331,7075.869390,-613.264813,8349.941176,13371.841713,-24225.670007,-6200.418615,-0.003547,-0.012750,1.012063,192.000000,0.000000,0.000000,0.000000,0.000000,0.000000,0.000000,0.000000,0.000000,0.000000,1770373063.956588,0.000000
212.000000,11050.545996,11050.478941,-23687.775277,-3703.125263,-13221.079197,13577.254245,-6347.180169,-11902.818013,9947.956794,14195.972883,7074.394175,-608.727408,8368.604883,13399.580228,-24234.834222,-6203.994895,-0.003547,-0.012750,1.012063,192.000000,0.000000,0.000000,0.000000,0.000000,0.000000,0.000000,0.000000,0.000000,0.000000,1770373063.956599,0.000000
214.000000,11067.667433,11061.118372,-23676.040611,-3699.772501,-13217.324104,13568.917044,-6340.184073,-11888.199972,9959.155018,14210.836793,7115.119054,-589.236687,8388.140307,13387.800859,-24235.683588,-6228.425351,-0.003547,-0.012750,1.012063,192.000000,0.000000,0.000000,127.500000,80.000000,15.500000,56.000000,0.000000,0.000000,0.000000,1770373063.956611,0.000000
216.000000,11074.708232,11065.476962,-23672.911367,-3715.262260,-13232.813863,13530.874375,-6339.781742,-11879.661605,9977.975187,14207.238162,7112.973286,-587.068568,8377.679691,13385.677443,-24239.081054,-6250.106543,-0.003547,-0.012750,1.012063,192.000000,0.000000,0.000000,0.000000,0.000000,0.000000,0.000000,0.000000,0.000000,0.000000,1770373063.956622,0.000000
218.000000,11097.328198,11090.779137,-23664.417704,-3687.434338,-13211.177374,13551.058000,-6324.537852,-11855.141742,9988.905190,14222.124424,7134.922699,-571.735271,8398.578572,13400.653112,-24232.599048,-6263.651700,-0.003547,-0.012750,1.012063,192.000000,0.000000,0.000000,0.000000,0.000000,0.000000,0.000000,0.000000,0.000000,0.000000,1770373063.956639,0.000000
220.000000,11101.172698,11096.724701,-23668.351611,-3698.990190,-13224.499014,13543.011372,-6327.354172,-11850.827855,9993.979036,14233.143834,7149.808961,-557.407803,8397.148060,13408.364464,-24236.175327,-6266.311558,-0.003547,-0.012750,1.012063,192.000000,0.000000,0.000000,0.000000,0.000000,0.000000,0.000000,0.000000,0.000000,0.000000,1770373063.956650,0.000000
222.000000,11102.513802,11100.658608,-23663.791855,-3682.136975,-13215.938296,13537.423436,-6318.413474,-11846.692782,10008.150042,14233.903794,7140.398877,-557.608969,8401.976037,13416.969885,-24236.220030,-6267.116221,-0.003547,-0.012750,1.012063,192.000000,0.000000,0.000000,0.000000,0.000000,0.000000,0.000000,0.000000,0.000000,0.000000,1770373063.956662,0.000000
224.000000,11088.029872,11088.409852,-23674.811265,-3683.612190,-13214.328970,13529.890898,-6325.767198,-11860.304995,9998.449385,14236.720113,7155.910987,-554.926760,8408.212174,13395.623970,-24236.488251,-6264.054032,-0.002000,-0.012000,1.006000,192.000000,127.500000,120.000000,127.500000,80.000000,15.500000,56.000000,0.000000,0.000000,0.000000,1770373063.956673,0.000000
226.000000,11063.934691,11067.063936,-23684.802495,-3708.892013,-13245.017915,13511.763634,-6340.876978,-11881.405041,9980.031548,14215.016569,7120.349362,-574.998626,8408.905078,13391.175972,-24248.178214,-6258.041413,-0.002000,-0.012000,1.006000,192.000000,0.000000,0.000000,0.000000,0.000000,0.000000,0.000000,0.000000,0.000000,0.000000,1770373063.956684,0.000000
228.000000,11059.486694,11063.197084,-23690.926873,-3701.068902,-13232.702104,13530.673210,-6340.541701,-11890.703367,9964.295919,14205.852354,7111.252202,-587.180327,8371.845886,13402.754176,-24246.837109,-6254.599244,-0.002000,-0.012000,1.006000,192.000000,0.000000,0.000000,0.000000,0.000000,0.000000,0.000000,0.000000,0.000000,0.000000,1770373063.956696,0.000000
230.000000,11032.709304,11041.180616,-23716.452565,-3717.922117,-13247.431904,13523.922983,-6360.680623,-11917.123129,9944.626384,14200.264418,7093.527269,-598.467958,8355.797333,13379.016623,-24246.837109,-6232.269851,-0.002000,-0.012000,1.006000,192.000000,0.000000,0.000000,0.000000,0.000000,0.000000,0.000000,0.000000,0.000000,0.000000,1770373063.956707,0.000000
232.000000,11033.558671,11036.643211,-23718.240704,-3716.022219,-13226.801244,13539.479797,-6357.819600,-11916.474928,9939.887815,14180.214903,7064.626463,-617.422237,8335.524301,13382.794068,-24244.803100,-6217.607107,-0.002000,-0.012000,1.006000,192.000000,0.000000,0.000000,0.000000,0.000000,0.000000,0.000000,0.000000,0.000000,0.000000,1770373063.956718,0.000000
234.000000,11025.757912,11032.508139,-23713.993873,-3716.826882,-13233.216194,13519.050302,-6358.266635,-11919.201841,9928.756646,14184.551142,7084.228943,-612.974240,8344.353240,13355.614347,-24228.441623,-6223.910299,-0.004000,-0.020000,1.004000,192.000000,127.500000,112.000000,127.500000,48.000000,15.500000,48.000000,0.000000,0.000000,0.000000,1770373063.956730,0.000000
236.000000,11036.486749,11042.722886,-23705.477858,-3726.751057,-13238.982944,13510.757805,-6355.092687,-11908.361245,9933.964602,14181.444249,7072.628388,-614.225938,8339.838188,13363.102181,-24227.681664,-6247.491389,-0.004000,-0.020000,1.004000,192.000000,0.000000,0.000000,0.000000,0.000000,0.000000,0.000000,0.000000,0.000000,0.000000,1770373063.956748,0.000000
238.000000,11064.359375,11068.628558,-23692.849123,-3692.150556,-13208.539868,13559.953995,-6337.032478,-11883.819030,9948.716754,14205.226505,7100.366902,-596.702170,8364.246293,13398.395586,-24222.630170,-6256.834418,-0.004000,-0.020000,1.004000,192.000000,0.000000,0.000000,0.000000,0.000000,0.000000,0.000000,0.000000,0.000000,0.000000,1770373063.956759,0.000000
240.000000,11068.673261,11073.568293,-23701.432192,-3700.778329,-13235.205500,13543.458407,-6340.675812,-11881.002710,9960.540826,14222.236183,7114.023818,-578.910181,8381.479488,13411.605467,-24239.013998,-6253.191084,-0.004000,-0.020000,1.004000,192.000000,0.000000,0.000000,0.000000,0.000000,0.000000,0.000000,0.000000,0.000000,0.000000,1770373063.956771,0.000000
242.000000,11085.079442,11088.499259,-23690.636300,-3683.411024,-13225.057808,13550.476855,-6327.868262,-11864.149495,9979.875085,14227.824119,7106.223059,-571.087071,8388.341473,13408.319760,-24254.168481,-6254.062802,-0.004000,-0.020000,1.004000,192.000000,0.000000,0.000000,0.000000,0.000000,0.000000,0.000000,0.000000,0.000000,0.000000,1770373063.956782,0.000000
244.000000,11093.930732,11094.534230,-23680.756829,-3691.368245,-13223.046151,13559.484608,-6326.482454,-11858.449800,9981.774984,14232.517985,7134.967403,-561.878152,8406.669904,13411.717226,-24248.267621,-6264.054032,-0.004000,-0.018000,1.002000,192.000000,127.500000,112.000000,127.500000,64.000000,15.500000,32.000000,0.000000,0.000000,0.000000,1770373063.956794,0.000000
246.000000,11096.367073,11096.657645,-23674.230119,-3695.860946,-13236.300735,13523.230079,-6329.566995,-11860.506160,10001.176298,14232.048599,7126.294926,-564.694472,8401.238430,13412.700702,-24241.852670,-6268.546732,-0.004000,-0.018000,1.002000,192.000000,0.000000,0.000000,0.000000,0.000000,0.000000,0.000000,0.000000,0.000000,0.000000,1770373063.956805,0.000000
248.000000,11104.659570,11106.268895,-23662.786026,-3676.236114,-13212.965514,13547.302907,-6324.247280,-11857.712192,9997.018873,14234.999029,7134.676830,-562.615760,8396.835136,13410.398473,-24232.084958,-6265.126916,-0.004000,-0.018000,1.002000,192.000000,0.000000,0.000000,0.000000,0.000000,0.000000,0.000000,0.000000,0.000000,0.000000,1770373063.956816,0.000000
250.000000,11087.940465,11094.243657,-23681.963823,-3701.694751,-13231.428055,13536.954050,-6338.977079,-11873.961910,9992.637931,14236.116616,7132.106380,-565.119155,8413.084854,13417.685141,-24233.694283,-6259.695442,-0.004000,-0.018000,1.002000,192.000000,0.000000,0.000000,0.000000,0.000000,0.000000,0.000000,0.000000,0.000000,0.000000,1770373063.956829,0.000000
252.000000,11080.296168,11087.158154,-23691.731535,-3694.564545,-13225.124863,13537.110512,-6343.782704,-11884.556637,9990.983902,14226.997105,7102.669132,-576.272676,8393.974113,13403.134156,-24239.304571,-6246.418505,-0.004000,-0.018000,1.002000,192.000000,0.000000,0.000000,0.000000,0.000000,0.000000,0.000000,0.000000,0.000000,0.000000,1770373063.956841,0.000000
254.000000,11057.117409,11064.918168,-23718.330111,-3694.564545,-13229.975191,13547.705239,-6358.110173,-11909.389425,9963.223036,14221.275058,7101.417434,-587.202679,8372.739956,13400.697816,-24234.789519,-6224.223223,-0.003000,-0.016000,1.001000,192.000000,127.500000,120.000000,127.500000,72.000000,15.500000,32.000000,0.000000,0.000000,0.000000,1770373063.956851,0.000000
0.000000,11041.895871,11052.378840,-23726.354388,-3714.614059,-13240.145235,13551.058000,-6368.906065,-11925.572088,9950.415486,14200.845564,7062.234826,-605.531109,8387.626217,13397.635627,-24243.417292,-6198.026979,-0.003000,-0.016000,1.001000,192.000000,0.000000,0.000000,0.000000,0.000000,0.000000,0.000000,0.000000,0.000000,0.000000,1770373063.956863,0.000000
2.000000,11057.989127,11066.706308,-23706.126059,-3697.582030,-13198.660397,13585.278521,-6356.634957,-11910.685827,9947.912091,14206.455851,7072.002539,-604.033542,8359.463019,13396.562743,-24229.089824,-6194.338941,-0.003000,-0.016000,1.001000,192.000000,0.000000,0.000000,0.000000,0.000000,0.000000,0.000000,0.000000,0.000000,0.000000,1770373063.956874,0.000000
4.000000,11068.248578,11074.015328,-23707.109536,-3710.233117,-13211.736168,13573.387393,-6352.969271,-11899.174678,9965.435858,14210.367407,7096.745920,-592.097711,8377.500877,13423.675409,-24225.625303,-6202.296162,-0.003000,-0.016000,1.001000,192.000000,0.000000,0.000000,0.000000,0.000000,0.000000,0.000000,0.000000,0.000000,0.000000,1770373063.956886,0.000000
6.000000,11085.191200,11091.092061,-23692.625605,-3693.402254,-13215.647723,13561.473913,-6338.507693,-11880.935655,9977.014062,14216.737654,7093.370806,-580.877135,8377.322063,13397.635627,-24225.647655,-6217.920031,-0.003000,-0.016000,1.001000,192.000000,0.000000,0.000000,0.000000,0.000000,0.000000,0.000000,0.000000,0.000000,0.000000,1770373063.956897,0.000000
8.000000,11084.632407,11092.209648,-23698.548817,-3688.395463,-13216.921773,13560.579844,-6334.886710,-11880.488620,9972.364899,14229.902831,7118.047132,-566.996702,8362.949891,13408.833850,-24225.133565,-6241.344659,-0.002500,-0.013000,1.001500,192.000000,127.500000,120.000000,127.500000,88.000000,15.500000,40.000000,0.000000,0.000000,0.000000,1770373063.956908,0.000000
10.000000,11077.904532,11086.889933,-23700.001681,-3698.632562,-13248.035401,13537.557547,-6337.859492,-11887.909399,9982.512591,14223.644343,7099.092853,-573.836335,8377.903208,13416.947534,-24245.205432,-6250.598282,-0.002500,-0.013000,1.001500,192.000000,0.000000,0.000000,0.000000,0.000000,0.000000,0.000000,0.000000,0.000000,0.000000,1770373063.956920,0.000000
12.000000,11096.322369,11101.999712,-23687.216483,-3677.241943,-13229.952840,13557.629413,-6327.980021,-11874.028966,9985.328911,14228.919355,7108.681751,-568.717786,8384.854601,13424.010685,-24249.161690,-6253.682822,-0.002500,-0.013000,1.001500,192.000000,0.000000,0.000000,0.000000,0.000000,0.000000,0.000000,0.000000,0.000000,0.000000,1770373063.956931,0.000000
14.000000,11094.020139,11101.083291,-23685.137771,-3680.438242,-13248.996526,13527.655724,-6329.790512,-11873.201951,9988.525210,14237.994163,7123.858586,-558.614797,8396.075177,13416.433444,-24255.062551,-6252.185256,-0.002500,-0.013000,1.001500,192.000000,0.000000,0.000000,0.000000,0.000000,0.000000,0.000000,0.000000,0.000000,0.000000,1770373063.956942,0.000000
16.000000,11095.271837,11104.793680,-23672.576090,-3674.604437,-13241.642802,13529.019180,-6323.017934,-11869.111582,9990.782737,14235.714285,7110.827519,-558.972425,8388.140307,13408.185650,-24258.549423,-6251.402944,-0.002500,-0.013000,1.001500,192.000000,0.000000,0.000000,0.000000,0.000000,0.000000,0.000000,0.000000,0.000000,0.000000,1770373063.956953,0.000000
18.000000,11088.342796,11094.802451,-23681.315622,-3686.562620,-13255.187959,13533.511881,-6328.784684,-11876.174733,9983.585475,14233.948497,7127.837196,-559.106536,8410.022665,13419.048598,-24249.251097,-6253.101677,-0.002500,-0.013000,1.001500,192.000000,0.000000,0.000000,127.500000,96.000000,15.500000,48.000000,0.000000,0.000000,0.000000,1770373063.956965,0.000000
20.000000,11067.578026,11072.003671,-23700.359309,-3711.082484,-13277.785573,13495.290398,-6341.145198,-11893.586742,9975.181219,14214.971866,7100.679827,-577.256152,8358.278377,13391.913580,-24260.941060,-6255.046279,-0.002500,-0.013000,1.001500,192.000000,0.000000,0.000000,0.000000,0.000000,0.000000,0.000000,0.000000,0.000000,0.000000,1770373063.956976,0.000000
22.000000,11064.918168,11066.952177,-23709.814097,-3689.960085,-13257.713706,13516.971590,-6339.513521,-11897.453594,9958.417411,14198.208058,7095.382463,-594.779920,8342.565100,13377.541408,-24258.504720,-6253.235788,-0.002500,-0.013000,1.001500,192.000000,0.000000,0.000000,0.000000,0.000000,0.000000,0.000000,0.000000,0.000000,0.000000,1770373063.956987,0.000000
24.000000,11052.021212,11056.826837,-23728.857783,-3711.820091,-13266.252073,13513.551773,-6356.098516,-11913.859774,9949.744934,14193.223619,7092.499088,-600.166690,8342.430990,13379.620120,-24259.756417,-6232.448665,-0.002500,-0.013000,1.001500,192.000000,0.000000,0.000000,0.000000,0.000000,0.000000,0.000000,0.000000,0.000000,0.000000,1770373063.956998,0.000000
26.000000,11050.277776,11056.782133,-23735.429196,-3709.406103,-13240.547566,13541.625564,-6357.663138,-11918.888917,9940.647774,14186.093412,7058.457382,-617.511644,8323.230842,13370.746478,-24261.052818,-6200.083339,-0.002500,-0.013000,1.001500,192.000000,0.000000,0.000000,0.000000,0.000000,0.000000,0.000000,0.000000,0.000000,0.000000,1770373063.957011,0.000000
28.000000,11064.404078,11067.801543,-23719.984140,-3702.566469,-13217.502918,13561.630376,-6352.231664,-11907.578934,9942.234748,14196.710491,7080.250332,-608.190967,8359.239502,13391.712414,-24240.466862,-6181.464336,-0.002250,-0.013500,1.001750,192.000000,127.500000,120.000000,127.500000,72.000000,15.500000,40.000000,0.000000,0.000000,0.000000,1770373063.957022,0.000000
30.000000,11085.213552,11088.432203,-23700.627530,-3705.539251,-13211.199726,13547.258204,-6342.754524,-11884.713100,9967.268701,14206.366444,7087.335835,-594.019961,8356.870217,13395.869839,-24236.443548,-6200.664485,-0.002250,-0.013500,1.001750,192.000000,0.000000,0.000000,0.000000,0.000000,0.000000,0.000000,0.000000,0.000000,0.000000,1770373063.957033,0.000000
32.000000,11111.767425,11117.288305,-23679.639242,-3672.101041,-13197.475755,13566.413649,-6321.028628,-11858.159227,9999.879897,14235.311953,7123.746827,-562.526353,8387.827383,13398.820269,-24230.118004,-6221.473959,-0.002250,-0.013500,1.001750,192.000000,0.000000,0.000000,0.000000,0.000000,0.000000,0.000000,0.000000,0.000000,0.000000,1770373063.957046,0.000000
34.000000,11105.553640,11113.332047,-23687.283538,-3682.762823,-13231.875090,13558.478780,-6327.689448,-11865.289434,9998.248219,14248.387724,7135.235624,-550.992853,8401.350188,13433.733694,-24241.316228,-6237.723677,-0.002250,-0.013500,1.001750,192.000000,0.000000,0.000000,0.000000,0.000000,0.000000,0.000000,0.000000,0.000000,0.000000,1770373063.957058,0.000000
36.000000,11101.776195,11109.666361,-23683.707259,-3679.052434,-13229.930488,13538.853948,-6324.761370,-11868.552788,9998.874068,14239.983468,7112.995638,-556.357271,8343.235653,13418.378045,-24256.470711,-6250.151247,-0.002250,-0.013500,1.001750,192.000000,0.000000,0.000000,0.000000,0.000000,0.000000,0.000000,0.000000,0.000000,0.000000,1770373063.957071,0.000000
38.000000,11099.563372,11106.984151,-23680.063925,-3681.108794,-13237.194805,13530.717913,-6324.247280,-11871.033832,9990.581571,14239.491730,7131.525234,-557.474858,8394.756424,13401.927161,-24246.926516,-6258.063764,-0.002250,-0.013500,1.001750,192.000000,0.000000,0.000000,127.500000,72.000000,15.500000,56.000000,0.000000,0.000000,0.000000,1770373063.957083,0.000000
40.000000,11089.549791,11095.003616,-23684.243701,-3699.861908,-13257.087857,13512.434186,-6330.550472,-11877.292320,9988.994597,14225.052503,7113.129748,-565.677949,8377.880857,13398.887324,-24254.615516,-6262.847038,-0.002250,-0.013500,1.001750,192.000000,0.000000,0.000000,0.000000,0.000000,0.000000,0.000000,0.000000,0.000000,0.000000,1770373063.957094,0.000000
42.000000,11087.068747,11094.422471,-23677.404067,-3681.332312,-13235.741941,13522.917154,-6330.617527,-11880.712137,9979.651568,14222.124424,7113.375618,-568.158992,8389.101432,13389.052557,-24250.055760,-6262.802334,-0.002250,-0.013500,1.001750,192.000000,0.000000,0.000000,0.000000,0.000000,0.000000,0.000000,0.000000,0.000000,0.000000,1770373063.957106,0.000000
44.000000,11073.478886,11080.899665,-23686.858855,-3708.355571,-13266.654404,13500.721872,-6343.805056,-11897.386539,9976.857600,14222.124424,7110.939278,-575.266847,8370.080098,13395.176935,-24246.635943,-6261.215360,-0.002250,-0.013500,1.001750,192.000000,0.000000,0.000000,0.000000,0.000000,0.000000,0.000000,0.000000,0.000000,0.000000,1770373063.957117,0.000000
46.000000,11061.699517,11063.755877,-23697.475934,-3706.410969,-13258.808942,13509.059073,-6347.962481,-11906.036664,9971.493181,14196.934008,7081.099699,-594.601106,8340.017002,13373.518094,-24254.727275,-6253.816933,-0.002250,-0.013500,1.001750,192.000000,0.000000,0.000000,0.000000,0.000000,0.000000,0.000000,0.000000,0.000000,0.000000,1770373063.957129,0.000000
48.000000,11059.017308,11059.509046,-23712.384547,-3703.885222,-13253.891558,13517.172756,-6350.599986,-11908.115376,9954.930539,14191.010796,7094.466042,-600.658429,8349.807066,13372.512266,-24249.787539,-6245.971471,-0.000125,-0.014750,1.001875,192.000000,0.000000,8.000000,127.500000,64.000000,15.500000,40.000000,0.000000,0.000000,0.000000,1770373063.957140,0.000000
50.000000,11050.680107,11051.261252,-23727.650789,-3724.359420,-13261.692317,13508.634389,-6363.563998,-11920.364132,9954.237634,14184.752308,7073.991844,-606.849862,8326.717714,13370.522960,-24254.123778,-6230.973450,-0.000125,-0.014750,1.001875,192.000000,0.000000,0.000000,0.000000,0.000000,0.000000,0.000000,0.000000,0.000000,0.000000,1770373063.957151,0.000000
52.000000,11054.479904,11055.172808,-23731.584696,-3702.655876,-13222.196784,13548.889881,-6359.495981,-11919.447710,9956.204588,14189.423822,7071.264931,-612.258984,8345.694345,13384.649263,-24243.864327,-6209.962810,-0.000125,-0.014750,1.001875,192.000000,0.000000,0.000000,0.000000,0.000000,0.000000,0.000000,0.000000,0.000000,0.000000,1770373063.957163,0.000000
54.000000,11049.674278,11050.948328,-23727.583734,-3711.842443,-13230.355171,13552.175588,-6362.267597,-11923.694542,9951.018983,14185.266398,7073.924789,-613.175406,8339.033525,13383.688138,-24237.807004,-6194.808328,-0.000125,-0.014750,1.001875,192.000000,0.000000,0.000000,0.000000,0.000000,0.000000,0.000000,0.000000,0.000000,0.000000,1770373063.957174,0.000000
56.000000,11077.591607,11079.893837,-23710.417594,-3683.433376,-13215.401854,13575.823733,-6347.381335,-11898.235905,9971.917864,14198.453927,7070.437917,-600.971353,8360.915883,13400.206077,-24245.294839,-6187.007569,-0.000125,-0.014750,1.001875,192.000000,0.000000,0.000000,0.000000,0.000000,0.000000,0.000000,0.000000,0.000000,0.000000,1770373063.957186,0.000000
58.000000,11102.491451,11102.178526,-23693.430268,-3666.893085,-13191.038453,13608.949019,-6336.920719,-11878.544018,9993.576705,14234.753160,7120.796397,-569.701263,8411.542584,13430.738560,-24239.796309,-6180.458508,-0.000125,-0.014750,1.001875,192.000000,0.000000,0.000000,0.000000,0.000000,0.000000,0.000000,0.000000,0.000000,0.000000,1770373064.435738,0.000000
60.000000,11103.609038,11098.646951,-23684.958957,-3684.819184,-13202.661360,13599.717748,-6339.692335,-11879.751012,10016.286077,14236.921279,7118.650629,-568.740138,8400.567877,13447.681182,-24243.864327,-6178.603313,0.008000,-0.010000,1.002000,192.000000,0.000000,32.000000,127.500000,88.000000,15.500000,40.000000,0.000000,0.000000,0.000000,1770373064.435834,0.000000
62.000000,11112.862660,11107.453538,-23674.520692,-3667.831858,-13183.841191,13615.229859,-6326.817730,-11868.597492,10021.471682,14244.342058,7128.887728,-563.040443,8398.667979,13434.739522,-24235.616533,-6182.246647,0.008000,-0.010000,1.002000,192.000000,0.000000,0.000000,0.000000,0.000000,0.000000,0.000000,0.000000,0.000000,0.000000,1770373064.435909,0.000000
64.000000,11101.753843,11096.255314,-23680.063925,-3693.402254,-13216.206517,13570.347556,-6333.009163,-11877.605245,10010.742844,14237.658887,7135.459141,-563.755699,8417.197575,13457.203025,-24240.712731,-6196.216487,0.008000,-0.010000,1.002000,192.000000,0.000000,0.000000,0.000000,0.000000,0.000000,0.000000,0.000000,0.000000,0.000000,1770373064.435985,0.000000
66.000000,11096.478831,11090.913247,-23672.285518,-3681.153498,-13222.487357,13555.483646,-6329.008201,-11877.314672,10010.161699,14221.073892,7114.537908,-572.450527,8380.764232,13412.588944,-24248.178214,-6213.024999,0.008000,-0.010000,1.002000,192.000000,0.000000,0.000000,0.000000,0.000000,0.000000,0.000000,0.000000,0.000000,0.000000,1770373064.436050,0.000000
68.000000,11092.835497,11087.962817,-23680.488608,-3677.778384,-13222.308543,13564.290233,-6333.612661,-11882.723794,10000.393987,14223.353770,7133.380429,-567.980178,8396.276342,13404.430557,-24244.177251,-6219.551709,0.008000,-0.010000,1.002000,192.000000,0.000000,0.000000,0.000000,0.000000,0.000000,0.000000,0.000000,0.000000,0.000000,1770373064.436098,0.000000
70.000000,11075.267026,11073.992976,-23695.508980,-3696.732664,-13235.630183,13544.106608,-6346.599024,-11900.180507,9995.074272,14216.357674,7110.089911,-579.379568,8370.750650,13401.837754,-24248.804062,-6212.756778,0.004000,-0.014000,1.012000,192.000000,0.000000,16.000000,127.500000,72.000000,15.500000,80.000000,0.000000,0.000000,0.000000,1770373064.436145,0.000000
72.000000,11076.451668,11071.422526,-23700.225198,-3682.338140,-13219.693389,13553.516692,-6344.877940,-11901.700425,9985.060690,14209.473337,7103.540850,-588.722597,8370.840057,13399.848449,-24241.048007,-6209.783996,0.004000,-0.014000,1.012000,192.000000,0.000000,0.000000,0.000000,0.000000,0.000000,0.000000,0.000000,0.000000,0.000000,1770373064.436188,0.000000
74.000000,11052.825874,11049.875444,-23720.900562,-3707.617963,-13227.427092,13532.103721,-6362.088783,-11924.119225,9983.920751,14200.152659,7098.109376,-598.758530,8381.859467,13401.457775,-24231.190888,-6204.218412,0.004000,-0.014000,1.012000,192.000000,0.000000,0.000000,0.000000,0.000000,0.000000,0.000000,0.000000,0.000000,0.000000,1770373064.436200,0.000000
76.000000,11038.163130,11042.387610,-23726.577905,-3708.266164,-13222.017970,13540.530329,-6361.999376,-11930.288307,9954.975242,14184.998177,7060.133762,-611.834301,8369.275435,13395.691025,-24233.090786,-6196.305894,0.004000,-0.014000,1.012000,192.000000,0.000000,0.000000,0.000000,0.000000,0.000000,0.000000,0.000000,0.000000,0.000000,1770373064.436213,0.000000
78.000000,11034.340982,11041.761761,-23728.187231,-3702.566469,-13207.109357,13550.096875,-6359.831257,-11931.852929,9951.354259,14195.794069,7074.193010,-609.509720,8341.000478,13400.094318,-24227.771071,-6191.612028,0.004000,-0.014000,1.012000,192.000000,0.000000,0.000000,0.000000,0.000000,0.000000,0.000000,0.000000,0.000000,0.000000,1770373064.436225,0.000000
80.000000,11034.810368,11040.018325,-23728.991893,-3712.512995,-13225.460139,13543.279593,-6360.747678,-11930.869452,9951.466018,14181.600712,7060.491390,-618.428066,8335.412542,13381.676481,-24235.281257,-6190.405034,0.002000,-0.010000,1.006000,192.000000,0.000000,8.000000,127.500000,88.000000,15.500000,56.000000,0.000000,0.000000,0.000000,1770373064.436237,0.000000
82.000000,11060.336061,11061.073668,-23709.076489,-3675.654969,-13203.153098,13587.737213,-6344.766181,-11911.088158,9969.190951,14194.520020,7074.036547,-604.592336,8371.331796,13395.020472,-24233.090786,-6186.247609,0.002000,-0.010000,1.006000,192.000000,0.000000,0.000000,0.000000,0.000000,0.000000,0.000000,0.000000,0.000000,0.000000,1770373064.436249,0.000000
84.000000,11070.439049,11076.138744,-23696.514809,-3682.762823,-13203.823650,13590.978216,-6343.715649,-11899.934638,9980.210362,14219.173994,7099.070501,-587.001513,8366.727336,13433.309011,-24231.861440,-6181.553743,0.002000,-0.010000,1.006000,192.000000,0.000000,0.000000,0.000000,0.000000,0.000000,0.000000,0.000000,0.000000,0.000000,1770373064.436262,0.000000
86.000000,11087.560485,11090.868543,-23676.219425,-3672.771594,-13190.814935,13593.928646,-6330.371658,-11879.907475,10005.490184,14229.276982,7100.657475,-580.541859,8379.959569,13441.132121,-24234.051911,-6190.092109,0.002000,-0.010000,1.006000,192.000000,0.000000,0.000000,0.000000,0.000000,0.000000,0.000000,0.000000,0.000000,0.000000,1770373064.436274,0.000000
88.000000,11094.288360,11096.076500,-23672.374925,-3676.034948,-13187.104545,13593.101632,-6325.275460,-11870.475038,10006.250144,14236.116616,7133.715705,-569.008359,8410.626162,13449.491674,-24226.027635,-6208.554650,0.002000,-0.010000,1.006000,192.000000,0.000000,0.000000,0.000000,0.000000,0.000000,0.000000,0.000000,0.000000,0.000000,1770373064.436286,0.000000
90.000000,11088.767480,11087.448727,-23677.448771,-3690.921210,-13224.968401,13559.663422,-6329.499940,-11870.743259,10015.682580,14232.227413,7128.060714,-565.745004,8406.312276,13432.169072,-24238.254039,-6221.473959,0.002000,-0.008000,1.012000,192.000000,0.000000,8.000000,127.500000,96.000000,15.500000,80.000000,0.000000,0.000000,0.000000,1770373064.436313,0.000000
92.000000,11088.432203,11085.861753,-23679.706297,-3676.772556,-13221.705046,13552.846140,-6322.839120,-11868.217512,10008.060635,14226.438311,7130.184129,-567.466088,8383.491145,13422.334304,-24240.042179,-6235.466151,0.002000,-0.008000,1.012000,192.000000,0.000000,0.000000,0.000000,0.000000,0.000000,0.000000,0.000000,0.000000,0.000000,1770373064.436326,0.000000
94.000000,11064.582892,11063.331194,-23699.040556,-3706.120396,-13253.131599,13525.442901,-6341.324012,-11893.787908,9984.434841,14213.384892,7121.444597,-577.770242,8388.788508,13412.723054,-24247.641772,-6244.183331,0.002000,-0.008000,1.012000,192.000000,0.000000,0.000000,0.000000,0.000000,0.000000,0.000000,0.000000,0.000000,0.000000,1770373064.436338,0.000000
96.000000,11050.188369,11052.580005,-23703.980291,-3705.829824,-13252.304584,13522.581878,-6344.632071,-11908.607114,9977.103469,14190.697872,7086.397062,-601.954830,8352.265758,13400.273132,-24253.363818,-6249.994785,0.002000,-0.008000,1.012000,192.000000,0.000000,0.000000,0.000000,0.000000,0.000000,0.000000,0.000000,0.000000,0.000000,1770373064.436350,0.000000
98.000000,11043.751066,11046.835607,-23710.641111,-3697.917306,-13230.444578,13522.492471,-6348.364812,-11914.955010,9950.728411,14190.452002,7093.102585,-605.687571,8340.329926,13389.186667,-24241.070359,-6236.784904,0.002000,-0.008000,1.012000,192.000000,0.000000,0.000000,0.000000,0.000000,0.000000,0.000000,0.000000,0.000000,0.000000,1770373064.436363,0.000000
100.000000,11042.052334,11044.846302,-23714.284446,-3717.609193,-13241.933375,13508.097948,-6357.372565,-11917.011370,9954.125876,14185.713433,7078.663359,-606.782807,8347.013098,13377.340243,-24241.115062,-6231.621651,0.002000,-0.008000,1.012000,192.000000,0.000000,0.000000,127.500000,96.000000,15.500000,64.000000,0.000000,0.000000,0.000000,1770373064.436376,0.000000
102.000000,11048.400229,11050.166017,-23709.992911,-3695.279800,-13210.618581,13536.529367,-6349.840027,-11911.065806,9966.553446,14186.518095,7085.145364,-606.559289,8353.472752,13399.759042,-24230.475632,-6224.357334,0.002000,-0.008000,1.012000,192.000000,0.000000,0.000000,0.000000,0.000000,0.000000,0.000000,0.000000,0.000000,0.000000,1770373064.436389,0.000000
104.000000,11036.911432,11040.286546,-23714.664425,-3712.490644,-13221.190956,13525.197032,-6359.518332,-11923.582783,9954.550559,14187.725090,7092.812013,-607.565118,8356.646700,13397.434461,-24223.367777,-6220.266964,0.002000,-0.008000,1.012000,192.000000,0.000000,0.000000,0.000000,0.000000,0.000000,0.000000,0.000000,0.000000,0.000000,1770373064.436401,0.000000
106.000000,11038.990145,11040.666525,-23711.401071,-3705.628658,-13211.959685,13533.824805,-6353.706879,-11920.833519,9962.999518,14180.952511,7071.399042,-616.438760,8353.003365,13382.436440,-24224.015978,-6219.305839,0.002000,-0.008000,1.012000,192.000000,0.000000,0.000000,0.000000,0.000000,0.000000,0.000000,0.000000,0.000000,0.000000,1770373064.436413,0.000000
108.000000,11043.751066,11044.823950,-23700.649881,-3702.879393,-13205.812956,13535.367076,-6347.090763,-11914.418568,9962.753649,14192.486011,7095.695388,-608.883871,8377.813802,13407.157470,-24218.718614,-6228.626517,0.002000,-0.008000,1.012000,192.000000,0.000000,0.000000,0.000000,0.000000,0.000000,0.000000,0.000000,0.000000,0.000000,1770373064.436425,0.000000
110.000000,11046.232110,11047.036773,-23702.795649,-3715.306963,-13217.145290,13517.575087,-6346.375507,-11910.395254,9974.376556,14188.529752,7087.313484,-608.861519,8371.376499,13402.709473,-24228.843955,-6238.863616,0.002000,-0.012000,1.014000,192.000000,0.000000,8.000000,127.500000,80.000000,15.500000,88.000000,0.000000,0.000000,0.000000,1770373064.436437,0.000000
112.000000,11049.070781,11047.215587,-23693.094992,-3694.318675,-13202.817822,13532.953087,-6331.556300,-11899.509954,9977.461097,14194.408261,7097.125899,-601.194871,8393.884706,13400.027263,-24232.062606,-6248.653680,0.002000,-0.012000,1.014000,192.000000,0.000000,0.000000,0.000000,0.000000,0.000000,0.000000,0.000000,0.000000,0.000000,1770373064.436449,0.000000
114.000000,11042.454665,11039.772456,-23697.967672,-3710.188414,-13239.027648,13503.158212,-6337.166588,-11905.388463,9966.039356,14189.334415,7107.452405,-602.625382,8348.175388,13400.653112,-24239.125757,-6262.288244,0.002000,-0.012000,1.014000,192.000000,0.000000,0.000000,0.000000,0.000000,0.000000,0.000000,0.000000,0.000000,0.000000,1770373064.436461,0.000000
116.000000,11045.852130,11042.856996,-23694.749021,-3706.030989,-13245.733171,13503.158212,-6334.640841,-11903.265047,9971.046146,14188.127421,7090.085100,-604.860557,8350.008231,13386.325644,-24251.776844,-6271.228942,0.002000,-0.012000,1.014000,192.000000,0.000000,0.000000,0.000000,0.000000,0.000000,0.000000,0.000000,0.000000,0.000000,1770373064.436473,0.000000
118.000000,11047.059124,11042.208796,-23695.978367,-3704.645181,-13242.827444,13512.143613,-6332.897405,-11902.639199,9965.346451,14190.295540,7109.039379,-601.776016,8365.743859,13398.239124,-24247.865289,-6270.044299,0.002000,-0.012000,1.014000,192.000000,0.000000,0.000000,0.000000,0.000000,0.000000,0.000000,0.000000,0.000000,0.000000,1770373064.436485,0.000000
120.000000,11041.158264,11035.838549,-23705.880190,-3717.028048,-13264.195712,13494.642197,-6343.246262,-11909.165908,9964.675899,14182.271264,7093.460213,-605.195833,8358.993633,13378.211961,-24250.703961,-6262.623520,0.002000,-0.012000,1.012000,192.000000,0.000000,8.000000,127.500000,80.000000,15.500000,80.000000,0.000000,0.000000,0.000000,1770373064.436497,0.000000
122.000000,11041.270023,11035.525624,-23704.673195,-3691.949390,-13243.050962,13518.737378,-6340.340536,-11910.551716,9964.094754,14178.426764,7090.509783,-606.939269,8354.389173,13390.594827,-24249.027580,-6248.072535,0.002000,-0.012000,1.012000,192.000000,0.000000,0.000000,0.000000,0.000000,0.000000,0.000000,0.000000,0.000000,0.000000,1770373064.436512,0.000000
124.000000,11026.897851,11022.852185,-23718.017187,-3708.959068,-13265.268596,13493.725776,-6352.097553,-11924.119225,9951.220149,14176.459810,7089.682769,-610.672010,8338.921766,13391.131269,-24251.486272,-6243.043392,0.002000,-0.012000,1.012000,192.000000,0.000000,0.000000,0.000000,0.000000,0.000000,0.000000,0.000000,0.000000,0.000000,1770373064.436524,0.000000
126.000000,11029.781226,11024.640325,-23718.061890,-3707.908536,-13258.607776,13504.476965,-6347.761315,-11918.531289,9949.454361,14167.407354,7068.113335,-621.646717,8332.640926,13375.373289,-24258.862347,-6250.799447,0.002000,-0.012000,1.012000,192.000000,0.000000,0.000000,0.000000,0.000000,0.000000,0.000000,0.000000,0.000000,0.000000,1770373064.436536,0.000000
128.000000,11025.824967,11018.381836,-23720.252361,-3706.947411,-13247.096628,13517.060997,-6347.113114,-11922.375789,9941.139512,14169.642528,7089.548658,-619.255080,8338.742952,13392.002987,-24247.954696,-6256.745011,0.002000,-0.012000,1.012000,192.000000,0.000000,0.000000,0.000000,0.000000,0.000000,0.000000,0.000000,0.000000,0.000000,1770373064.436548,0.000000
130.000000,11023.679200,11014.291467,-23723.806289,-3723.733571,-13265.760334,13495.312750,-6352.946920,-11929.103664,9942.748838,14154.309232,7071.689614,-631.861464,8348.555368,13400.116670,-24254.816682,-6259.360166,0.002000,-0.012000,1.012000,192.000000,0.000000,0.000000,127.500000,96.000000,15.500000,88.000000,0.000000,0.000000,0.000000,1770373064.436561,0.000000
132.000000,11039.928918,11031.636421,-23708.897675,-3695.995056,-13230.288116,13527.946297,-6339.088838,-11911.222268,9949.297899,14166.379174,7080.876181,-624.284223,8346.588415,13379.664824,-24247.798234,-6261.036546,0.002000,-0.012000,1.012000,192.000000,0.000000,0.000000,0.000000,0.000000,0.000000,0.000000,0.000000,0.000000,0.000000,1770373064.436574,0.000000
134.000000,11044.309860,11036.464397,-23708.920027,-3707.863832,-13228.947011,13520.704331,-6343.469780,-11909.657646,9954.885835,14172.011813,7101.529193,-611.767246,8342.766266,13386.571513,-24241.427987,-6258.644910,0.002000,-0.012000,1.012000,192.000000,0.000000,0.000000,0.000000,0.000000,0.000000,0.000000,0.000000,0.000000,0.000000,1770373064.436586,0.000000
136.000000,11053.094095,11045.896834,-23701.275730,-3701.627696,-13214.686598,13536.529367,-6337.300698,-11903.533268,9970.822629,14176.929197,7087.939332,-610.292031,8343.101542,13409.459699,-24240.600972,-6253.258139,0.002000,-0.012000,1.012000,192.000000,0.000000,0.000000,0.000000,0.000000,0.000000,0.000000,0.000000,0.000000,0.000000,1770373064.436598,0.000000
138.000000,11057.273872,11050.948328,-23699.532294,-3689.557754,-13217.189994,13532.103721,-6333.813826,-11898.034739,9967.894550,14194.028281,7114.314391,-599.742007,8377.702043,13416.969885,-24235.728292,-6249.167770,0.002000,-0.012000,1.012000,192.000000,0.000000,0.000000,0.000000,0.000000,0.000000,0.000000,0.000000,0.000000,0.000000,1770373064.436610,0.000000
140.000000,11044.578081,11036.084418,-23701.901579,-3711.104835,-13257.266671,13500.498354,-6338.731210,-11903.957952,9968.855675,14174.448153,7100.545716,-605.553461,8350.656432,13393.589961,-24249.720484,-6249.011308,-0.001000,-0.011000,1.012000,192.000000,127.500000,112.000000,127.500000,88.000000,15.500000,80.000000,0.000000,0.000000,0.000000,1770373064.436623,0.000000
142.000000,11054.323441,11045.919185,-23696.067774,-3690.094196,-13235.607831,13514.311733,-6328.382352,-11890.949236,9968.162771,14174.381098,7104.569030,-606.022847,8338.854711,13391.332435,-24255.129606,-6248.497218,-0.001000,-0.011000,1.012000,192.000000,0.000000,0.000000,0.000000,0.000000,0.000000,0.000000,0.000000,0.000000,0.000000,1770373064.436635,0.000000
144.000000,11041.180616,11032.552842,-23704.382623,-3710.076655,-13252.706915,13498.397291,-6339.334707,-11901.476908,9964.944120,14180.281959,7116.549565,-603.810025,8363.262816,13400.429595,-24254.906089,-6249.793619,-0.001000,-0.011000,1.012000,192.000000,0.000000,0.000000,0.000000,0.000000,0.000000,0.000000,0.000000,0.000000,0.000000,1770373064.436648,0.000000
146.000000,11039.101903,11027.076665,-23700.985158,-3703.572298,-13255.590290,13501.392424,-6337.121884,-11903.801489,9966.955777,14160.590072,7090.152155,-616.237595,8336.910109,13384.090469,-24258.750589,-6242.015212,-0.001000,-0.011000,1.012000,192.000000,0.000000,0.000000,0.000000,0.000000,0.000000,0.000000,0.000000,0.000000,0.000000,1770373064.436664,0.000000
148.000000,11031.256441,11021.421673,-23708.562399,-3697.939658,-13248.281270,13498.441994,-6337.792437,-11910.462309,9956.539864,14164.479275,7102.490318,-615.499987,8347.638946,13396.786260,-24252.290935,-6245.032697,-0.001000,-0.011000,1.012000,192.000000,0.000000,0.000000,0.000000,0.000000,0.000000,0.000000,0.000000,0.000000,0.000000,1770373064.436685,0.000000
150.000000,11019.231203,11012.860955,-23713.569190,-3716.357495,-13266.833218,13472.111639,-6344.967347,-11921.012333,9953.723544,14153.482217,7082.172582,-624.060705,8333.825568,13382.928179,-24259.644659,-6258.823724,-0.002500,-0.010500,1.014000,192.000000,127.500000,112.000000,127.500000,88.000000,15.500000,96.000000,0.000000,0.000000,0.000000,1770373064.436702,0.000000
152.000000,11034.340982,11026.607278,-23704.673195,-3690.697693,-13242.760389,13507.829727,-6332.048038,-11906.707216,9956.048126,14156.432647,7084.161888,-622.652545,8335.569004,13379.463658,-24256.873042,-6266.333910,-0.002500,-0.010500,1.014000,192.000000,0.000000,0.000000,0.000000,0.000000,0.000000,0.000000,0.000000,0.000000,0.000000,1770373064.436717,0.000000
154.000000,11041.024153,11037.000839,-23703.086222,-3701.426530,-13253.958613,13516.010465,-6336.831312,-11902.840364,9966.598149,14173.554084,7104.189051,-608.101560,8333.356182,13391.623007,-24256.560118,-6263.562293,-0.002500,-0.010500,1.014000,192.000000,0.000000,0.000000,0.000000,0.000000,0.000000,0.000000,0.000000,0.000000,0.000000,1770373064.436756,0.000000
156.000000,11047.081476,11044.421619,-23698.705280,-3694.810414,-13246.090799,13529.376808,-6331.645707,-11895.866620,9981.931446,14179.790220,7093.057882,-603.832376,8353.495104,13388.940798,-24263.556214,-6260.075421,-0.002500,-0.010500,1.014000,192.000000,0.000000,0.000000,0.000000,0.000000,0.000000,0.000000,0.000000,0.000000,0.000000,1770373064.436773,0.000000
158.000000,11054.435200,11049.584871,-23696.671271,-3685.623847,-13219.961610,13540.396218,-6327.376524,-11890.546905,9976.477620,14186.115764,7113.017990,-597.775054,8361.452325,13419.205060,-24259.018810,-6259.293110,-0.002500,-0.010500,1.014000,192.000000,0.000000,0.000000,0.000000,0.000000,0.000000,0.000000,0.000000,0.000000,0.000000,1770373064.436790,0.000000
160.000000,11054.993994,11045.606261,-23696.335995,-3697.827899,-13238.602965,13525.197032,-6331.466893,-11891.306864,9985.843001,14186.629854,7105.798376,-594.221126,8365.430935,13408.520926,-24261.656316,-6249.793619,-0.003250,-0.010250,1.011000,192.000000,127.500000,112.000000,127.500000,88.000000,15.500000,64.000000,0.000000,0.000000,0.000000,1770373064.436805,0.000000
162.000000,11068.785020,11058.257348,-23681.896768,-3677.130184,-13212.250258,13549.851006,-6321.945050,-11877.515838,9994.649588,14189.513229,7118.382408,-592.008304,8374.751613,13424.770644,-24255.084903,-6249.324232,-0.003250,-0.010250,1.011000,192.000000,0.000000,0.000000,0.000000,0.000000,0.000000,0.000000,0.000000,0.000000,0.000000,1770373064.436822,0.000000
164.000000,11059.397287,11055.061049,-23687.417649,-3682.248733,-13224.141386,13536.194090,-6329.142312,-11883.148477,9986.468850,14193.424784,7130.497054,-586.889754,8360.491200,13442.517929,-24247.418254,-6244.518607,-0.003250,-0.010250,1.011000,192.000000,0.000000,0.000000,0.000000,0.000000,0.000000,0.000000,0.000000,0.000000,0.000000,1770373064.436838,0.000000
166.000000,11054.971642,11054.345793,-23689.809285,-3682.248733,-13229.639915,13530.829672,-6328.851739,-11885.115431,9988.547562,14193.916523,7107.720626,-590.622495,8385.033415,13423.630705,-24252.603859,-6243.065744,-0.003250,-0.010250,1.011000,192.000000,0.000000,0.000000,0.000000,0.000000,0.000000,0.000000,0.000000,0.000000,0.000000,1770373064.436854,0.000000
168.000000,11052.624709,11052.065915,-23692.200922,-3682.226382,-13225.907174,13525.822881,-6330.841044,-11887.931751,9978.466925,14198.409223,7121.802225,-588.946115,8357.607825,13413.035978,-24247.664123,-6237.366049,-0.003250,-0.010250,1.011000,192.000000,0.000000,0.000000,0.000000,0.000000,0.000000,0.000000,0.000000,0.000000,0.000000,1770373064.436870,0.000000
170.000000,11034.273927,11032.530490,-23704.919065,-3710.009600,-13255.031497,13496.989131,-6343.134504,-11902.393329,9974.600074,14177.867970,7103.809071,-603.340638,8338.519435,13383.218751,-24252.536804,-6234.929709,-0.003625,-0.011125,1.007500,192.000000,127.500000,112.000000,127.500000,80.000000,15.500000,48.000000,0.000000,0.000000,0.000000,1770373064.436887,0.000000
172.000000,11033.715133,11033.938650,-23704.874361,-3694.005751,-13238.535909,13514.892878,-6335.892539,-11899.934638,9964.854713,14167.586168,7096.030664,-612.169577,8331.545690,13378.636644,-24251.329810,-6235.756723,-0.003625,-0.011125,1.007500,192.000000,0.000000,0.000000,0.000000,0.000000,0.000000,0.000000,0.000000,0.000000,0.000000,1770373064.436904,0.000000
174.000000,11026.227299,11028.663639,-23711.132850,-3711.909498,-13253.399820,13504.834593,-6343.760353,-11907.310713,9957.478637,14165.105124,7103.898478,-612.214281,8339.838188,13383.241103,-24252.626211,-6236.695497,-0.003625,-0.011125,1.007500,192.000000,0.000000,0.000000,0.000000,0.000000,0.000000,0.000000,0.000000,0.000000,0.000000,1770373064.436916,0.000000
176.000000,11028.462473,11030.004743,-23702.594483,-3705.472196,-13245.420247,13520.860794,-6340.407591,-11905.343760,9966.151114,14159.696002,7083.781908,-618.785694,8345.269662,13389.924275,-24256.671877,-6238.818912,-0.003625,-0.011125,1.007500,192.000000,0.000000,0.000000,0.000000,0.000000,0.000000,0.000000,0.000000,0.000000,0.000000,1770373064.436928,0.000000
178.000000,11040.755932,11039.414828,-23695.263111,-3693.089329,-13226.845947,13534.025971,-6336.428980,-11898.839402,9967.738088,14178.247950,7110.201670,-607.252193,8366.615578,13399.759042,-24247.060626,-6245.323270,-0.003625,-0.011125,1.007500,192.000000,0.000000,0.000000,0.000000,0.000000,0.000000,0.000000,0.000000,0.000000,0.000000,1770373064.917985,0.000000
180.000000,11047.327345,11045.248633,-23691.709184,-3706.433321,-13245.867282,13515.049340,-6338.530044,-11895.643103,9991.587399,14184.886418,7111.185147,-601.798368,8360.245330,13396.093356,-24252.179176,-6251.268834,-0.002812,-0.010562,1.009750,192.000000,127.500000,120.000000,127.500000,88.000000,15.500000,80.000000,0.000000,0.000000,0.000000,1770373064.918050,0.000000
182.000000,11061.878331,11060.850151,-23677.873454,-3678.158364,-13203.242505,13544.374829,-6324.381390,-11878.946349,9994.269609,14191.323720,7119.477644,-594.422292,8362.927540,13425.172976,-24247.686475,-6252.609939,-0.002812,-0.010562,1.009750,192.000000,0.000000,0.000000,0.000000,0.000000,0.000000,0.000000,0.000000,0.000000,0.000000,1770373064.918098,0.000000
184.000000,11068.226226,11066.393383,-23676.621756,-3691.524707,-13221.526232,13531.008486,-6327.242413,-11874.341890,10001.712740,14203.594828,7142.030554,-581.145356,8395.784604,13432.414941,-24240.556269,-6251.402944,-0.002812,-0.010562,1.009750,192.000000,0.000000,0.000000,0.000000,0.000000,0.000000,0.000000,0.000000,0.000000,0.000000,1770373064.918144,0.000000
186.000000,11076.384613,11071.847209,-23674.163064,-3688.574277,-13220.632162,13538.921003,-6324.873129,-11870.609149,10018.923583,14205.986465,7127.703086,-581.212411,8379.713700,13426.245859,-24246.948868,-6249.905378,-0.002812,-0.010562,1.009750,192.000000,0.000000,0.000000,0.000000,0.000000,0.000000,0.000000,0.000000,0.000000,0.000000,1770373064.918193,0.000000
188.000000,11072.495410,11071.064898,-23678.476951,-3677.823088,-13214.194860,13544.441884,-6328.203538,-11874.766573,10011.323990,14213.764872,7144.891577,-577.300856,8398.712683,13438.606374,-24240.109234,-6240.987032,-0.002812,-0.010562,1.009750,192.000000,0.000000,0.000000,0.000000,0.000000,0.000000,0.000000,0.000000,0.000000,0.000000,1770373064.918239,0.000000
190.000000,11052.825874,11055.195159,-23691.619777,-3696.330332,-13241.173415,13530.069712,-6338.842969,-11889.585780,10005.132557,14209.763910,7128.932432,-585.258077,8372.069403,13431.520871,-24247.641772,-6234.259156,-0.003406,-0.008281,1.010875,192.000000,127.500000,112.000000,127.500000,104.000000,15.500000,80.000000,0.000000,0.000000,0.000000,1770373064.918268,0.000000
192.000000,11046.768552,11049.584871,-23693.631434,-3678.538344,-13221.727398,13549.359268,-6332.919757,-11895.419585,9992.637931,14195.324683,7115.968420,-594.310533,8354.657394,13415.584077,-24247.753530,-6222.636249,-0.003406,-0.008281,1.010875,192.000000,0.000000,0.000000,0.000000,0.000000,0.000000,0.000000,0.000000,0.000000,0.000000,1770373064.918281,0.000000
194.000000,11028.641287,11031.412903,-23705.522562,-3696.151518,-13243.162721,13532.528404,-6345.369678,-11915.625562,9974.331853,14189.110898,7113.487376,-606.000496,8367.330833,13408.766795,-24244.601935,-6215.908374,-0.003406,-0.008281,1.010875,192.000000,0.000000,0.000000,0.000000,0.000000,0.000000,0.000000,0.000000,0.000000,0.000000,1770373064.918294,0.000000
196.000000,11013.285638,11020.013514,-23709.277655,-3704.846347,-13249.220043,13517.843308,-6346.733135,-11922.599306,9966.598149,14171.654185,7078.730414,-625.401810,8336.708943,13400.608409,-24251.463920,-6216.824796,-0.003406,-0.008281,1.010875,192.000000,0.000000,0.000000,0.000000,0.000000,0.000000,0.000000,0.000000,0.000000,0.000000,1770373064.918306,0.000000
198.000000,11013.911487,11020.773473,-23709.434117,-3701.918268,-13231.808034,13516.099872,-6344.185036,-11918.441882,9952.270681,14171.073040,7095.427167,-624.977127,8342.654507,13409.079720,-24240.131586,-6230.124084,-0.003406,-0.008281,1.010875,192.000000,0.000000,0.000000,0.000000,0.000000,0.000000,0.000000,0.000000,0.000000,0.000000,1770373064.918319,0.000000
200.000000,11006.714226,11013.755025,-23713.189210,-3725.208786,-13241.106360,13493.099927,-6352.321071,-11925.370923,9953.254158,14159.271319,7084.966550,-629.022792,8325.130740,13378.413126,-24240.802138,-6246.776133,-0.003406,-0.008281,1.010875,192.000000,0.000000,0.000000,0.000000,0.000000,0.000000,0.000000,0.000000,0.000000,0.000000,1770373064.918331,0.000000
202.000000,11016.839566,11022.718075,-23704.829658,-3702.253545,-13218.218174,13520.838442,-6344.028574,-11916.407873,9954.997594,14164.211054,7082.507859,-629.402772,8333.937327,13386.839734,-24233.135490,-6257.460267,-0.006000,-0.014000,1.012000,192.000000,127.500000,104.000000,127.500000,72.000000,15.500000,80.000000,0.000000,0.000000,0.000000,1770373064.918343,0.000000
204.000000,11017.934801,11024.685028,-23709.590579,-3714.703466,-13221.772101,13516.502204,-6349.862379,-11916.877260,9956.249291,14170.894226,7098.042321,-620.238557,8357.116086,13394.148754,-24230.877963,-6259.248407,-0.006000,-0.014000,1.012000,192.000000,0.000000,0.000000,0.000000,0.000000,0.000000,0.000000,0.000000,0.000000,0.000000,1770373064.918355,0.000000
206.000000,11036.307935,11040.487711,-23698.392355,-3704.779292,-13207.869316,13530.337933,-6341.100495,-11904.963780,9976.365861,14176.750383,7089.906286,-617.221071,8355.082077,13400.764871,-24240.243344,-6257.057936,-0.006000,-0.014000,1.012000,192.000000,0.000000,0.000000,0.000000,0.000000,0.000000,0.000000,0.000000,0.000000,0.000000,1770373064.918368,0.000000
208.000000,11059.620805,11057.206816,-23688.624643,-3683.679245,-13197.967493,13556.288309,-6328.538815,-11888.781117,9991.855620,14200.979674,7124.707952,-598.020923,8379.020796,13434.851281,-24237.270562,-6256.789715,-0.006000,-0.014000,1.012000,192.000000,0.000000,0.000000,0.000000,0.000000,0.000000,0.000000,0.000000,0.000000,0.000000,1770373064.918380,0.000000
210.000000,11060.626633,11060.291357,-23682.075582,-3697.246754,-13209.210421,13538.876300,-6328.605870,-11883.260236,10008.105339,14210.725035,7128.239528,-583.715806,8410.804976,13425.217679,-24247.865289,-6256.789715,-0.006000,-0.014000,1.012000,192.000000,0.000000,0.000000,0.000000,0.000000,0.000000,0.000000,0.000000,0.000000,0.000000,1770373064.918393,0.000000
212.000000,11074.976453,11076.362261,-23673.425457,-3668.837687,-13196.693444,13561.764486,-6316.804149,-11870.877370,10012.843908,14216.469433,7132.307545,-578.194926,8378.752575,13427.296391,-24246.300667,-6253.995747,-0.006000,-0.012000,1.010000,192.000000,127.500000,104.000000,127.500000,80.000000,15.500000,72.000000,0.000000,0.000000,0.000000,1770373064.918405,0.000000
214.000000,11062.705345,11065.588721,-23680.645070,-3683.366321,-13221.526232,13543.346649,-6326.303640,-11881.986187,10013.626219,14224.158433,7146.612662,-571.467050,8389.570819,13444.395476,-24246.479481,-6247.357279,-0.006000,-0.012000,1.010000,192.000000,0.000000,0.000000,0.000000,0.000000,0.000000,0.000000,0.000000,0.000000,0.000000,1770373064.918417,0.000000
216.000000,11057.497389,11060.425468,-23684.400163,-3683.209858,-13231.852738,13545.201843,-6325.543681,-11883.774326,10006.451309,14209.428633,7121.466949,-585.436891,8372.158810,13444.015496,-24254.280240,-6241.277604,-0.006000,-0.012000,1.010000,192.000000,0.000000,0.000000,0.000000,0.000000,0.000000,0.000000,0.000000,0.000000,0.000000,1770373064.918429,0.000000
218.000000,11048.959023,11051.462418,-23687.596463,-3683.053396,-13235.116093,13557.405896,-6328.002373,-11893.922018,9996.191859,14215.418901,7136.643784,-584.699283,8369.901284,13439.455740,-24250.480443,-6236.293165,-0.006000,-0.012000,1.010000,192.000000,0.000000,0.000000,0.000000,0.000000,0.000000,0.000000,0.000000,0.000000,0.000000,1770373064.918441,0.000000
220.000000,11028.283659,11030.563537,-23704.002643,-3707.752074,-13262.944014,13522.380712,-6342.910986,-11913.882126,9982.378481,14188.552104,7109.978153,-605.352295,8352.489275,13408.856202,-24257.767112,-6234.102694,-0.006000,-0.012000,1.010000,192.000000,0.000000,0.000000,0.000000,0.000000,0.000000,0.000000,0.000000,0.000000,0.000000,1770373064.918454,0.000000
222.000000,11020.281735,11021.801653,-23708.942379,-3696.933829,-13244.593232,13523.140672,-6340.832274,-11921.012333,9970.330890,14171.967110,7093.191992,-621.244385,8316.927650,13387.957321,-24254.637868,-6234.370915,-0.004000,-0.008000,1.006000,192.000000,127.500000,112.000000,127.500000,96.000000,15.500000,56.000000,0.000000,0.000000,0.000000,1770373064.918466,0.000000
224.000000,11007.094205,11008.234144,-23716.877248,-3716.581013,-13268.017860,13498.218477,-6350.711745,-11934.423379,9951.935405,14158.421953,7088.766347,-631.325022,8333.982031,13393.589961,-24250.167519,-6236.159055,-0.004000,-0.008000,1.006000,192.000000,0.000000,0.000000,0.000000,0.000000,0.000000,0.000000,0.000000,0.000000,0.000000,1770373064.918479,0.000000
