Sample_index,EXG Channel 0,EXG Channel 1,EXG Channel 2,EXG Channel 3,EXG Channel 4,EXG Channel 5,EXG Channel 6,EXG Channel 7,EXG Channel 8,EXG Channel 9,EXG Channel 10,EXG Channel 11,EXG Channel 12,EXG Channel 13,EXG Channel 14,EXG Channel 15,Accel Channel 0,Accel Channel 1,Accel Channel 2,Not Used,Digital Channel 0 (D11),Digital Channel 1 (D12),Digital Channel 2 (D13),Digital Channel 3 (D17),Not Used,Digital Channel 4 (D18),Analog Channel 0,Analog Channel 1,Analog Channel 2,Timestamp,Marker Channel
90.000000,9636.485235,10206.767643,5791.560506,12386.375652,11786.410127,12555.153675,-10225.319591,-18320.026197,11065.342851,10299.393272,9323.739627,6240.741162,9264.462801,15865.558787,9299.912667,6924.279860,0.004000,-0.008000,1.010000,192.000000,0.000000,0.000000,0.000000,0.000000,0.000000,0.000000,0.000000,0.000000,0.000000,1772012173.660116,101.000000
92.000000,9657.205302,10228.426484,5804.859794,12401.105452,11796.379005,12565.100201,-10213.003780,-18299.842572,11064.515837,10279.299054,9304.695941,6214.075531,9255.566806,15848.437351,9296.470499,6926.157406,0.004000,-0.008000,1.010000,192.000000,0.000000,0.000000,0.000000,0.000000,0.000000,0.000000,0.000000,0.000000,0.000000,1772012173.660217,0.000000
94.000000,9664.380212,10241.234033,5807.832576,12427.905193,11802.995122,12585.194419,-10202.096129,-18286.431526,11082.285474,10314.234831,9342.224520,6262.265892,9282.746528,15877.718136,9306.260563,6928.258470,-0.004000,-0.004000,1.004000,192.000000,127.500000,112.000000,127.500000,112.000000,15.500000,48.000000,0.000000,0.000000,0.000000,1772012173.660296,0.000000
96.000000,9649.225730,10224.626687,5787.313674,12403.608847,11788.645302,12566.173085,-10228.493539,-18312.717177,11073.814162,10301.851964,9318.978705,6242.037564,9265.312167,15860.842569,9296.135222,6933.935813,-0.004000,-0.004000,1.004000,192.000000,0.000000,0.000000,0.000000,0.000000,0.000000,0.000000,0.000000,0.000000,0.000000,1772012173.660372,0.000000
98.000000,9679.914675,10255.248577,5814.359285,12437.583499,11822.172919,12602.137041,-10194.518887,-18278.407249,11090.622674,10323.220232,9326.310077,6258.935482,9284.199391,15880.646215,9302.214897,6940.686040,-0.004000,-0.004000,1.004000,192.000000,0.000000,0.000000,0.000000,0.000000,0.000000,0.000000,0.000000,0.000000,0.000000,1772012173.660406,0.000000
100.000000,9648.689288,10224.447873,5795.159137,12403.810013,11790.835773,12558.439381,-10224.492577,-18316.494622,11078.217456,10315.195956,9332.725028,6253.705174,9275.817487,15873.493656,9307.378150,6934.069924,-0.004000,-0.004000,1.004000,192.000000,0.000000,0.000000,0.000000,0.000000,0.000000,0.000000,0.000000,0.000000,0.000000,1772012173.660444,0.000000
102.000000,9656.110067,10226.839510,5802.959895,12408.749748,11805.051482,12576.074907,-10214.613106,-18311.778404,11066.214569,10294.364130,9298.862135,6224.022058,9259.098382,15853.690011,9299.845612,6932.214729,-0.004000,-0.004000,1.004000,192.000000,0.000000,0.000000,0.000000,0.000000,0.000000,0.000000,0.000000,0.000000,0.000000,1772012173.660478,0.000000
104.000000,9663.039108,10234.439103,5804.390407,12415.209402,11805.856145,12587.854277,-10206.566478,-18301.563657,11082.844267,10315.888860,9336.524825,6250.531226,9291.307246,15896.381843,9313.971915,6928.437284,-0.004000,-0.004000,1.004000,192.000000,0.000000,0.000000,127.500000,96.000000,15.500000,32.000000,0.000000,0.000000,0.000000,1772012173.660507,0.000000
106.000000,9645.962375,10215.864803,5774.863753,12391.248332,11779.928122,12538.859253,-10234.193234,-18329.369227,11074.618825,10298.253333,9306.841708,6229.364124,9266.697975,15857.042772,9296.001112,6930.918328,-0.004000,-0.004000,1.004000,192.000000,0.000000,0.000000,0.000000,0.000000,0.000000,0.000000,0.000000,0.000000,0.000000,1772012173.660524,0.000000
108.000000,9662.435611,10237.277774,5824.864605,12420.774987,11809.544183,12578.444192,-10197.357559,-18293.986415,11087.493430,10300.264990,9313.346066,6238.953023,9266.876789,15844.391685,9308.071054,6925.822130,-0.004000,-0.004000,1.004000,192.000000,0.000000,0.000000,0.000000,0.000000,0.000000,0.000000,0.000000,0.000000,0.000000,1772012173.660543,0.000000
110.000000,9638.809817,10213.249649,5793.460404,12404.569972,11784.286712,12564.787276,-10224.626687,-18320.719102,11055.619842,10298.543906,9322.711447,6247.178465,9260.998280,15854.092342,9304.181850,6927.118531,-0.004000,-0.004000,1.004000,192.000000,0.000000,0.000000,0.000000,0.000000,0.000000,0.000000,0.000000,0.000000,0.000000,1772012173.660562,0.000000
112.000000,9656.981785,10230.706362,5804.591573,12413.287152,11804.447985,12582.668672,-10210.567440,-18303.731776,11062.370069,10286.518668,9299.376225,6229.945270,9258.897216,15853.757066,9295.956408,6934.852235,-0.004000,-0.004000,1.004000,192.000000,0.000000,0.000000,0.000000,0.000000,0.000000,0.000000,0.000000,0.000000,0.000000,1772012173.660579,0.000000
114.000000,9667.978843,10244.877368,5812.682904,12418.450405,11815.623857,12582.333396,-10201.894963,-18292.265331,11083.380709,10320.873299,9335.027258,6264.970453,9288.066243,15888.514029,9312.206127,6933.399371,0.001000,-0.009000,1.002000,192.000000,0.000000,24.000000,127.500000,72.000000,15.500000,32.000000,0.000000,0.000000,0.000000,1772012173.660596,0.000000
116.000000,9643.481331,10218.345847,5777.255389,12398.847926,11787.684177,12578.958282,-10232.874481,-18329.279820,11078.530381,10298.119223,9309.658028,6237.053125,9268.687280,15865.067049,9300.605571,6935.858063,0.001000,-0.009000,1.002000,192.000000,0.000000,0.000000,0.000000,0.000000,0.000000,0.000000,0.000000,0.000000,0.000000,1772012173.660613,0.000000
118.000000,9668.694099,10242.776304,5817.041494,12425.088874,11817.322590,12595.118594,-10200.375044,-18295.819258,11080.251465,10305.964685,9312.295534,6241.367011,9281.919513,15869.626805,9307.735778,6937.668555,0.001000,-0.009000,1.002000,192.000000,0.000000,0.000000,0.000000,0.000000,0.000000,0.000000,0.000000,0.000000,0.000000,1772012173.660630,0.000000
120.000000,9640.553253,10213.763739,5791.828727,12405.329931,11795.999026,12561.412163,-10228.560594,-18326.552907,11075.535247,10311.194993,9324.276069,6245.502084,9275.795135,15871.750220,9311.177946,6935.992174,0.001000,-0.009000,1.002000,192.000000,0.000000,0.000000,0.000000,0.000000,0.000000,0.000000,0.000000,0.000000,0.000000,1772012173.660646,0.000000
122.000000,9654.388983,10226.750103,5789.593552,12415.164699,11811.801709,12580.925236,-10218.301143,-18315.578200,11068.159171,10287.770365,9292.402481,6219.529357,9267.189713,15850.314897,9301.745510,6940.015488,0.001000,-0.009000,1.002000,192.000000,0.000000,0.000000,0.000000,0.000000,0.000000,0.000000,0.000000,0.000000,0.000000,1772012173.660663,0.000000
124.000000,9656.467695,10230.192271,5807.430244,12411.208440,11813.276924,12598.873687,-10209.338094,-18308.649160,11076.250503,10323.935488,9324.723104,6254.688651,9288.625036,15885.720061,9312.988438,6937.020354,0.003500,-0.010500,1.005000,192.000000,0.000000,24.000000,127.500000,80.000000,15.500000,64.000000,0.000000,0.000000,0.000000,1772012173.660680,0.000000
126.000000,9642.810779,10211.394454,5774.193200,12398.780870,11791.886305,12571.246931,-10233.612088,-18332.587878,11070.215532,10294.095909,9301.879621,6224.782017,9269.715461,15863.390668,9301.723159,6940.082543,0.003500,-0.010500,1.005000,192.000000,0.000000,0.000000,0.000000,0.000000,0.000000,0.000000,0.000000,0.000000,0.000000,1772012173.660696,0.000000
128.000000,9674.103221,10246.866673,5816.482701,12434.767179,11828.923145,12617.135062,-10194.965922,-18288.174962,11098.557544,10314.547755,9312.094368,6245.703250,9289.362644,15882.188485,9307.758130,6944.664651,0.003500,-0.010500,1.005000,192.000000,0.000000,0.000000,0.000000,0.000000,0.000000,0.000000,0.000000,0.000000,0.000000,1772012173.660713,0.000000
130.000000,9653.986651,10229.812292,5789.437090,12413.980057,11804.559744,12582.601617,-10222.726789,-18312.627770,11068.516799,10322.862604,9331.652144,6255.739183,9292.938923,15896.091270,9312.027313,6944.441133,0.003500,-0.010500,1.005000,192.000000,0.000000,0.000000,0.000000,0.000000,0.000000,0.000000,0.000000,0.000000,0.000000,1772012173.660726,0.000000
132.000000,9656.668861,10232.315687,5809.151329,12409.375597,11807.286657,12581.640492,-10214.523699,-18307.464517,11076.116392,10301.829612,9306.081749,6227.821854,9259.925396,15857.467456,9302.773691,6941.580110,0.003500,-0.010500,1.005000,192.000000,0.000000,0.000000,0.000000,0.000000,0.000000,0.000000,0.000000,0.000000,0.000000,1772012173.660738,0.000000
134.000000,9661.474486,10232.583908,5806.133843,12415.567030,11804.380930,12575.225541,-10205.471242,-18302.345968,11088.298093,10320.381560,9335.273127,6248.206645,9288.021539,15884.267197,9314.195432,6933.712296,0.004750,-0.010250,1.005500,192.000000,0.000000,24.000000,127.500000,88.000000,15.500000,56.000000,0.000000,0.000000,0.000000,1772012173.660751,0.000000
136.000000,9631.769017,10201.626742,5783.782099,12390.041338,11772.619101,12543.508416,-10235.400228,-18338.354628,11055.150456,10282.629464,9300.225592,6222.569194,9250.604719,15833.416979,9298.258638,6927.073828,0.004750,-0.010250,1.005500,192.000000,0.000000,0.000000,0.000000,0.000000,0.000000,0.000000,0.000000,0.000000,0.000000,1772012173.660763,0.000000
138.000000,9659.239311,10231.779245,5800.702369,12421.534946,11805.498517,12603.165222,-10202.163184,-18302.010691,11063.130029,10293.894743,9303.354836,6231.733409,9258.383126,15861.155493,9301.030254,6929.197243,0.004750,-0.010250,1.005500,192.000000,0.000000,0.000000,0.000000,0.000000,0.000000,0.000000,0.000000,0.000000,0.000000,1772012173.660776,0.000000
140.000000,9635.300593,10206.745292,5786.911343,12394.802260,11788.667654,12565.435477,-10231.712190,-18333.370189,11061.431296,10304.489470,9309.702731,6238.416581,9263.948710,15871.884331,9304.159499,6932.661764,0.004750,-0.010250,1.005500,192.000000,0.000000,0.000000,0.000000,0.000000,0.000000,0.000000,0.000000,0.000000,0.000000,1772012173.660788,0.000000
142.000000,9658.881683,10225.967792,5808.748997,12409.643818,11802.481032,12568.475314,-10216.311838,-18311.018444,11056.826837,10280.818973,9293.073033,6214.231993,9250.537664,15850.471360,9299.733853,6933.466427,0.004750,-0.010250,1.005500,192.000000,0.000000,0.000000,0.000000,0.000000,0.000000,0.000000,0.000000,0.000000,0.000000,1772012173.660801,0.000000
144.000000,9676.047823,10248.788923,5813.644029,12423.926583,11816.205003,12585.976730,-10202.856088,-18291.930055,11085.124145,10319.867470,9338.871758,6262.109430,9288.066243,15861.870749,9316.072979,6932.661764,0.005375,-0.010125,1.004750,192.000000,0.000000,24.000000,127.500000,88.000000,15.500000,48.000000,0.000000,0.000000,0.000000,1772012173.660813,0.000000
146.000000,9668.336471,10237.635402,5775.690767,12403.966475,11793.495630,12577.795992,-10228.538242,-18314.348854,11094.958913,10310.300924,9317.168214,6245.926767,9278.946731,15862.340136,9305.835880,6939.836674,0.005375,-0.010125,1.004750,192.000000,0.000000,0.000000,0.000000,0.000000,0.000000,0.000000,0.000000,0.000000,0.000000,1772012173.660867,0.000000
148.000000,9675.377271,10244.184464,5823.523500,12416.639914,11820.854166,12593.598675,-10195.904695,-18290.544247,11081.905494,10318.906345,9325.997153,6248.765439,9278.075013,15882.344947,9309.345103,6934.896938,0.005375,-0.010125,1.004750,192.000000,0.000000,0.000000,0.000000,0.000000,0.000000,0.000000,0.000000,0.000000,0.000000,1772012173.660880,0.000000
150.000000,9642.810779,10209.516908,5787.313674,12396.210420,11792.735671,12547.889358,-10226.817158,-18329.011599,11062.906511,10306.836403,9324.745455,6244.473904,9266.183885,15866.028174,9309.948601,6929.085485,0.005375,-0.010125,1.004750,192.000000,0.000000,0.000000,0.000000,0.000000,0.000000,0.000000,0.000000,0.000000,0.000000,1772012173.660892,0.000000
152.000000,9641.380267,10208.309914,5799.160099,12400.189030,11799.754119,12552.292651,-10220.335152,-18327.379921,11057.720906,10279.366109,9288.468574,6212.309743,9270.050737,15827.538470,9303.064263,6930.314831,0.005375,-0.010125,1.004750,192.000000,0.000000,0.000000,0.000000,0.000000,0.000000,0.000000,0.000000,0.000000,0.000000,1772012173.660905,0.000000
154.000000,9637.356953,10204.063082,5811.900593,12403.921772,11800.804651,12576.588997,-10209.718074,-18319.020369,11056.849188,10290.966665,9315.089502,6234.437970,9259.411306,15854.628784,9318.062284,6924.056342,0.008688,-0.010063,1.005375,192.000000,0.000000,48.000000,127.500000,88.000000,15.500000,56.000000,0.000000,0.000000,0.000000,1772012173.660917,0.000000
156.000000,9619.542613,10187.388681,5779.110584,12390.376614,11774.474296,12548.381096,-10232.181577,-18338.846366,11044.063991,10273.197028,9291.128432,6215.662505,9242.602794,15836.836795,9301.052606,6930.895976,0.008688,-0.010063,1.005375,192.000000,0.000000,0.000000,0.000000,0.000000,0.000000,0.000000,0.000000,0.000000,0.000000,1772012173.660929,0.000000
158.000000,9658.568759,10225.207832,5814.493396,12426.809958,11813.589849,12596.727919,-10193.222486,-18292.511200,11054.636366,10286.920999,9304.695941,6236.047296,9259.143085,15856.282813,9300.404406,6931.320659,0.008688,-0.010063,1.005375,192.000000,0.000000,0.000000,0.000000,0.000000,0.000000,0.000000,0.000000,0.000000,0.000000,1772012173.660941,0.000000
160.000000,9652.332622,10221.519795,5797.930753,12402.044225,11793.294465,12571.872779,-10219.128158,-18308.447994,11063.331194,10305.003560,9331.048647,6254.353375,9265.826257,15879.819200,9308.875717,6938.316755,0.008688,-0.010063,1.005375,192.000000,0.000000,0.000000,0.000000,0.000000,0.000000,0.000000,0.000000,0.000000,0.000000,1772012173.660954,0.000000
162.000000,9664.871951,10231.555728,5803.988076,12414.829423,11804.447985,12577.728936,-10210.209812,-18295.685148,11066.058107,10296.822822,9311.289705,6232.292203,9259.165437,15859.143836,9301.924324,6940.708392,0.008688,-0.010063,1.005375,192.000000,0.000000,0.000000,0.000000,0.000000,0.000000,0.000000,0.000000,0.000000,0.000000,1772012173.660966,0.000000
164.000000,9660.938044,10230.080513,5809.441901,12424.083045,11801.430500,12583.450983,-10201.537335,-18291.013633,11071.422526,10316.201784,9339.274089,6268.457326,9270.743641,15864.664717,9312.273182,6932.393543,0.006344,-0.009031,1.005688,192.000000,0.000000,16.000000,127.500000,96.000000,15.500000,56.000000,0.000000,0.000000,0.000000,1772012173.660978,0.000000
166.000000,9627.432779,10192.060195,5783.960913,12387.627350,11774.653110,12536.065285,-10233.388571,-18331.291477,11052.177674,10281.131897,9305.277086,6229.095904,9253.532798,15846.001011,9299.555039,6928.884319,0.006344,-0.009031,1.005688,192.000000,0.000000,0.000000,0.000000,0.000000,0.000000,0.000000,0.000000,0.000000,0.000000,1772012173.660990,0.000000
168.000000,9651.997346,10219.977524,5794.443881,12412.191917,11812.941648,12560.898073,-10199.100995,-18298.702633,11063.889988,10279.746089,9306.551135,6227.061895,9264.708670,15838.356714,9306.774653,6921.575298,0.006344,-0.009031,1.005688,192.000000,0.000000,0.000000,0.000000,0.000000,0.000000,0.000000,0.000000,0.000000,0.000000,1772012173.661003,0.000000
170.000000,9622.068360,10192.283713,5788.341855,12384.743975,11789.449965,12541.742628,-10229.678181,-18332.967857,11043.169921,10280.461345,9305.813528,6231.152264,9266.161533,15840.971868,9313.144900,6924.972764,0.006344,-0.009031,1.005688,192.000000,0.000000,0.000000,0.000000,0.000000,0.000000,0.000000,0.000000,0.000000,0.000000,1772012173.661015,0.000000
172.000000,9644.733029,10211.841489,5798.578954,12402.379501,11797.943628,12558.707602,-10217.988219,-18315.064110,11028.998915,10262.132914,9288.803850,6205.671275,9235.025553,15827.292601,9301.209068,6928.258470,0.006344,-0.009031,1.005688,192.000000,0.000000,0.000000,0.000000,0.000000,0.000000,0.000000,0.000000,0.000000,0.000000,1772012173.661028,0.000000
174.000000,9664.491971,10233.008591,5807.430244,12420.774987,11808.672465,12586.870800,-10203.012550,-18291.818296,11071.310767,10299.549735,9335.429589,6252.833456,9283.126507,15873.627767,9310.663856,6927.811435,0.006172,-0.009516,1.005844,192.000000,0.000000,24.000000,127.500000,88.000000,15.500000,56.000000,0.000000,0.000000,0.000000,1772012173.661040,0.000000
176.000000,9645.582395,10219.552841,5792.767500,12401.865411,11780.732784,12556.740648,-10225.498405,-18313.812412,11067.332157,10294.319426,9314.597763,6244.630366,9255.589158,15850.337249,9296.604609,6934.695772,0.006172,-0.009516,1.005844,192.000000,0.000000,0.000000,0.000000,0.000000,0.000000,0.000000,0.000000,0.000000,0.000000,1772012173.661064,0.000000
178.000000,9677.277169,10253.929824,5821.355381,12429.670981,11812.181689,12583.071003,-10190.070890,-18275.367412,11070.081421,10309.585668,9325.594822,6256.946177,9260.238321,15854.785246,9304.204202,6931.946508,0.006172,-0.009516,1.005844,192.000000,0.000000,0.000000,0.000000,0.000000,0.000000,0.000000,0.000000,0.000000,0.000000,1772012173.661081,0.000000
180.000000,9652.958471,10220.938649,5790.465270,12402.312446,11785.292540,12557.411201,-10222.749141,-18313.097157,11080.162058,10315.508880,9337.418894,6257.840247,9274.543437,15873.895988,9306.349970,6929.733685,0.006172,-0.009516,1.005844,192.000000,0.000000,0.000000,0.000000,0.000000,0.000000,0.000000,0.000000,0.000000,0.000000,1772012173.661094,0.000000
182.000000,9650.455076,10214.769568,5802.266991,12400.971341,11797.563648,12558.931119,-10219.284620,-18318.685093,11064.135857,10277.712080,9302.281952,6220.445778,9253.868074,15848.683220,9298.348045,6927.967897,0.006172,-0.009516,1.005844,192.000000,0.000000,0.000000,0.000000,0.000000,0.000000,0.000000,0.000000,0.000000,0.000000,1772012173.661106,0.000000
184.000000,9656.847674,10225.945440,5792.499279,12414.918830,11813.791014,12570.732840,-10210.522736,-18309.409119,11078.440974,10305.092967,9324.074903,6246.642023,9279.326711,15865.424677,9315.760054,6925.062171,0.006172,-0.009516,1.005844,192.000000,0.000000,0.000000,0.000000,0.000000,0.000000,0.000000,0.000000,0.000000,0.000000,1772012173.661119,0.000000
186.000000,9625.666991,10200.084472,5791.851078,12387.225018,11787.885343,12550.102180,-10237.344830,-18339.941602,11066.303976,10290.787851,9295.799946,6228.246537,9262.004109,15853.310031,9305.701769,6934.271089,0.006000,-0.016000,0.998000,192.000000,0.000000,24.000000,127.500000,64.000000,15.500000,24.000000,0.000000,0.000000,0.000000,1772012173.661131,0.000000
188.000000,9653.070230,10232.561556,5808.033741,12431.392065,11808.895982,12583.942721,-10199.816251,-18297.361529,11061.453648,10293.403005,9304.517127,6240.204721,9267.904969,15856.394572,9308.003999,6932.013563,0.006000,-0.016000,0.998000,192.000000,0.000000,0.000000,0.000000,0.000000,0.000000,0.000000,0.000000,0.000000,0.000000,1772012173.661144,0.000000
190.000000,9642.251985,10219.977524,5790.845250,12409.040321,11778.587017,12554.125494,-10221.743312,-18313.767709,11061.721869,10302.477813,9321.124473,6257.057936,9259.768934,15846.895080,9303.600705,6928.303174,0.006000,-0.016000,0.998000,192.000000,0.000000,0.000000,0.000000,0.000000,0.000000,0.000000,0.000000,0.000000,0.000000,1772012173.661156,0.000000
192.000000,9665.743669,10242.016344,5801.551736,12413.644780,11797.653055,12585.887323,-10211.349751,-18295.305168,11064.426430,10295.124089,9303.220725,6240.964680,9253.108114,15856.998069,9293.005978,6933.779351,0.006000,-0.016000,0.998000,192.000000,0.000000,0.000000,0.000000,0.000000,0.000000,0.000000,0.000000,0.000000,0.000000,1772012173.661168,0.000000
194.000000,9672.113916,10245.100885,5815.409817,12420.953801,11809.030093,12587.966035,-10202.297294,-18287.236188,11089.572142,10323.644915,9348.013621,6270.692500,9285.071109,15883.618997,9314.128377,6933.309964,0.006000,-0.016000,0.998000,192.000000,0.000000,0.000000,0.000000,0.000000,0.000000,0.000000,0.000000,0.000000,0.000000,1772012173.661180,0.000000
196.000000,9644.733029,10218.591716,5783.916209,12388.990806,11779.391680,12542.055552,-10234.796731,-18323.937753,11079.223285,10299.795604,9316.274144,6242.126971,9275.750432,15851.320726,9301.276124,6931.678287,0.006000,-0.014000,0.998000,192.000000,0.000000,24.000000,127.500000,72.000000,15.500000,24.000000,0.000000,0.000000,0.000000,1772012173.661193,0.000000
198.000000,9656.087715,10233.165054,5816.549756,12414.069463,11801.184631,12568.989404,-10200.799728,-18298.970854,11064.717002,10293.492412,9313.614287,6239.534168,9253.175170,15838.669638,9307.333446,6922.849348,0.006000,-0.014000,0.998000,192.000000,0.000000,0.000000,0.000000,0.000000,0.000000,0.000000,0.000000,0.000000,0.000000,1772012173.661206,0.000000
200.000000,9619.743779,10195.882344,5787.157212,12390.555428,11779.972825,12542.100256,-10229.700533,-18336.365323,11052.959985,10287.166868,9311.423816,6237.902491,9259.813638,15840.837758,9307.154632,6920.547118,0.006000,-0.014000,0.998000,192.000000,0.000000,0.000000,0.000000,0.000000,0.000000,0.000000,0.000000,0.000000,0.000000,1772012173.661218,0.000000
202.000000,9631.769017,10198.497498,5793.706273,12396.210420,11792.668616,12566.173085,-10219.105806,-18324.273029,11041.180616,10263.451667,9281.070147,6208.375836,9240.769951,15831.919412,9297.744548,6926.760903,0.006000,-0.014000,0.998000,192.000000,0.000000,0.000000,0.000000,0.000000,0.000000,0.000000,0.000000,0.000000,0.000000,1772012173.661230,0.000000
204.000000,9641.246157,10210.612143,5803.496337,12415.634086,11800.201154,12560.361631,-10206.432367,-18309.275008,11059.553750,10290.139650,9318.039932,6240.472941,9266.183885,15855.768723,9310.552098,6923.765769,0.006000,-0.014000,0.998000,192.000000,0.000000,0.000000,0.000000,0.000000,0.000000,0.000000,0.000000,0.000000,0.000000,1772012173.661243,0.000000
206.000000,9634.786503,10203.839565,5781.613980,12398.512649,11779.548142,12539.574509,-10229.275850,-18325.502375,11056.692726,10273.398194,9302.214897,6223.575023,9252.772838,15826.242069,9300.382054,6928.370229,0.002000,-0.010000,1.002000,192.000000,0.000000,8.000000,127.500000,88.000000,15.500000,40.000000,0.000000,0.000000,0.000000,1772012173.661255,0.000000
208.000000,9670.281073,10245.972603,5804.569221,12427.815786,11819.110730,12599.477184,-10194.205963,-18283.928130,11072.808334,10299.505031,9319.738665,6248.765439,9273.962292,15857.825083,9304.159499,6932.438246,0.002000,-0.010000,1.002000,192.000000,0.000000,0.000000,0.000000,0.000000,0.000000,0.000000,0.000000,0.000000,0.000000,1772012173.661268,0.000000
210.000000,9648.599881,10219.977524,5794.063901,12409.934391,11787.125383,12562.865026,-10219.798710,-18311.912514,11097.261142,10318.571069,9325.371304,6265.708061,9299.219763,15871.794924,9305.701769,6935.768656,0.002000,-0.010000,1.002000,192.000000,0.000000,0.000000,0.000000,0.000000,0.000000,0.000000,0.000000,0.000000,0.000000,1772012174.140713,0.000000
212.000000,9645.671802,10219.172861,5810.581840,12402.334798,11793.517982,12554.349012,-10214.411940,-18312.314846,11056.335098,10277.600321,9310.350932,6223.507967,9244.614451,15830.868880,9298.839784,6923.117569,0.002000,-0.010000,1.002000,192.000000,0.000000,0.000000,0.000000,0.000000,0.000000,0.000000,0.000000,0.000000,0.000000,1772012174.140776,0.000000
214.000000,9650.142151,10222.793844,5818.941393,12400.703120,11811.399378,12559.422858,-10207.885231,-18309.744395,11075.423488,10299.057996,9332.747380,6246.351450,9277.560923,15851.432485,9319.001057,6919.451883,0.002000,-0.010000,1.002000,192.000000,0.000000,0.000000,0.000000,0.000000,0.000000,0.000000,0.000000,0.000000,0.000000,1772012174.140822,0.000000
216.000000,9624.035314,10198.184573,5788.364206,12384.095774,11791.998064,12546.771770,-10239.781170,-18346.043628,11046.030944,10272.794696,9297.208106,6215.394284,9262.920530,15829.058388,9310.730912,6927.900842,0.002000,-0.008000,1.004000,192.000000,0.000000,8.000000,127.500000,96.000000,15.500000,48.000000,0.000000,0.000000,0.000000,1772012174.140863,0.000000
218.000000,9650.745648,10224.023190,5811.520614,12416.081121,11822.217622,12578.108916,-10203.526640,-18308.872677,11065.208741,10285.758708,9304.606534,6225.966659,9273.604664,15844.637554,9317.458787,6930.359534,0.002000,-0.008000,1.004000,192.000000,0.000000,0.000000,0.000000,0.000000,0.000000,0.000000,0.000000,0.000000,0.000000,1772012174.140917,0.000000
220.000000,9634.898261,10205.046559,5789.571201,12397.283303,11792.579209,12547.084695,-10227.040676,-18329.011599,11067.958005,10284.618769,9314.933040,6238.930671,9281.718347,15837.775569,9313.167252,6927.140883,0.002000,-0.008000,1.004000,192.000000,0.000000,0.000000,0.000000,0.000000,0.000000,0.000000,0.000000,0.000000,0.000000,1772012174.140957,0.000000
222.000000,9654.031355,10223.822024,5802.535212,12412.504841,11794.501459,12574.979672,-10213.830795,-18309.073843,11053.027040,10271.453592,9292.022501,6222.770360,9244.234472,15837.105016,9300.985551,6932.058267,0.002000,-0.008000,1.004000,192.000000,0.000000,0.000000,0.000000,0.000000,0.000000,0.000000,0.000000,0.000000,0.000000,1772012174.141003,0.000000
224.000000,9669.029375,10238.305955,5813.800492,12423.971286,11800.223506,12584.523867,-10197.581076,-18288.845514,11075.110564,10312.424339,9336.770694,6266.602131,9276.868019,15858.607395,9310.641505,6928.504339,0.002000,-0.008000,1.004000,192.000000,0.000000,0.000000,0.000000,0.000000,0.000000,0.000000,0.000000,0.000000,0.000000,1772012174.141014,0.000000
226.000000,9647.147017,10214.881327,5780.652855,12401.463080,11771.523866,12542.927270,-10227.688876,-18323.289552,11065.007575,10289.491450,9317.101159,6241.612880,9257.936091,15835.629801,9295.464670,6928.839615,0.004000,-0.008000,1.006000,192.000000,0.000000,16.000000,127.500000,96.000000,15.500000,56.000000,0.000000,0.000000,0.000000,1772012174.141026,0.000000
228.000000,9672.426840,10246.285528,5795.270895,12431.257955,11793.741500,12586.513172,-10194.541239,-18291.527723,11076.518724,10303.058958,9315.536537,6247.379630,9271.883580,15856.439275,9299.644446,6927.722028,0.004000,-0.008000,1.006000,192.000000,0.000000,0.000000,0.000000,0.000000,0.000000,0.000000,0.000000,0.000000,0.000000,1772012174.141038,0.000000
230.000000,9633.467750,10205.672408,5802.915192,12392.634141,11758.783371,12530.365590,-10224.850205,-18329.771558,11071.422526,10309.138633,9315.715351,6253.101677,9258.360774,15860.954328,9298.437452,6920.457711,0.004000,-0.008000,1.006000,192.000000,0.000000,0.000000,0.000000,0.000000,0.000000,0.000000,0.000000,0.000000,0.000000,1772012174.141049,0.000000
232.000000,9633.735971,10205.113614,5796.120262,12392.343568,11780.173991,12538.456921,-10220.268097,-18327.134052,11034.966831,10266.245635,9288.289760,6210.409845,9228.856472,15827.046731,9296.001112,6914.623906,0.004000,-0.008000,1.006000,192.000000,0.000000,0.000000,0.000000,0.000000,0.000000,0.000000,0.000000,0.000000,0.000000,1772012174.141060,0.000000
234.000000,9640.575605,10215.238954,5801.507032,12408.928562,11788.444136,12558.104105,-10210.008646,-18314.974703,11040.487711,10285.646949,9310.082711,6239.489465,9259.411306,15853.757066,9306.729949,6915.897955,0.004000,-0.008000,1.006000,192.000000,0.000000,0.000000,0.000000,0.000000,0.000000,0.000000,0.000000,0.000000,0.000000,1772012174.141072,0.000000
236.000000,9625.845805,10203.303123,5775.981340,12397.506821,11764.483066,12552.426762,-10236.048429,-18336.879413,11047.260290,10272.034737,9291.642522,6223.753837,9245.843797,15828.521946,9288.289760,6926.358572,-0.006000,-0.012000,1.006000,192.000000,127.500000,104.000000,127.500000,80.000000,15.500000,56.000000,0.000000,0.000000,0.000000,1772012174.141084,0.000000
238.000000,9666.436573,10244.653850,5810.335971,12428.866318,11814.930953,12595.543277,-10199.369216,-18293.941712,11060.090191,10298.812127,9305.835880,6242.238729,9261.288853,15848.035019,9300.292647,6934.740476,-0.006000,-0.012000,1.006000,192.000000,0.000000,0.000000,0.000000,0.000000,0.000000,0.000000,0.000000,0.000000,0.000000,1772012174.141095,0.000000
240.000000,9662.077983,10233.053295,5794.466233,12404.413510,11798.189497,12556.494779,-10224.224356,-18312.404253,11074.574122,10309.585668,9326.779464,6258.019061,9283.618246,15849.867862,9307.914592,6936.506264,-0.006000,-0.012000,1.006000,192.000000,0.000000,0.000000,0.000000,0.000000,0.000000,0.000000,0.000000,0.000000,0.000000,1772012174.141107,0.000000
242.000000,9665.810724,10237.881272,5811.319448,12407.475699,11798.569476,12575.851390,-10215.618934,-18303.329444,11080.542038,10296.331083,9312.161423,6233.678011,9263.501676,15853.198272,9304.472423,6933.980517,-0.006000,-0.012000,1.006000,192.000000,0.000000,0.000000,0.000000,0.000000,0.000000,0.000000,0.000000,0.000000,0.000000,1772012174.141119,0.000000
244.000000,9663.955529,10236.316649,5809.397198,12412.840118,11800.692892,12567.849465,-10204.085434,-18298.747337,11089.236866,10314.391293,9341.263395,6259.494276,9285.406385,15859.501464,9317.347028,6923.609307,-0.006000,-0.012000,1.006000,192.000000,0.000000,0.000000,0.000000,0.000000,0.000000,0.000000,0.000000,0.000000,0.000000,1772012174.141130,0.000000
246.000000,9625.264660,10197.357559,5786.553715,12376.697347,11777.514133,12524.308267,-10236.316649,-18341.439169,11051.194197,10276.460383,9302.460766,6220.602241,9247.743696,15831.137101,9305.254734,6920.994153,-0.004000,-0.012000,1.005000,192.000000,127.500000,120.000000,127.500000,80.000000,15.500000,48.000000,0.000000,0.000000,0.000000,1772012174.141142,0.000000
248.000000,9648.488122,10219.284620,5813.129939,12404.905248,11815.243878,12568.967053,-10203.750158,-18310.884334,11055.821008,10276.035699,9296.224629,6221.228089,9260.528894,15828.656057,9311.245002,6920.122435,-0.004000,-0.012000,1.005000,192.000000,0.000000,0.000000,0.000000,0.000000,0.000000,0.000000,0.000000,0.000000,0.000000,1772012174.141153,0.000000
250.000000,9629.869119,10208.131100,5782.128070,12406.358112,11792.825078,12556.763000,-10230.326382,-18337.572317,11053.876406,10288.105641,9307.981647,6235.555558,9263.524027,15834.042827,9314.418949,6927.185586,-0.004000,-0.012000,1.005000,192.000000,0.000000,0.000000,0.000000,0.000000,0.000000,0.000000,0.000000,0.000000,0.000000,1772012174.141166,0.000000
252.000000,9643.213110,10223.933783,5797.997808,12407.006312,11805.476165,12574.085602,-10219.128158,-18322.641352,11064.851113,10283.344720,9276.644501,6220.445778,9254.292757,15843.542319,9300.538516,6941.960089,-0.004000,-0.012000,1.005000,192.000000,0.000000,0.000000,0.000000,0.000000,0.000000,0.000000,0.000000,0.000000,0.000000,1772012174.141177,0.000000
254.000000,9657.674689,10234.506158,5819.343724,12422.160795,11811.421729,12587.988387,-10201.112652,-18300.244904,11065.253444,10311.709084,9331.070999,6254.129857,9275.281045,15862.764819,9320.342162,6935.411028,-0.004000,-0.012000,1.005000,192.000000,0.000000,0.000000,0.000000,0.000000,0.000000,0.000000,0.000000,0.000000,0.000000,1772012174.141188,0.000000
0.000000,9638.206320,10212.668504,5793.549811,12393.863487,11786.566590,12556.226558,-10228.940574,-18328.676323,11057.095058,10290.162002,9307.959295,6240.003555,9257.310242,15848.012668,9305.299438,6937.512092,-0.003000,-0.011000,1.007500,192.000000,127.500000,120.000000,127.500000,88.000000,15.500000,72.000000,0.000000,0.000000,0.000000,1772012174.141200,0.000000
2.000000,9657.540579,10234.103827,5817.913213,12416.528155,11811.511136,12584.479163,-10195.345902,-18295.036947,11065.789886,10294.609999,9313.882508,6241.858750,9266.675623,15836.680333,9310.976781,6928.996078,-0.003000,-0.011000,1.007500,192.000000,0.000000,0.000000,0.000000,0.000000,0.000000,0.000000,0.000000,0.000000,0.000000,1772012174.141211,0.000000
4.000000,9631.478445,10206.991161,5785.592590,12389.191972,11769.221636,12546.414142,-10224.380818,-18326.597610,11060.246654,10295.682883,9316.944697,6247.334927,9264.060469,15849.912566,9304.114795,6922.178796,-0.003000,-0.011000,1.007500,192.000000,0.000000,0.000000,0.000000,0.000000,0.000000,0.000000,0.000000,0.000000,0.000000,1772012174.141222,0.000000
6.000000,9625.666991,10200.531507,5786.598419,12394.556391,11766.673537,12544.201320,-10220.536318,-18328.609267,11038.341944,10259.316595,9279.527876,6210.476900,9230.823425,15808.695949,9282.858286,6917.417874,-0.003000,-0.011000,1.007500,192.000000,0.000000,0.000000,0.000000,0.000000,0.000000,0.000000,0.000000,0.000000,0.000000,1772012174.141234,0.000000
8.000000,9630.606726,10205.471242,5793.929791,12395.629274,11793.294465,12552.180892,-10211.886193,-18323.490718,11049.629575,10278.561446,9306.797005,6233.767418,9259.143085,15819.737711,9301.521993,6916.277935,-0.003000,-0.011000,1.007500,192.000000,0.000000,0.000000,0.000000,0.000000,0.000000,0.000000,0.000000,0.000000,0.000000,1772012174.141245,0.000000
10.000000,9613.619401,10190.875553,5769.767555,12387.046204,11773.244950,12539.328639,-10235.668449,-18349.016410,11046.187406,10268.704327,9281.941865,6213.561441,9260.528894,15822.218755,9293.788289,6926.827958,-0.002500,-0.010500,1.007750,192.000000,127.500000,120.000000,127.500000,88.000000,15.500000,64.000000,0.000000,0.000000,0.000000,1772012174.141257,0.000000
12.000000,9653.159637,10228.672353,5833.514730,12419.880917,11805.275000,12573.750326,-10194.317722,-18298.099136,11049.942499,10275.096926,9305.098272,6225.251403,9249.308318,15839.116673,9302.952505,6929.353706,-0.002500,-0.010500,1.007750,192.000000,0.000000,0.000000,0.000000,0.000000,0.000000,0.000000,0.000000,0.000000,0.000000,1772012174.141268,0.000000
14.000000,9656.624157,10222.905603,5809.151329,12401.999521,11785.806630,12564.094372,-10217.138853,-18307.755090,11067.890950,10307.439900,9335.071961,6254.532189,9264.462801,15855.120522,9307.176984,6932.684115,-0.002500,-0.010500,1.007750,192.000000,0.000000,0.000000,0.000000,0.000000,0.000000,0.000000,0.000000,0.000000,0.000000,1772012174.141280,0.000000
16.000000,9660.558064,10234.528510,5799.025988,12409.755577,11802.324570,12571.358689,-10213.674332,-18304.335273,11092.947256,10294.744109,9307.020522,6236.650793,9269.357833,15836.300354,9302.237249,6934.584014,-0.002500,-0.010500,1.007750,192.000000,0.000000,0.000000,0.000000,0.000000,0.000000,0.000000,0.000000,0.000000,0.000000,1772012174.141291,0.000000
18.000000,9658.501704,10233.947365,5823.970535,12409.554411,11802.033997,12561.479218,-10203.571344,-18301.764822,11068.516799,10316.179432,9334.334354,6261.438878,9278.522048,15849.107903,9316.922345,6925.956240,-0.002500,-0.010500,1.007750,192.000000,0.000000,0.000000,0.000000,0.000000,0.000000,0.000000,0.000000,0.000000,0.000000,1772012174.141303,0.000000
20.000000,9632.596032,10208.309914,5788.766538,12381.279454,11772.194418,12526.297572,-10233.165054,-18333.616058,11057.475037,10285.021101,9301.410234,6228.626517,9256.349117,15813.032188,9299.309170,6921.418836,-0.002500,-0.010500,1.007750,192.000000,0.000000,0.000000,127.500000,88.000000,15.500000,64.000000,0.000000,0.000000,0.000000,1772012174.141315,0.000000
22.000000,9657.227654,10230.304030,5815.879204,12411.007275,11810.348846,12587.340187,-10201.537335,-18299.931979,11069.500276,10287.926827,9304.159499,6230.504063,9267.100306,15833.059351,9305.098272,6923.676362,-0.002500,-0.010500,1.007750,192.000000,0.000000,0.000000,0.000000,0.000000,0.000000,0.000000,0.000000,0.000000,0.000000,1772012174.141326,0.000000
24.000000,9635.255889,10209.405149,5795.360302,12392.142402,11794.724976,12564.161428,-10229.119388,-18329.615096,11066.661604,10298.789775,9317.168214,6242.864578,9273.425850,15849.621993,9312.049665,6929.309002,-0.002500,-0.010500,1.007750,192.000000,0.000000,0.000000,0.000000,0.000000,0.000000,0.000000,0.000000,0.000000,0.000000,1772012174.141338,0.000000
26.000000,9647.057610,10226.615992,5787.492488,12412.303676,11802.436328,12572.655090,-10221.139815,-18318.260410,11054.144627,10284.462307,9286.747490,6223.373857,9256.974966,15842.312973,9300.404406,6939.680212,-0.002500,-0.010500,1.007750,192.000000,0.000000,0.000000,0.000000,0.000000,0.000000,0.000000,0.000000,0.000000,0.000000,1772012174.141351,0.000000
28.000000,9661.228616,10240.585833,5819.030800,12426.519385,11806.146718,12579.002986,-10201.894963,-18296.690976,11080.229113,10323.331991,9322.934964,6269.574913,9288.692092,15856.416924,9310.842670,6939.367287,-0.002500,-0.010500,1.007750,192.000000,0.000000,0.000000,0.000000,0.000000,0.000000,0.000000,0.000000,0.000000,0.000000,1772012174.141362,0.000000
30.000000,9644.084828,10222.927955,5787.961875,12404.391158,11776.195380,12564.094372,-10227.398303,-18322.574296,11061.408944,10302.164889,9311.759092,6248.452514,9252.057582,15848.213833,9296.895182,6938.227348,-0.002500,-0.010500,1.007750,192.000000,0.000000,0.000000,127.500000,80.000000,15.500000,40.000000,0.000000,0.000000,0.000000,1772012174.141374,0.000000
32.000000,9667.196532,10246.151417,5813.286401,12426.117054,11810.997046,12596.482050,-10194.474184,-18291.572427,11074.350604,10314.234831,9316.385903,6252.900511,9263.971062,15858.965022,9300.002074,6939.590805,-0.002500,-0.010500,1.007750,192.000000,0.000000,0.000000,0.000000,0.000000,0.000000,0.000000,0.000000,0.000000,0.000000,1772012174.141389,0.000000
34.000000,9631.724314,10208.958114,5788.207744,12392.298864,11784.286712,12549.521035,-10227.822987,-18334.711294,11073.568293,10310.099758,9316.922345,6251.358241,9285.227571,15846.492749,9307.981647,6929.957203,-0.002500,-0.010500,1.007750,192.000000,0.000000,0.000000,0.000000,0.000000,0.000000,0.000000,0.000000,0.000000,0.000000,1772012174.141400,0.000000
36.000000,9621.598973,10197.737539,5783.938561,12389.951931,11776.217732,12547.151750,-10226.459530,-18342.914384,11036.352639,10268.480810,9271.414193,6206.140662,9229.728190,15802.906847,9293.207144,6921.105912,-0.002500,-0.010500,1.007750,192.000000,0.000000,0.000000,0.000000,0.000000,0.000000,0.000000,0.000000,0.000000,0.000000,1772012174.141412,0.000000
38.000000,9631.657258,10203.526640,5794.421529,12386.174486,11792.288636,12558.126457,-10215.440120,-18332.163195,11061.811276,10288.060938,9287.574504,6231.822816,9259.321899,15839.451950,9302.505470,6917.015543,-0.002500,-0.010500,1.007750,192.000000,0.000000,0.000000,0.000000,0.000000,0.000000,0.000000,0.000000,0.000000,0.000000,1772012174.141423,0.000000
40.000000,9610.601915,10185.399376,5777.121279,12367.354318,11764.170142,12526.521090,-10241.882234,-18354.894919,11017.688932,10264.725717,9278.879676,6202.989066,9230.845777,15830.354790,9296.872830,6918.758979,0.000750,-0.012250,1.007875,192.000000,0.000000,16.000000,127.500000,72.000000,15.500000,64.000000,0.000000,0.000000,0.000000,1772012174.141435,0.000000
42.000000,9650.477427,10230.527548,5809.173680,12428.955725,11790.612255,12577.460715,-10197.379911,-18299.037909,11043.974584,10277.019176,9294.615304,6225.541976,9244.793265,15809.724129,9296.716368,6922.759941,0.000750,-0.012250,1.007875,192.000000,0.000000,0.000000,0.000000,0.000000,0.000000,0.000000,0.000000,0.000000,0.000000,1772012174.141447,0.000000
44.000000,9654.433686,10232.472149,5793.393349,12413.264801,11778.721127,12564.429648,-10217.608239,-18309.029139,11063.219436,10309.473909,9319.470444,6263.629349,9266.742678,15838.177900,9295.554077,6932.438246,0.000750,-0.012250,1.007875,192.000000,0.000000,0.000000,0.000000,0.000000,0.000000,0.000000,0.000000,0.000000,0.000000,1772012174.141459,0.000000
46.000000,9682.038090,10253.706307,5805.195070,12418.204536,11798.189497,12580.254684,-10210.656847,-18288.644348,11069.612035,10302.477813,9311.490871,6246.954947,9259.120734,15841.061275,9294.883525,6934.181682,0.000750,-0.012250,1.007875,192.000000,0.000000,0.000000,0.000000,0.000000,0.000000,0.000000,0.000000,0.000000,0.000000,1772012174.141470,0.000000
48.000000,9688.363634,10257.036717,5826.608041,12422.607830,11811.555840,12583.361576,-10198.653960,-18277.289662,11096.389424,10337.994735,9352.282805,6282.449518,9291.910743,15867.995127,9313.189603,6933.466427,0.000750,-0.012250,1.007875,192.000000,0.000000,0.000000,0.000000,0.000000,0.000000,0.000000,0.000000,0.000000,0.000000,1772012174.141482,0.000000
50.000000,9655.685384,10225.565460,5795.203840,12389.549600,11782.766793,12547.196453,-10229.678181,-18318.081596,11071.243712,10310.658552,9322.666743,6249.659508,9265.736850,15848.191482,9302.572525,6930.337182,0.002375,-0.010125,1.009937,192.000000,0.000000,16.000000,127.500000,96.000000,15.500000,80.000000,0.000000,0.000000,0.000000,1772012174.141494,0.000000
52.000000,9667.442401,10242.016344,5815.476872,12413.890650,11807.085491,12588.346015,-10199.145698,-18296.825087,11071.064898,10304.802394,9316.810586,6238.818912,9269.179019,15837.328534,9306.953467,6923.944583,0.002375,-0.010125,1.009937,192.000000,0.000000,0.000000,0.000000,0.000000,0.000000,0.000000,0.000000,0.000000,0.000000,1772012174.141507,0.000000
54.000000,9636.552291,10207.684065,5791.404044,12389.661359,11787.862991,12548.157578,-10230.885176,-18335.135977,11064.739354,10310.032703,9314.865984,6245.479732,9271.458897,15857.802732,9310.753263,6922.558775,0.002375,-0.010125,1.009937,192.000000,0.000000,0.000000,0.000000,0.000000,0.000000,0.000000,0.000000,0.000000,0.000000,1772012174.141519,0.000000
56.000000,9647.415238,10219.508138,5795.047378,12396.031606,11796.155488,12564.787276,-10225.006667,-18326.329389,11051.708287,10278.449688,9284.333501,6212.108578,9251.521141,15812.428690,9303.556002,6928.347877,0.002375,-0.010125,1.009937,192.000000,0.000000,0.000000,0.000000,0.000000,0.000000,0.000000,0.000000,0.000000,0.000000,1772012174.141532,0.000000
58.000000,9665.587207,10237.456588,5785.793756,12432.554356,11804.760910,12590.536486,-10206.432367,-18299.842572,11078.329215,10321.387389,9317.123510,6257.080288,9287.082766,15861.557825,9316.162385,6935.679249,0.002375,-0.010125,1.009937,192.000000,0.000000,0.000000,0.000000,0.000000,0.000000,0.000000,0.000000,0.000000,0.000000,1772012174.141545,0.000000
60.000000,9645.090657,10218.859937,5796.433186,12406.134594,11773.423764,12557.455904,-10227.443007,-18319.981494,11061.476000,10304.064787,9309.076882,6248.676032,9262.227626,15846.202176,9292.715406,6942.161255,0.002375,-0.010125,1.009937,192.000000,0.000000,0.000000,0.000000,0.000000,0.000000,0.000000,0.000000,0.000000,0.000000,1772012174.141557,0.000000
62.000000,9685.055576,10258.646042,5823.165872,12430.162720,11818.239012,12592.637550,-10190.339111,-18278.474304,11073.590645,10316.224136,9320.543327,6257.393212,9268.061431,15844.302278,9307.467557,6937.176816,0.004000,-0.010000,1.014000,192.000000,0.000000,16.000000,127.500000,88.000000,15.500000,88.000000,0.000000,0.000000,0.000000,1772012174.141568,0.000000
64.000000,9656.758267,10233.299164,5798.489547,12401.530135,11786.723052,12569.749364,-10219.999876,-18313.410081,11076.317558,10326.327124,9332.993249,6266.713889,9274.208161,15858.115656,9312.139071,6932.393543,0.004000,-0.010000,1.014000,192.000000,0.000000,0.000000,0.000000,0.000000,0.000000,0.000000,0.000000,0.000000,0.000000,1772012174.141580,0.000000
66.000000,9643.727200,10220.133986,5792.231058,12394.064652,11789.382909,12563.379116,-10221.028056,-18322.507241,11061.945386,10289.804374,9289.183830,6224.938479,9259.478362,15832.612316,9298.772728,6928.392581,0.004000,-0.010000,1.014000,192.000000,0.000000,0.000000,0.000000,0.000000,0.000000,0.000000,0.000000,0.000000,0.000000,1772012174.141591,0.000000
68.000000,9641.581433,10218.144681,5808.056093,12398.423242,11791.305159,12564.876683,-10210.746254,-18315.757014,11052.825874,10304.355360,9312.362589,6244.339793,9262.629958,15847.386819,9310.820319,6917.373171,0.004000,-0.010000,1.014000,192.000000,0.000000,0.000000,0.000000,0.000000,0.000000,0.000000,0.000000,0.000000,0.000000,1772012174.141603,0.000000
70.000000,9625.085846,10195.949399,5783.290360,12373.568103,11771.792087,12527.057532,-10239.647059,-18345.797759,11044.667488,10276.639196,9288.379167,6217.875328,9246.402591,15818.374255,9298.191583,6921.329429,0.004000,-0.010000,1.014000,192.000000,0.000000,0.000000,0.000000,0.000000,0.000000,0.000000,0.000000,0.000000,0.000000,1772012174.141614,0.000000
72.000000,9665.587207,10241.815179,5815.275707,12418.785682,11814.886250,12577.259550,-10200.687969,-18298.814392,11060.336061,10291.927790,9304.539478,6230.951098,9261.802943,15822.241106,9311.334409,6926.649144,0.006000,-0.010000,1.016000,192.000000,0.000000,24.000000,127.500000,88.000000,15.500000,96.000000,0.000000,0.000000,0.000000,1772012174.141625,0.000000
74.000000,9660.200436,10237.948327,5794.153308,12408.973266,11796.267247,12568.341204,-10224.872556,-18315.578200,11067.533322,10316.090025,9321.660915,6262.087078,9273.448202,15839.898984,9310.149766,6936.573319,0.006000,-0.010000,1.016000,192.000000,0.000000,0.000000,0.000000,0.000000,0.000000,0.000000,0.000000,0.000000,0.000000,1772012174.621934,0.000000
76.000000,9680.071137,10259.204836,5793.750977,12416.282286,11809.499479,12600.371254,-10215.820100,-18301.027215,11075.401136,10313.631334,9301.611400,6241.456418,9267.636748,15839.317839,9300.717330,6944.418781,0.006000,-0.010000,1.016000,192.000000,0.000000,0.000000,0.000000,0.000000,0.000000,0.000000,0.000000,0.000000,0.000000,1772012174.622000,0.000000
78.000000,9687.782489,10264.926882,5812.280573,12431.548528,11821.636477,12599.968922,-10199.860954,-18285.626863,11108.794643,10357.440753,9330.020467,6290.071462,9305.813528,15890.682148,9309.903897,6947.369212,0.006000,-0.010000,1.016000,192.000000,0.000000,0.000000,0.000000,0.000000,0.000000,0.000000,0.000000,0.000000,0.000000,1772012174.622044,0.000000
80.000000,9656.959433,10231.153397,5802.043474,12394.690501,11787.058328,12558.059401,-10229.007629,-18321.926096,11065.946348,10312.916078,9323.247888,6248.363107,9278.477344,15857.869787,9305.500603,6935.723953,0.006000,-0.010000,1.016000,192.000000,0.000000,0.000000,0.000000,0.000000,0.000000,0.000000,0.000000,0.000000,0.000000,1772012174.622089,0.000000
82.000000,9676.964244,10250.912339,5828.083256,12419.188013,11812.896945,12592.168163,-10196.195268,-18291.751241,11077.681014,10315.866508,9323.158481,6247.491389,9261.601777,15840.301316,9308.607496,6926.358572,0.006000,-0.014000,1.014000,192.000000,0.000000,24.000000,127.500000,72.000000,15.500000,88.000000,0.000000,0.000000,0.000000,1772012174.622132,0.000000
84.000000,9650.388020,10225.319591,5795.360302,12387.247370,11798.055386,12554.550177,-10228.180614,-18328.385750,11072.853037,10317.721703,9321.929136,6251.894683,9281.494830,15846.001011,9313.055493,6926.045647,0.006000,-0.014000,1.014000,192.000000,0.000000,0.000000,0.000000,0.000000,0.000000,0.000000,0.000000,0.000000,0.000000,1772012174.622181,0.000000
86.000000,9650.008041,10224.939612,5808.883108,12398.266780,11802.637494,12554.058439,-10225.029019,-18328.296343,11054.636366,10288.530325,9289.742624,6213.762607,9251.767010,15830.243031,9311.312057,6925.285688,0.006000,-0.014000,1.014000,192.000000,0.000000,0.000000,0.000000,0.000000,0.000000,0.000000,0.000000,0.000000,0.000000,1772012174.622223,0.000000
88.000000,9653.383154,10232.494501,5811.140634,12412.862469,11820.764759,12564.675518,-10210.299219,-18312.046625,11062.638290,10313.139595,9317.235269,6251.961738,9281.181905,15840.077798,9323.203185,6926.582089,0.006000,-0.014000,1.014000,192.000000,0.000000,0.000000,0.000000,0.000000,0.000000,0.000000,0.000000,0.000000,0.000000,1772012174.622252,0.000000
90.000000,9626.739875,10208.108748,5781.882200,12393.595266,11779.078755,12557.098276,-10235.355524,-18339.986305,11053.027040,10295.906400,9293.631827,6227.844206,9258.830161,15830.019513,9308.763958,6932.907633,0.006000,-0.014000,1.014000,192.000000,0.000000,0.000000,0.000000,0.000000,0.000000,0.000000,0.000000,0.000000,0.000000,1772012174.622272,0.000000
92.000000,9658.479352,10237.970679,5809.553660,12421.333780,11813.299276,12606.294466,-10198.408091,-18299.507296,11054.122276,10303.997732,9297.319865,6244.608014,9258.338423,15852.639479,9304.494775,6935.880415,0.004000,-0.008000,1.008000,192.000000,0.000000,16.000000,127.500000,96.000000,15.500000,64.000000,0.000000,0.000000,0.000000,1772012174.622284,0.000000
94.000000,9647.303480,10224.984315,5789.951180,12407.475699,11789.606427,12569.056460,-10221.944478,-18317.522802,11061.453648,10320.113339,9315.938868,6259.874256,9268.731984,15858.383877,9308.071054,6932.952336,0.004000,-0.008000,1.008000,192.000000,0.000000,0.000000,0.000000,0.000000,0.000000,0.000000,0.000000,0.000000,0.000000,1772012174.622296,0.000000
96.000000,9657.250006,10233.433274,5791.761672,12413.465966,11798.636532,12579.405317,-10217.317667,-18311.823107,11058.480866,10303.841269,9293.877696,6237.388401,9256.416173,15825.996199,9299.845612,6935.209863,0.004000,-0.008000,1.008000,192.000000,0.000000,0.000000,0.000000,0.000000,0.000000,0.000000,0.000000,0.000000,0.000000,1772012174.622308,0.000000
98.000000,9662.525018,10235.623745,5806.647933,12411.878993,11808.940686,12582.691024,-10205.627704,-18303.128279,11072.517761,10324.069598,9324.723104,6262.891741,9278.454993,15861.647232,9315.648295,6929.711333,0.004000,-0.008000,1.008000,192.000000,0.000000,0.000000,0.000000,0.000000,0.000000,0.000000,0.000000,0.000000,0.000000,1772012174.622319,0.000000
100.000000,9632.618383,10206.208850,5773.097965,12383.402870,11775.055441,12541.988497,-10233.790902,-18335.381846,11071.623692,10297.918057,9292.335426,6232.314555,9264.082821,15832.455854,9299.376225,6930.471293,0.004000,-0.008000,1.008000,192.000000,0.000000,0.000000,0.000000,0.000000,0.000000,0.000000,0.000000,0.000000,0.000000,1772012174.622330,0.000000
102.000000,9661.161561,10228.627649,5815.499224,12417.086949,11803.755081,12568.140038,-10196.776414,-18298.814392,11050.545996,10289.536153,9301.521993,6229.520587,9253.018707,15817.904868,9299.040949,6924.548081,0.002000,-0.012000,1.006000,192.000000,0.000000,8.000000,127.500000,80.000000,15.500000,56.000000,0.000000,0.000000,0.000000,1772012174.622342,0.000000
104.000000,9652.533788,10219.284620,5792.320465,12395.495164,11782.878552,12545.095389,-10221.162167,-18318.573334,11048.646098,10302.298999,9318.799891,6245.613843,9267.748507,15833.126406,9300.382054,6926.984421,0.002000,-0.012000,1.006000,192.000000,0.000000,0.000000,0.000000,0.000000,0.000000,0.000000,0.000000,0.000000,0.000000,1772012174.622353,0.000000
106.000000,9664.849599,10235.802559,5804.882146,12403.519440,11797.988331,12565.949567,-10216.714170,-18307.598628,11059.956081,10285.982226,9298.951542,6226.100770,9242.088704,15820.408263,9292.894220,6930.381886,0.002000,-0.012000,1.006000,192.000000,0.000000,0.000000,0.000000,0.000000,0.000000,0.000000,0.000000,0.000000,0.000000,1772012174.622365,0.000000
108.000000,9679.333529,10251.225263,5820.260146,12421.981981,11815.020360,12600.818288,-10200.464451,-18288.085555,11079.290340,10325.969496,9336.927156,6268.546732,9279.751394,15862.586005,9312.273182,6931.812397,0.002000,-0.012000,1.006000,192.000000,0.000000,0.000000,0.000000,0.000000,0.000000,0.000000,0.000000,0.000000,0.000000,1772012174.622376,0.000000
110.000000,9662.748535,10230.952231,5794.510936,12391.628312,11792.825078,12562.641509,-10231.622783,-18318.841555,11077.949235,10310.993828,9320.520976,6243.669241,9273.649368,15853.712362,9306.372321,6936.953299,0.002000,-0.012000,1.006000,192.000000,0.000000,0.000000,0.000000,0.000000,0.000000,0.000000,0.000000,0.000000,0.000000,1772012174.622388,0.000000
112.000000,9684.116803,10255.717964,5813.845195,12425.379446,11826.017419,12594.269227,-10197.290504,-18286.945616,11079.066822,10316.313543,9316.140034,6251.470000,9278.834972,15842.603545,9309.613324,6933.019392,0.008000,-0.010000,1.008000,192.000000,0.000000,32.000000,127.500000,88.000000,15.500000,64.000000,0.000000,0.000000,0.000000,1772012174.622399,0.000000
114.000000,9659.842808,10232.494501,5797.282552,12388.521420,11794.210886,12566.284843,-10222.078588,-18317.165174,11081.346700,10322.303810,9325.259545,6257.236750,9285.562847,15850.471360,9311.379112,6931.365363,0.008000,-0.010000,1.008000,192.000000,0.000000,0.000000,0.000000,0.000000,0.000000,0.000000,0.000000,0.000000,0.000000,1772012174.622411,0.000000
116.000000,9664.849599,10236.316649,5784.743224,12410.850812,11802.503383,12561.769791,-10217.943516,-18313.343026,11065.499314,10295.280551,9297.118699,6223.530319,9254.538626,15818.128385,9303.086615,6928.414932,0.008000,-0.010000,1.008000,192.000000,0.000000,0.000000,0.000000,0.000000,0.000000,0.000000,0.000000,0.000000,0.000000,1772012174.622422,0.000000
118.000000,9663.620253,10235.377876,5815.543928,12413.957705,11812.896945,12579.271207,-10206.231201,-18307.084537,11085.459421,10322.862604,9325.103083,6258.510799,9289.541458,15849.554938,9316.028275,6926.760903,0.008000,-0.010000,1.008000,192.000000,0.000000,0.000000,0.000000,0.000000,0.000000,0.000000,0.000000,0.000000,0.000000,1772012174.622433,0.000000
120.000000,9631.143168,10203.616047,5789.504145,12384.408699,11789.092337,12540.535634,-10239.401190,-18344.858986,11054.636366,10295.593476,9297.565734,6229.207662,9258.450181,15823.246935,9307.780481,6930.158368,0.008000,-0.010000,1.008000,192.000000,0.000000,0.000000,0.000000,0.000000,0.000000,0.000000,0.000000,0.000000,0.000000,1772012174.622445,0.000000
122.000000,9655.037183,10228.717056,5814.627506,12419.903269,11826.687971,12592.302274,-10202.140832,-18308.336235,11053.608185,10299.415624,9296.425795,6232.448665,9258.271367,15839.295487,9312.854327,6929.823092,0.004000,-0.008000,1.004000,192.000000,0.000000,16.000000,127.500000,96.000000,15.500000,48.000000,0.000000,0.000000,0.000000,1772012174.622458,0.000000
124.000000,9645.671802,10220.826891,5789.548849,12405.017007,11794.926142,12562.328584,-10221.050408,-18323.714235,11065.722831,10309.697427,9313.144900,6250.441819,9269.447240,15848.414999,9312.273182,6931.432418,0.004000,-0.008000,1.004000,192.000000,0.000000,0.000000,0.000000,0.000000,0.000000,0.000000,0.000000,0.000000,0.000000,1772012174.622469,0.000000
126.000000,9658.457000,10227.152434,5800.456500,12409.263838,11802.548087,12567.782410,-10213.562574,-18310.414947,11062.839456,10295.571124,9293.005978,6233.052162,9255.633861,15833.305220,9295.017635,6934.226386,0.004000,-0.008000,1.004000,192.000000,0.000000,0.000000,0.000000,0.000000,0.000000,0.000000,0.000000,0.000000,0.000000,1772012174.622481,0.000000
128.000000,9664.469619,10234.439103,5808.391369,12418.226888,11814.528622,12589.731823,-10201.850260,-18300.647235,11084.788869,10323.600212,9330.735723,6264.322253,9297.431624,15852.885348,9312.630810,6929.554871,0.004000,-0.008000,1.004000,192.000000,0.000000,0.000000,0.000000,0.000000,0.000000,0.000000,0.000000,0.000000,0.000000,1772012174.622500,0.000000
130.000000,9632.081942,10203.839565,5776.115450,12392.477678,11780.866895,12563.982614,-10237.545995,-18344.657820,11067.376860,10306.746996,9296.336388,6238.036601,9261.065335,15840.994220,9302.773691,6933.846406,0.004000,-0.008000,1.004000,192.000000,0.000000,0.000000,0.000000,0.000000,0.000000,0.000000,0.000000,0.000000,0.000000,1772012174.622512,0.000000
132.000000,9645.940023,10219.597545,5813.644029,12417.846908,11808.985389,12589.418899,-10205.918277,-18317.679264,11051.998860,10299.214458,9291.441356,6227.866558,9251.297623,15846.023362,9305.634714,6931.588880,0.003000,-0.011000,1.003000,192.000000,0.000000,8.000000,127.500000,72.000000,15.500000,40.000000,0.000000,0.000000,0.000000,1772012174.622524,0.000000
134.000000,9628.483311,10202.006722,5787.380730,12397.439766,11785.806630,12558.394677,-10228.650001,-18340.634506,11045.449799,10301.159060,9300.292647,6237.120180,9257.131428,15838.334362,9310.239173,6930.068961,0.003000,-0.011000,1.003000,192.000000,0.000000,0.000000,0.000000,0.000000,0.000000,0.000000,0.000000,0.000000,0.000000,1772012174.622536,0.000000
136.000000,9641.179102,10214.881327,5779.356453,12395.383405,11801.944590,12564.854332,-10224.380818,-18330.196241,11037.179653,10276.482734,9272.598836,6209.560479,9240.591137,15822.397569,9299.644446,6934.293441,0.003000,-0.011000,1.003000,192.000000,0.000000,0.000000,0.000000,0.000000,0.000000,0.000000,0.000000,0.000000,0.000000,1772012174.622548,0.000000
138.000000,9652.489084,10225.364295,5814.359285,12415.835251,11809.968866,12578.801820,-10203.571344,-18307.017482,11088.432203,10319.062807,9310.283877,6250.888854,9290.144955,15851.477188,9313.569583,6930.828921,0.003000,-0.011000,1.003000,192.000000,0.000000,0.000000,0.000000,0.000000,0.000000,0.000000,0.000000,0.000000,0.000000,1772012174.622560,0.000000
140.000000,9634.026543,10206.164146,5791.918134,12398.132670,11780.419860,12558.864064,-10231.086341,-18333.101968,11046.925014,10291.324293,9301.969028,6234.326212,9248.503655,15828.879574,9301.499641,6931.410066,0.003000,-0.011000,1.003000,192.000000,0.000000,0.000000,0.000000,0.000000,0.000000,0.000000,0.000000,0.000000,0.000000,1772012174.622572,0.000000
142.000000,9670.124611,10242.396324,5821.601250,12423.233679,11821.144738,12590.849410,-10194.496536,-18292.444145,11063.934691,10307.842232,9304.919458,6243.333965,9261.288853,15848.392647,9305.992342,6932.572357,0.005500,-0.008500,1.005500,192.000000,0.000000,32.000000,127.500000,104.000000,15.500000,64.000000,0.000000,0.000000,0.000000,1772012174.622584,0.000000
144.000000,9651.796180,10218.658771,5799.808300,12397.149193,11796.691930,12569.212922,-10220.581021,-18322.015503,11075.557599,10313.072540,9321.124473,6253.682822,9279.684339,15844.637554,9312.586106,6929.554871,0.005500,-0.008500,1.005500,192.000000,0.000000,0.000000,0.000000,0.000000,0.000000,0.000000,0.000000,0.000000,0.000000,1772012174.622596,0.000000
146.000000,9649.628061,10214.143719,5800.411797,12395.226943,11805.677331,12576.097259,-10220.871594,-18325.502375,11062.101848,10288.686787,9287.552153,6218.478825,9260.528894,15842.581194,9304.003036,6933.399371,0.005500,-0.008500,1.005500,192.000000,0.000000,0.000000,0.000000,0.000000,0.000000,0.000000,0.000000,0.000000,0.000000,1772012174.622607,0.000000
148.000000,9648.018735,10215.753045,5812.526442,12414.158870,11819.021323,12576.924274,-10208.287562,-18317.925133,11072.294244,10305.450595,9312.295534,6244.272738,9279.371414,15849.554938,9323.069075,6927.990249,0.005500,-0.008500,1.005500,192.000000,0.000000,0.000000,0.000000,0.000000,0.000000,0.000000,0.000000,0.000000,0.000000,1772012174.622619,0.000000
150.000000,9615.295782,10184.617065,5772.874447,12391.471850,11787.125383,12553.276128,-10239.602356,-18354.984326,11050.925976,10283.143554,9278.991434,6219.976392,9265.133353,15837.395589,9309.389807,6938.003831,0.005500,-0.008500,1.005500,192.000000,0.000000,0.000000,0.000000,0.000000,0.000000,0.000000,0.000000,0.000000,0.000000,1772012174.622631,0.000000
152.000000,9633.981840,10204.934800,5811.028875,12412.191917,11815.534450,12575.158486,-10203.996027,-18319.757977,11044.220453,10283.970569,9283.350025,6219.127026,9264.172228,15830.891231,9310.306228,6930.985383,0.005500,-0.008500,1.005500,192.000000,0.000000,0.000000,127.500000,80.000000,15.500000,48.000000,0.000000,0.000000,0.000000,1772012174.622643,0.000000
154.000000,9611.719502,10176.659844,5790.979360,12393.148231,11786.141907,12544.022506,-10223.799673,-18344.121378,11047.059124,10282.830630,9296.850478,6230.504063,9267.726155,15822.017589,9308.294571,6926.671496,0.005500,-0.008500,1.005500,192.000000,0.000000,0.000000,0.000000,0.000000,0.000000,0.000000,0.000000,0.000000,0.000000,1772012174.622657,0.000000
156.000000,9626.650468,10191.926085,5784.743224,12402.714777,11795.060253,12571.671614,-10220.022228,-18332.185546,11031.725828,10258.444876,9264.283987,6205.738331,9240.904062,15805.231429,9297.386920,6929.353706,0.005500,-0.008500,1.005500,192.000000,0.000000,0.000000,0.000000,0.000000,0.000000,0.000000,0.000000,0.000000,0.000000,1772012174.622669,0.000000
158.000000,9652.936119,10211.349751,5804.993904,12417.176356,11820.273020,12610.451890,-10205.560649,-18312.471308,11078.329215,10304.556525,9308.540441,6250.397116,9279.147897,15871.169075,9311.490871,6938.584976,0.005500,-0.008500,1.005500,192.000000,0.000000,0.000000,0.000000,0.000000,0.000000,0.000000,0.000000,0.000000,0.000000,1772012174.622681,0.000000
160.000000,9622.113064,10181.733690,5795.561468,12385.213361,11786.499534,12570.643433,-10235.623745,-18348.390561,11047.819084,10283.501182,9291.486060,6228.246537,9258.472533,15846.135121,9306.372321,6939.859025,0.005500,-0.008500,1.005500,192.000000,0.000000,0.000000,0.000000,0.000000,0.000000,0.000000,0.000000,0.000000,0.000000,1772012174.622693,0.000000
162.000000,9636.507587,10194.809460,5815.298058,12411.342551,11818.820157,12583.160410,-10203.303123,-18322.283724,11063.800581,10282.562409,9290.144955,6221.965697,9269.737812,15830.913583,9312.384941,6933.734647,0.003750,-0.012250,1.004750,192.000000,0.000000,8.000000,127.500000,64.000000,15.500000,48.000000,0.000000,0.000000,0.000000,1772012174.622705,0.000000
164.000000,9611.428930,10166.758021,5788.855945,12382.844076,11789.628779,12560.406334,-10228.135911,-18351.966840,11050.836569,10274.761650,9295.397615,6222.703305,9265.759202,15845.978659,9310.641505,6926.090351,0.003750,-0.012250,1.004750,192.000000,0.000000,0.000000,0.000000,0.000000,0.000000,0.000000,0.000000,0.000000,0.000000,1772012174.622717,0.000000
166.000000,9620.481386,10171.362480,5778.618846,12390.041338,11793.585037,12567.178913,-10225.610164,-18347.116512,11051.037735,10244.184464,9265.245112,6191.500269,9247.497827,15806.594885,9295.889353,6927.163235,0.003750,-0.012250,1.004750,192.000000,0.000000,0.000000,0.000000,0.000000,0.000000,0.000000,0.000000,0.000000,0.000000,1772012174.622730,0.000000
168.000000,9636.149959,10188.014530,5809.084273,12405.486394,11808.493651,12582.154582,-10207.371140,-18323.848346,11058.503218,10278.159115,9298.169231,6228.291241,9266.362699,15839.161377,9309.188641,6929.063133,0.003750,-0.012250,1.004750,192.000000,0.000000,0.000000,0.000000,0.000000,0.000000,0.000000,0.000000,0.000000,0.000000,1772012174.622742,0.000000
170.000000,9610.601915,10158.800800,5780.004654,12381.346510,11784.823154,12559.467561,-10238.015382,-18353.710276,11048.310822,10263.786943,9284.557019,6212.555613,9250.962347,15826.867917,9299.510336,6934.986345,0.003750,-0.012250,1.004750,192.000000,0.000000,0.000000,0.000000,0.000000,0.000000,0.000000,0.000000,0.000000,0.000000,1772012174.622754,0.000000
172.000000,9643.570738,10191.859030,5823.724666,12405.799318,11819.200137,12588.346015,-10199.413919,-18310.906686,11054.055220,10271.118316,9295.889353,6218.657639,9262.495847,15827.292601,9308.607496,6932.818226,0.003875,-0.014125,1.006375,192.000000,0.000000,16.000000,127.500000,64.000000,15.500000,64.000000,0.000000,0.000000,0.000000,1772012174.622766,0.000000
174.000000,9630.651430,10182.605408,5795.762634,12403.005350,11795.082604,12583.585093,-10220.581021,-18331.626753,11083.604227,10295.124089,9320.543327,6241.076439,9291.977798,15857.623918,9310.105063,6934.382848,0.003875,-0.014125,1.006375,192.000000,0.000000,0.000000,0.000000,0.000000,0.000000,0.000000,0.000000,0.000000,0.000000,1772012174.622778,0.000000
176.000000,9634.764151,10183.812402,5809.598364,12390.175449,11806.705511,12571.559855,-10219.754007,-18331.984381,11058.547921,10270.537170,9287.730967,6211.862709,9260.238321,15816.921391,9303.399539,6935.209863,0.003875,-0.014125,1.006375,192.000000,0.000000,0.000000,0.000000,0.000000,0.000000,0.000000,0.000000,0.000000,0.000000,1772012174.622790,0.000000
178.000000,9643.615442,10190.607332,5820.126035,12408.883859,11819.043674,12578.198323,-10205.694760,-18319.400349,11073.925921,10289.558505,9316.564717,6237.276642,9277.560923,15852.684182,9321.884432,6929.309002,0.003875,-0.014125,1.006375,192.000000,0.000000,0.000000,0.000000,0.000000,0.000000,0.000000,0.000000,0.000000,0.000000,1772012174.622802,0.000000
180.000000,9609.841956,10155.917425,5782.619808,12381.458268,11792.668616,12551.242119,-10240.697591,-18357.353611,11055.396325,10261.462362,9287.485097,6211.996819,9262.808771,15825.079778,9310.060359,6931.499473,0.003875,-0.014125,1.006375,192.000000,0.000000,0.000000,0.000000,0.000000,0.000000,0.000000,0.000000,0.000000,0.000000,1772012174.622813,0.000000
182.000000,9638.295727,10188.215695,5806.670285,12406.559277,11827.291468,12595.632684,-10205.985332,-18319.914439,11076.384613,10269.665452,9281.114850,6217.115368,9282.612417,15831.204156,9312.295534,6932.617060,0.002938,-0.015062,1.005187,192.000000,0.000000,8.000000,127.500000,64.000000,15.500000,48.000000,0.000000,0.000000,0.000000,1772012174.622825,0.000000
184.000000,9611.719502,10161.684175,5808.838404,12378.440783,11804.492689,12547.375267,-10227.822987,-18345.082503,11051.417715,10275.141630,9306.461728,6222.792712,9276.577446,15846.470397,9322.219708,6927.498511,0.002938,-0.015062,1.005187,192.000000,0.000000,0.000000,0.000000,0.000000,0.000000,0.000000,0.000000,0.000000,0.000000,1772012174.622837,0.000000
186.000000,9621.777787,10173.977634,5798.601305,12393.729376,11805.722035,12566.731878,-10222.682085,-18337.728779,11042.365258,10250.331193,9276.778612,6203.994895,9253.108114,15800.559914,9307.869888,6930.381886,0.002938,-0.015062,1.005187,192.000000,0.000000,0.000000,0.000000,0.000000,0.000000,0.000000,0.000000,0.000000,0.000000,1772012174.622850,0.000000
188.000000,9637.222843,10188.729786,5814.985134,12413.264801,11819.378951,12597.510230,-10205.381835,-18318.707445,11065.432258,10283.747051,9311.870851,6242.864578,9281.897161,15845.151644,9318.621077,6933.801703,0.002938,-0.015062,1.005187,192.000000,0.000000,0.000000,0.000000,0.000000,0.000000,0.000000,0.000000,0.000000,0.000000,1772012174.622862,0.000000
190.000000,9617.977991,10167.920311,5790.308808,12388.946103,11788.421784,12560.451038,-10234.237937,-18347.965878,11059.039659,10267.877313,9292.357778,6225.743142,9271.302434,15824.141005,9305.768824,6941.066020,0.002938,-0.015062,1.005187,192.000000,0.000000,0.000000,0.000000,0.000000,0.000000,0.000000,0.000000,0.000000,0.000000,1772012174.622874,0.000000
192.000000,9652.578491,10204.331303,5823.031762,12426.094702,11818.171956,12609.691931,-10196.955227,-18306.704558,11070.930787,10283.344720,9299.398577,6232.135741,9277.426812,15838.133197,9307.266391,6939.702563,0.003469,-0.015531,1.007594,192.000000,0.000000,16.000000,127.500000,64.000000,15.500000,72.000000,0.000000,0.000000,0.000000,1772012174.622887,0.000000
194.000000,9637.982802,10190.652036,5786.732529,12404.905248,11784.733747,12585.820268,-10220.804539,-18330.375055,11079.446802,10307.059921,9314.418949,6249.503046,9289.161478,15871.347889,9307.378150,6942.407124,0.003469,-0.015531,1.007594,192.000000,0.000000,0.000000,0.000000,0.000000,0.000000,0.000000,0.000000,0.000000,0.000000,1772012174.622898,0.000000
196.000000,9629.533843,10183.432422,5800.702369,12398.691463,11788.175915,12567.201265,-10219.195213,-18332.744340,11061.140723,10277.242694,9281.718347,6216.310706,9265.759202,15833.864013,9296.090519,6937.377982,0.003469,-0.015531,1.007594,192.000000,0.000000,0.000000,0.000000,0.000000,0.000000,0.000000,0.000000,0.000000,0.000000,1772012175.102892,0.000000
198.000000,9629.757360,10186.695777,5810.872413,12406.179298,11805.789090,12567.514189,-10207.639361,-18325.189450,11061.923034,10294.274723,9305.478252,6241.612880,9278.812620,15840.927165,9311.513223,6926.000944,0.003469,-0.015531,1.007594,192.000000,0.000000,0.000000,0.000000,0.000000,0.000000,0.000000,0.000000,0.000000,0.000000,1772012175.102954,0.000000
200.000000,9609.752549,10163.807590,5779.758785,12383.425222,11786.074851,12539.507453,-10236.160187,-18355.587823,11050.121313,10268.078478,9279.527876,6216.198947,9270.631882,15815.490879,9301.924324,6927.029124,0.003469,-0.015531,1.007594,192.000000,0.000000,0.000000,0.000000,0.000000,0.000000,0.000000,0.000000,0.000000,0.000000,1772012175.103009,0.000000
202.000000,9639.547424,10193.401300,5819.500186,12406.469870,11820.049503,12600.974751,-10201.000893,-18315.689959,11065.655776,10273.040566,9286.345158,6219.529357,9272.308263,15842.447083,9309.099234,6931.544177,0.003469,-0.015531,1.007594,192.000000,0.000000,0.000000,0.000000,0.000000,0.000000,0.000000,0.000000,0.000000,0.000000,1772012175.103046,0.000000
204.000000,9635.010020,10183.164201,5788.252448,12403.899420,11802.972770,12584.680329,-10221.877423,-18332.945506,11069.120296,10288.552676,9306.931115,6244.876235,9276.510391,15862.384839,9313.882508,6935.969822,0.004000,-0.016000,1.006000,192.000000,0.000000,16.000000,127.500000,64.000000,15.500000,56.000000,0.000000,0.000000,0.000000,1772012175.103084,0.000000
206.000000,9636.731104,10186.852239,5812.817015,12406.693388,11802.905715,12576.320777,-10215.820100,-18326.821128,11054.949290,10279.679034,9278.075013,6227.844206,9262.160571,15818.486013,9298.817432,6941.937738,0.004000,-0.016000,1.006000,192.000000,0.000000,0.000000,0.000000,0.000000,0.000000,0.000000,0.000000,0.000000,0.000000,1772012175.103122,0.000000
208.000000,9647.728163,10197.156393,5824.305811,12409.621466,11817.523756,12586.647282,-10202.923143,-18317.835726,11068.807372,10295.302903,9320.677438,6248.676032,9280.466650,15843.095284,9317.391731,6930.717162,0.004000,-0.016000,1.006000,192.000000,0.000000,0.000000,0.000000,0.000000,0.000000,0.000000,0.000000,0.000000,0.000000,1772012175.103159,0.000000
210.000000,9624.750569,10173.642358,5795.069730,12379.223094,11788.310026,12549.833959,-10236.160187,-18355.856044,11061.431296,10270.850095,9291.888391,6218.612935,9266.385051,15820.497670,9307.936944,6928.459636,0.004000,-0.016000,1.006000,192.000000,0.000000,0.000000,0.000000,0.000000,0.000000,0.000000,0.000000,0.000000,0.000000,1772012175.103197,0.000000
212.000000,9648.421067,10197.983408,5820.215442,12404.726434,11825.525680,12578.779468,-10203.571344,-18324.273029,11063.353546,10275.633368,9287.909780,6218.232956,9274.699900,15823.112824,9313.323714,6924.145749,0.004000,-0.016000,1.006000,192.000000,0.000000,0.000000,0.000000,0.000000,0.000000,0.000000,0.000000,0.000000,0.000000,1772012175.103235,0.000000
214.000000,9624.482348,10177.330396,5794.041549,12388.990806,11800.983465,12556.070096,-10225.677219,-18347.205919,11070.059069,10286.049281,9298.772728,6232.180444,9286.926304,15832.187633,9313.591935,6925.397447,0.002000,-0.020000,1.006000,192.000000,0.000000,8.000000,127.500000,48.000000,15.500000,56.000000,0.000000,0.000000,0.000000,1772012175.103273,0.000000
216.000000,9623.588279,10175.095221,5802.579916,12393.259989,11803.978599,12565.256663,-10221.743312,-18346.490663,11042.074685,10260.143609,9273.269388,6198.496365,9247.542530,15811.869897,9299.979722,6929.890147,0.002000,-0.020000,1.006000,192.000000,0.000000,0.000000,0.000000,0.000000,0.000000,0.000000,0.000000,0.000000,0.000000,1772012175.103311,0.000000
218.000000,9634.562985,10185.511134,5812.951125,12406.738091,11818.261363,12595.051538,-10206.208850,-18331.962029,11057.944424,10283.031795,9299.778557,6232.023982,9281.472478,15833.394627,9316.005923,6932.997040,0.002000,-0.020000,1.006000,192.000000,0.000000,0.000000,0.000000,0.000000,0.000000,0.000000,0.000000,0.000000,0.000000,1772012175.103364,0.000000
220.000000,9615.787520,10167.182704,5786.263142,12391.717719,11791.349863,12572.453925,-10237.233071,-18359.566433,11047.550863,10269.732507,9275.370452,6215.908374,9262.719364,15846.671563,9301.857269,6941.513055,0.002000,-0.020000,1.006000,192.000000,0.000000,0.000000,0.000000,0.000000,0.000000,0.000000,0.000000,0.000000,0.000000,1772012175.103386,0.000000
222.000000,9651.773828,10206.186498,5809.665419,12420.260897,11823.581078,12604.081643,-10201.090300,-18315.935828,11069.008537,10281.981263,9287.596856,6230.571119,9280.868981,15839.742522,9306.819356,6941.893034,0.002000,-0.020000,1.006000,192.000000,0.000000,0.000000,0.000000,0.000000,0.000000,0.000000,0.000000,0.000000,0.000000,1772012175.103398,0.000000
224.000000,9628.997401,10180.571399,5781.301055,12392.522382,11793.607389,12572.945663,-10221.720960,-18340.679209,11064.806409,10294.565296,9302.416063,6244.138628,9277.829144,15839.139025,9306.819356,6935.478084,0.004000,-0.014000,1.008000,192.000000,0.000000,16.000000,127.500000,72.000000,15.500000,64.000000,0.000000,0.000000,0.000000,1772012175.103410,0.000000
226.000000,9615.586354,10168.032070,5805.530346,12382.128821,11784.644340,12557.858236,-10222.369161,-18349.195224,11048.869616,10258.981318,9274.856362,6200.239801,9249.643594,15818.798938,9292.380129,6932.974688,0.004000,-0.014000,1.008000,192.000000,0.000000,0.000000,0.000000,0.000000,0.000000,0.000000,0.000000,0.000000,0.000000,1772012175.103423,0.000000
228.000000,9620.973125,10171.943625,5808.167852,12404.592324,11799.195325,12566.843637,-10207.281733,-18339.092235,11035.436217,10272.079441,9294.011807,6227.821854,9247.967213,15812.920429,9304.226554,6921.284726,0.004000,-0.014000,1.008000,192.000000,0.000000,0.000000,0.000000,0.000000,0.000000,0.000000,0.000000,0.000000,0.000000,1772012175.103436,0.000000
230.000000,9602.622342,10154.129285,5776.048395,12381.145344,11774.206075,12542.748456,-10239.691763,-18369.937643,11031.457607,10253.974528,9268.933149,6203.458453,9240.546434,15813.233353,9294.749414,6924.525729,0.004000,-0.014000,1.008000,192.000000,0.000000,0.000000,0.000000,0.000000,0.000000,0.000000,0.000000,0.000000,0.000000,1772012175.103448,0.000000
232.000000,9639.547424,10192.596637,5815.901556,12404.279399,11808.292485,12586.021434,-10205.493594,-18326.105872,11058.838494,10271.654757,9277.851495,6216.400113,9266.295644,15820.452967,9300.672627,6930.448941,0.004000,-0.014000,1.008000,192.000000,0.000000,0.000000,0.000000,0.000000,0.000000,0.000000,0.000000,0.000000,0.000000,1772012175.103461,0.000000
234.000000,9623.431817,10177.576265,5801.149404,12394.176411,11796.423709,12556.092448,-10224.447873,-18343.204956,11057.877369,10281.154249,9303.623057,6231.532244,9268.329652,15836.970906,9309.970952,6929.800740,0.004000,-0.014000,1.008000,192.000000,0.000000,0.000000,127.500000,80.000000,15.500000,48.000000,0.000000,0.000000,0.000000,1772012175.103473,0.000000
236.000000,9635.412352,10190.272056,5803.697503,12402.804184,11796.200192,12581.372271,-10216.289486,-18327.849308,11049.450761,10261.842342,9280.153725,6213.270868,9250.157684,15814.775624,9294.660007,6934.718124,0.004000,-0.014000,1.008000,192.000000,0.000000,0.000000,0.000000,0.000000,0.000000,0.000000,0.000000,0.000000,0.000000,1772012175.103486,0.000000
238.000000,9655.283052,10210.030998,5821.936527,12414.829423,11813.880421,12598.292541,-10198.296332,-18302.033043,11074.887046,10297.336912,9321.795025,6255.873293,9279.080841,15857.489807,9305.791176,6934.584014,0.004000,-0.014000,1.008000,192.000000,0.000000,0.000000,0.000000,0.000000,0.000000,0.000000,0.000000,0.000000,0.000000,1772012175.103498,0.000000
240.000000,9631.836072,10189.199172,5778.305921,12393.058824,11785.314892,12561.568625,-10230.549899,-18334.040741,11072.629520,10286.205743,9299.264467,6240.249424,9275.549266,15843.922298,9294.391786,6940.373116,0.004000,-0.014000,1.008000,192.000000,0.000000,0.000000,0.000000,0.000000,0.000000,0.000000,0.000000,0.000000,0.000000,1772012175.103510,0.000000
242.000000,9647.147017,10204.577172,5825.356343,12410.336722,11810.840584,12580.142925,-10199.302161,-18306.011654,11058.480866,10283.724699,9296.895182,6237.030773,9265.111001,15828.119615,9299.130356,6930.985383,0.004000,-0.014000,1.008000,192.000000,0.000000,0.000000,0.000000,0.000000,0.000000,0.000000,0.000000,0.000000,0.000000,1772012175.103522,0.000000
244.000000,9625.734046,10176.257512,5798.444843,12386.979149,11782.856200,12549.074000,-10224.760798,-18335.739474,11059.285529,10283.881162,9309.881545,6240.316479,9270.408365,15827.046731,9301.320827,6924.011639,0.004000,-0.012000,1.002000,192.000000,0.000000,16.000000,127.500000,80.000000,15.500000,40.000000,0.000000,0.000000,0.000000,1772012175.103534,0.000000
246.000000,9631.098465,10181.778393,5778.037700,12393.818783,11788.175915,12573.415050,-10224.872556,-18336.208860,11061.610110,10255.874426,9275.929245,6206.230069,9258.383126,15805.723167,9283.417080,6925.598612,0.004000,-0.012000,1.002000,192.000000,0.000000,0.000000,0.000000,0.000000,0.000000,0.000000,0.000000,0.000000,0.000000,1772012175.103546,0.000000
248.000000,9635.926442,10187.835716,5822.003582,12396.098661,11802.279866,12578.198323,-10207.996989,-18324.451843,11071.556636,10292.486583,9309.993304,6237.857787,9287.261580,15852.170092,9300.471461,6928.124360,0.004000,-0.012000,1.002000,192.000000,0.000000,0.000000,0.000000,0.000000,0.000000,0.000000,0.000000,0.000000,0.000000,1772012175.103559,0.000000
250.000000,9616.189851,10165.998061,5785.726701,12383.045242,11781.738613,12544.268375,-10238.171844,-18354.269070,11041.873520,10259.942443,9280.511353,6211.482729,9248.414248,15813.412167,9293.050682,6928.370229,0.004000,-0.012000,1.002000,192.000000,0.000000,0.000000,0.000000,0.000000,0.000000,0.000000,0.000000,0.000000,0.000000,1772012175.103572,0.000000
252.000000,9658.479352,10212.556745,5826.295117,12418.919792,11812.584020,12591.877591,-10199.056291,-18305.944598,11067.041584,10284.462307,9293.698882,6229.118255,9262.004109,15824.610391,9295.330560,6932.102970,0.004000,-0.012000,1.002000,192.000000,0.000000,0.000000,0.000000,0.000000,0.000000,0.000000,0.000000,0.000000,0.000000,1772012175.103584,0.000000
254.000000,9643.771904,10197.178745,5801.819957,12406.469870,11789.047633,12574.912617,-10219.016399,-18326.061168,11067.309805,10298.253333,9312.541403,6249.883026,9267.077955,15845.375162,9297.588086,6938.652031,0.004000,-0.010000,1.008000,192.000000,0.000000,16.000000,127.500000,88.000000,15.500000,64.000000,0.000000,0.000000,0.000000,1772012175.103597,0.000000
0.000000,9644.241291,10197.022283,5808.056093,12404.637027,11796.803689,12566.754230,-10215.887155,-18321.143785,11055.575139,10275.119278,9285.585199,6222.613898,9253.868074,15820.363560,9286.456917,6938.719086,0.004000,-0.010000,1.008000,192.000000,0.000000,0.000000,0.000000,0.000000,0.000000,0.000000,0.000000,0.000000,0.000000,1772012175.103609,0.000000
2.000000,9658.389945,10216.624763,5811.386503,12408.570934,11814.506270,12585.864971,-10202.520812,-18306.369282,11070.819029,10307.037569,9317.145862,6257.169695,9284.087632,15850.247842,9304.740644,6932.237081,0.004000,-0.010000,1.008000,192.000000,0.000000,0.000000,0.000000,0.000000,0.000000,0.000000,0.000000,0.000000,0.000000,1772012175.103622,0.000000
4.000000,9623.275354,10177.643320,5793.147480,12375.468001,11776.932988,12558.014698,-10237.993030,-18354.671401,11058.838494,10279.321406,9289.787327,6223.798540,9257.042021,15836.143891,9296.492850,6935.455732,0.004000,-0.010000,1.008000,192.000000,0.000000,0.000000,0.000000,0.000000,0.000000,0.000000,0.000000,0.000000,0.000000,1772012175.103635,0.000000
6.000000,9644.487160,10199.302161,5812.951125,12407.900382,11805.073834,12593.509268,-10204.308951,-18322.931924,11053.541130,10275.655720,9285.249923,6216.109540,9257.422001,15828.834871,9298.616266,6934.092275,0.004000,-0.010000,1.008000,192.000000,0.000000,0.000000,0.000000,0.000000,0.000000,0.000000,0.000000,0.000000,0.000000,1772012175.103648,0.000000
8.000000,9611.831261,10167.629739,5783.111546,12376.116201,11781.246874,12561.546273,-10230.661658,-18356.057209,11045.181578,10274.091098,9292.491888,6227.330116,9257.377298,15829.460720,9296.068167,6930.180720,0.004000,-0.008000,1.010000,192.000000,0.000000,16.000000,127.500000,96.000000,15.500000,72.000000,0.000000,0.000000,0.000000,1772012175.103660,0.000000
10.000000,9615.854575,10166.623910,5778.998825,12390.421318,11784.778450,12555.600709,-10228.024152,-18353.397352,11029.982392,10240.831702,9255.544455,6190.136813,9233.863262,15798.548257,9282.791231,6928.549043,0.004000,-0.008000,1.010000,192.000000,0.000000,0.000000,0.000000,0.000000,0.000000,0.000000,0.000000,0.000000,0.000000,1772012175.103672,0.000000
12.000000,9638.318078,10193.982445,5816.102721,12403.385330,11800.782299,12570.554026,-10206.097091,-18324.675360,11064.649947,10273.577007,9297.811603,6230.168787,9277.158591,15819.603600,9295.934057,6926.313868,0.004000,-0.008000,1.010000,192.000000,0.000000,0.000000,0.000000,0.000000,0.000000,0.000000,0.000000,0.000000,0.000000,1772012175.103684,0.000000
14.000000,9622.805968,10179.498515,5794.421529,12387.001501,11779.436383,12555.287785,-10234.372048,-18349.105817,11048.042601,10268.480810,9291.374301,6221.496310,9258.450181,15822.732845,9286.591028,6930.650107,0.004000,-0.008000,1.010000,192.000000,0.000000,0.000000,0.000000,0.000000,0.000000,0.000000,0.000000,0.000000,0.000000,1772012175.103696,0.000000
16.000000,9654.388983,10208.108748,5819.679000,12414.762368,11813.522793,12596.772623,-10201.358521,-18314.527668,11057.497389,10275.767478,9295.487022,6226.748970,9265.826257,15837.976734,9296.738720,6933.198206,0.004000,-0.008000,1.010000,192.000000,0.000000,0.000000,0.000000,0.000000,0.000000,0.000000,0.000000,0.000000,0.000000,1772012175.103708,0.000000
18.000000,9626.426950,10181.577227,5802.691675,12388.968454,11783.482049,12562.574454,-10225.408998,-18345.462483,11064.672299,10286.943351,9306.506432,6238.394229,9274.386975,15846.269232,9300.225592,6931.544177,0.003000,-0.012000,1.010000,192.000000,0.000000,8.000000,127.500000,64.000000,15.500000,72.000000,0.000000,0.000000,0.000000,1772012175.103720,0.000000
20.000000,9626.896337,10184.773527,5798.958933,12379.245446,11795.507287,12555.801875,-10225.967792,-18341.707390,11038.051371,10258.377821,9268.799039,6203.279639,9238.534777,15797.810650,9289.563810,6924.525729,0.003000,-0.012000,1.010000,192.000000,0.000000,0.000000,0.000000,0.000000,0.000000,0.000000,0.000000,0.000000,0.000000,1772012175.103740,0.000000
22.000000,9645.336526,10202.923143,5808.726646,12405.709911,11814.886250,12579.718242,-10207.460547,-18318.349817,11065.052279,10290.117298,9301.119661,6242.283433,9278.767917,15848.638517,9306.752301,6923.676362,0.003000,-0.012000,1.010000,192.000000,0.000000,0.000000,0.000000,0.000000,0.000000,0.000000,0.000000,0.000000,0.000000,1772012175.103753,0.000000
24.000000,9617.575659,10176.257512,5784.475003,12385.861562,11781.828020,12540.468578,-10239.401190,-18356.146616,11037.403171,10265.105696,9277.136240,6218.635287,9248.749524,15807.980693,9296.001112,6927.476159,0.003000,-0.012000,1.010000,192.000000,0.000000,0.000000,0.000000,0.000000,0.000000,0.000000,0.000000,0.000000,0.000000,1772012175.103765,0.000000
26.000000,9652.533788,10212.020303,5817.823806,12414.203574,11810.035921,12584.568570,-10202.386701,-18314.706482,11049.093133,10272.749993,9283.752356,6221.563366,9261.914702,15818.240144,9294.436490,6931.074790,0.003000,-0.012000,1.010000,192.000000,0.000000,0.000000,0.000000,0.000000,0.000000,0.000000,0.000000,0.000000,0.000000,1772012175.103779,0.000000
28.000000,9638.876872,10200.866783,5803.362227,12407.051016,11794.099128,12579.360614,-10221.430388,-18328.743378,11061.185427,10295.660531,9312.027313,6248.519569,9273.694071,15833.796958,9299.152708,6937.176816,0.003500,-0.014000,1.012000,192.000000,0.000000,16.000000,127.500000,64.000000,15.500000,88.000000,0.000000,0.000000,0.000000,1772012175.103792,0.000000
30.000000,9647.482294,10211.573268,5805.262125,12407.341588,11802.592790,12571.425744,-10219.284620,-18321.099081,11057.720906,10285.110508,9286.971007,6231.576947,9258.897216,15825.057426,9290.480231,6944.418781,0.003500,-0.014000,1.012000,192.000000,0.000000,0.000000,0.000000,0.000000,0.000000,0.000000,0.000000,0.000000,0.000000,1772012175.103804,0.000000
32.000000,9664.939006,10226.325420,5818.829634,12414.516498,11811.868764,12587.675463,-10200.576210,-18298.881447,11079.647968,10312.066711,9322.845557,6263.964625,9287.015711,15839.474301,9305.835880,6935.500435,0.003500,-0.014000,1.012000,192.000000,0.000000,0.000000,0.000000,0.000000,0.000000,0.000000,0.000000,0.000000,0.000000,1772012175.103816,0.000000
34.000000,9639.949756,10199.436271,5768.962892,12387.314425,11778.564665,12559.445209,-10234.416751,-18339.539270,11081.816087,10298.566258,9292.290722,6238.170712,9275.728080,15839.139025,9289.720272,6936.819188,0.003500,-0.014000,1.012000,192.000000,0.000000,0.000000,0.000000,0.000000,0.000000,0.000000,0.000000,0.000000,0.000000,1772012175.103828,0.000000
36.000000,9643.213110,10203.325475,5832.508902,12402.714777,11802.548087,12582.534561,-10201.559687,-18319.355645,11043.438142,10277.801487,9290.636693,6223.507967,9248.727172,15831.919412,9290.033196,6925.978592,0.003500,-0.014000,1.012000,192.000000,0.000000,0.000000,0.000000,0.000000,0.000000,0.000000,0.000000,0.000000,0.000000,1772012175.103841,0.000000
38.000000,9631.769017,10185.131155,5796.880221,12396.098661,11785.203133,12554.192549,-10221.676257,-18340.120416,11048.422581,10278.986130,9303.399539,6233.454494,9263.904007,15827.516118,9297.744548,6924.391618,0.004750,-0.016000,1.011000,192.000000,0.000000,24.000000,127.500000,56.000000,15.500000,72.000000,0.000000,0.000000,0.000000,1772012175.103854,0.000000
40.000000,9632.216052,10190.137945,5791.962837,12397.976207,11786.790107,12568.899997,-10221.072760,-18339.472215,11048.176712,10261.685879,9269.603702,6209.627534,9246.179074,15809.590019,9279.125545,6930.851272,0.004750,-0.016000,1.011000,192.000000,0.000000,0.000000,0.000000,0.000000,0.000000,0.000000,0.000000,0.000000,0.000000,1772012175.103866,0.000000
42.000000,9651.505608,10213.517870,5813.956954,12412.661304,11808.113671,12581.886361,-10201.023245,-18311.912514,11057.318575,10292.084252,9304.986513,6244.920939,9267.681452,15832.925240,9294.905877,6927.565566,0.004750,-0.016000,1.011000,192.000000,0.000000,0.000000,0.000000,0.000000,0.000000,0.000000,0.000000,0.000000,0.000000,1772012175.103878,0.000000
44.000000,9645.113009,10207.639361,5789.481794,12391.807126,11789.606427,12553.499645,-10229.722885,-18334.376017,11055.172808,10287.904476,9293.274199,6239.042430,9262.629958,15822.464624,9288.267408,6932.684115,0.004750,-0.016000,1.011000,192.000000,0.000000,0.000000,0.000000,0.000000,0.000000,0.000000,0.000000,0.000000,0.000000,1772012175.103890,0.000000
46.000000,9676.561913,10240.585833,5815.655686,12419.098606,11823.826948,12603.232277,-10196.642303,-18298.881447,11071.847209,10302.768386,9298.370397,6247.111410,9281.584237,15828.052560,9294.503545,6935.589842,0.004750,-0.016000,1.011000,192.000000,0.000000,0.000000,0.000000,0.000000,0.000000,0.000000,0.000000,0.000000,0.000000,1772012175.103903,0.000000
48.000000,9650.097448,10206.767643,5812.302925,12381.368861,11805.140889,12571.828076,-10221.631553,-18331.894974,11079.290340,10310.613848,9317.659952,6251.112372,9289.675568,15857.959194,9304.204202,6933.846406,0.004375,-0.013000,1.007500,192.000000,0.000000,16.000000,127.500000,88.000000,15.500000,48.000000,0.000000,0.000000,0.000000,1772012175.103915,0.000000
50.000000,9639.301555,10194.071852,5809.419550,12381.055937,11807.890154,12550.392753,-10224.067894,-18341.729741,11050.501293,10267.363223,9277.918551,6209.962810,9257.131428,15805.097318,9299.800909,6927.878490,0.004375,-0.013000,1.007500,192.000000,0.000000,0.000000,0.000000,0.000000,0.000000,0.000000,0.000000,0.000000,0.000000,1772012175.103927,0.000000
52.000000,9646.901148,10204.308951,5815.767445,12394.332873,11814.774491,12575.314948,-10207.840527,-18327.134052,11064.381726,10292.151307,9307.266391,6229.677049,9288.334464,15828.544298,9315.223612,6923.497549,0.004375,-0.013000,1.007500,192.000000,0.000000,0.000000,0.000000,0.000000,0.000000,0.000000,0.000000,0.000000,0.000000,1772012175.103940,0.000000
54.000000,9612.434758,10174.938759,5769.275817,12391.091870,11780.665729,12557.500608,-10240.630536,-18365.333183,11049.718982,10260.881217,9274.878713,6210.275735,9258.494885,15807.354844,9293.721234,6930.404238,0.004375,-0.013000,1.007500,192.000000,0.000000,0.000000,0.000000,0.000000,0.000000,0.000000,0.000000,0.000000,0.000000,1772012175.103952,0.000000
56.000000,9634.406523,10201.827908,5821.534195,12415.343513,11815.623857,12592.861067,-10205.493594,-18328.162232,11030.585889,10272.548827,9266.809734,6218.791749,9251.744658,15822.509327,9293.743586,6935.902767,0.004375,-0.013000,1.007500,192.000000,0.000000,0.000000,0.000000,0.000000,0.000000,0.000000,0.000000,0.000000,0.000000,1772012175.103965,0.000000
58.000000,9634.719447,10198.698664,5791.538154,12403.966475,11801.274038,12583.540390,-10224.179652,-18340.142767,11055.843360,10295.571124,9292.625999,6245.390325,9277.046833,15852.617127,9299.487984,6942.809456,0.004188,-0.011500,1.003750,192.000000,0.000000,16.000000,127.500000,88.000000,15.500000,32.000000,0.000000,0.000000,0.000000,1772012175.103979,0.000000
60.000000,9645.805913,10209.963943,5815.499224,12399.741995,11805.073834,12579.964111,-10219.642248,-18329.033950,11053.339965,10277.063880,9278.812620,6223.530319,9257.489056,15825.459758,9292.558943,6947.391563,0.004188,-0.011500,1.003750,192.000000,0.000000,0.000000,0.000000,0.000000,0.000000,0.000000,0.000000,0.000000,0.000000,1772012175.583896,0.000000
62.000000,9667.464753,10231.287507,5829.402009,12412.437786,11822.351733,12595.565628,-10200.598562,-18305.989302,11076.518724,10313.206650,9321.504452,6256.007404,9293.184792,15863.569482,9313.480176,6942.273014,0.004188,-0.011500,1.003750,192.000000,0.000000,0.000000,0.000000,0.000000,0.000000,0.000000,0.000000,0.000000,0.000000,1772012175.583958,0.000000
64.000000,9639.279203,10198.966884,5796.343779,12386.308597,11787.326549,12552.337355,-10233.746199,-18344.501358,11063.197084,10287.077461,9297.453975,6235.779075,9269.335481,15809.925295,9299.175060,6937.825017,0.004188,-0.011500,1.003750,192.000000,0.000000,0.000000,0.000000,0.000000,0.000000,0.000000,0.000000,0.000000,0.000000,1772012175.583999,0.000000
66.000000,9658.009965,10217.675295,5820.081332,12409.219135,11811.242916,12578.533599,-10199.548030,-18313.812412,11062.526532,10282.607112,9291.776632,6225.072590,9264.663966,15813.970961,9301.477289,6932.773522,0.004188,-0.011500,1.003750,192.000000,0.000000,0.000000,0.000000,0.000000,0.000000,0.000000,0.000000,0.000000,0.000000,1772012175.584041,0.000000
68.000000,9632.752494,10194.429480,5788.028930,12390.376614,11789.204096,12563.893207,-10220.849242,-18338.958125,11055.172808,10290.027891,9298.392749,6241.255253,9271.682414,15834.758083,9298.593914,6931.745342,0.006094,-0.007750,1.005875,192.000000,0.000000,32.000000,127.500000,112.000000,15.500000,64.000000,0.000000,0.000000,0.000000,1772012175.584084,0.000000
70.000000,9629.377381,10191.479050,5788.632427,12395.025777,11783.504401,12550.549215,-10222.279754,-18342.757922,11037.626688,10261.864693,9261.311205,6208.666409,9247.319013,15811.534621,9285.965179,6931.477121,0.006094,-0.007750,1.005875,192.000000,0.000000,0.000000,0.000000,0.000000,0.000000,0.000000,0.000000,0.000000,0.000000,1772012175.584113,0.000000
72.000000,9646.476465,10207.885231,5807.474948,12404.614676,11800.379968,12572.073945,-10204.912449,-18323.714235,11054.166979,10291.391348,9290.659045,6242.395191,9267.323824,15832.657019,9295.732891,6929.577223,0.006094,-0.007750,1.005875,192.000000,0.000000,0.000000,0.000000,0.000000,0.000000,0.000000,0.000000,0.000000,0.000000,1772012175.584128,0.000000
74.000000,9626.672819,10187.232219,5786.330198,12380.653606,11776.955340,12545.721238,-10236.093132,-18353.285593,11035.771493,10270.313653,9277.940902,6218.568232,9241.664021,15818.776586,9288.155650,6929.912499,0.006094,-0.007750,1.005875,192.000000,0.000000,0.000000,0.000000,0.000000,0.000000,0.000000,0.000000,0.000000,0.000000,1772012175.584156,0.000000
76.000000,9662.435611,10225.610164,5825.110474,12405.732263,11810.304142,12600.415957,-10200.866783,-18309.587933,11054.725773,10287.502144,9287.619208,6230.325249,9256.550283,15825.012723,9290.122603,6931.857101,0.006094,-0.007750,1.005875,192.000000,0.000000,0.000000,0.000000,0.000000,0.000000,0.000000,0.000000,0.000000,0.000000,1772012175.584171,0.000000
78.000000,9653.114933,10219.374027,5793.259238,12400.144327,11795.909619,12577.840695,-10219.731655,-18325.725892,11071.064898,10309.898592,9312.541403,6255.158038,9280.153725,15854.271156,9296.068167,6934.025220,0.005047,-0.006875,1.005937,192.000000,0.000000,16.000000,127.500000,104.000000,15.500000,56.000000,0.000000,0.000000,0.000000,1772012175.584187,0.000000
80.000000,9655.104238,10223.374989,5792.722797,12400.121975,11798.792994,12559.400506,-10220.379856,-18324.273029,11068.606206,10291.391348,9281.248961,6227.598337,9261.713536,15823.872784,9290.591990,6937.534444,0.005047,-0.006875,1.005937,192.000000,0.000000,0.000000,0.000000,0.000000,0.000000,0.000000,0.000000,0.000000,0.000000,1772012175.584201,0.000000
82.000000,9648.331660,10215.864803,5827.815035,12413.331856,11805.990256,12565.457829,-10201.291466,-18312.404253,11061.319537,10309.362150,9309.032179,6266.579779,9280.086670,15832.299391,9304.315961,6927.096179,0.005047,-0.006875,1.005937,192.000000,0.000000,0.000000,0.000000,0.000000,0.000000,0.000000,0.000000,0.000000,0.000000,1772012175.584216,0.000000
84.000000,9619.184985,10181.979559,5783.893857,12376.183257,11780.486915,12542.569642,-10235.713152,-18352.235061,11039.615993,10274.471077,9281.628940,6229.006497,9256.259710,15807.153679,9294.123565,6927.364400,0.005047,-0.006875,1.005937,192.000000,0.000000,0.000000,0.000000,0.000000,0.000000,0.000000,0.000000,0.000000,0.000000,1772012175.584231,0.000000
86.000000,9639.882700,10201.850260,5814.359285,12403.094757,11813.992180,12564.787276,-10203.414882,-18324.787119,11041.404133,10266.804429,9276.868019,6218.523528,9255.767972,15824.923316,9297.118699,6927.766732,0.005047,-0.006875,1.005937,192.000000,0.000000,0.000000,0.000000,0.000000,0.000000,0.000000,0.000000,0.000000,0.000000,1772012175.584246,0.000000
88.000000,9623.789444,10189.377986,5790.755843,12388.834344,11788.622950,12568.229445,-10224.358466,-18343.227308,11036.799674,10271.744164,9291.754281,6229.095904,9260.394783,15825.325647,9297.610438,6925.799778,0.005047,-0.006875,1.005937,192.000000,0.000000,0.000000,0.000000,0.000000,0.000000,0.000000,0.000000,0.000000,0.000000,1772012175.584261,0.000000
90.000000,9645.671802,10211.595620,5786.777233,12399.987864,11795.931971,12580.522904,-10222.145643,-18329.793910,11029.714171,10269.330176,9268.396708,6218.210604,9253.398687,15810.305275,9285.205219,6937.020354,0.006000,-0.008000,1.008000,192.000000,0.000000,24.000000,127.500000,96.000000,15.500000,64.000000,0.000000,0.000000,0.000000,1772012175.584284,0.000000
92.000000,9663.664957,10233.790902,5824.886957,12414.963533,11818.060198,12591.363501,-10200.084472,-18305.139936,11064.538189,10311.306752,9314.486005,6261.394174,9279.572580,15849.934918,9305.679417,6937.668555,0.006000,-0.008000,1.008000,192.000000,0.000000,0.000000,0.000000,0.000000,0.000000,0.000000,0.000000,0.000000,0.000000,1772012175.584301,0.000000
94.000000,9636.731104,10200.084472,5790.465270,12380.295978,11789.069985,12546.280032,-10232.695667,-18345.529538,11052.915281,10290.430223,9290.346121,6236.628441,9262.205274,15826.197365,9296.291685,6939.747267,0.006000,-0.008000,1.008000,192.000000,0.000000,0.000000,0.000000,0.000000,0.000000,0.000000,0.000000,0.000000,0.000000,1772012175.584319,0.000000
96.000000,9652.936119,10218.077626,5798.623657,12410.336722,11813.500442,12590.827059,-10199.950361,-18318.707445,11053.675241,10281.377766,9280.868981,6228.626517,9271.391841,15815.714397,9295.107042,6932.237081,0.006000,-0.008000,1.008000,192.000000,0.000000,0.000000,0.000000,0.000000,0.000000,0.000000,0.000000,0.000000,0.000000,1772012175.584335,0.000000
98.000000,9616.525127,10184.974692,5794.265067,12373.031661,11782.811497,12554.550177,-10228.359428,-18359.253509,11046.522682,10288.776194,9284.713481,6235.644965,9259.634824,15836.300354,9293.944751,6929.040781,0.006000,-0.008000,1.008000,192.000000,0.000000,0.000000,0.000000,0.000000,0.000000,0.000000,0.000000,0.000000,0.000000,1772012175.584350,0.000000
100.000000,9611.965372,10177.464506,5789.459442,12379.781888,11782.297406,12546.145921,-10231.823949,-18366.361364,11010.089339,10247.760743,9243.787437,6189.130984,9224.520233,15812.272228,9286.367510,6925.196281,0.008000,-0.008000,1.010000,192.000000,0.000000,32.000000,127.500000,96.000000,15.500000,72.000000,0.000000,0.000000,0.000000,1772012175.584365,0.000000
102.000000,9642.833131,10205.851222,5799.540079,12400.032568,11808.158375,12573.191532,-10209.181632,-18331.604401,11047.416752,10277.175638,9281.628940,6226.346639,9264.194580,15825.035074,9303.913630,6921.172967,0.008000,-0.008000,1.010000,192.000000,0.000000,0.000000,0.000000,0.000000,0.000000,0.000000,0.000000,0.000000,0.000000,1772012175.584388,0.000000
104.000000,9635.568814,10201.984370,5800.702369,12389.393138,11780.084584,12555.913634,-10232.986240,-18344.680172,11058.950252,10278.248522,9276.868019,6226.301935,9266.563865,15805.410243,9292.938923,6933.064095,0.008000,-0.008000,1.010000,192.000000,0.000000,0.000000,0.000000,0.000000,0.000000,0.000000,0.000000,0.000000,0.000000,1772012175.584404,0.000000
106.000000,9682.954512,10252.767533,5826.697448,12427.525214,11817.836680,12607.680274,-10192.931913,-18292.622959,11059.799619,10306.881107,9297.766900,6248.318404,9262.697013,15836.188595,9295.688188,6937.445037,0.008000,-0.008000,1.010000,192.000000,0.000000,0.000000,0.000000,0.000000,0.000000,0.000000,0.000000,0.000000,0.000000,1772012175.584420,0.000000
108.000000,9674.371442,10240.518777,5797.148442,12408.593286,11811.108805,12578.712413,-10215.373065,-18314.751186,11085.548828,10330.439845,9322.800854,6274.581703,9296.783423,15851.812464,9303.846574,6941.602462,0.008000,-0.008000,1.010000,192.000000,0.000000,0.000000,0.000000,0.000000,0.000000,0.000000,0.000000,0.000000,0.000000,1772012175.584435,0.000000
110.000000,9662.994404,10227.375952,5807.989038,12398.400891,11806.057311,12575.359651,-10219.396379,-18327.759901,11072.763630,10301.784909,9287.060414,6237.611918,9272.174152,15827.650228,9292.201315,6943.658822,0.008000,-0.008000,1.010000,192.000000,0.000000,0.000000,127.500000,80.000000,15.500000,64.000000,0.000000,0.000000,0.000000,1772012175.584450,0.000000
112.000000,9665.766021,10222.436216,5821.802416,12402.155984,11815.735616,12591.497611,-10203.325475,-18319.467404,11074.685881,10318.235793,9312.586106,6249.257177,9283.886466,15871.571406,9305.455900,6932.773522,0.008000,-0.008000,1.010000,192.000000,0.000000,0.000000,0.000000,0.000000,0.000000,0.000000,0.000000,0.000000,0.000000,1772012175.584465,0.000000
114.000000,9637.401657,10192.686044,5783.491526,12375.378594,11786.231313,12544.871872,-10237.166016,-18356.861872,11053.094095,10276.460383,9281.584237,6222.323325,9266.474458,15828.097263,9296.135222,6928.772560,0.008000,-0.008000,1.010000,192.000000,0.000000,0.000000,0.000000,0.000000,0.000000,0.000000,0.000000,0.000000,0.000000,1772012175.584480,0.000000
116.000000,9662.726183,10221.251574,5818.784931,12409.889687,11820.563593,12575.605521,-10205.158318,-18321.479061,11064.605244,10283.545886,9277.337405,6224.871424,9273.023519,15826.867917,9297.431624,6930.560700,0.008000,-0.008000,1.010000,192.000000,0.000000,0.000000,0.000000,0.000000,0.000000,0.000000,0.000000,0.000000,0.000000,1772012175.584495,0.000000
118.000000,9644.017773,10206.007684,5799.204802,12393.103527,11803.084529,12562.730916,-10225.476053,-18339.159291,11060.380764,10295.235848,9302.840746,6244.116276,9280.667815,15821.816423,9306.975819,6930.247775,0.008000,-0.008000,1.010000,192.000000,0.000000,0.000000,0.000000,0.000000,0.000000,0.000000,0.000000,0.000000,0.000000,1772012175.584510,0.000000
120.000000,9656.735916,10218.882289,5793.281590,12408.034492,11805.140889,12589.597713,-10220.312800,-18325.457671,11050.166017,10283.076499,9276.286873,6226.279584,9263.233455,15817.793109,9290.234362,6942.317717,0.008000,-0.008000,1.010000,192.000000,0.000000,0.000000,127.500000,88.000000,15.500000,56.000000,0.000000,0.000000,0.000000,1772012175.584525,0.000000
122.000000,9674.974939,10238.440065,5819.008448,12421.959629,11817.926087,12606.383873,-10197.312855,-18296.869790,11077.211628,10322.102645,9318.486967,6273.352358,9290.882563,15868.777438,9301.946676,6945.156389,0.008000,-0.008000,1.010000,192.000000,0.000000,0.000000,0.000000,0.000000,0.000000,0.000000,0.000000,0.000000,0.000000,1772012175.584543,0.000000
124.000000,9648.644584,10211.461510,5782.910381,12393.639969,11795.551991,12563.602634,-10229.365257,-18330.844442,11067.533322,10297.761595,9301.142013,6253.280491,9269.044908,15838.356714,9297.275161,6944.150560,0.008000,-0.008000,1.010000,192.000000,0.000000,0.000000,0.000000,0.000000,0.000000,0.000000,0.000000,0.000000,0.000000,1772012175.584558,0.000000
126.000000,9659.060497,10221.676257,5826.429227,12406.179298,11818.820157,12578.623006,-10200.106823,-18311.309017,11064.001747,10291.793679,9285.607551,6244.071572,9274.856362,15831.181804,9299.823260,6937.445037,0.008000,-0.008000,1.010000,192.000000,0.000000,0.000000,0.000000,0.000000,0.000000,0.000000,0.000000,0.000000,0.000000,1772012175.584573,0.000000
128.000000,9625.175253,10183.030091,5799.830651,12376.295015,11785.449002,12548.582262,-10226.079551,-18349.552852,11053.496427,10284.238790,9300.583220,6237.611918,9273.537609,15839.451950,9302.907801,6924.928060,0.008000,-0.008000,1.010000,192.000000,0.000000,0.000000,0.000000,0.000000,0.000000,0.000000,0.000000,0.000000,0.000000,1772012175.584588,0.000000
130.000000,9611.518337,10161.773582,5795.382654,12360.134704,11779.168162,12541.720276,-10231.756894,-18364.617928,11016.794862,10237.993030,9254.337460,6190.561496,9230.376390,15789.294635,9288.848554,6920.815339,0.008000,-0.008000,1.010000,192.000000,0.000000,0.000000,127.500000,96.000000,15.500000,80.000000,0.000000,0.000000,0.000000,1772012175.584603,0.000000
132.000000,9624.191776,10181.554876,5804.815090,12396.121013,11806.012607,12553.298480,-10213.026132,-18343.294363,11032.865767,10253.639251,9277.695033,6213.717903,9261.534722,15792.937969,9304.315961,6914.780368,0.008000,-0.008000,1.010000,192.000000,0.000000,0.000000,0.000000,0.000000,0.000000,0.000000,0.000000,0.000000,0.000000,1772012175.584618,0.000000
134.000000,9627.812758,10188.550972,5776.942465,12386.420356,11786.745404,12543.731933,-10237.523644,-18353.285593,11033.022229,10256.544978,9265.021594,6216.377761,9254.292757,15792.714452,9293.251847,6929.420761,0.008000,-0.008000,1.010000,192.000000,0.000000,0.000000,0.000000,0.000000,0.000000,0.000000,0.000000,0.000000,0.000000,1772012175.584633,0.000000
136.000000,9671.219846,10231.578080,5827.569166,12421.981981,11820.787110,12603.254629,-10196.172916,-18301.787174,11058.525569,10286.451612,9289.809679,6238.126008,9269.603702,15835.898022,9297.677493,6937.959127,0.008000,-0.008000,1.010000,192.000000,0.000000,0.000000,0.000000,0.000000,0.000000,0.000000,0.000000,0.000000,0.000000,1772012175.584648,0.000000
138.000000,9654.992480,10215.708341,5802.602268,12405.799318,11807.845450,12584.501515,-10214.769568,-18317.880430,11073.031851,10315.061845,9317.950525,6268.233808,9290.033196,15858.495636,9301.723159,6943.032973,0.008000,-0.008000,1.010000,192.000000,0.000000,0.000000,0.000000,0.000000,0.000000,0.000000,0.000000,0.000000,0.000000,1772012175.584663,0.000000
140.000000,9648.063439,10208.756949,5802.423454,12398.624408,11800.692892,12569.637605,-10217.228260,-18324.518898,11058.436162,10285.266970,9283.573542,6234.527377,9263.591083,15819.357731,9288.781499,6939.166121,0.002000,-0.006000,1.006000,192.000000,0.000000,8.000000,127.500000,104.000000,15.500000,56.000000,0.000000,0.000000,0.000000,1772012175.584678,0.000000
142.000000,9651.103276,10208.287562,5817.466178,12405.106414,11819.244840,12589.553009,-10201.738501,-18316.248753,11067.399212,10304.131842,9307.646371,6254.599244,9283.953522,15853.891176,9301.387882,6930.784217,0.002000,-0.006000,1.006000,192.000000,0.000000,0.000000,0.000000,0.000000,0.000000,0.000000,0.000000,0.000000,0.000000,1772012175.584693,0.000000
144.000000,9627.633944,10177.084527,5784.743224,12375.177428,11791.193401,12552.806741,-10236.473112,-18354.783160,11050.903624,10271.967682,9283.640597,6222.122159,9271.347138,15827.761987,9294.950580,6930.359534,0.002000,-0.006000,1.006000,192.000000,0.000000,0.000000,0.000000,0.000000,0.000000,0.000000,0.000000,0.000000,0.000000,1772012175.584707,0.000000
146.000000,9639.972107,10197.804594,5812.593497,12401.105452,11821.591773,12587.854277,-10209.002818,-18328.229288,11047.886139,10276.013348,9277.069184,6222.748008,9273.492905,15826.622048,9297.118699,6935.321621,0.002000,-0.006000,1.006000,192.000000,0.000000,0.000000,0.000000,0.000000,0.000000,0.000000,0.000000,0.000000,0.000000,1772012175.584723,0.000000
148.000000,9626.851633,10179.900846,5779.669378,12395.092832,11812.315799,12567.380079,-10231.622783,-18354.045552,11067.779191,10285.982226,9283.104155,6237.723677,9289.787327,15827.694932,9305.701769,6940.082543,0.002000,-0.006000,1.006000,192.000000,0.000000,0.000000,0.000000,0.000000,0.000000,0.000000,0.000000,0.000000,0.000000,1772012175.584737,0.000000
150.000000,9615.362837,10168.054422,5805.083311,12387.917922,11811.801709,12564.004965,-10230.885176,-18355.811340,11024.550918,10245.883196,9257.891388,6199.591601,9244.234472,15804.784394,9299.689150,6942.094200,0.006000,-0.012000,1.006000,192.000000,0.000000,24.000000,127.500000,80.000000,15.500000,56.000000,0.000000,0.000000,0.000000,1772012175.584752,0.000000
152.000000,9647.526997,10199.480975,5815.052189,12413.287152,11824.341038,12602.829945,-10203.101957,-18319.802680,11061.028965,10281.400118,9297.364568,6243.624537,9284.825240,15846.649211,9306.439377,6941.691869,0.006000,-0.012000,1.006000,192.000000,0.000000,0.000000,0.000000,0.000000,0.000000,0.000000,0.000000,0.000000,0.000000,1772012175.584767,0.000000
154.000000,9625.979915,10181.934855,5793.639218,12390.600132,11791.662787,12573.549160,-10231.198100,-18345.507186,11051.752991,10279.857848,9284.378205,6238.371877,9264.462801,15839.407246,9291.575467,6944.508188,0.006000,-0.012000,1.006000,192.000000,0.000000,0.000000,0.000000,0.000000,0.000000,0.000000,0.000000,0.000000,0.000000,1772012175.584784,0.000000
156.000000,9644.487160,10198.609257,5819.746056,12409.844984,11817.523756,12594.045710,-10200.307989,-18316.561677,11053.652889,10280.461345,9289.228533,6234.303860,9260.864170,15836.255650,9292.447185,6936.863892,0.006000,-0.012000,1.006000,192.000000,0.000000,0.000000,0.000000,0.000000,0.000000,0.000000,0.000000,0.000000,0.000000,1772012175.584799,0.000000
158.000000,9608.478499,10156.923253,5791.672265,12381.324158,11785.985444,12551.018602,-10226.526585,-18354.514939,11051.216549,10275.611016,9291.284894,6237.388401,9269.760164,15821.101167,9297.677493,6926.649144,0.006000,-0.012000,1.006000,192.000000,0.000000,0.000000,0.000000,0.000000,0.000000,0.000000,0.000000,0.000000,0.000000,1772012175.584814,0.000000
160.000000,9600.431871,10147.379058,5787.291323,12374.171600,11778.139982,12539.708619,-10230.684010,-18360.102875,11020.237031,10222.033885,9248.414248,6187.633418,9241.798132,15783.036147,9282.299493,6923.408142,0.006000,-0.010000,1.007000,192.000000,0.000000,24.000000,127.500000,96.000000,15.500000,64.000000,0.000000,0.000000,0.000000,1772012175.584830,0.000000
162.000000,9627.991572,10180.057309,5805.887974,12398.847926,11793.093299,12564.496704,-10207.617010,-18328.743378,11034.296278,10267.609092,9281.025443,6226.033715,9260.171266,15837.261479,9292.670702,6924.637487,0.006000,-0.010000,1.007000,192.000000,0.000000,0.000000,0.000000,0.000000,0.000000,0.000000,0.000000,0.000000,0.000000,1772012175.584845,0.000000
164.000000,9622.470691,10171.675405,5782.843325,12385.682748,11765.757116,12540.043895,-10234.237937,-18346.244794,11045.226281,10260.478885,9279.416118,6222.815063,9256.103248,15820.140042,9278.902027,6930.538348,0.006000,-0.010000,1.007000,192.000000,0.000000,0.000000,0.000000,0.000000,0.000000,0.000000,0.000000,0.000000,0.000000,1772012175.584860,0.000000
166.000000,9659.082849,10212.512042,5809.240736,12422.160795,11810.147680,12585.954378,-10196.329379,-18299.194372,11059.687860,10275.163981,9286.412214,6236.181407,9272.241208,15816.049673,9278.924379,6934.002868,0.006000,-0.010000,1.007000,192.000000,0.000000,0.000000,0.000000,0.000000,0.000000,0.000000,0.000000,0.000000,0.000000,1772012175.584875,0.000000
168.000000,9638.563948,10190.786146,5806.223250,12403.340626,11795.999026,12562.820323,-10213.383760,-18321.479061,11068.740316,10293.425357,9311.490871,6261.081250,9283.238266,15836.434464,9290.100251,6933.019392,0.006000,-0.010000,1.007000,192.000000,0.000000,0.000000,0.000000,0.000000,0.000000,0.000000,0.000000,0.000000,0.000000,1772012175.584890,0.000000
170.000000,9633.981840,10185.131155,5797.349608,12401.172507,11805.632628,12577.036032,-10217.921164,-18329.480985,11048.780209,10266.133877,9275.012824,6227.374819,9260.417135,15837.015609,9280.913684,6939.702563,0.008000,-0.013000,1.007500,192.000000,0.000000,40.000000,127.500000,64.000000,15.500000,64.000000,0.000000,0.000000,0.000000,1772012175.584906,0.000000
172.000000,9653.159637,10205.761815,5793.728625,12415.656437,11820.720055,12597.823155,-10200.084472,-18309.923209,11072.875389,10297.269857,9300.829089,6258.510799,9306.931115,15850.270194,9293.654179,6938.026182,0.008000,-0.013000,1.007500,192.000000,0.000000,0.000000,0.000000,0.000000,0.000000,0.000000,0.000000,0.000000,0.000000,1772012175.584921,0.000000
174.000000,9609.596087,10158.331413,5802.892840,12374.953911,11785.426651,12549.901015,-10234.461455,-18354.492587,11056.044526,10273.442897,9281.338368,6228.939441,9262.920530,15840.860109,9286.859249,6935.187511,0.008000,-0.013000,1.007500,192.000000,0.000000,0.000000,0.000000,0.000000,0.000000,0.000000,0.000000,0.000000,0.000000,1772012175.584936,0.000000
176.000000,9633.668915,10177.911541,5826.786855,12394.869315,11817.926087,12572.297462,-10205.292428,-18329.011599,11042.477017,10253.795714,9283.595894,6210.052217,9259.008975,15802.079833,9293.967103,6924.838653,0.008000,-0.013000,1.007500,192.000000,0.000000,0.000000,0.000000,0.000000,0.000000,0.000000,0.000000,0.000000,0.000000,1772012175.584951,0.000000
178.000000,9611.227764,10156.565625,5800.903535,12375.468001,11800.134099,12569.056460,-10226.839510,-18358.560605,11048.266119,10265.508028,9290.994321,6224.513796,9279.192600,15824.655095,9298.705673,6926.917365,0.008000,-0.013000,1.007500,192.000000,0.000000,0.000000,0.000000,0.000000,0.000000,0.000000,0.000000,0.000000,0.000000,1772012175.584966,0.000000
180.000000,9596.855592,10144.138055,5789.504145,12388.364957,11804.850317,12560.160465,-10233.455626,-18371.412858,11030.943517,10240.876405,9249.062449,6192.774319,9258.427830,15802.929199,9291.374301,6936.685078,0.006000,-0.015500,1.003750,192.000000,0.000000,16.000000,127.500000,56.000000,15.500000,32.000000,0.000000,0.000000,0.000000,1772012176.063342,0.000000
182.000000,9614.982857,10163.896997,5810.335971,12398.065614,11823.044637,12583.406279,-10212.333228,-18343.987267,11033.692781,10264.166923,9269.111963,6223.642078,9275.996301,15832.724074,9306.819356,6938.294403,0.006000,-0.015500,1.003750,192.000000,0.000000,0.000000,0.000000,0.000000,0.000000,0.000000,0.000000,0.000000,0.000000,1772012176.063401,0.000000
184.000000,9605.952752,10145.926195,5783.245657,12382.285283,11791.036939,12558.104105,-10239.132969,-18364.014431,11039.928918,10251.828760,9272.263559,6215.304877,9271.280083,15822.822252,9296.358740,6938.875549,0.006000,-0.015500,1.003750,192.000000,0.000000,0.000000,0.000000,0.000000,0.000000,0.000000,0.000000,0.000000,0.000000,1772012176.063443,0.000000
186.000000,9634.987668,10180.392585,5828.753809,12401.776004,11821.457663,12590.022396,-10204.264248,-18326.150575,11057.765610,10258.981318,9283.238266,6218.523528,9273.358795,15816.899039,9295.688188,6935.969822,0.006000,-0.015500,1.003750,192.000000,0.000000,0.000000,0.000000,0.000000,0.000000,0.000000,0.000000,0.000000,0.000000,1772012176.063494,0.000000
188.000000,9609.193755,10157.817323,5803.786910,12388.499068,11801.251686,12565.703698,-10224.492577,-18353.263241,11050.881273,10275.074574,9298.035121,6241.903453,9281.114850,15827.404359,9301.946676,6930.895976,0.006000,-0.015500,1.003750,192.000000,0.000000,0.000000,0.000000,0.000000,0.000000,0.000000,0.000000,0.000000,0.000000,1772012176.063537,0.000000
190.000000,9601.907087,10154.643375,5781.904552,12386.196838,11790.656959,12564.027317,-10229.007629,-18360.326393,11031.167034,10240.786998,9250.917643,6204.620743,9254.672736,15795.284902,9283.260618,6930.359534,0.002000,-0.011750,1.003875,192.000000,127.500000,120.000000,127.500000,96.000000,15.500000,48.000000,0.000000,0.000000,0.000000,1772012176.063579,0.000000
192.000000,9621.084883,10171.675405,5798.914230,12392.522382,11816.942610,12589.195381,-10210.075701,-18341.327410,11039.861863,10264.770420,9276.242170,6228.917090,9272.196504,15827.002028,9292.447185,6926.760903,0.002000,-0.011750,1.003875,192.000000,0.000000,0.000000,0.000000,0.000000,0.000000,0.000000,0.000000,0.000000,0.000000,1772012176.063601,0.000000
194.000000,9599.113119,10147.088486,5778.641198,12373.121068,11782.655034,12544.089561,-10240.786998,-18370.362326,11044.466322,10258.109600,9260.081859,6209.448720,9275.258693,15825.370351,9284.624074,6935.411028,0.002000,-0.011750,1.003875,192.000000,0.000000,0.000000,0.000000,0.000000,0.000000,0.000000,0.000000,0.000000,0.000000,1772012176.063613,0.000000
196.000000,9626.851633,10175.609312,5817.868509,12405.866373,11810.840584,12577.416012,-10208.667542,-18334.398369,11026.875499,10241.882234,9267.770859,6207.459415,9243.541568,15816.362598,9288.960312,6929.890147,0.002000,-0.011750,1.003875,192.000000,0.000000,0.000000,0.000000,0.000000,0.000000,0.000000,0.000000,0.000000,0.000000,1772012176.063626,0.000000
198.000000,9621.107235,10175.050518,5799.808300,12393.327045,11797.586000,12557.902939,-10223.665562,-18343.830805,11045.963889,10269.978377,9287.753318,6237.611918,9269.983681,15814.820327,9295.911705,6930.538348,0.002000,-0.011750,1.003875,192.000000,0.000000,0.000000,0.000000,0.000000,0.000000,0.000000,0.000000,0.000000,0.000000,1772012176.063638,0.000000
200.000000,9635.524110,10190.584980,5800.858832,12398.780870,11804.425633,12576.164314,-10222.860899,-18333.280782,11048.467284,10260.635347,9268.463763,6222.323325,9260.998280,15802.280999,9283.886466,6930.895976,0.000000,-0.012875,1.004938,192.000000,127.500000,120.000000,127.500000,72.000000,15.500000,56.000000,0.000000,0.000000,0.000000,1772012176.063651,0.000000
202.000000,9660.714526,10216.736521,5816.460349,12411.946048,11827.179709,12609.691931,-10202.051425,-18306.369282,11072.674224,10303.170717,9306.461728,6261.550636,9296.045815,15871.772572,9298.035121,6936.081581,0.000000,-0.012875,1.004938,192.000000,0.000000,0.000000,0.000000,0.000000,0.000000,0.000000,0.000000,0.000000,0.000000,1772012176.063663,0.000000
204.000000,9639.748590,10181.085489,5780.965779,12388.543771,11790.299331,12560.786314,-10233.969716,-18343.808454,11055.977470,10289.111470,9286.143993,6241.590529,9285.182868,15846.380990,9286.948655,6936.908595,0.000000,-0.012875,1.004938,192.000000,0.000000,0.000000,0.000000,0.000000,0.000000,0.000000,0.000000,0.000000,0.000000,1772012176.063675,0.000000
206.000000,9653.964299,10192.127251,5825.244585,12402.245391,11811.555840,12573.370346,-10202.699626,-18319.780328,11065.052279,10274.471077,9286.635731,6229.565290,9275.325748,15820.341208,9287.395690,6925.688019,0.000000,-0.012875,1.004938,192.000000,0.000000,0.000000,0.000000,0.000000,0.000000,0.000000,0.000000,0.000000,0.000000,1772012176.063687,0.000000
208.000000,9623.185947,10163.293500,5798.534250,12374.506876,11793.115651,12552.002079,-10225.230184,-18351.855082,11058.458514,10281.020138,9297.498679,6237.813084,9282.612417,15834.936897,9293.944751,6918.289592,0.000000,-0.012875,1.004938,192.000000,0.000000,0.000000,0.000000,0.000000,0.000000,0.000000,0.000000,0.000000,0.000000,1772012176.063699,0.000000
210.000000,9607.740892,10149.904805,5779.669378,12386.532114,11791.953360,12542.681401,-10232.829777,-18366.763695,11028.373066,10238.976507,9245.307356,6195.568287,9254.896254,15801.252818,9280.243132,6921.441188,-0.002000,-0.013438,1.003469,192.000000,127.500000,112.000000,127.500000,72.000000,15.500000,40.000000,0.000000,0.000000,0.000000,1772012176.063711,0.000000
212.000000,9621.308401,10163.315852,5812.682904,12395.495164,11813.411035,12571.045765,-10214.277829,-18345.708352,11042.387610,10262.289377,9271.078917,6223.910299,9277.940902,15819.134214,9296.582257,6920.904746,-0.002000,-0.013438,1.003469,192.000000,0.000000,0.000000,0.000000,0.000000,0.000000,0.000000,0.000000,0.000000,0.000000,1772012176.063724,0.000000
214.000000,9607.673837,10150.038916,5763.486715,12381.860600,11784.487877,12565.301366,-10245.100885,-18370.876416,11029.334191,10248.923033,9258.293719,6209.694589,9259.903045,15826.577345,9284.802888,6928.861967,-0.002000,-0.013438,1.003469,192.000000,0.000000,0.000000,0.000000,0.000000,0.000000,0.000000,0.000000,0.000000,0.000000,1772012176.063735,0.000000
216.000000,9643.660145,10187.835716,5812.101759,12406.358112,11815.199174,12591.430556,-10206.186498,-18321.590820,11054.904587,10260.165961,9263.747545,6223.172691,9273.515257,15816.429653,9284.512315,6934.136979,-0.002000,-0.013438,1.003469,192.000000,0.000000,0.000000,0.000000,0.000000,0.000000,0.000000,0.000000,0.000000,0.000000,1772012176.063748,0.000000
218.000000,9627.186910,10175.162277,5798.891878,12393.595266,11791.774546,12556.584186,-10222.011533,-18334.063093,11048.087305,10276.393327,9303.533650,6250.732392,9270.631882,15818.240144,9289.295589,6926.000944,-0.002000,-0.013438,1.003469,192.000000,0.000000,0.000000,0.000000,0.000000,0.000000,0.000000,0.000000,0.000000,0.000000,1772012176.063762,0.000000
220.000000,9624.571755,10170.691928,5798.914230,12387.403832,11791.372215,12567.603596,-10225.252536,-18339.472215,11034.720961,10252.454609,9268.977853,6221.965697,9246.827274,15804.672635,9278.276179,6927.118531,-0.002000,-0.013438,1.003469,192.000000,0.000000,0.000000,127.500000,72.000000,15.500000,32.000000,0.000000,0.000000,0.000000,1772012176.063774,0.000000
222.000000,9635.591165,10182.046614,5807.698465,12403.720606,11806.146718,12582.288692,-10205.180669,-18323.825994,11048.847264,10276.773307,9294.078862,6242.059915,9279.036138,15838.334362,9293.676531,6923.028162,-0.002000,-0.013438,1.003469,192.000000,0.000000,0.000000,0.000000,0.000000,0.000000,0.000000,0.000000,0.000000,0.000000,1772012176.063787,0.000000
224.000000,9604.231668,10153.302271,5784.631465,12369.902416,11768.640491,12541.854387,-10238.998859,-18361.041649,11034.609203,10257.260234,9268.776687,6217.696514,9253.733963,15828.209022,9279.282007,6925.889185,-0.002000,-0.013438,1.003469,192.000000,0.000000,0.000000,0.000000,0.000000,0.000000,0.000000,0.000000,0.000000,0.000000,1772012176.063798,0.000000
226.000000,9632.573680,10184.080623,5807.027913,12410.046149,11803.576267,12577.192495,-10204.308951,-18321.747282,11029.960040,10252.432257,9264.529856,6219.462302,9251.007050,15812.942781,9279.840801,6926.716200,-0.002000,-0.013438,1.003469,192.000000,0.000000,0.000000,0.000000,0.000000,0.000000,0.000000,0.000000,0.000000,0.000000,1772012176.063811,0.000000
228.000000,9625.845805,10179.274998,5788.475965,12394.981074,11784.800802,12567.201265,-10222.369161,-18335.292439,11048.199063,10279.187295,9286.278103,6249.391287,9272.464725,15839.653115,9284.087632,6931.030086,-0.002000,-0.013438,1.003469,192.000000,0.000000,0.000000,0.000000,0.000000,0.000000,0.000000,0.000000,0.000000,0.000000,1772012176.063823,0.000000
230.000000,9634.942965,10183.566533,5801.909363,12385.816859,11785.694872,12569.861122,-10222.726789,-18332.096139,11033.223395,10261.708231,9267.055603,6224.625555,9250.045925,15818.038978,9274.565789,6931.030086,-0.002000,-0.013438,1.003469,192.000000,0.000000,0.000000,0.000000,0.000000,0.000000,0.000000,0.000000,0.000000,0.000000,1772012176.063835,0.000000
232.000000,9658.054669,10206.566478,5821.444788,12415.611734,11808.404244,12586.580227,-10199.883306,-18306.078709,11060.313709,10293.894743,9306.484080,6256.722660,9282.657121,15844.145816,9290.256714,6928.929022,-0.002000,-0.013438,1.003469,192.000000,0.000000,0.000000,127.500000,104.000000,15.500000,72.000000,0.000000,0.000000,0.000000,1772012176.063847,0.000000
234.000000,9635.591165,10183.052442,5790.465270,12386.107431,11776.932988,12546.838826,-10232.382742,-18341.394465,11051.551825,10280.081365,9287.887429,6241.277604,9270.140144,15820.922353,9281.651292,6927.565566,-0.002000,-0.013438,1.003469,192.000000,0.000000,0.000000,0.000000,0.000000,0.000000,0.000000,0.000000,0.000000,0.000000,1772012176.063859,0.000000
236.000000,9651.147980,10196.932876,5813.286401,12405.061710,11802.861011,12579.718242,-10202.073777,-18317.254581,11056.111581,10276.438031,9280.198429,6233.186273,9270.900103,15827.180842,9283.461783,6923.229328,-0.002000,-0.013438,1.003469,192.000000,0.000000,0.000000,0.000000,0.000000,0.000000,0.000000,0.000000,0.000000,0.000000,1772012176.063871,0.000000
