Sample_index,EXG Channel 0,EXG Channel 1,EXG Channel 2,EXG Channel 3,EXG Channel 4,EXG Channel 5,EXG Channel 6,EXG Channel 7,EXG Channel 8,EXG Channel 9,EXG Channel 10,EXG Channel 11,EXG Channel 12,EXG Channel 13,EXG Channel 14,EXG Channel 15,Accel Channel 0,Accel Channel 1,Accel Channel 2,Not Used,Digital Channel 0 (D11),Digital Channel 1 (D12),Digital Channel 2 (D13),Digital Channel 3 (D17),Not Used,Digital Channel 4 (D18),Analog Channel 0,Analog Channel 1,Analog Channel 2,Timestamp,Marker Channel
90.000000,9383.441136,10640.726762,6255.336852,12550.862140,9966.262873,12953.797037,-9965.748783,-17708.817745,11735.850481,10500.536621,10268.190237,6146.305042,9097.539973,15884.736584,10098.138165,7702.388788,0.002000,-0.010000,1.006000,192.000000,0.000000,0.000000,0.000000,0.000000,0.000000,0.000000,0.000000,0.000000,0.000000,1772011512.508218,101.000000
92.000000,9396.919238,10652.372021,6283.030663,12566.754230,9990.782737,12954.378182,-9941.988878,-17690.489315,11754.514188,10514.238240,10279.567275,6160.319586,9103.038502,15908.384729,10107.592953,7707.864965,0.002000,-0.010000,1.006000,192.000000,0.000000,0.000000,0.000000,0.000000,0.000000,0.000000,0.000000,0.000000,0.000000,1772011512.508275,0.000000
94.000000,9367.347880,10619.783177,6253.258139,12539.552157,9969.526228,12936.072104,-9967.045184,-17724.508670,11744.902938,10502.324760,10272.995862,6148.383754,9101.317418,15887.284683,10106.073035,7699.907744,0.002000,-0.007000,1.003000,192.000000,0.000000,8.000000,127.500000,112.000000,15.500000,32.000000,0.000000,0.000000,0.000000,1772011512.508321,0.000000
96.000000,9371.952340,10626.287535,6263.003500,12544.111913,9980.858562,12942.889386,-9954.863483,-17715.009179,11735.403447,10481.939969,10250.778228,6125.674382,9087.057005,15876.667604,10099.725139,7695.437395,0.002000,-0.007000,1.003000,192.000000,0.000000,0.000000,0.000000,0.000000,0.000000,0.000000,0.000000,0.000000,0.000000,1772011512.508362,0.000000
98.000000,9379.484878,10633.708314,6261.081250,12545.140093,9984.457193,12945.638650,-9959.892626,-17712.572838,11744.210034,10500.536621,10270.850095,6145.656841,9107.397092,15899.131107,10109.939886,7701.315904,0.002000,-0.007000,1.003000,192.000000,0.000000,0.000000,0.000000,0.000000,0.000000,0.000000,0.000000,0.000000,0.000000,1772011512.508408,0.000000
100.000000,9373.718127,10633.037762,6248.005479,12536.422913,9985.284207,12929.187766,-9974.354204,-17720.887687,11739.829092,10493.249952,10252.454609,6131.217615,9098.121118,15877.606377,10108.419968,7704.065168,0.002000,-0.007000,1.003000,192.000000,0.000000,0.000000,0.000000,0.000000,0.000000,0.000000,0.000000,0.000000,0.000000,1772011512.508449,0.000000
102.000000,9394.326436,10652.841407,6253.727526,12560.920425,10008.954705,12966.895159,-9947.174483,-17691.025757,11747.987479,10509.700836,10266.916188,6150.104839,9111.710979,15885.250674,10116.824224,7708.379055,0.002000,-0.007000,1.003000,192.000000,0.000000,0.000000,0.000000,0.000000,0.000000,0.000000,0.000000,0.000000,0.000000,1772011512.508493,0.000000
104.000000,9374.835715,10634.982364,6257.370860,12539.730971,9980.053899,12933.993391,-9966.844018,-17713.533963,11763.164313,10520.496728,10264.636310,6157.056231,9121.590450,15896.471250,10107.414139,7711.597706,0.003000,-0.006500,1.001500,192.000000,0.000000,16.000000,127.500000,104.000000,15.500000,32.000000,0.000000,0.000000,0.000000,1772011512.508505,0.000000
106.000000,9400.383759,10653.579015,6278.917942,12565.614291,9998.404681,12962.804790,-9950.728411,-17693.707966,11734.196452,10504.582286,10265.865656,6145.701545,9087.861668,15873.404249,10108.263505,7700.667703,0.003000,-0.006500,1.001500,192.000000,0.000000,0.000000,0.000000,0.000000,0.000000,0.000000,0.000000,0.000000,0.000000,1772011512.508517,0.000000
108.000000,9408.497442,10663.257320,6271.228942,12560.808666,9997.421205,12961.955424,-9953.388268,-17690.846943,11766.852351,10538.691048,10289.893781,6175.809345,9125.345543,15914.598514,10114.812567,7709.943677,0.003000,-0.006500,1.001500,192.000000,0.000000,0.000000,0.000000,0.000000,0.000000,0.000000,0.000000,0.000000,0.000000,1772011512.508528,0.000000
110.000000,9388.559686,10642.805474,6261.125953,12542.457884,9978.109298,12926.192632,-9965.748783,-17708.281303,11757.934005,10514.551164,10272.593531,6149.680155,9104.044331,15894.504296,10107.190622,7700.533593,0.003000,-0.006500,1.001500,192.000000,0.000000,0.000000,0.000000,0.000000,0.000000,0.000000,0.000000,0.000000,0.000000,1772011512.508540,0.000000
112.000000,9400.696683,10656.238873,6276.168677,12558.417029,9989.888667,12959.943767,-9940.312498,-17686.913036,11756.369383,10521.882537,10278.270874,6159.179647,9109.676970,15901.768613,10108.710540,7699.214840,0.003000,-0.006500,1.001500,192.000000,0.000000,0.000000,0.000000,0.000000,0.000000,0.000000,0.000000,0.000000,0.000000,1772011512.508566,0.000000
114.000000,9370.119497,10624.566451,6245.815008,12538.702791,9969.570931,12933.456949,-9964.899417,-17719.501879,11748.970955,10512.159528,10271.095964,6153.971690,9104.647828,15896.650064,10100.216877,7695.102119,0.005500,-0.006250,1.003750,192.000000,0.000000,32.000000,127.500000,104.000000,15.500000,56.000000,0.000000,0.000000,0.000000,1772011512.508578,0.000000
116.000000,9378.814325,10636.234061,6269.105526,12551.599747,9987.318216,12948.365563,-9953.008289,-17709.577705,11738.867967,10487.818478,10249.884158,6131.843463,9090.566229,15869.537398,10099.836898,7695.660912,0.005500,-0.006250,1.003750,192.000000,0.000000,0.000000,0.000000,0.000000,0.000000,0.000000,0.000000,0.000000,0.000000,1772011512.508589,0.000000
118.000000,9385.184572,10649.510997,6264.478715,12555.600709,9996.214211,12956.970985,-9956.405754,-17708.281303,11747.115761,10518.239202,10272.660586,6158.374984,9104.312552,15890.056299,10112.890317,7703.528727,0.005500,-0.006250,1.003750,192.000000,0.000000,0.000000,0.000000,0.000000,0.000000,0.000000,0.000000,0.000000,0.000000,1772011512.508600,0.000000
120.000000,9377.406165,10635.205881,6249.480694,12543.754285,9987.228809,12939.201348,-9970.442649,-17720.105376,11742.556005,10503.621161,10254.153342,6141.007679,9098.299932,15882.389651,10105.514241,7703.685189,0.005500,-0.006250,1.003750,192.000000,0.000000,0.000000,0.000000,0.000000,0.000000,0.000000,0.000000,0.000000,0.000000,1772011512.508612,0.000000
122.000000,9400.227296,10659.524579,6276.682767,12565.547236,10005.668998,12980.350909,-9942.570024,-17687.941216,11752.480179,10519.602659,10276.438031,6157.860894,9106.145395,15901.299226,10111.549212,7708.669628,0.005500,-0.006250,1.003750,192.000000,0.000000,0.000000,0.000000,0.000000,0.000000,0.000000,0.000000,0.000000,0.000000,1772011512.508623,0.000000
124.000000,9386.615084,10644.280689,6244.563311,12549.230462,9988.480507,12955.853397,-9966.799315,-17710.158850,11773.937854,10526.844624,10271.140667,6165.795763,9120.517566,15909.234096,10104.888392,7715.978648,0.004750,-0.007125,1.004875,192.000000,0.000000,16.000000,127.500000,96.000000,15.500000,56.000000,0.000000,0.000000,0.000000,1772011512.508634,0.000000
126.000000,9393.231200,10650.695640,6280.549619,12553.097314,9997.398853,12969.040927,-9951.398963,-17699.340606,11739.896147,10510.974885,10265.060993,6144.069868,9095.885944,15910.351683,10105.514241,7707.775558,0.004750,-0.007125,1.004875,192.000000,0.000000,0.000000,0.000000,0.000000,0.000000,0.000000,0.000000,0.000000,0.000000,1772011512.508646,0.000000
128.000000,9391.197192,10645.331221,6268.233808,12553.901977,9989.061652,12956.367487,-9954.774076,-17703.386271,11758.202226,10525.838795,10285.110508,6161.481877,9115.600182,15910.105814,10111.795081,7708.848442,0.004750,-0.007125,1.004875,192.000000,0.000000,0.000000,0.000000,0.000000,0.000000,0.000000,0.000000,0.000000,0.000000,1772011512.508657,0.000000
130.000000,9372.287616,10630.355552,6255.985052,12536.154692,9978.019891,12932.875804,-9968.922731,-17721.893516,11740.812569,10503.040016,10258.109600,6137.520806,9095.103633,15897.678244,10102.362645,7701.829994,0.004750,-0.007125,1.004875,192.000000,0.000000,0.000000,0.000000,0.000000,0.000000,0.000000,0.000000,0.000000,0.000000,1772011512.508668,0.000000
132.000000,9388.470279,10643.923061,6275.364015,12550.817436,10004.037321,12945.996278,-9945.207530,-17698.178315,11744.120627,10506.459833,10268.950196,6148.182589,9106.458319,15887.128220,10110.208107,7699.438357,0.004750,-0.007125,1.004875,192.000000,0.000000,0.000000,0.000000,0.000000,0.000000,0.000000,0.000000,0.000000,0.000000,1772011512.508679,0.000000
134.000000,9380.513058,10639.877396,6253.258139,12543.620174,9979.763327,12937.726133,-9966.866370,-17713.176335,11750.021487,10504.224659,10271.051260,6150.730687,9108.469976,15879.863904,10108.978761,7699.371302,0.004375,-0.010563,1.007437,192.000000,0.000000,16.000000,127.500000,72.000000,15.500000,72.000000,0.000000,0.000000,0.000000,1772011512.508690,0.000000
136.000000,9407.961000,10666.990062,6251.090020,12566.553064,9999.566972,12977.802810,-9951.689536,-17690.042280,11750.401467,10515.422882,10258.623690,6151.892978,9099.953961,15902.528572,10101.557982,7703.864003,0.004375,-0.010563,1.007437,192.000000,0.000000,0.000000,0.000000,0.000000,0.000000,0.000000,0.000000,0.000000,0.000000,1772011512.508701,0.000000
138.000000,9409.771491,10668.711146,6272.838267,12564.787276,9991.319179,12965.889331,-9951.018983,-17688.678824,11776.888284,10543.340211,10288.597380,6183.319531,9139.918880,15930.937640,10108.598782,7712.156500,0.004375,-0.010563,1.007437,192.000000,0.000000,0.000000,0.000000,0.000000,0.000000,0.000000,0.000000,0.000000,0.000000,1772011512.508712,0.000000
140.000000,9392.985331,10654.093105,6275.743994,12549.453980,9979.249236,12930.998258,-9962.552483,-17703.989769,11753.217787,10517.166319,10275.119278,6158.062060,9092.510830,15898.952293,10105.111910,7698.745453,0.004375,-0.010563,1.007437,192.000000,0.000000,0.000000,0.000000,0.000000,0.000000,0.000000,0.000000,0.000000,0.000000,1772011512.508723,0.000000
142.000000,9415.493538,10670.141658,6294.787680,12566.418954,10007.725359,12960.748429,-9936.222128,-17676.072440,11768.059345,10530.309144,10291.301941,6171.093127,9115.846052,15899.466383,10115.952506,7699.974799,0.004375,-0.010563,1.007437,192.000000,0.000000,0.000000,0.000000,0.000000,0.000000,0.000000,0.000000,0.000000,0.000000,1772011512.508734,0.000000
144.000000,9389.364349,10644.615965,6265.931578,12543.307250,9985.418318,12929.545394,-9961.434896,-17705.822612,11759.722145,10521.569612,10286.183391,6162.845333,9112.426235,15894.437241,10112.823261,7695.884430,0.004188,-0.011281,1.008719,192.000000,0.000000,16.000000,127.500000,80.000000,15.500000,72.000000,0.000000,0.000000,0.000000,1772011512.508745,0.000000
146.000000,9395.667541,10650.494474,6271.877142,12552.359706,9992.727338,12947.672659,-9951.510722,-17698.066556,11748.523921,10505.833984,10264.390441,6143.935757,9094.209563,15882.791982,10108.732892,7693.537497,0.004188,-0.011281,1.008719,192.000000,0.000000,0.000000,0.000000,0.000000,0.000000,0.000000,0.000000,0.000000,0.000000,1772011512.508756,0.000000
148.000000,9392.605352,10653.199035,6265.015157,12546.145921,9995.744824,12950.734848,-9956.964547,-17704.861487,11758.448095,10520.072045,10280.595455,6161.727746,9113.722636,15902.908552,10115.281953,7701.114738,0.004188,-0.011281,1.008719,192.000000,0.000000,0.000000,0.000000,0.000000,0.000000,0.000000,0.000000,0.000000,0.000000,1772011512.508767,0.000000
150.000000,9374.567494,10633.507148,6251.939386,12546.391791,9980.679748,12952.075953,-9970.330890,-17720.865336,11741.304307,10509.611429,10254.533321,6141.767638,9091.750871,15905.546058,10106.318904,7705.898011,0.004188,-0.011281,1.008719,192.000000,0.000000,0.000000,0.000000,0.000000,0.000000,0.000000,0.000000,0.000000,0.000000,1772011512.508778,0.000000
152.000000,9399.556744,10659.345765,6277.040395,12574.219713,10005.423129,12981.334386,-9942.257099,-17686.756574,11745.953470,10515.489938,10268.234941,6158.084411,9104.290200,15908.496488,10111.951543,7714.570488,0.004188,-0.011281,1.008719,192.000000,0.000000,0.000000,0.000000,0.000000,0.000000,0.000000,0.000000,0.000000,0.000000,1772011512.508789,0.000000
154.000000,9392.404186,10650.360364,6253.816933,12560.875721,9988.793431,12967.364546,-9961.434896,-17699.161792,11759.364517,10525.883499,10279.120240,6170.243760,9115.957810,15911.513974,10107.503546,7716.962125,0.001094,-0.010641,1.008359,192.000000,127.500000,120.000000,127.500000,88.000000,15.500000,64.000000,0.000000,0.000000,0.000000,1772011512.508800,0.000000
156.000000,9406.441081,10665.023108,6258.220227,12568.855294,10013.603868,12976.014671,-9948.761457,-17688.477658,11771.277996,10523.938897,10265.753897,6158.442039,9114.907278,15904.026139,10107.592953,7714.369323,0.001094,-0.010641,1.008359,192.000000,0.000000,0.000000,0.000000,0.000000,0.000000,0.000000,0.000000,0.000000,0.000000,1772011512.508840,0.000000
158.000000,9383.865819,10648.281652,6289.311503,12553.298480,10005.043150,12956.792171,-9951.734239,-17701.195800,11760.683270,10533.661906,10287.055109,6171.361348,9118.260040,15922.198108,10120.288744,7712.111796,0.001094,-0.010641,1.008359,192.000000,0.000000,0.000000,0.000000,0.000000,0.000000,0.000000,0.000000,0.000000,0.000000,1772011512.508851,0.000000
160.000000,9372.444078,10635.407047,6254.755706,12541.630869,9984.613655,12943.403476,-9969.302710,-17719.077196,11737.102179,10502.972961,10258.713097,6143.734591,9103.396130,15893.721985,10111.750378,7700.555945,0.001094,-0.010641,1.008359,192.000000,0.000000,0.000000,0.000000,0.000000,0.000000,0.000000,0.000000,0.000000,0.000000,1772011512.508862,0.000000
162.000000,9388.470279,10645.890015,6278.716776,12552.717334,9999.835193,12961.910720,-9947.599166,-17699.877048,11750.557929,10511.198403,10267.720850,6153.368193,9098.836374,15909.457613,10111.951543,7702.120567,0.001094,-0.010641,1.008359,192.000000,0.000000,0.000000,0.000000,0.000000,0.000000,0.000000,0.000000,0.000000,0.000000,1772011512.508873,0.000000
164.000000,9363.816305,10620.073750,6249.726564,12534.254793,9978.176353,12918.146004,-9970.397946,-17726.676789,11739.136188,10496.155679,10258.824856,6140.672402,9087.325226,15874.164209,10108.665837,7700.824165,0.001094,-0.010641,1.008359,192.000000,0.000000,0.000000,0.000000,0.000000,0.000000,0.000000,0.000000,0.000000,0.000000,1772011512.508884,0.000000
166.000000,9379.753098,10636.412875,6269.016119,12551.555044,9995.655417,12962.871845,-9953.477675,-17707.051957,11731.626002,10488.243161,10247.403115,6127.239004,9089.649807,15872.264310,10105.648351,7697.873735,0.001094,-0.010641,1.008359,192.000000,0.000000,0.000000,127.500000,72.000000,15.500000,56.000000,0.000000,0.000000,0.000000,1772011512.508895,0.000000
168.000000,9399.422634,10663.614948,6271.743032,12560.428686,9995.566010,12965.822275,-9952.829475,-17695.473754,11750.088543,10520.384970,10277.712080,6164.231141,9113.230898,15906.887163,10112.286819,7710.256602,0.001094,-0.010641,1.008359,192.000000,0.000000,0.000000,0.000000,0.000000,0.000000,0.000000,0.000000,0.000000,0.000000,1772011512.508906,0.000000
170.000000,9416.365256,10683.642111,6239.914148,12562.641509,9980.411527,12965.263482,-9966.486390,-17695.831382,11766.673537,10530.666772,10264.368089,6165.862818,9115.108444,15907.937695,10102.474404,7711.240078,0.001094,-0.010641,1.008359,192.000000,0.000000,0.000000,0.000000,0.000000,0.000000,0.000000,0.000000,0.000000,0.000000,1772011512.508918,0.000000
172.000000,9428.412846,10694.795632,6298.274553,12572.252759,9986.670016,12963.497694,-9938.949041,-17665.947099,11777.134154,10558.338232,10291.123127,6191.835546,9112.269773,15934.558622,10106.408311,7709.876622,0.001094,-0.010641,1.008359,192.000000,0.000000,0.000000,0.000000,0.000000,0.000000,0.000000,0.000000,0.000000,0.000000,1772011512.508928,0.000000
174.000000,9413.280715,10673.717937,6264.478715,12548.269337,9968.319233,12940.006011,-9961.479600,-17688.790582,11771.143886,10543.764894,10292.687749,6185.040615,9113.499119,15924.790910,10101.178002,7703.215802,0.001094,-0.010641,1.008359,192.000000,0.000000,0.000000,0.000000,0.000000,0.000000,0.000000,0.000000,0.000000,0.000000,1772011512.508947,0.000000
176.000000,9416.544070,10669.582864,6282.024834,12556.740648,9988.368748,12943.984621,-9946.705097,-17682.822667,11757.598729,10520.183804,10276.505086,6158.710260,9095.908296,15901.388633,10101.178002,7695.459747,0.002000,-0.012000,1.006000,192.000000,0.000000,8.000000,127.500000,80.000000,15.500000,56.000000,0.000000,0.000000,0.000000,1772011512.508958,0.000000
178.000000,9404.474128,10656.551797,6276.168677,12554.281956,9991.095661,12938.463740,-9951.220149,-17695.741975,11771.166238,10526.062313,10293.358301,6173.015377,9119.891717,15901.455689,10112.487985,7699.684226,0.002000,-0.012000,1.006000,192.000000,0.000000,0.000000,0.000000,0.000000,0.000000,0.000000,0.000000,0.000000,0.000000,1772011512.508969,0.000000
180.000000,9389.967846,10646.784085,6260.745974,12541.116779,9987.608789,12935.110978,-9970.755574,-17718.563106,11753.955395,10504.805804,10264.815124,6145.321565,9100.646865,15887.754069,10107.235325,7698.678398,0.002000,-0.012000,1.006000,192.000000,0.000000,0.000000,0.000000,0.000000,0.000000,0.000000,0.000000,0.000000,0.000000,1772011512.508981,0.000000
182.000000,9422.310820,10680.714033,6285.377596,12561.680384,10015.660228,12983.502505,-9945.520454,-17686.153076,11766.338261,10527.783397,10276.594493,6162.018318,9127.915994,15918.398311,10117.695942,7709.608401,0.002000,-0.012000,1.006000,192.000000,0.000000,0.000000,0.000000,0.000000,0.000000,0.000000,0.000000,0.000000,0.000000,1772011512.508993,0.000000
184.000000,9406.508137,10668.130001,6267.272683,12556.338317,9993.174373,12946.376258,-9965.659376,-17701.396966,11775.882456,10542.222624,10286.071633,6175.407013,9123.132720,15924.701503,10115.997209,7713.966991,0.002000,-0.012000,1.006000,192.000000,0.000000,0.000000,0.000000,0.000000,0.000000,0.000000,0.000000,0.000000,0.000000,1772011512.509006,0.000000
186.000000,9410.240878,10671.795687,6279.342625,12562.015660,10004.730225,12955.562825,-9948.627347,-17688.343547,11768.551084,10528.051618,10266.156228,6167.047461,9110.436930,15906.708349,10110.789253,7709.988381,0.002000,-0.014000,1.004000,192.000000,0.000000,8.000000,127.500000,72.000000,15.500000,48.000000,0.000000,0.000000,0.000000,1772011512.509018,0.000000
188.000000,9397.142756,10656.976480,6274.291131,12554.617233,9991.967379,12970.471438,-9949.946100,-17700.748766,11764.594825,10535.606508,10287.144516,6176.122269,9118.215337,15928.344837,10117.427721,7706.702674,0.002000,-0.014000,1.004000,192.000000,0.000000,0.000000,0.000000,0.000000,0.000000,0.000000,0.000000,0.000000,0.000000,1772011512.509030,0.000000
190.000000,9387.933837,10651.165027,6239.020078,12540.557985,9984.144269,12955.562825,-9969.392117,-17720.775929,11761.979671,10519.245031,10253.013403,6147.556740,9110.146357,15920.499375,10104.307247,7703.886354,0.002000,-0.014000,1.004000,192.000000,0.000000,0.000000,0.000000,0.000000,0.000000,0.000000,0.000000,0.000000,0.000000,1772011512.509041,0.000000
192.000000,9399.400282,10660.128076,6291.256105,12562.127419,10004.886687,12952.858264,-9946.325117,-17697.552466,11758.269281,10529.549185,10272.012385,6159.514923,9111.040427,15907.624770,10112.599744,7703.171099,0.002000,-0.014000,1.004000,192.000000,0.000000,0.000000,0.000000,0.000000,0.000000,0.000000,0.000000,0.000000,0.000000,1772011512.509053,0.000000
194.000000,9385.542200,10646.940547,6261.908264,12544.626003,9985.932408,12932.115845,-9968.296882,-17714.070405,11745.238214,10519.803824,10270.403060,6157.682080,9102.770281,15891.620921,10113.136186,7701.941753,0.002000,-0.014000,1.004000,192.000000,0.000000,0.000000,0.000000,0.000000,0.000000,0.000000,0.000000,0.000000,0.000000,1772011512.509063,0.000000
196.000000,9399.936724,10661.089201,6271.340701,12559.020526,10001.645684,12966.157552,-9951.510722,-17691.428088,11758.202226,10515.556993,10261.663528,6153.904635,9102.055025,15893.811392,10107.972933,7702.344084,0.004000,-0.012000,1.006000,192.000000,0.000000,16.000000,127.500000,80.000000,15.500000,56.000000,0.000000,0.000000,0.000000,1772011512.509074,0.000000
198.000000,9399.422634,10660.061021,6275.855753,12553.589052,9993.800222,12956.792171,-9949.990803,-17688.410603,11758.693964,10531.247918,10284.529362,6176.502249,9114.057912,15918.107738,10114.723160,7706.993247,0.004000,-0.012000,1.006000,192.000000,0.000000,0.000000,0.000000,0.000000,0.000000,0.000000,0.000000,0.000000,0.000000,1772011512.509086,0.000000
200.000000,9397.366273,10659.524579,6259.404869,12550.616270,9980.277417,12948.499673,-9962.865408,-17702.089870,11754.849464,10516.495766,10269.821914,6159.112592,9100.937438,15900.271046,10104.530764,7701.092386,0.004000,-0.012000,1.006000,192.000000,0.000000,0.000000,0.000000,0.000000,0.000000,0.000000,0.000000,0.000000,0.000000,1772011512.509097,0.000000
202.000000,9422.914317,10679.618797,6276.660416,12566.620119,10012.374522,12975.701746,-9942.480617,-17680.028698,11773.200246,10533.527795,10283.501182,6173.484763,9121.858671,15920.789948,10111.415101,7706.702674,0.004000,-0.012000,1.006000,192.000000,0.000000,0.000000,0.000000,0.000000,0.000000,0.000000,0.000000,0.000000,0.000000,1772011512.509108,0.000000
204.000000,9406.128157,10667.593559,6270.848962,12539.328639,9992.369710,12954.422886,-9968.252178,-17702.514553,11785.672520,10535.874729,10286.384557,6168.813249,9138.130741,15922.399273,10113.337351,7706.210936,0.004000,-0.012000,1.006000,192.000000,0.000000,0.000000,0.000000,0.000000,0.000000,0.000000,0.000000,0.000000,0.000000,1772011512.509119,0.000000
206.000000,9412.006666,10672.555646,6277.733299,12560.518093,9998.985827,12957.328612,-9954.997594,-17687.628292,11750.423819,10522.553089,10273.152324,6155.737478,9091.393243,15898.684072,10113.158538,7700.153613,0.004000,-0.012000,1.006000,192.000000,0.000000,0.000000,127.500000,72.000000,15.500000,56.000000,0.000000,0.000000,0.000000,1772011512.509130,0.000000
208.000000,9395.265209,10659.792800,6267.362090,12552.180892,9984.188972,12946.040982,-9955.735201,-17696.367824,11764.706584,10536.098246,10286.116336,6179.855010,9114.370837,15912.117471,10112.577392,7702.969933,0.004000,-0.012000,1.006000,192.000000,0.000000,0.000000,0.000000,0.000000,0.000000,0.000000,0.000000,0.000000,0.000000,1772011512.509141,0.000000
210.000000,9372.645244,10638.469236,6256.052107,12536.624078,9971.403774,12922.996333,-9970.420297,-17719.054844,11731.022505,10505.476356,10252.655775,6146.036821,9078.563342,15881.607340,10101.312113,7692.375206,0.004000,-0.012000,1.006000,192.000000,0.000000,0.000000,0.000000,0.000000,0.000000,0.000000,0.000000,0.000000,0.000000,1772011512.989224,0.000000
212.000000,9398.014474,10661.759753,6276.079270,12556.472427,9997.600019,12949.818426,-9945.833379,-17689.684652,11746.668726,10519.423845,10267.273816,6157.525618,9100.490403,15903.087366,10106.944753,7695.124471,0.004000,-0.012000,1.006000,192.000000,0.000000,0.000000,0.000000,0.000000,0.000000,0.000000,0.000000,0.000000,0.000000,1772011512.989309,0.000000
214.000000,9385.050462,10647.901672,6257.907302,12535.953526,9982.132612,12914.547374,-9971.470829,-17711.991693,11752.122551,10521.010819,10273.129973,6159.671385,9105.519546,15891.151534,10105.782462,7695.750319,0.004000,-0.012000,1.006000,192.000000,0.000000,0.000000,0.000000,0.000000,0.000000,0.000000,0.000000,0.000000,0.000000,1772011512.989386,0.000000
216.000000,9407.357503,10678.121230,6264.478715,12567.760058,9995.029568,12968.370374,-9953.701193,-17689.483486,11751.161426,10522.351923,10257.640214,6155.603368,9100.780976,15881.115601,10101.513279,7698.074901,0.002000,-0.014000,1.004000,192.000000,0.000000,8.000000,127.500000,72.000000,15.500000,48.000000,0.000000,0.000000,0.000000,1772011512.989464,0.000000
218.000000,9404.161203,10677.473030,6272.972378,12566.284843,9984.971283,12978.451011,-9951.980108,-17690.198742,11769.199284,10556.147761,10287.189220,6189.555668,9118.841185,15938.447826,10104.866040,7707.082654,0.002000,-0.014000,1.004000,192.000000,0.000000,0.000000,0.000000,0.000000,0.000000,0.000000,0.000000,0.000000,0.000000,1772011512.989550,0.000000
220.000000,9387.889133,10656.127114,6244.004517,12549.543387,9982.691405,12951.695973,-9970.487353,-17716.126766,11753.083676,10530.175034,10258.511932,6160.029013,9093.851935,15917.817166,10097.579372,7702.366436,0.002000,-0.014000,1.004000,192.000000,0.000000,0.000000,0.000000,0.000000,0.000000,0.000000,0.000000,0.000000,0.000000,1772011512.989617,0.000000
222.000000,9402.641285,10668.822905,6282.784794,12561.635680,10008.440615,12969.040927,-9947.822684,-17694.043242,11765.824171,10536.969964,10263.161095,6165.460487,9114.929630,15920.678189,10109.515203,7706.747378,0.002000,-0.014000,1.004000,192.000000,0.000000,0.000000,0.000000,0.000000,0.000000,0.000000,0.000000,0.000000,0.000000,1772011512.989685,0.000000
224.000000,9388.447927,10655.836541,6250.955910,12550.839788,9989.285170,12955.428714,-9974.063632,-17717.199649,11745.908766,10528.476301,10271.185371,6162.912388,9112.359180,15900.114584,10108.263505,7705.853308,0.002000,-0.014000,1.004000,192.000000,0.000000,0.000000,0.000000,0.000000,0.000000,0.000000,0.000000,0.000000,0.000000,1772011512.989753,0.000000
226.000000,9397.276866,10668.644091,6257.460267,12558.707602,10000.416338,12972.036060,-9962.686594,-17706.224943,11750.580281,10522.307220,10248.163074,6153.547007,9099.328113,15896.873581,10103.904915,7710.301305,-0.002000,-0.016000,1.002000,192.000000,127.500000,120.000000,127.500000,64.000000,15.500000,40.000000,0.000000,0.000000,0.000000,1772011512.989765,0.000000
228.000000,9394.751119,10667.615910,6273.262951,12556.472427,9992.794394,12961.597796,-9961.010213,-17707.633103,11756.056458,10541.864996,10272.124144,6173.015377,9106.100691,15909.256447,10113.113834,7711.128320,-0.002000,-0.016000,1.002000,192.000000,0.000000,0.000000,0.000000,0.000000,0.000000,0.000000,0.000000,0.000000,0.000000,1772011512.989777,0.000000
230.000000,9383.843468,10655.702431,6253.056974,12543.217843,9980.500934,12944.409304,-9976.969359,-17721.625295,11744.992345,10525.414112,10250.599414,6152.585882,9090.230953,15896.560657,10102.452052,7706.032122,-0.002000,-0.016000,1.002000,192.000000,0.000000,0.000000,0.000000,0.000000,0.000000,0.000000,0.000000,0.000000,0.000000,1772011512.989789,0.000000
232.000000,9409.145642,10681.384585,6274.067613,12563.289709,10006.808937,12967.565711,-9948.917919,-17688.432954,11761.063249,10539.026325,10270.090135,6167.449792,9108.380569,15910.686959,10109.649314,7707.105006,-0.002000,-0.016000,1.002000,192.000000,0.000000,0.000000,0.000000,0.000000,0.000000,0.000000,0.000000,0.000000,0.000000,1772011512.989802,0.000000
234.000000,9399.087357,10669.851085,6257.907302,12539.015715,9983.965455,12942.822330,-9971.493181,-17707.297827,11764.617177,10548.794037,10274.359319,6171.964845,9115.063741,15913.726796,10108.844651,7706.009770,-0.002000,-0.016000,1.002000,192.000000,0.000000,0.000000,0.000000,0.000000,0.000000,0.000000,0.000000,0.000000,0.000000,1772011512.989847,0.000000
236.000000,9411.492576,10682.435117,6267.160924,12562.015660,9992.950856,12959.988470,-9957.478637,-17691.271626,11778.564665,10538.758104,10258.534283,6160.163124,9109.229935,15916.297247,10100.350988,7704.758072,0.000000,-0.015000,1.007000,192.000000,0.000000,8.000000,127.500000,72.000000,15.500000,80.000000,0.000000,0.000000,0.000000,1772011512.989860,0.000000
238.000000,9403.289485,10675.170800,6269.105526,12560.741611,9980.500934,12957.552130,-9957.568044,-17693.126821,11757.486970,10556.125409,10289.334987,6182.760737,9102.904392,15916.788985,10103.793157,7704.199279,0.000000,-0.015000,1.007000,192.000000,0.000000,0.000000,0.000000,0.000000,0.000000,0.000000,0.000000,0.000000,0.000000,1772011512.989878,0.000000
240.000000,9388.179706,10658.362288,6254.867465,12545.475369,9962.507780,12938.955479,-9973.460135,-17710.896458,11750.155598,10529.392723,10263.026984,6157.190342,9087.302874,15896.761822,10093.734872,7699.840689,0.000000,-0.015000,1.007000,192.000000,0.000000,0.000000,0.000000,0.000000,0.000000,0.000000,0.000000,0.000000,0.000000,1772011512.989891,0.000000
242.000000,9411.134948,10685.273789,6268.971416,12566.933044,9992.459117,12966.381069,-9948.604995,-17683.448515,11759.677441,10540.345078,10274.605188,6169.997891,9101.384473,15912.162174,10099.009883,7700.846517,0.000000,-0.015000,1.007000,192.000000,0.000000,0.000000,0.000000,0.000000,0.000000,0.000000,0.000000,0.000000,0.000000,1772011512.989903,0.000000
244.000000,9387.911485,10657.043535,6250.911206,12543.061381,9980.433879,12930.081836,-9970.017966,-17707.789565,11758.984537,10534.667734,10267.787906,6167.650958,9108.358217,15905.948389,10098.540497,7701.807642,0.000000,-0.015000,1.007000,192.000000,0.000000,0.000000,0.000000,0.000000,0.000000,0.000000,0.000000,0.000000,0.000000,1772011512.989915,0.000000
246.000000,9405.122328,10671.974501,6271.541866,12555.421895,9997.421205,12955.607528,-9953.276509,-17687.069498,11748.412162,10517.769816,10262.222321,6150.574225,9087.749909,15897.410023,10101.423872,7697.247886,0.001000,-0.011500,1.007500,192.000000,0.000000,8.000000,127.500000,96.000000,15.500000,64.000000,0.000000,0.000000,0.000000,1772011512.989927,0.000000
248.000000,9412.610163,10682.658635,6275.565180,12558.528788,10005.154908,12966.090496,-9953.857655,-17681.816838,11773.446116,10553.934938,10292.039548,6185.778223,9134.330944,15921.281686,10110.610439,7711.038913,0.001000,-0.011500,1.007500,192.000000,0.000000,0.000000,0.000000,0.000000,0.000000,0.000000,0.000000,0.000000,0.000000,1772011512.989940,0.000000
250.000000,9404.585887,10676.176629,6253.749878,12550.325698,9999.879897,12958.870883,-9971.716699,-17697.597170,11762.605520,10536.053543,10270.715984,6167.025109,9104.536069,15904.920209,10110.364569,7709.362532,0.001000,-0.011500,1.007500,192.000000,0.000000,0.000000,0.000000,0.000000,0.000000,0.000000,0.000000,0.000000,0.000000,1772011512.989954,0.000000
252.000000,9413.615991,10688.179515,6293.893611,12565.122553,10012.262763,12980.350909,-9947.979146,-17677.748821,11769.556912,10548.481113,10285.065804,6177.441022,9115.108444,15914.352645,10120.422854,7712.849404,0.001000,-0.011500,1.007500,192.000000,0.000000,0.000000,0.000000,0.000000,0.000000,0.000000,0.000000,0.000000,0.000000,1772011512.989966,0.000000
254.000000,9394.549953,10666.453620,6257.326157,12547.755247,9979.204533,12945.482188,-9971.359071,-17704.302693,11753.687174,10539.361601,10279.120240,6170.355519,9105.251325,15901.321578,10113.784386,7708.826090,0.001000,-0.011500,1.007500,192.000000,0.000000,0.000000,0.000000,0.000000,0.000000,0.000000,0.000000,0.000000,0.000000,1772011512.989979,0.000000
0.000000,9405.457605,10680.512867,6264.255198,12557.679422,9988.458155,12954.445237,-9957.858617,-17691.159867,11747.965127,10530.398551,10260.858865,6159.425516,9091.057967,15893.744337,10102.384997,7701.181793,0.003500,-0.012750,1.007750,192.000000,0.000000,24.000000,127.500000,72.000000,15.500000,64.000000,0.000000,0.000000,0.000000,1772011512.989992,0.000000
2.000000,9404.340017,10678.344748,6266.110392,12556.070096,9999.410510,12960.882540,-9956.673975,-17693.283283,11760.437400,10548.995203,10283.769403,6180.123231,9111.018075,15923.338046,10111.996247,7708.043779,0.003500,-0.012750,1.007750,192.000000,0.000000,0.000000,0.000000,0.000000,0.000000,0.000000,0.000000,0.000000,0.000000,1772011512.990004,0.000000
4.000000,9397.545087,10672.890922,6249.681860,12547.308212,9990.872144,12952.657098,-9971.381422,-17708.147193,11754.134208,10535.494749,10259.897740,6160.945435,9104.357255,15904.629636,10104.843689,7706.032122,0.003500,-0.012750,1.007750,192.000000,0.000000,0.000000,0.000000,0.000000,0.000000,0.000000,0.000000,0.000000,0.000000,1772011512.990017,0.000000
6.000000,9422.623744,10698.371911,6274.849924,12567.022451,10012.240411,12972.773668,-9946.414524,-17678.307614,11767.768773,10552.996165,10275.029871,6178.200981,9123.199776,15914.531459,10111.839785,7708.490814,0.003500,-0.012750,1.007750,192.000000,0.000000,0.000000,0.000000,0.000000,0.000000,0.000000,0.000000,0.000000,0.000000,1772011512.990030,0.000000
8.000000,9405.256439,10678.031823,6270.111355,12546.414142,9986.066519,12941.615336,-9969.973263,-17703.274513,11764.527770,10550.313956,10281.914208,6178.357444,9109.431101,15916.207840,10109.001113,7706.881488,0.003500,-0.012750,1.007750,192.000000,0.000000,0.000000,0.000000,0.000000,0.000000,0.000000,0.000000,0.000000,0.000000,1772011512.990041,0.000000
10.000000,9416.879346,10690.951132,6276.258084,12560.115762,9995.633065,12951.092476,-9956.562216,-17689.058803,11759.632738,10539.965098,10267.765554,6162.532409,9098.635208,15909.167040,10105.402482,7705.026293,0.004750,-0.011375,1.004875,192.000000,0.000000,24.000000,127.500000,88.000000,15.500000,40.000000,0.000000,0.000000,0.000000,1772011512.990053,0.000000
12.000000,9417.125215,10690.794669,6257.326157,12561.747439,9994.649588,12965.822275,-9958.573873,-17689.125858,11776.485953,10559.634633,10284.685824,6186.180554,9118.729427,15909.479965,10110.923363,7707.775558,0.004750,-0.011375,1.004875,192.000000,0.000000,0.000000,0.000000,0.000000,0.000000,0.000000,0.000000,0.000000,0.000000,1772011512.990065,0.000000
14.000000,9399.199116,10673.315605,6263.048203,12544.335430,9982.177315,12941.704743,-9971.716699,-17706.537867,11758.246929,10539.451008,10262.356432,6163.270016,9107.866479,15899.533439,10102.764976,7701.606476,0.004750,-0.011375,1.004875,192.000000,0.000000,0.000000,0.000000,0.000000,0.000000,0.000000,0.000000,0.000000,0.000000,1772011512.990077,0.000000
16.000000,9410.978485,10687.553667,6284.997616,12561.859198,10008.373560,12963.140066,-9944.715791,-17681.995652,11757.218749,10547.296470,10277.779135,6172.925970,9106.994761,15907.155383,10113.583221,7703.551078,0.004750,-0.011375,1.004875,192.000000,0.000000,0.000000,0.000000,0.000000,0.000000,0.000000,0.000000,0.000000,0.000000,1772011512.990088,0.000000
18.000000,9392.761814,10670.164009,6256.499142,12542.010849,9997.063577,12943.783455,-9969.861504,-17707.387234,11749.194473,10540.367429,10273.353490,6167.360385,9099.484575,15902.595628,10113.203241,7708.513166,0.004750,-0.011375,1.004875,192.000000,0.000000,0.000000,0.000000,0.000000,0.000000,0.000000,0.000000,0.000000,0.000000,1772011512.990100,0.000000
20.000000,9408.944477,10680.490515,6273.061785,12555.913634,10008.440615,12970.426735,-9958.015079,-17694.266760,11749.328583,10528.610412,10257.930786,6151.401240,9100.378645,15896.247732,10112.756206,7710.256602,0.003375,-0.009687,1.004438,192.000000,0.000000,8.000000,127.500000,96.000000,15.500000,48.000000,0.000000,0.000000,0.000000,1772011512.990112,0.000000
22.000000,9420.343866,10693.767451,6270.893666,12557.321794,10007.770062,12986.944674,-9956.204588,-17685.750745,11768.998119,10557.824142,10287.390386,6181.330226,9123.177424,15933.105759,10118.813529,7719.778445,0.003375,-0.009687,1.004438,192.000000,0.000000,0.000000,0.000000,0.000000,0.000000,0.000000,0.000000,0.000000,0.000000,1772011512.990124,0.000000
24.000000,9405.234087,10678.501210,6264.679881,12558.864064,9981.484411,12956.389839,-9966.531094,-17697.016024,11774.161371,10549.196368,10274.627539,6173.350653,9121.970430,15918.554773,10107.838822,7718.772616,0.003375,-0.009687,1.004438,192.000000,0.000000,0.000000,0.000000,0.000000,0.000000,0.000000,0.000000,0.000000,0.000000,1772011512.990136,0.000000
26.000000,9422.847262,10698.617780,6285.779927,12570.375212,10001.690388,12969.264444,-9939.999573,-17668.875178,11758.403392,10553.756124,10284.305845,6182.537220,9103.932572,15918.822994,10110.185756,7710.882450,0.003375,-0.009687,1.004438,192.000000,0.000000,0.000000,0.000000,0.000000,0.000000,0.000000,0.000000,0.000000,0.000000,1772011512.990150,0.000000
28.000000,9404.474128,10676.824829,6263.495238,12545.676535,9981.283245,12931.110016,-9965.413507,-17698.960626,11762.292595,10549.576348,10286.429261,6177.441022,9107.710017,15900.271046,10107.056511,7705.138052,0.003375,-0.009687,1.004438,192.000000,0.000000,0.000000,0.000000,0.000000,0.000000,0.000000,0.000000,0.000000,0.000000,1772011512.990162,0.000000
30.000000,9413.928916,10686.100803,6256.856770,12557.500608,10003.880859,12966.291662,-9958.350355,-17695.339643,11764.907749,10532.834891,10261.954100,6154.485781,9108.246459,15891.285645,10108.732892,7702.947581,0.003375,-0.009687,1.004438,192.000000,0.000000,0.000000,127.500000,96.000000,15.500000,48.000000,0.000000,0.000000,0.000000,1772011512.990175,0.000000
32.000000,9407.603372,10679.149411,6284.595285,12555.690116,9998.896420,12961.307223,-9958.685632,-17696.703100,11757.621081,10547.207063,10282.383595,6171.607217,9116.494252,15924.947372,10116.153671,7711.217727,0.003375,-0.009687,1.004438,192.000000,0.000000,0.000000,0.000000,0.000000,0.000000,0.000000,0.000000,0.000000,0.000000,1772011512.990187,0.000000
34.000000,9408.318628,10678.769431,6259.002538,12547.799951,10001.533926,12946.711534,-9974.398908,-17705.442632,11758.537502,10536.567633,10264.524551,6156.989176,9103.262020,15903.422642,10114.097311,7711.597706,0.003375,-0.009687,1.004438,192.000000,0.000000,0.000000,0.000000,0.000000,0.000000,0.000000,0.000000,0.000000,0.000000,1772011512.990200,0.000000
36.000000,9440.505140,10712.386455,6292.619561,12572.073945,10023.371580,12982.496677,-9945.498102,-17667.914053,11767.455848,10556.147761,10285.959874,6180.100880,9121.009305,15918.443014,10125.966087,7713.922288,0.003375,-0.009687,1.004438,192.000000,0.000000,0.000000,0.000000,0.000000,0.000000,0.000000,0.000000,0.000000,0.000000,1772011512.990211,0.000000
38.000000,9429.128102,10698.193097,6272.123012,12554.773695,9997.711777,12958.245034,-9966.128762,-17687.538885,11776.642415,10561.221607,10293.827688,6187.432252,9126.060799,15913.838555,10121.182814,7712.983514,0.003375,-0.009687,1.004438,192.000000,0.000000,0.000000,0.000000,0.000000,0.000000,0.000000,0.000000,0.000000,0.000000,1772011512.990224,0.000000
40.000000,9444.416695,10711.850013,6274.782869,12566.038974,10018.476548,12971.454915,-9951.063687,-17674.440762,11778.765831,10550.202197,10284.261141,6174.267074,9118.885889,15899.958122,10114.969029,7710.815395,0.000687,-0.009844,1.004219,192.000000,127.500000,120.000000,127.500000,88.000000,15.500000,48.000000,0.000000,0.000000,0.000000,1772011512.990236,0.000000
42.000000,9441.086285,10712.364103,6279.879067,12560.674555,10015.034379,12978.652177,-9952.114219,-17679.469905,11795.149660,10574.476191,10302.477813,6193.556630,9155.565102,15938.000791,10120.221689,7717.610326,0.000687,-0.009844,1.004219,192.000000,0.000000,0.000000,0.000000,0.000000,0.000000,0.000000,0.000000,0.000000,0.000000,1772011512.990247,0.000000
44.000000,9419.248631,10694.348597,6269.060823,12553.209073,9991.766213,12955.719287,-9967.782792,-17698.804164,11763.588996,10552.191502,10274.627539,6165.169914,9098.098767,15923.338046,10113.493814,7709.340180,0.000687,-0.009844,1.004219,192.000000,0.000000,0.000000,0.000000,0.000000,0.000000,0.000000,0.000000,0.000000,0.000000,1772011512.990259,0.000000
46.000000,9434.514872,10708.229030,6287.433957,12572.275111,10013.603868,12981.602607,-9944.246405,-17675.379536,11769.892188,10560.528703,10282.115374,6179.452679,9114.259078,15917.168965,10119.819357,7709.608401,0.000687,-0.009844,1.004219,192.000000,0.000000,0.000000,0.000000,0.000000,0.000000,0.000000,0.000000,0.000000,0.000000,1772011512.990271,0.000000
48.000000,9416.588773,10685.810230,6250.218302,12549.409276,9995.767176,12942.911737,-9970.107373,-17703.408623,11771.546217,10547.810560,10277.287397,6173.954150,9118.841185,15909.994055,10116.891279,7710.971857,0.000687,-0.009844,1.004219,192.000000,0.000000,0.000000,0.000000,0.000000,0.000000,0.000000,0.000000,0.000000,0.000000,1772011512.990283,0.000000
50.000000,9421.282640,10689.766489,6286.830459,12555.511302,10004.551411,12950.645441,-9955.422277,-17691.495143,11767.411145,10527.403418,10263.898702,6152.988214,9109.654618,15889.966892,10114.074959,7705.205107,0.000687,-0.009844,1.004219,192.000000,0.000000,0.000000,0.000000,0.000000,0.000000,0.000000,0.000000,0.000000,0.000000,1772011512.990295,0.000000
52.000000,9424.277773,10698.751891,6280.706081,12567.134210,10001.936257,12966.671642,-9951.622480,-17684.677861,11768.416973,10550.783342,10293.112432,6183.677159,9120.606973,15910.709311,10118.232384,7712.000038,-0.002000,-0.010000,1.010000,192.000000,127.500000,120.000000,127.500000,88.000000,15.500000,72.000000,0.000000,0.000000,0.000000,1772011512.990307,0.000000
54.000000,9416.499366,10690.861725,6259.628386,12549.811608,9990.827440,12953.193540,-9967.291053,-17696.971321,11760.347993,10542.937880,10271.028909,6172.724804,9105.385435,15898.080575,10108.017636,7708.781386,-0.002000,-0.010000,1.010000,192.000000,0.000000,0.000000,0.000000,0.000000,0.000000,0.000000,0.000000,0.000000,0.000000,1772011512.990320,0.000000
56.000000,9435.386590,10707.200850,6282.047186,12578.377137,10011.994542,12977.042851,-9942.480617,-17670.596262,11773.669633,10561.154552,10282.785926,6186.046444,9124.138549,15929.685942,10114.074959,7716.112759,-0.002000,-0.010000,1.010000,192.000000,0.000000,0.000000,0.000000,0.000000,0.000000,0.000000,0.000000,0.000000,0.000000,1772011512.990333,0.000000
58.000000,9416.566422,10684.625588,6254.688651,12552.359706,9986.111222,12943.582290,-9966.799315,-17699.072385,11771.099182,10553.890235,10283.098851,6180.726729,9116.158976,15922.198108,10111.370398,7712.312962,-0.002000,-0.010000,1.010000,192.000000,0.000000,0.000000,0.000000,0.000000,0.000000,0.000000,0.000000,0.000000,0.000000,1772011512.990346,0.000000
60.000000,9418.309858,10683.329187,6277.822706,12555.287785,9995.722472,12954.042906,-9954.930539,-17695.920789,11755.162389,10528.632763,10267.296167,6152.004737,9099.641037,15880.154476,10108.509375,7703.416968,-0.002000,-0.010000,1.010000,192.000000,0.000000,0.000000,0.000000,0.000000,0.000000,0.000000,0.000000,0.000000,0.000000,1772011512.990358,0.000000
62.000000,9417.773416,10682.815097,6270.558389,12559.378154,9999.723434,12968.459781,-9954.103524,-17693.283283,11763.052554,10547.408229,10284.775231,6172.747156,9112.828566,15911.581029,10114.879622,7712.737645,0.002000,-0.006000,1.006000,192.000000,0.000000,8.000000,127.500000,104.000000,15.500000,56.000000,0.000000,0.000000,0.000000,1772011512.990370,0.000000
64.000000,9413.012494,10683.798573,6258.130820,12549.990422,9995.811879,12949.103171,-9968.386289,-17702.358091,11755.005926,10536.500578,10263.474019,6157.637377,9103.127909,15900.628674,10109.671665,7711.687113,0.002000,-0.006000,1.006000,192.000000,0.000000,0.000000,0.000000,0.000000,0.000000,0.000000,0.000000,0.000000,0.000000,1772011512.990381,0.000000
66.000000,9437.577061,10711.067702,6282.784794,12573.191532,10021.002295,12982.586084,-9939.999573,-17668.964585,11772.574398,10556.639499,10284.484659,6179.787955,9120.115235,15920.879355,10117.561831,7714.905764,0.002000,-0.006000,1.006000,192.000000,0.000000,0.000000,0.000000,0.000000,0.000000,0.000000,0.000000,0.000000,0.000000,1772011512.990393,0.000000
68.000000,9430.737428,10701.344693,6256.856770,12558.148808,9993.710815,12958.937938,-9960.652585,-17688.097678,11791.014587,10564.328499,10285.244618,6186.851107,9140.880005,15925.662628,10111.280991,7719.800796,0.002000,-0.006000,1.006000,192.000000,0.000000,0.000000,0.000000,0.000000,0.000000,0.000000,0.000000,0.000000,0.000000,1772011512.990405,0.000000
70.000000,9444.193178,10715.158071,6290.406739,12566.843637,9997.600019,12962.871845,-9945.900434,-17670.126876,11760.996194,10549.151665,10287.815069,6168.634435,9096.154165,15909.994055,10107.235325,7704.623962,0.002000,-0.006000,1.006000,192.000000,0.000000,0.000000,0.000000,0.000000,0.000000,0.000000,0.000000,0.000000,0.000000,1772011512.990418,0.000000
72.000000,9442.695611,10721.528318,6280.303750,12571.693965,10006.764234,12967.230435,-9946.794504,-17671.289166,11780.576322,10569.022366,10307.305790,6196.104729,9119.087055,15922.153404,10115.483119,7712.469424,0.006000,-0.006000,1.010000,192.000000,0.000000,24.000000,127.500000,104.000000,15.500000,72.000000,0.000000,0.000000,0.000000,1772011512.990430,0.000000
74.000000,9420.477977,10693.946265,6267.987939,12553.611404,9989.419280,12953.774685,-9966.240521,-17696.457231,11767.522903,10555.924243,10279.455516,6175.764641,9109.162880,15904.182601,10108.531726,7711.530651,0.006000,-0.006000,1.010000,192.000000,0.000000,0.000000,0.000000,0.000000,0.000000,0.000000,0.000000,0.000000,0.000000,1772011513.470041,0.000000
76.000000,9433.531396,10705.725635,6290.004407,12567.648300,10010.876955,12968.526836,-9942.547672,-17676.988861,11769.132229,10562.428601,10284.149383,6177.821002,9117.008342,15916.632523,10114.410235,7710.144843,0.006000,-0.006000,1.010000,192.000000,0.000000,0.000000,0.000000,0.000000,0.000000,0.000000,0.000000,0.000000,0.000000,1772011513.470107,0.000000
78.000000,9416.789939,10690.079414,6258.466096,12548.649317,9991.676806,12954.780514,-9964.385326,-17701.218152,11768.595787,10557.153589,10282.674167,6172.076603,9124.272659,15924.992076,10113.717331,7710.748340,0.006000,-0.006000,1.010000,192.000000,0.000000,0.000000,0.000000,0.000000,0.000000,0.000000,0.000000,0.000000,0.000000,1772011513.470165,0.000000
80.000000,9424.121311,10696.829640,6284.662340,12558.439381,10003.679693,12953.260595,-9951.756591,-17689.237617,11758.783371,10537.685220,10267.407926,6152.451772,9103.150261,15902.327407,10111.169232,7707.820261,0.006000,-0.006000,1.010000,192.000000,0.000000,0.000000,0.000000,0.000000,0.000000,0.000000,0.000000,0.000000,0.000000,1772011513.470216,0.000000
82.000000,9427.563480,10705.479766,6279.208515,12564.519055,10001.757443,12962.804790,-9950.840169,-17684.767268,11767.187627,10557.846493,10291.324293,6182.447813,9117.701246,15919.202974,10117.248907,7712.581183,0.006000,-0.006000,1.010000,192.000000,0.000000,0.000000,127.500000,96.000000,15.500000,80.000000,0.000000,0.000000,0.000000,1772011513.470262,0.000000
84.000000,9422.199061,10698.818946,6258.756668,12556.986518,9998.650551,12955.384011,-9968.430992,-17699.072385,11760.638566,10546.491807,10269.598397,6169.595560,9105.184270,15895.174848,10108.621133,7712.134148,0.006000,-0.006000,1.010000,192.000000,0.000000,0.000000,0.000000,0.000000,0.000000,0.000000,0.000000,0.000000,0.000000,1772011513.470309,0.000000
86.000000,9449.445838,10728.099731,6277.889762,12580.098221,10022.790435,12996.175944,-9942.234748,-17669.143399,11795.350825,10574.878523,10281.131897,6189.957999,9137.057857,15928.411892,10117.003038,7724.539366,0.006000,-0.006000,1.010000,192.000000,0.000000,0.000000,0.000000,0.000000,0.000000,0.000000,0.000000,0.000000,0.000000,1772011513.470330,0.000000
88.000000,9425.261250,10702.171707,6262.645872,12553.611404,9996.549487,12960.234339,-9964.921768,-17695.451402,11759.252758,10566.653081,10291.100775,6184.057138,9117.187156,15917.459538,10114.253773,7716.649201,0.006000,-0.006000,1.010000,192.000000,0.000000,0.000000,0.000000,0.000000,0.000000,0.000000,0.000000,0.000000,0.000000,1772011513.470346,0.000000
90.000000,9424.277773,10697.053158,6281.667206,12553.320831,10002.495051,12954.802865,-9953.991765,-17692.076289,11765.801819,10544.770723,10267.117353,6160.453696,9115.331962,15916.811337,10108.397616,7710.346009,0.006000,-0.006000,1.010000,192.000000,0.000000,0.000000,0.000000,0.000000,0.000000,0.000000,0.000000,0.000000,0.000000,1772011513.470370,0.000000
92.000000,9423.271945,10700.495327,6275.542829,12558.461733,10002.875030,12959.630842,-9954.349393,-17690.668129,11763.164313,10550.649232,10283.992920,6176.099917,9109.408749,15908.049453,10119.573488,7709.094311,0.002000,-0.014000,1.004000,192.000000,0.000000,8.000000,127.500000,72.000000,15.500000,48.000000,0.000000,0.000000,0.000000,1772011513.470385,0.000000
94.000000,9415.672352,10697.410786,6261.863561,12545.832997,9993.487298,12965.486999,-9971.247312,-17704.257989,11754.558892,10550.224549,10258.869560,6166.734536,9102.814985,15913.838555,10107.056511,7713.229384,0.002000,-0.014000,1.004000,192.000000,0.000000,0.000000,0.000000,0.000000,0.000000,0.000000,0.000000,0.000000,0.000000,1772011513.470400,0.000000
96.000000,9439.119332,10721.953001,6280.348454,12582.691024,10020.488205,12981.736717,-9944.648736,-17674.194893,11765.935930,10569.625863,10276.326272,6184.079490,9121.948078,15927.517823,10117.137148,7718.414988,0.002000,-0.014000,1.004000,192.000000,0.000000,0.000000,0.000000,0.000000,0.000000,0.000000,0.000000,0.000000,0.000000,1772011513.470415,0.000000
98.000000,9426.401189,10708.229030,6266.356262,12556.740648,9996.504783,12947.538548,-9964.340623,-17695.093774,11773.490819,10567.390688,10281.333063,6187.275790,9130.419389,15919.605305,10114.074959,7717.923250,0.002000,-0.014000,1.004000,192.000000,0.000000,0.000000,0.000000,0.000000,0.000000,0.000000,0.000000,0.000000,0.000000,1772011513.470430,0.000000
100.000000,9439.164035,10706.999684,6278.850887,12567.290672,10008.373560,12982.049642,-9949.141437,-17681.280396,11765.757116,10545.508331,10272.884103,6165.885170,9105.765415,15904.540229,10108.755244,7712.424721,0.002000,-0.014000,1.004000,192.000000,0.000000,0.000000,0.000000,0.000000,0.000000,0.000000,0.000000,0.000000,0.000000,1772011513.470446,0.000000
102.000000,9440.393381,10715.538051,6281.644855,12567.983576,10009.044112,12971.678432,-9947.576815,-17677.279434,11786.611293,10565.066107,10300.913191,6190.986179,9132.855729,15919.247677,10116.399540,7718.325581,0.004000,-0.012000,1.002000,192.000000,0.000000,16.000000,127.500000,80.000000,15.500000,40.000000,0.000000,0.000000,0.000000,1772011513.470464,0.000000
104.000000,9429.150454,10700.920010,6263.539942,12552.627927,9997.465908,12942.844682,-9966.799315,-17695.294940,11783.906732,10559.992261,10272.548827,6175.898752,9121.545747,15909.010578,10108.822299,7712.380017,0.004000,-0.012000,1.002000,192.000000,0.000000,0.000000,0.000000,0.000000,0.000000,0.000000,0.000000,0.000000,0.000000,1772011513.470480,0.000000
106.000000,9435.833625,10699.400091,6296.799337,12564.809628,10021.404627,12980.485020,-9943.039410,-17676.921806,11773.155543,10546.223586,10291.704272,6171.316644,9130.732313,15912.005712,10124.669686,7708.870793,0.004000,-0.012000,1.002000,192.000000,0.000000,0.000000,0.000000,0.000000,0.000000,0.000000,0.000000,0.000000,0.000000,1772011513.470497,0.000000
108.000000,9408.966828,10681.205771,6274.894628,12546.011811,9997.197687,12952.075953,-9965.435858,-17703.587437,11762.717278,10546.402400,10285.043452,6170.981368,9120.785787,15918.957105,10121.205166,7711.374189,0.004000,-0.012000,1.002000,192.000000,0.000000,0.000000,0.000000,0.000000,0.000000,0.000000,0.000000,0.000000,0.000000,1772011513.470514,0.000000
110.000000,9412.788977,10684.022091,6278.180334,12552.046782,10006.138385,12960.927243,-9952.136570,-17691.048108,11753.463656,10535.539452,10265.060993,6155.782182,9105.519546,15904.763747,10113.315000,7706.300343,0.004000,-0.012000,1.002000,192.000000,0.000000,0.000000,0.000000,0.000000,0.000000,0.000000,0.000000,0.000000,0.000000,1772011513.470531,0.000000
112.000000,9415.605297,10689.297103,6274.425241,12556.763000,10006.987751,12965.665813,-9948.470884,-17684.879027,11766.986462,10545.351868,10287.546848,6174.803516,9123.445645,15911.871602,10120.132282,7714.346971,0.002000,-0.012000,1.006000,192.000000,0.000000,8.000000,127.500000,80.000000,15.500000,56.000000,0.000000,0.000000,0.000000,1772011513.470546,0.000000
114.000000,9412.565459,10683.172725,6253.079325,12545.698887,9991.721510,12952.768857,-9965.569969,-17695.429050,11760.191531,10537.037019,10270.961853,6160.252531,9125.412598,15895.353662,10107.302380,7713.095273,0.002000,-0.012000,1.006000,192.000000,0.000000,0.000000,0.000000,0.000000,0.000000,0.000000,0.000000,0.000000,0.000000,1772011513.470562,0.000000
116.000000,9422.467282,10682.904504,6297.827518,12562.797971,10012.575687,12974.807677,-9941.743009,-17672.719678,11769.378098,10531.426732,10290.430223,6164.566417,9111.487462,15926.914326,10115.460767,7714.078750,0.002000,-0.012000,1.006000,192.000000,0.000000,0.000000,0.000000,0.000000,0.000000,0.000000,0.000000,0.000000,0.000000,1772011513.470577,0.000000
118.000000,9410.062064,10674.679062,6270.916017,12550.683326,10003.567934,12959.340269,-9963.915940,-17693.797373,11771.076831,10531.829063,10293.492412,6168.455621,9117.902412,15902.930904,10115.192546,7715.576317,0.002000,-0.012000,1.006000,192.000000,0.000000,0.000000,0.000000,0.000000,0.000000,0.000000,0.000000,0.000000,0.000000,1772011513.470592,0.000000
120.000000,9421.103826,10690.749966,6267.496201,12568.899997,10017.090740,12969.711479,-9950.504893,-17679.268739,11765.265377,10534.220700,10273.286435,6161.861856,9116.561307,15907.647122,10114.566697,7715.911593,0.002000,-0.012000,1.006000,192.000000,0.000000,0.000000,0.000000,0.000000,0.000000,0.000000,0.000000,0.000000,0.000000,1772011513.470608,0.000000
122.000000,9415.404131,10682.725690,6287.121032,12562.976785,10011.569859,12966.559883,-9948.917919,-17680.922768,11786.544238,10554.225511,10291.234886,6190.628551,9135.806159,15923.852137,10120.735779,7721.588936,0.002000,-0.012000,1.006000,192.000000,0.000000,0.000000,127.500000,88.000000,15.500000,24.000000,0.000000,0.000000,0.000000,1772011513.470627,0.000000
124.000000,9403.244782,10666.766544,6262.265892,12548.559910,9997.890591,12958.379144,-9965.569969,-17702.715719,11746.713429,10528.386894,10275.253388,6160.632510,9101.272714,15902.148593,10112.443282,7711.977686,0.002000,-0.012000,1.006000,192.000000,0.000000,0.000000,0.000000,0.000000,0.000000,0.000000,0.000000,0.000000,0.000000,1772011513.470643,0.000000
126.000000,9423.227241,10686.592542,6283.365939,12563.937910,10022.678676,12989.202200,-9944.604033,-17683.023832,11761.040897,10540.769761,10278.047356,6168.880304,9110.593392,15914.084424,10115.885450,7716.917421,0.002000,-0.012000,1.006000,192.000000,0.000000,0.000000,0.000000,0.000000,0.000000,0.000000,0.000000,0.000000,0.000000,1772011513.470659,0.000000
128.000000,9405.368198,10660.150428,6265.261026,12549.431628,9998.225868,12957.038040,-9966.955777,-17706.426109,11768.416973,10540.009801,10279.902551,6161.101897,9126.977220,15923.650971,10120.266392,7717.945602,0.002000,-0.012000,1.006000,192.000000,0.000000,0.000000,0.000000,0.000000,0.000000,0.000000,0.000000,0.000000,0.000000,1772011513.470675,0.000000
130.000000,9419.673314,10683.955036,6276.593360,12565.614291,9996.191859,12970.583197,-9949.476713,-17685.281358,11766.092392,10527.738694,10269.307824,6154.128153,9113.677932,15908.630599,10111.526860,7710.569526,0.002000,-0.012000,1.006000,192.000000,0.000000,0.000000,0.000000,0.000000,0.000000,0.000000,0.000000,0.000000,0.000000,1772011513.470691,0.000000
132.000000,9422.780207,10693.298065,6279.387329,12571.761021,9995.498955,12964.704688,-9943.307631,-17678.374669,11781.805668,10560.975738,10295.749938,6188.058101,9130.307630,15923.718026,10110.297514,7712.871756,0.003000,-0.012000,1.005000,192.000000,0.000000,16.000000,127.500000,80.000000,15.500000,48.000000,0.000000,0.000000,0.000000,1772011513.470707,0.000000
134.000000,9407.871593,10670.342823,6264.434012,12552.896148,9993.822574,12941.302412,-9960.697289,-17697.396004,11760.012717,10535.315935,10272.995862,6165.102859,9101.719749,15909.614075,10105.201316,7707.328523,0.003000,-0.012000,1.005000,192.000000,0.000000,0.000000,0.000000,0.000000,0.000000,0.000000,0.000000,0.000000,0.000000,1772011513.470724,0.000000
136.000000,9436.794750,10699.444795,6278.582666,12574.622044,10021.404627,12974.450049,-9935.328059,-17666.304727,11775.971863,10545.351868,10287.256275,6177.508077,9131.246404,15927.942506,10116.153671,7709.898974,0.003000,-0.012000,1.005000,192.000000,0.000000,0.000000,0.000000,0.000000,0.000000,0.000000,0.000000,0.000000,0.000000,1772011513.470739,0.000000
138.000000,9413.303067,10677.674195,6269.954892,12550.035125,9996.728301,12946.376258,-9961.233730,-17696.770155,11778.318796,10549.151665,10290.452575,6181.374929,9124.496177,15923.628619,10113.896145,7710.435416,0.003000,-0.012000,1.005000,192.000000,0.000000,0.000000,0.000000,0.000000,0.000000,0.000000,0.000000,0.000000,0.000000,1772011513.470756,0.000000
140.000000,9420.366218,10688.961826,6278.001520,12552.896148,10011.703969,12951.807732,-9951.801294,-17688.075326,11781.135116,10537.640516,10266.245635,6159.537275,9110.056950,15911.111642,10114.745511,7704.735721,0.003000,-0.012000,1.005000,192.000000,0.000000,0.000000,0.000000,0.000000,0.000000,0.000000,0.000000,0.000000,0.000000,1772011513.470772,0.000000
142.000000,9405.792881,10667.682966,6285.623465,12557.254738,10009.826423,12974.807677,-9953.030640,-17696.189010,11755.475313,10543.116694,10292.665397,6169.953188,9116.315438,15901.187468,10124.692038,7706.345046,0.004500,-0.014000,1.004500,192.000000,0.000000,24.000000,127.500000,64.000000,15.500000,48.000000,0.000000,0.000000,0.000000,1772011513.470788,0.000000
144.000000,9389.252590,10651.053268,6268.256160,12546.972936,10009.759368,12960.368450,-9971.850809,-17716.149117,11755.676479,10518.306258,10267.474981,6144.785123,9108.447624,15897.745299,10119.551136,7711.105968,0.004500,-0.014000,1.004500,192.000000,0.000000,0.000000,0.000000,0.000000,0.000000,0.000000,0.000000,0.000000,0.000000,1772011513.470806,0.000000
146.000000,9412.319590,10670.007547,6285.936390,12562.574454,10034.055714,12981.066165,-9947.599166,-17691.919826,11768.282863,10527.738694,10277.130935,6155.938644,9125.546709,15920.275857,10128.178910,7719.711390,0.004500,-0.014000,1.004500,192.000000,0.000000,0.000000,0.000000,0.000000,0.000000,0.000000,0.000000,0.000000,0.000000,1772011513.470826,0.000000
148.000000,9395.533430,10654.115457,6266.110392,12545.274203,10010.698141,12954.400534,-9966.262873,-17708.460117,11764.527770,10521.770778,10279.857848,6159.134943,9125.680819,15905.814279,10122.792139,7720.717218,0.004500,-0.014000,1.004500,192.000000,0.000000,0.000000,0.000000,0.000000,0.000000,0.000000,0.000000,0.000000,0.000000,1772011513.470844,0.000000
150.000000,9416.253497,10682.278655,6272.301826,12576.678404,10017.001333,12991.124450,-9949.476713,-17682.308576,11770.607444,10525.078836,10269.933673,6159.604330,9116.248383,15912.184526,10112.398578,7720.717218,0.004500,-0.014000,1.004500,192.000000,0.000000,0.000000,0.000000,0.000000,0.000000,0.000000,0.000000,0.000000,0.000000,1772011513.470861,0.000000
152.000000,9423.339000,10685.586713,6281.264875,12572.945663,10018.565955,12997.628808,-9949.543768,-17678.173504,11778.117630,10554.426677,10300.756729,6190.829717,9127.826587,15936.391465,10120.467558,7727.176872,0.006250,-0.015000,1.006250,192.000000,0.000000,32.000000,127.500000,64.000000,15.500000,64.000000,0.000000,0.000000,0.000000,1772011513.470878,0.000000
154.000000,9407.581020,10667.750021,6272.614750,12552.471465,10006.853641,12965.531703,-9969.034489,-17703.319216,11770.808610,10531.337325,10275.521609,6165.661653,9113.253249,15910.955180,10113.247945,7720.448997,0.006250,-0.015000,1.006250,192.000000,0.000000,0.000000,0.000000,0.000000,0.000000,0.000000,0.000000,0.000000,0.000000,1772011513.470898,0.000000
156.000000,9408.408035,10669.247588,6290.742015,12563.021489,10026.076141,12974.450049,-9944.805198,-17688.991748,11770.652148,10535.204176,10282.942388,6164.722879,9121.501043,15915.000846,10125.809625,7715.352799,0.006250,-0.015000,1.006250,192.000000,0.000000,0.000000,0.000000,0.000000,0.000000,0.000000,0.000000,0.000000,0.000000,1772011513.470914,0.000000
158.000000,9380.803630,10639.989154,6254.263968,12536.042933,9999.701083,12938.776665,-9969.839152,-17723.055807,11775.323662,10524.944726,10266.513856,6157.838542,9124.362066,15904.495526,10117.159500,7708.222593,0.006250,-0.015000,1.006250,192.000000,0.000000,0.000000,0.000000,0.000000,0.000000,0.000000,0.000000,0.000000,0.000000,1772011513.470930,0.000000
160.000000,9386.749194,10649.019259,6274.760517,12547.889358,10011.279286,12954.869921,-9959.579701,-17711.678769,11734.218804,10499.910772,10252.789885,6128.825978,9094.880115,15881.473229,10113.717331,7699.013674,0.006250,-0.015000,1.006250,192.000000,0.000000,0.000000,0.000000,0.000000,0.000000,0.000000,0.000000,0.000000,0.000000,1772011513.470946,0.000000
162.000000,9396.516907,10653.556663,6278.716776,12555.444247,10014.095606,12961.687203,-9957.500989,-17702.469850,11757.822246,10520.563784,10279.187295,6155.670423,9119.668200,15888.424622,10122.658029,7708.222593,0.007125,-0.015500,1.006125,192.000000,0.000000,32.000000,127.500000,64.000000,15.500000,56.000000,0.000000,0.000000,0.000000,1772011513.470976,0.000000
164.000000,9393.655884,10653.646070,6264.411660,12552.069134,9995.878934,12957.060392,-9971.068498,-17707.543696,11751.094371,10506.169260,10265.396269,6143.444019,9095.774185,15899.779308,10115.818395,7709.340180,0.007125,-0.015500,1.006125,192.000000,0.000000,0.000000,0.000000,0.000000,0.000000,0.000000,0.000000,0.000000,0.000000,1772011513.470994,0.000000
166.000000,9419.852128,10683.776222,6288.663303,12572.900960,10018.968286,12964.212950,-9943.285280,-17675.915977,11765.377136,10534.287755,10283.881162,6172.300121,9112.515642,15909.859945,10118.746474,7712.469424,0.007125,-0.015500,1.006125,192.000000,0.000000,0.000000,0.000000,0.000000,0.000000,0.000000,0.000000,0.000000,0.000000,1772011513.471011,0.000000
168.000000,9402.261305,10662.698527,6253.347546,12552.382058,9996.571838,12945.459836,-9964.385326,-17702.693367,11765.131267,10531.516138,10283.478830,6172.747156,9123.557404,15903.534401,10115.460767,7708.043779,0.007125,-0.015500,1.006125,192.000000,0.000000,0.000000,0.000000,0.000000,0.000000,0.000000,0.000000,0.000000,0.000000,1772011513.471028,0.000000
170.000000,9411.917259,10672.577998,6291.613733,12553.879625,9993.800222,12952.143008,-9948.806161,-17689.483486,11766.539427,10523.044827,10267.430278,6157.950301,9103.597296,15884.758936,10103.882564,7700.600648,0.007125,-0.015500,1.006125,192.000000,0.000000,0.000000,0.000000,0.000000,0.000000,0.000000,0.000000,0.000000,0.000000,1772011513.471045,0.000000
172.000000,9413.034846,10668.845256,6268.502029,12553.052611,10002.495051,12963.207121,-9951.197797,-17694.110297,11775.390717,10530.733827,10295.504069,6168.120345,9112.269773,15892.582046,10117.025389,7693.448090,0.005562,-0.014750,1.006063,192.000000,0.000000,16.000000,127.500000,72.000000,15.500000,56.000000,0.000000,0.000000,0.000000,1772011513.471061,0.000000
174.000000,9383.642302,10643.006640,6271.832439,12537.786369,9990.693330,12946.510368,-9970.062670,-17719.703045,11757.464618,10516.428711,10265.575083,6141.030030,9103.060854,15895.934808,10108.777596,7699.237192,0.005562,-0.014750,1.006063,192.000000,0.000000,0.000000,0.000000,0.000000,0.000000,0.000000,0.000000,0.000000,0.000000,1772011513.471078,0.000000
176.000000,9406.441081,10663.950224,6282.963608,12568.184742,10022.410455,12979.613302,-9946.839207,-17692.925655,11752.636642,10519.781473,10271.520647,6147.757905,9110.816909,15896.605360,10120.087578,7706.076825,0.005562,-0.014750,1.006063,192.000000,0.000000,0.000000,0.000000,0.000000,0.000000,0.000000,0.000000,0.000000,0.000000,1772011513.471094,0.000000
178.000000,9398.103881,10659.815152,6259.717793,12558.104105,10008.842946,12969.733831,-9968.386289,-17709.644760,11762.784334,10529.996220,10275.521609,6159.961958,9120.405808,15925.148538,10122.613325,7718.102064,0.005562,-0.014750,1.006063,192.000000,0.000000,0.000000,0.000000,0.000000,0.000000,0.000000,0.000000,0.000000,0.000000,1772011513.471111,0.000000
180.000000,9408.564497,10663.033803,6277.465079,12574.778506,10020.599964,12981.200276,-9955.176408,-17692.456268,11757.464618,10520.027342,10259.964795,6153.189379,9108.402921,15902.908552,10116.198375,7721.857157,0.005562,-0.014750,1.006063,192.000000,0.000000,0.000000,0.000000,0.000000,0.000000,0.000000,0.000000,0.000000,0.000000,1772011513.471128,0.000000
182.000000,9412.073721,10667.235931,6278.515611,12570.285805,10016.107263,12973.958310,-9950.057858,-17684.476696,11777.312967,10535.807673,10295.816993,6177.530429,9135.537939,15914.576163,10123.172119,7723.600593,0.003781,-0.012375,1.008031,192.000000,0.000000,8.000000,127.500000,88.000000,15.500000,72.000000,0.000000,0.000000,0.000000,1772011513.471145,0.000000
184.000000,9393.834697,10656.261224,6257.482619,12542.167311,9998.203516,12963.900025,-9969.570931,-17709.868277,11770.003947,10529.213909,10273.241731,6159.716089,9116.494252,15915.894916,10109.962238,7715.621020,0.003781,-0.012375,1.008031,192.000000,0.000000,0.000000,0.000000,0.000000,0.000000,0.000000,0.000000,0.000000,0.000000,1772011513.471161,0.000000
186.000000,9404.183555,10660.038669,6285.109375,12562.976785,10011.882783,12977.199313,-9944.872254,-17695.384347,11764.460714,10529.929165,10276.750955,6154.329318,9131.693438,15911.089291,10116.801872,7710.569526,0.003781,-0.012375,1.008031,192.000000,0.000000,0.000000,0.000000,0.000000,0.000000,0.000000,0.000000,0.000000,0.000000,1772011513.471181,0.000000
188.000000,9379.350767,10631.048457,6268.010291,12533.561889,9982.467888,12932.540528,-9969.548579,-17723.726359,11744.657069,10513.701798,10272.526475,6145.321565,9091.840278,15886.435316,10113.896145,7695.906782,0.003781,-0.012375,1.008031,192.000000,0.000000,0.000000,0.000000,0.000000,0.000000,0.000000,0.000000,0.000000,0.000000,1772011513.471197,0.000000
190.000000,9386.480974,10637.865739,6253.101677,12544.290727,10000.461042,12937.301449,-9962.306614,-17712.796356,11750.088543,10492.311179,10249.124199,6125.853196,9091.527354,15868.978604,10105.514241,7691.659950,0.003781,-0.012375,1.008031,192.000000,0.000000,0.000000,0.000000,0.000000,0.000000,0.000000,0.000000,0.000000,0.000000,1772011513.471214,0.000000
192.000000,9385.050462,10642.872529,6281.913076,12556.114800,10007.099510,12966.202255,-9958.775039,-17709.108318,11751.072019,10515.825214,10271.230074,6150.887150,9109.028770,15903.109718,10115.974857,7703.864003,0.003781,-0.012375,1.008031,192.000000,0.000000,0.000000,0.000000,0.000000,0.000000,0.000000,0.000000,0.000000,0.000000,1772011513.471231,0.000000
194.000000,9387.419747,10643.051343,6265.372785,12552.762038,9995.811879,12955.719287,-9973.504838,-17718.026664,11741.773694,10506.213964,10257.953138,6135.732667,9095.528316,15891.978549,10107.861174,7707.596744,0.006000,-0.004000,1.004000,192.000000,0.000000,24.000000,127.500000,112.000000,15.500000,48.000000,0.000000,0.000000,0.000000,1772011513.951179,0.000000
196.000000,9423.897794,10680.758736,6291.725491,12579.360614,10024.355057,12982.988415,-9943.218224,-17677.458248,11768.193456,10529.526833,10281.109545,6162.130077,9120.338752,15906.685997,10114.790215,7712.067093,0.006000,-0.004000,1.004000,192.000000,0.000000,0.000000,0.000000,0.000000,0.000000,0.000000,0.000000,0.000000,0.000000,1772011513.951254,0.000000
198.000000,9411.112596,10674.120268,6266.535075,12560.607500,10011.569859,12950.623089,-9964.385326,-17695.473754,11780.844543,10546.603566,10291.525458,6181.598447,9133.347468,15913.659741,10116.690113,7712.648238,0.006000,-0.004000,1.004000,192.000000,0.000000,0.000000,0.000000,0.000000,0.000000,0.000000,0.000000,0.000000,0.000000,1772011513.951312,0.000000
200.000000,9408.497442,10675.416669,6283.902381,12562.641509,10009.513498,12980.060337,-9953.544730,-17684.677861,11772.708508,10533.080761,10274.113449,6165.661653,9115.331962,15898.639369,10110.588087,7707.216764,0.006000,-0.004000,1.004000,192.000000,0.000000,0.000000,0.000000,0.000000,0.000000,0.000000,0.000000,0.000000,0.000000,1772011513.951365,0.000000
202.000000,9409.950305,10671.259245,6276.056919,12556.986518,9999.812841,12974.740621,-9952.225977,-17685.102544,11764.170142,10548.414057,10294.587647,6180.369101,9113.365008,15932.099930,10111.884488,7710.346009,0.006000,-0.004000,1.004000,192.000000,0.000000,0.000000,0.000000,0.000000,0.000000,0.000000,0.000000,0.000000,0.000000,1772011513.951418,0.000000
204.000000,9393.544125,10652.774352,6247.446686,12544.491892,9990.402757,12936.429731,-9972.096678,-17713.221039,11762.024374,10523.916545,10266.826781,6150.127190,9105.184270,15886.882351,10100.261581,7701.338256,0.006000,-0.010000,1.004000,192.000000,0.000000,24.000000,127.500000,88.000000,15.500000,48.000000,0.000000,0.000000,0.000000,1772011513.951462,0.000000
206.000000,9401.322532,10663.011451,6274.626407,12562.105067,10010.340513,12967.073973,-9950.683707,-17699.966455,11766.584130,10522.843662,10267.474981,6150.685984,9114.750816,15893.632578,10106.676532,7703.372264,0.006000,-0.010000,1.004000,192.000000,0.000000,0.000000,0.000000,0.000000,0.000000,0.000000,0.000000,0.000000,0.000000,1772011513.951485,0.000000
208.000000,9370.365366,10633.328334,6270.983073,12546.458846,9995.186030,12948.767894,-9973.236617,-17729.716626,11749.038011,10518.194499,10264.546903,6145.098048,9099.842203,15890.704500,10110.699846,7706.747378,0.006000,-0.010000,1.004000,192.000000,0.000000,0.000000,0.000000,0.000000,0.000000,0.000000,0.000000,0.000000,0.000000,1772011513.951508,0.000000
210.000000,9390.079604,10651.075620,6267.675014,12560.942776,10013.447406,12967.610415,-9957.925672,-17707.901324,11737.482159,10510.997237,10242.977469,6129.608289,9092.846107,15880.735622,10109.269334,7707.082654,0.006000,-0.010000,1.004000,192.000000,0.000000,0.000000,0.000000,0.000000,0.000000,0.000000,0.000000,0.000000,0.000000,1772011513.951531,0.000000
212.000000,9402.998913,10656.015355,6270.580741,12566.061326,10008.619429,12967.364546,-9949.566120,-17689.438783,11758.693964,10530.063275,10278.874371,6165.035804,9117.298915,15912.162174,10114.097311,7713.832881,0.006000,-0.010000,1.004000,192.000000,0.000000,0.000000,0.000000,0.000000,0.000000,0.000000,0.000000,0.000000,0.000000,1772011513.951554,0.000000
214.000000,9394.460546,10645.755904,6265.238674,12552.024430,9988.167583,12942.598813,-9961.680765,-17697.038376,11763.544293,10507.666827,10274.336967,6152.138847,9102.278543,15903.087366,10101.088596,7706.009770,0.006000,-0.008000,1.004000,192.000000,0.000000,24.000000,127.500000,96.000000,15.500000,48.000000,0.000000,0.000000,0.000000,1772011513.951639,0.000000
216.000000,9405.122328,10663.234969,6288.283323,12568.587073,10009.938182,12979.501543,-9938.010268,-17678.128800,11763.566645,10514.327647,10287.211572,6160.453696,9106.190098,15901.299226,10108.799947,7703.908706,0.006000,-0.008000,1.004000,192.000000,0.000000,0.000000,0.000000,0.000000,0.000000,0.000000,0.000000,0.000000,0.000000,1772011513.951684,0.000000
218.000000,9385.519849,10639.475064,6266.892703,12543.083732,9993.286132,12940.050714,-9967.022832,-17714.159812,11760.839732,10520.139101,10280.260179,6157.503266,9111.509813,15887.932883,10108.844651,7704.288686,0.006000,-0.008000,1.004000,192.000000,0.000000,0.000000,0.000000,0.000000,0.000000,0.000000,0.000000,0.000000,0.000000,1772011513.951718,0.000000
220.000000,9389.721976,10643.118399,6261.215360,12550.280994,10006.138385,12958.110924,-9960.697289,-17710.203553,11748.188644,10495.194554,10253.885121,6129.340068,9097.584676,15865.603491,10106.408311,7695.638561,0.006000,-0.008000,1.004000,192.000000,0.000000,0.000000,0.000000,0.000000,0.000000,0.000000,0.000000,0.000000,0.000000,1772011513.951741,0.000000
222.000000,9384.044633,10644.638317,6272.681805,12551.733858,10007.635952,12949.103171,-9960.160847,-17713.221039,11780.151639,10524.274173,10267.117353,6153.971690,9131.939308,15898.885238,10113.829090,7706.590916,0.006000,-0.008000,1.004000,192.000000,0.000000,0.000000,0.000000,0.000000,0.000000,0.000000,0.000000,0.000000,0.000000,1772011513.951755,0.000000
224.000000,9366.856142,10627.248660,6253.749878,12542.435532,9996.035397,12930.350057,-9977.841077,-17733.427016,11730.351952,10501.006007,10249.794751,6123.685077,9093.606066,15863.368316,10111.772729,7699.773633,0.006000,-0.014000,1.002000,192.000000,0.000000,24.000000,127.500000,72.000000,15.500000,40.000000,0.000000,0.000000,0.000000,1772011513.951766,0.000000
226.000000,9389.721976,10651.969689,6284.684692,12568.363555,10019.437673,12967.655118,-9947.375649,-17699.117088,11742.980688,10505.521060,10259.674222,6135.375039,9099.752796,15889.966892,10115.639581,7706.322695,0.006000,-0.014000,1.002000,192.000000,0.000000,0.000000,0.000000,0.000000,0.000000,0.000000,0.000000,0.000000,0.000000,1772011513.951778,0.000000
228.000000,9395.064043,10645.644146,6269.127878,12558.081753,10008.172394,12961.329575,-9964.340623,-17705.464984,11760.303290,10514.841737,10274.895760,6153.636414,9112.940325,15894.057261,10114.164366,7712.178852,0.006000,-0.014000,1.002000,192.000000,0.000000,0.000000,0.000000,0.000000,0.000000,0.000000,0.000000,0.000000,0.000000,1772011513.951790,0.000000
230.000000,9418.779244,10674.813172,6274.447593,12573.079774,10022.365752,12976.774630,-9951.913053,-17688.410603,11775.211903,10520.943763,10275.409851,6150.998908,9115.466072,15892.135011,10111.884488,7708.915497,0.006000,-0.014000,1.002000,192.000000,0.000000,0.000000,0.000000,0.000000,0.000000,0.000000,0.000000,0.000000,0.000000,1772011513.951801,0.000000
232.000000,9403.423596,10666.744192,6289.400910,12563.781448,10016.219022,12977.244017,-9952.762419,-17697.105431,11786.231313,10550.716287,10295.369958,6174.289426,9131.425218,15925.863794,10114.857270,7712.715293,0.006000,-0.014000,1.002000,192.000000,0.000000,0.000000,0.000000,0.000000,0.000000,0.000000,0.000000,0.000000,0.000000,1772011513.951812,0.000000
234.000000,9375.573322,10638.715105,6263.830514,12534.366552,10002.830327,12955.473418,-9975.315329,-17730.163661,11760.057421,10528.141025,10266.938539,6139.063077,9110.235764,15897.477078,10110.945715,7702.947581,0.004000,-0.008000,1.006000,192.000000,0.000000,16.000000,127.500000,96.000000,15.500000,56.000000,0.000000,0.000000,0.000000,1772011513.951824,0.000000
236.000000,9388.380872,10651.410896,6275.855753,12554.997212,10014.632048,12964.190598,-9950.817818,-17707.968379,11756.101162,10522.106054,10263.831647,6131.508187,9111.174537,15891.375052,10116.421892,7701.315904,0.004000,-0.008000,1.006000,192.000000,0.000000,0.000000,0.000000,0.000000,0.000000,0.000000,0.000000,0.000000,0.000000,1772011513.951835,0.000000
238.000000,9382.211790,10638.625698,6252.542883,12549.811608,10001.042187,12928.606621,-9970.599111,-17720.328894,11776.307139,10512.740673,10262.199970,6142.102914,9123.110369,15875.125334,10113.069131,7701.986456,0.004000,-0.008000,1.006000,192.000000,0.000000,0.000000,0.000000,0.000000,0.000000,0.000000,0.000000,0.000000,0.000000,1772011513.951846,0.000000
240.000000,9397.165107,10653.176684,6288.350378,12567.938872,10016.442539,12970.382031,-9956.048126,-17701.866353,11753.307194,10504.716397,10264.457496,6137.051420,9100.535107,15871.236130,10115.773692,7701.002979,0.004000,-0.008000,1.006000,192.000000,0.000000,0.000000,0.000000,0.000000,0.000000,0.000000,0.000000,0.000000,0.000000,1772011513.951858,0.000000
242.000000,9405.301142,10667.459448,6283.097718,12577.751288,10028.445426,12992.867886,-9951.667184,-17694.825553,11776.553008,10542.557900,10293.157136,6173.238894,9127.513662,15928.076616,10127.664820,7716.470387,0.004000,-0.008000,1.006000,192.000000,0.000000,0.000000,0.000000,0.000000,0.000000,0.000000,0.000000,0.000000,0.000000,1772011513.951869,0.000000
244.000000,9386.816250,10650.069791,6266.780945,12557.880587,10018.074217,12961.597796,-9969.727393,-17716.685559,11770.696851,10534.466569,10272.213551,6149.166065,9121.679857,15918.845346,10122.255698,7719.309058,0.002000,-0.006000,1.006000,192.000000,0.000000,8.000000,127.500000,104.000000,15.500000,56.000000,0.000000,0.000000,0.000000,1772011513.951881,0.000000
246.000000,9399.221468,10663.816114,6265.149267,12580.768774,10027.931336,12986.117659,-9945.252233,-17691.852771,11773.244950,10530.644420,10274.761650,6157.436211,9123.535052,15899.689901,10122.948602,7715.196337,0.002000,-0.006000,1.006000,192.000000,0.000000,0.000000,0.000000,0.000000,0.000000,0.000000,0.000000,0.000000,0.000000,1772011513.951892,0.000000
248.000000,9371.751174,10641.173797,6260.857732,12551.130360,9991.922676,12957.306261,-9968.587454,-17719.390120,11756.056458,10530.152682,10271.073612,6158.419688,9113.275601,15907.870639,10112.242116,7714.503433,0.002000,-0.006000,1.006000,192.000000,0.000000,0.000000,0.000000,0.000000,0.000000,0.000000,0.000000,0.000000,0.000000,1772011513.951903,0.000000
250.000000,9391.688930,10652.796704,6270.781907,12552.896148,10002.718568,12961.061354,-9959.020908,-17709.510649,11749.283880,10508.493842,10253.683955,6133.609251,9088.107537,15902.238000,10109.246982,7702.925229,0.002000,-0.006000,1.006000,192.000000,0.000000,0.000000,0.000000,0.000000,0.000000,0.000000,0.000000,0.000000,0.000000,1772011513.951916,0.000000
252.000000,9392.806517,10657.691736,6274.537000,12559.020526,10012.329818,12953.350002,-9954.684669,-17706.046129,11761.107953,10528.453950,10282.584760,6157.525618,9108.894659,15877.986357,10118.590011,7704.556907,0.002000,-0.006000,1.006000,192.000000,0.000000,0.000000,0.000000,0.000000,0.000000,0.000000,0.000000,0.000000,0.000000,1772011513.951928,0.000000
254.000000,9379.931912,10644.459503,6258.354337,12556.114800,10007.591248,12956.747467,-9969.861504,-17721.893516,11754.067153,10516.272249,10262.758763,6138.817208,9104.156089,15876.757011,10112.733854,7705.473328,0.005000,-0.004000,1.008000,192.000000,0.000000,32.000000,127.500000,120.000000,15.500000,72.000000,0.000000,0.000000,0.000000,1772011513.951939,0.000000
0.000000,9406.150509,10669.672271,6263.092907,12583.249817,10041.521197,12989.716290,-9945.073419,-17693.842077,11774.228427,10533.103112,10272.459420,6151.267129,9126.798406,15906.775404,10121.071055,7717.632677,0.005000,-0.004000,1.008000,192.000000,0.000000,0.000000,0.000000,0.000000,0.000000,0.000000,0.000000,0.000000,0.000000,1772011513.951951,0.000000
2.000000,9394.348788,10662.430306,6270.223113,12561.948605,10008.977057,12965.039964,-9962.597187,-17704.503859,11779.212866,10542.222624,10276.818010,6161.683042,9135.515587,15912.340988,10115.080788,7719.756093,0.005000,-0.004000,1.008000,192.000000,0.000000,0.000000,0.000000,0.000000,0.000000,0.000000,0.000000,0.000000,0.000000,1772011513.951962,0.000000
4.000000,9418.399265,10691.576981,6276.861581,12574.085602,10024.980906,12984.865962,-9948.604995,-17681.101582,11762.538464,10542.535549,10273.711118,6159.626682,9108.291162,15910.284628,10110.744549,7714.034046,0.005000,-0.004000,1.008000,192.000000,0.000000,0.000000,0.000000,0.000000,0.000000,0.000000,0.000000,0.000000,0.000000,1772011513.951974,0.000000
6.000000,9428.636364,10695.846164,6276.034567,12574.018547,10023.103359,12971.611377,-9943.464094,-17675.603053,11788.555895,10574.945578,10299.326217,6193.735444,9137.661354,15928.210727,10119.662895,7716.448035,0.005000,-0.004000,1.008000,192.000000,0.000000,0.000000,0.000000,0.000000,0.000000,0.000000,0.000000,0.000000,0.000000,1772011513.951985,0.000000
8.000000,9409.659733,10669.560512,6271.810087,12556.047744,10004.394949,12957.373316,-9963.290091,-17700.368786,11784.197305,10539.451008,10289.044415,6158.844371,9115.197851,15897.208857,10110.923363,7703.796947,0.005500,-0.004000,1.010000,192.000000,0.000000,24.000000,127.500000,112.000000,15.500000,80.000000,0.000000,0.000000,0.000000,1772011513.951996,0.000000
10.000000,9421.215584,10684.402071,6292.708968,12568.162390,10039.822464,12986.788212,-9944.000535,-17687.829457,11786.857162,10551.342136,10294.274723,6159.738440,9127.558366,15904.294360,10122.009828,7710.368360,0.005500,-0.004000,1.010000,192.000000,0.000000,0.000000,0.000000,0.000000,0.000000,0.000000,0.000000,0.000000,0.000000,1772011513.952007,0.000000
12.000000,9388.291465,10656.060059,6264.970453,12555.846579,10015.749635,12961.128409,-9970.085021,-17725.492147,11778.095279,10542.602604,10285.334025,6150.618929,9133.168654,15909.278799,10126.994267,7713.587012,0.005500,-0.004000,1.010000,192.000000,0.000000,0.000000,0.000000,0.000000,0.000000,0.000000,0.000000,0.000000,0.000000,1772011513.952019,0.000000
14.000000,9388.716148,10652.662593,6266.579779,12567.044803,10015.213193,12968.415078,-9958.573873,-17718.049016,11757.554025,10517.166319,10250.197083,6131.195263,9107.039464,15897.968817,10115.192546,7715.218689,0.005500,-0.004000,1.010000,192.000000,0.000000,0.000000,0.000000,0.000000,0.000000,0.000000,0.000000,0.000000,0.000000,1772011513.952030,0.000000
16.000000,9390.548991,10658.138771,6267.160924,12570.039936,10019.236507,12969.286796,-9951.533073,-17706.783737,11761.130304,10540.658002,10274.225208,6158.598502,9130.464093,15902.036834,10120.691075,7715.017523,0.005500,-0.004000,1.010000,192.000000,0.000000,0.000000,0.000000,0.000000,0.000000,0.000000,0.000000,0.000000,0.000000,1772011513.952042,0.000000
18.000000,9385.296331,10652.170855,6239.020078,12559.311099,10005.937219,12956.725115,-9964.921768,-17713.578667,11777.312967,10529.169205,10258.668394,6145.343917,9126.016095,15891.777383,10110.766901,7711.262430,0.005750,-0.005000,1.011000,192.000000,0.000000,24.000000,127.500000,104.000000,15.500000,80.000000,0.000000,0.000000,0.000000,1772011513.952053,0.000000
20.000000,9414.308895,10685.184382,6301.515556,12581.528733,10027.260784,12985.514162,-9933.696381,-17673.658451,11773.468467,10541.395610,10282.338891,6161.928911,9118.640020,15905.322540,10117.852404,7712.894107,0.005750,-0.005000,1.011000,192.000000,0.000000,0.000000,0.000000,0.000000,0.000000,0.000000,0.000000,0.000000,0.000000,1772011513.952064,0.000000
22.000000,9404.429424,10675.237855,6272.927674,12571.112820,10009.893478,12974.159476,-9956.785733,-17693.238579,11771.523866,10553.912586,10300.399101,6176.077566,9110.615743,15906.216610,10119.662895,7716.649201,0.005750,-0.005000,1.011000,192.000000,0.000000,0.000000,0.000000,0.000000,0.000000,0.000000,0.000000,0.000000,0.000000,1772011513.952075,0.000000
24.000000,9407.424558,10684.804402,6274.626407,12569.190570,10022.410455,12978.272197,-9950.057858,-17692.612731,11766.673537,10548.056429,10276.438031,6162.040670,9106.883002,15913.168003,10113.918497,7713.184680,0.005750,-0.005000,1.011000,192.000000,0.000000,0.000000,0.000000,0.000000,0.000000,0.000000,0.000000,0.000000,0.000000,1772011513.952087,0.000000
26.000000,9393.298256,10668.241759,6265.641006,12572.677442,10010.452272,12965.956386,-9950.639004,-17701.687539,11772.909674,10553.733772,10285.490487,6173.641226,9122.730389,15923.069826,10119.886413,7711.798872,0.005750,-0.005000,1.011000,192.000000,0.000000,0.000000,0.000000,0.000000,0.000000,0.000000,0.000000,0.000000,0.000000,1772011513.952100,0.000000
28.000000,9368.174895,10640.547948,6242.462247,12552.337355,9992.570876,12931.400589,-9971.493181,-17727.414397,11746.825188,10519.110920,10249.615937,6145.589786,9092.823755,15884.177790,10105.581296,7700.868869,0.005875,-0.007500,1.009500,192.000000,0.000000,24.000000,127.500000,88.000000,15.500000,64.000000,0.000000,0.000000,0.000000,1772011513.952111,0.000000
30.000000,9392.940628,10661.625643,6271.430108,12568.184742,10026.053789,12956.814522,-9946.034544,-17701.218152,11751.384944,10524.654153,10257.371993,6148.428458,9101.093900,15878.925130,10115.818395,7705.070997,0.005875,-0.007500,1.009500,192.000000,0.000000,0.000000,0.000000,0.000000,0.000000,0.000000,0.000000,0.000000,0.000000,1772011513.952123,0.000000
32.000000,9385.184572,10655.814189,6239.601223,12555.153675,10016.375484,12967.588063,-9966.106411,-17721.938219,11762.873741,10526.777569,10266.290339,6149.166065,9116.002514,15904.495526,10119.618192,7710.860099,0.005875,-0.007500,1.009500,192.000000,0.000000,0.000000,0.000000,0.000000,0.000000,0.000000,0.000000,0.000000,0.000000,1772011513.952134,0.000000
34.000000,9399.735558,10668.018242,6271.966549,12569.615253,10028.445426,12982.541380,-9954.461152,-17706.426109,11763.454886,10523.603621,10252.253443,6140.203016,9111.465110,15898.572314,10115.661933,7716.828014,0.005875,-0.007500,1.009500,192.000000,0.000000,0.000000,0.000000,0.000000,0.000000,0.000000,0.000000,0.000000,0.000000,1772011513.952146,0.000000
36.000000,9418.935706,10688.559495,6280.415509,12574.532637,10026.813749,12988.621055,-9948.292070,-17690.891646,11777.938816,10555.834836,10298.700368,6173.328301,9134.062723,15914.352645,10124.155596,7722.505358,0.005875,-0.007500,1.009500,192.000000,0.000000,0.000000,0.000000,0.000000,0.000000,0.000000,0.000000,0.000000,0.000000,1772011513.952157,0.000000
38.000000,9400.964904,10671.482762,6266.535075,12547.822302,10006.160737,12953.081781,-9966.776963,-17709.242428,11776.105973,10544.591909,10283.367072,6160.185475,9124.652639,15904.942561,10113.270296,7711.485948,0.005938,-0.003750,1.007750,192.000000,0.000000,24.000000,0.000000,0.000000,15.500000,56.000000,0.000000,0.000000,0.000000,1772011513.952168,0.000000
40.000000,9414.912392,10681.652806,6297.358131,12567.290672,10028.914813,12972.639557,-9941.273623,-17688.522361,11777.156505,10545.843607,10285.199915,6157.279749,9110.258116,15905.814279,10123.261526,7703.864003,0.005938,-0.003750,1.007750,192.000000,0.000000,0.000000,0.000000,0.000000,0.000000,0.000000,0.000000,0.000000,0.000000,1772011513.952180,0.000000
42.000000,9392.135965,10662.273844,6266.959759,12560.942776,9998.292923,12957.686240,-9961.166675,-17712.394024,11770.339223,10543.854301,10284.775231,6161.057193,9113.990857,15894.705462,10118.902936,7701.829994,0.005938,-0.003750,1.007750,192.000000,0.000000,0.000000,0.000000,0.000000,0.000000,0.000000,0.000000,0.000000,0.000000,1772011513.952191,0.000000
44.000000,9400.719035,10675.193152,6274.000558,12568.542369,10015.481414,12967.856284,-9950.951928,-17700.681710,11760.415049,10528.900984,10261.954100,6144.829827,9102.077377,15885.720061,10110.699846,7702.545250,0.005938,-0.003750,1.007750,192.000000,0.000000,0.000000,0.000000,0.000000,0.000000,0.000000,0.000000,0.000000,0.000000,1772011513.952202,0.000000
46.000000,9416.409959,10696.784937,6276.347491,12580.120573,10025.785568,12976.260540,-9947.308594,-17688.656472,11776.061270,10561.288662,10291.301941,6179.005644,9124.786749,15912.340988,10119.819357,7713.788177,0.005938,-0.003750,1.007750,192.000000,0.000000,0.000000,0.000000,0.000000,0.000000,0.000000,0.000000,0.000000,0.000000,1772011513.952214,0.000000
48.000000,9410.732616,10683.239780,6260.656567,12566.486009,10019.303563,12968.638595,-9965.525265,-17704.302693,11771.322700,10554.516084,10277.086231,6166.354557,9116.002514,15913.503279,10117.226555,7716.246869,0.006969,-0.004875,1.003875,192.000000,0.000000,32.000000,127.500000,104.000000,15.500000,32.000000,0.000000,0.000000,0.000000,1772011513.952225,0.000000
50.000000,9429.373971,10702.372873,6262.131782,12587.228428,10052.831179,13009.341122,-9941.094809,-17678.039393,11785.381947,10560.774572,10286.473964,6172.635397,9131.358162,15932.234041,10127.240137,7720.717218,0.006969,-0.004875,1.003875,192.000000,0.000000,0.000000,0.000000,0.000000,0.000000,0.000000,0.000000,0.000000,0.000000,1772011513.952237,0.000000
52.000000,9402.395416,10676.735422,6273.151192,12564.720221,10020.041170,12962.983604,-9958.350355,-17699.608827,11794.881439,10562.316842,10285.669301,6177.619836,9147.786695,15926.333180,10125.273183,7723.868814,0.006969,-0.004875,1.003875,192.000000,0.000000,0.000000,0.000000,0.000000,0.000000,0.000000,0.000000,0.000000,0.000000,1772011513.952248,0.000000
54.000000,9412.833680,10683.128021,6274.179372,12575.560817,10019.951763,12971.074935,-9946.727448,-17686.331890,11761.465581,10534.198348,10275.521609,6153.122324,9102.479708,15891.844439,10119.484081,7710.994209,0.006969,-0.004875,1.003875,192.000000,0.000000,0.000000,0.000000,0.000000,0.000000,0.000000,0.000000,0.000000,0.000000,1772011513.952259,0.000000
56.000000,9412.833680,10683.396242,6278.940294,12578.734765,10011.569859,12992.107927,-9944.022887,-17686.823629,11773.289653,10555.097229,10299.214458,6180.838487,9121.076360,15922.935715,10120.109930,7719.219651,0.006969,-0.004875,1.003875,192.000000,0.000000,0.000000,0.000000,0.000000,0.000000,0.000000,0.000000,0.000000,0.000000,1772011513.952271,0.000000
58.000000,9390.727805,10658.406992,6254.800410,12556.226558,10001.690388,12957.708592,-9966.776963,-17717.579629,11765.064211,10526.643458,10272.168848,6150.015432,9106.324209,15904.920209,10112.800910,7712.916459,0.006484,-0.004438,1.002938,192.000000,0.000000,24.000000,127.500000,112.000000,15.500000,40.000000,0.000000,0.000000,0.000000,1772011514.431992,0.000000
60.000000,9402.998913,10672.555646,6275.900456,12567.447134,10024.444464,12972.907778,-9942.726486,-17696.233713,11763.141961,10528.453950,10270.872446,6150.350708,9109.252287,15910.418738,10117.852404,7708.557869,0.006484,-0.004438,1.002938,192.000000,0.000000,0.000000,0.000000,0.000000,0.000000,0.000000,0.000000,0.000000,0.000000,1772011514.432055,0.000000
62.000000,9385.989235,10652.170855,6249.771267,12548.671669,10004.014969,12939.134292,-9966.329928,-17721.245315,11756.369383,10520.474377,10269.263121,6144.941586,9114.102616,15916.029026,10115.885450,7707.239116,0.006484,-0.004438,1.002938,192.000000,0.000000,0.000000,0.000000,0.000000,0.000000,0.000000,0.000000,0.000000,0.000000,1772011514.432101,0.000000
64.000000,9401.344884,10670.029899,6263.003500,12567.894169,10016.599001,12973.935959,-9953.634137,-17705.912019,11754.536540,10516.965153,10253.751010,6136.224405,9105.273677,15892.336177,10108.688189,7706.903840,0.006484,-0.004438,1.002938,192.000000,0.000000,0.000000,0.000000,0.000000,0.000000,0.000000,0.000000,0.000000,0.000000,1772011514.432146,0.000000
66.000000,9424.724808,10692.918085,6253.816933,12576.857218,10025.740865,12991.303264,-9946.235710,-17688.432954,11783.258531,10551.319784,10280.483697,6170.780202,9126.865462,15934.536270,10116.623058,7716.783311,0.006484,-0.004438,1.002938,192.000000,0.000000,0.000000,0.000000,0.000000,0.000000,0.000000,0.000000,0.000000,0.000000,1772011514.432194,0.000000
68.000000,9417.192270,10687.173687,6275.609884,12567.357727,10016.040208,12967.476304,-9961.323137,-17700.592303,11775.010738,10546.245938,10281.802449,6162.577112,9109.766377,15925.930849,10114.454939,7714.548137,0.006484,-0.004438,1.002938,192.000000,0.000000,0.000000,0.000000,0.000000,0.000000,0.000000,0.000000,0.000000,0.000000,1772011514.432240,0.000000
70.000000,9442.829721,10712.140585,6297.782814,12584.926198,10052.987641,12993.225514,-9937.295012,-17675.871274,11797.407186,10563.814409,10299.572086,6177.910409,9138.197796,15941.510015,10126.748398,7717.520919,0.008000,-0.006000,1.010000,192.000000,0.000000,32.000000,127.500000,104.000000,15.500000,72.000000,0.000000,0.000000,0.000000,1772011514.432292,0.000000
72.000000,9412.766625,10684.580885,6273.508820,12565.994271,10030.255917,12980.619130,-9962.954815,-17708.616580,11786.276017,10562.897988,10296.442842,6176.435194,9134.621517,15940.079503,10131.911651,7716.358628,0.008000,-0.006000,1.010000,192.000000,0.000000,0.000000,0.000000,0.000000,0.000000,0.000000,0.000000,0.000000,0.000000,1772011514.432307,0.000000
74.000000,9407.111634,10676.467201,6273.486468,12567.357727,10037.028496,12977.691052,-9956.964547,-17710.360016,11778.475258,10541.641479,10269.419583,6145.522731,9115.823700,15920.007637,10127.731875,7714.212860,0.008000,-0.006000,1.010000,192.000000,0.000000,0.000000,0.000000,0.000000,0.000000,0.000000,0.000000,0.000000,0.000000,1772011514.432318,0.000000
76.000000,9405.345846,10684.044443,6268.882009,12571.291634,10025.115016,12975.053546,-9953.455323,-17708.393062,11777.156505,10549.755162,10284.663473,6161.615987,9125.122026,15922.287514,10130.749360,7716.246869,0.008000,-0.006000,1.010000,192.000000,0.000000,0.000000,0.000000,0.000000,0.000000,0.000000,0.000000,0.000000,0.000000,1772011514.432330,0.000000
78.000000,9390.124308,10664.129038,6255.895645,12553.767866,10007.166565,12949.259633,-9971.671995,-17727.749673,11763.499589,10533.103112,10262.244673,6141.946452,9104.737235,15909.681131,10116.511299,7713.251735,0.008000,-0.006000,1.010000,192.000000,0.000000,0.000000,0.000000,0.000000,0.000000,0.000000,0.000000,0.000000,0.000000,1772011514.432348,0.000000
80.000000,9419.159224,10696.047329,6270.468983,12578.645358,10037.073199,12987.101136,-9944.067591,-17693.775021,11769.109877,10544.301336,10276.281569,6155.692775,9121.881023,15933.329276,10122.367456,7714.794006,0.006000,-0.004000,1.006000,192.000000,0.000000,24.000000,127.500000,112.000000,15.500000,56.000000,0.000000,0.000000,0.000000,1772011514.432359,0.000000
82.000000,9411.313762,10685.944341,6260.991843,12568.609425,10011.391045,12966.358717,-9963.558312,-17706.381405,11797.496593,10555.991299,10281.176601,6170.668444,9131.536976,15940.235965,10118.142977,7720.292535,0.006000,-0.004000,1.006000,192.000000,0.000000,0.000000,0.000000,0.000000,0.000000,0.000000,0.000000,0.000000,0.000000,1772011514.432370,0.000000
84.000000,9421.461454,10695.712053,6287.143384,12578.287730,10010.429920,12980.663834,-9949.923748,-17690.444611,11768.484028,10545.821255,10285.244618,6159.000833,9102.904392,15923.963895,10116.153671,7710.055436,0.006000,-0.004000,1.006000,192.000000,0.000000,0.000000,0.000000,0.000000,0.000000,0.000000,0.000000,0.000000,0.000000,1772011514.432382,0.000000
86.000000,9423.540166,10698.953056,6276.280436,12576.968977,10010.139347,12974.897084,-9946.615690,-17687.494181,11788.868819,10576.756069,10305.629409,6187.588714,9123.423293,15945.220404,10119.104102,7714.548137,0.006000,-0.004000,1.006000,192.000000,0.000000,0.000000,0.000000,0.000000,0.000000,0.000000,0.000000,0.000000,0.000000,1772011514.432393,0.000000
88.000000,9401.054311,10675.394318,6247.245520,12551.376230,10001.511574,12947.046810,-9968.430992,-17712.684597,11774.317834,10547.676450,10274.716946,6157.905597,9110.705150,15916.073730,10110.610439,7701.070035,0.006000,-0.004000,1.006000,192.000000,0.000000,0.000000,0.000000,0.000000,0.000000,0.000000,0.000000,0.000000,0.000000,1772011514.432404,0.000000
90.000000,9407.536317,10681.183419,6284.192954,12568.430611,10026.344362,12968.750354,-9944.358163,-17695.920789,11772.172066,10537.796979,10279.701385,6153.792876,9109.475805,15925.103834,10117.964163,7701.450014,0.008000,-0.008000,1.006000,192.000000,0.000000,32.000000,127.500000,96.000000,15.500000,56.000000,0.000000,0.000000,0.000000,1772011514.432423,0.000000
92.000000,9392.158317,10663.682003,6259.069593,12557.925291,10011.927487,12953.618223,-9965.704079,-17718.652513,11764.080735,10535.360639,10278.136763,6154.642243,9108.626438,15915.023198,10119.819357,7707.730854,0.008000,-0.008000,1.006000,192.000000,0.000000,0.000000,0.000000,0.000000,0.000000,0.000000,0.000000,0.000000,0.000000,1772011514.432434,0.000000
94.000000,9413.191308,10688.872419,6268.949064,12564.116724,10033.318106,12990.364491,-9956.897492,-17703.632141,11765.175970,10530.912641,10261.752935,6139.510112,9103.709054,15928.300134,10115.617229,7715.263392,0.008000,-0.008000,1.006000,192.000000,0.000000,0.000000,0.000000,0.000000,0.000000,0.000000,0.000000,0.000000,0.000000,1772011514.432446,0.000000
96.000000,9418.421616,10690.884076,6272.972378,12567.849465,10045.008069,12989.828049,-9951.510722,-17694.423222,11788.622950,10564.864941,10293.313598,6166.220446,9130.039409,15953.647012,10129.251794,7723.667648,0.008000,-0.008000,1.006000,192.000000,0.000000,0.000000,0.000000,0.000000,0.000000,0.000000,0.000000,0.000000,0.000000,1772011514.432456,0.000000
98.000000,9413.347770,10689.833544,6237.008421,12574.756154,10015.816690,12977.489886,-9966.084059,-17702.268684,11782.498572,10541.842644,10271.855923,6160.341938,9122.193947,15923.740378,10114.410235,7716.626849,0.008000,-0.008000,1.006000,192.000000,0.000000,0.000000,0.000000,0.000000,0.000000,0.000000,0.000000,0.000000,0.000000,1772011514.432468,0.000000
100.000000,9431.229166,10705.099786,6295.614695,12587.429593,10040.761237,12989.448069,-9936.445646,-17670.037469,11789.293502,10561.936863,10291.905438,6181.665502,9126.016095,15937.196128,10118.835881,7718.392637,0.002000,-0.010000,1.010000,192.000000,0.000000,8.000000,127.500000,88.000000,15.500000,72.000000,0.000000,0.000000,0.000000,1772011514.432479,0.000000
102.000000,9415.024151,10683.798573,6271.452459,12565.167256,10014.564993,12958.289737,-9956.271643,-17694.400870,11773.244950,10556.058354,10307.126976,6180.592618,9114.862575,15921.952238,10121.898070,7710.234250,0.002000,-0.010000,1.010000,192.000000,0.000000,0.000000,0.000000,0.000000,0.000000,0.000000,0.000000,0.000000,0.000000,1772011514.432490,0.000000
104.000000,9417.840471,10686.681949,6271.430108,12568.385907,10018.588307,12959.921415,-9947.576815,-17691.383385,11777.625892,10539.473360,10283.434127,6155.022222,9115.242555,15907.714177,10112.532689,7702.813471,0.002000,-0.010000,1.010000,192.000000,0.000000,0.000000,0.000000,0.000000,0.000000,0.000000,0.000000,0.000000,0.000000,1772011514.432501,0.000000
106.000000,9413.794805,10687.486611,6274.715814,12568.296500,10023.326877,12970.985528,-9949.744934,-17698.714757,11780.911598,10552.772647,10295.660531,6168.142696,9118.863537,15937.821977,10122.859195,7704.802776,0.002000,-0.010000,1.010000,192.000000,0.000000,0.000000,0.000000,0.000000,0.000000,0.000000,0.000000,0.000000,0.000000,1772011514.432512,0.000000
108.000000,9395.958113,10673.002681,6266.333910,12556.941814,10015.190842,12957.932110,-9969.414469,-17721.714702,11769.132229,10540.054505,10268.860789,6149.434286,9107.128871,15919.270029,10119.618192,7706.903840,0.002000,-0.010000,1.010000,192.000000,0.000000,0.000000,0.000000,0.000000,0.000000,0.000000,0.000000,0.000000,0.000000,1772011514.432523,0.000000
110.000000,9419.762721,10692.426347,6285.534058,12575.247893,10048.003202,12982.295511,-9945.229881,-17695.317292,11773.066136,10548.347002,10278.360281,6158.039708,9114.639057,15935.407988,10130.279974,7709.720160,0.004000,-0.010000,1.008000,192.000000,0.000000,16.000000,127.500000,88.000000,15.500000,64.000000,0.000000,0.000000,0.000000,1772011514.432535,0.000000
112.000000,9415.471186,10685.832582,6259.807200,12565.100201,10035.687391,12959.921415,-9963.960643,-17709.242428,11781.202171,10552.169150,10284.417604,6163.493534,9132.296936,15927.741340,10130.615250,7713.944639,0.004000,-0.010000,1.008000,192.000000,0.000000,0.000000,0.000000,0.000000,0.000000,0.000000,0.000000,0.000000,0.000000,1772011514.432546,0.000000
114.000000,9435.498349,10703.423405,6271.765384,12582.691024,10045.410400,13008.871735,-9950.639004,-17687.605940,11785.896037,10553.398496,10278.002653,6160.476048,9125.099674,15923.494509,10125.116721,7714.838709,0.004000,-0.010000,1.008000,192.000000,0.000000,0.000000,0.000000,0.000000,0.000000,0.000000,0.000000,0.000000,0.000000,1772011514.432557,0.000000
116.000000,9431.050352,10697.991931,6293.804204,12579.807649,10043.912833,13011.553945,-9945.676916,-17683.157943,11810.013570,10574.096212,10308.512784,6189.399205,9151.787657,15966.923948,10132.269279,7726.036933,0.004000,-0.010000,1.008000,192.000000,0.000000,0.000000,0.000000,0.000000,0.000000,0.000000,0.000000,0.000000,0.000000,1772011514.432568,0.000000
118.000000,9406.083453,10676.511905,6267.518552,12560.562797,10013.737978,12968.012746,-9965.391155,-17708.929504,11778.542313,10547.005897,10290.698444,6159.805496,9116.784825,15930.065922,10122.546270,7713.430549,0.004000,-0.010000,1.008000,192.000000,0.000000,0.000000,0.000000,0.000000,0.000000,0.000000,0.000000,0.000000,0.000000,1772011514.432580,0.000000
120.000000,9409.860898,10679.462335,6281.086061,12570.375212,10033.161644,12982.519028,-9943.911129,-17699.675882,11770.942720,10542.535549,10281.780098,6157.972653,9119.221165,15922.868660,10121.607497,7707.060302,0.004000,-0.010000,1.008000,192.000000,0.000000,0.000000,127.500000,80.000000,15.500000,64.000000,0.000000,0.000000,0.000000,1772011514.432590,0.000000
122.000000,9385.966883,10655.277748,6254.241616,12541.385000,10015.347304,12959.630842,-9969.503876,-17729.761330,11762.024374,10530.778531,10270.715984,6145.634490,9114.169671,15924.433282,10119.685247,7704.400445,0.004000,-0.010000,1.008000,192.000000,0.000000,0.000000,0.000000,0.000000,0.000000,0.000000,0.000000,0.000000,0.000000,1772011514.432603,0.000000
124.000000,9405.658770,10676.042518,6261.483581,12567.782410,10025.919679,12978.562770,-9956.897492,-17711.008216,11763.454886,10525.369409,10256.410868,6132.893995,9112.672104,15908.563543,10115.103139,7701.450014,0.004000,-0.010000,1.008000,192.000000,0.000000,0.000000,0.000000,0.000000,0.000000,0.000000,0.000000,0.000000,0.000000,1772011514.432614,0.000000
126.000000,9414.130081,10683.105669,6272.592398,12571.693965,10027.104321,12978.875694,-9950.884873,-17700.637007,11777.581188,10552.616185,10288.731490,6165.393432,9128.027752,15941.420608,10121.048703,7709.206070,0.004000,-0.010000,1.008000,192.000000,0.000000,0.000000,0.000000,0.000000,0.000000,0.000000,0.000000,0.000000,0.000000,1772011514.432625,0.000000
128.000000,9405.234087,10673.963806,6252.855808,12562.015660,10011.011065,12957.082743,-9968.900379,-17715.456213,11768.506380,10536.992316,10270.917150,6149.702507,9105.363084,15930.334142,10110.230459,7706.836785,0.004000,-0.010000,1.008000,192.000000,0.000000,0.000000,0.000000,0.000000,0.000000,0.000000,0.000000,0.000000,0.000000,1772011514.432636,0.000000
130.000000,9428.993991,10698.371911,6289.669131,12582.735727,10033.228699,12981.066165,-9940.066628,-17682.979129,11774.228427,10549.665755,10288.105641,6165.616949,9109.967543,15920.454671,10115.259602,7707.552041,-0.004000,-0.016000,1.008000,192.000000,127.500000,112.000000,127.500000,64.000000,15.500000,64.000000,0.000000,0.000000,0.000000,1772011514.432647,0.000000
132.000000,9418.242802,10690.124117,6267.183276,12567.223617,10021.158757,12968.973871,-9958.685632,-17699.854696,11783.236180,10555.365450,10295.369958,6175.362310,9123.892680,15928.344837,10114.924325,7708.267296,-0.004000,-0.016000,1.008000,192.000000,0.000000,0.000000,0.000000,0.000000,0.000000,0.000000,0.000000,0.000000,0.000000,1772011514.432658,0.000000
134.000000,9427.876404,10699.355388,6257.393212,12575.806686,10035.776798,12991.191505,-9952.561254,-17692.970358,11781.559799,10547.117656,10273.442897,6158.777315,9113.588525,15931.272916,10112.242116,7705.272163,-0.004000,-0.016000,1.008000,192.000000,0.000000,0.000000,0.000000,0.000000,0.000000,0.000000,0.000000,0.000000,0.000000,1772011514.432670,0.000000
136.000000,9418.868651,10692.694568,6284.528230,12568.721183,10032.982830,12981.915531,-9952.047163,-17697.641873,11793.070947,10564.931996,10292.575990,6175.988159,9136.186139,15942.806416,10122.926250,7709.675456,-0.004000,-0.016000,1.008000,192.000000,0.000000,0.000000,0.000000,0.000000,0.000000,0.000000,0.000000,0.000000,0.000000,1772011514.432683,0.000000
138.000000,9402.618933,10676.847181,6258.220227,12549.766904,10022.991600,12958.021517,-9975.807068,-17726.028589,11770.383927,10539.406304,10269.129010,6144.494551,9112.403883,15923.069826,10119.282916,7704.914535,-0.004000,-0.016000,1.008000,192.000000,0.000000,0.000000,0.000000,0.000000,0.000000,0.000000,0.000000,0.000000,0.000000,1772011514.432695,0.000000
140.000000,9423.339000,10699.824774,6277.643892,12579.919407,10044.203406,13003.976703,-9950.191969,-17698.915923,11771.121534,10553.778476,10271.408888,6154.396374,9121.679857,15942.761712,10123.708561,7711.731817,-0.003000,-0.016000,1.005000,192.000000,127.500000,120.000000,127.500000,64.000000,15.500000,40.000000,0.000000,0.000000,0.000000,1772011514.432706,0.000000
142.000000,9402.283657,10673.337957,6257.616729,12562.641509,10022.544566,12978.965101,-9969.794449,-17719.323065,11784.264360,10557.868845,10281.288359,6163.135906,9130.128816,15936.771445,10118.791177,7715.084578,-0.003000,-0.016000,1.005000,192.000000,0.000000,0.000000,0.000000,0.000000,0.000000,0.000000,0.000000,0.000000,0.000000,1772011514.432717,0.000000
144.000000,9412.029017,10682.703338,6268.792602,12566.575416,10033.921603,12984.754203,-9956.249291,-17703.162754,11766.919406,10532.745484,10264.032813,6140.426533,9106.994761,15918.040683,10115.997209,7708.513166,-0.003000,-0.016000,1.005000,192.000000,0.000000,0.000000,0.000000,0.000000,0.000000,0.000000,0.000000,0.000000,0.000000,1772011514.432728,0.000000
146.000000,9422.959020,10695.868515,6282.561276,12578.131268,10029.048923,12988.665758,-9949.096733,-17690.668129,11779.615197,10554.069049,10296.644008,6170.467278,9119.288220,15937.129073,10122.501567,7711.664762,-0.003000,-0.016000,1.005000,192.000000,0.000000,0.000000,0.000000,0.000000,0.000000,0.000000,0.000000,0.000000,0.000000,1772011514.432739,0.000000
148.000000,9416.924049,10690.034710,6256.007404,12564.831980,10021.382275,12978.965101,-9967.738088,-17706.448460,11776.329491,10552.258557,10278.449688,6162.621816,9118.684723,15936.480872,10112.376226,7709.429587,-0.003000,-0.016000,1.005000,192.000000,0.000000,0.000000,0.000000,0.000000,0.000000,0.000000,0.000000,0.000000,0.000000,1772011514.432750,0.000000
150.000000,9436.615936,10705.189193,6270.826610,12582.109878,10043.175226,12990.208029,-9944.313460,-17683.403812,11800.603485,10565.893121,10284.998749,6173.060080,9135.828511,15945.287460,10121.495738,7713.966991,-0.003000,-0.016000,1.005000,192.000000,0.000000,0.000000,127.500000,64.000000,15.500000,80.000000,0.000000,0.000000,0.000000,1772011514.432761,0.000000
152.000000,9398.908543,10669.336995,6267.429145,12558.193512,10007.926525,12958.222682,-9967.603978,-17718.272533,11775.189552,10548.503464,10283.121202,6163.538237,9115.220203,15928.881279,10119.059398,7705.115700,-0.003000,-0.016000,1.005000,192.000000,0.000000,0.000000,0.000000,0.000000,0.000000,0.000000,0.000000,0.000000,0.000000,1772011514.432772,0.000000
154.000000,9403.602410,10667.481800,6261.707099,12558.729954,10018.074217,12970.873770,-9961.814876,-17718.808975,11752.636642,10522.128406,10253.147513,6131.329373,9090.610932,15917.437186,10109.805776,7698.343122,-0.003000,-0.016000,1.005000,192.000000,0.000000,0.000000,0.000000,0.000000,0.000000,0.000000,0.000000,0.000000,0.000000,1772011514.432784,0.000000
156.000000,9412.766625,10681.608103,6265.439840,12566.553064,10021.896365,12979.613302,-9953.656489,-17707.655455,11763.231368,10541.105037,10276.281569,6153.234083,9109.386398,15936.950259,10113.225593,7704.691017,-0.003000,-0.016000,1.005000,192.000000,0.000000,0.000000,0.000000,0.000000,0.000000,0.000000,0.000000,0.000000,0.000000,1772011514.432796,0.000000
158.000000,9409.793843,10681.362233,6242.305785,12559.154637,10017.984810,12964.704688,-9971.247312,-17719.881859,11765.779467,10536.835854,10263.652833,6144.651013,9110.414578,15912.072767,10109.358741,7703.171099,-0.003000,-0.016000,1.005000,192.000000,0.000000,0.000000,0.000000,0.000000,0.000000,0.000000,0.000000,0.000000,0.000000,1772011514.432807,0.000000
160.000000,9431.251518,10703.602219,6272.793564,12586.155544,10037.564938,13009.162308,-9944.693440,-17689.617597,11782.833848,10561.758049,10273.331138,6164.186438,9125.479654,15949.444884,10114.767863,7714.257564,-0.000500,-0.015000,1.004500,192.000000,0.000000,8.000000,127.500000,72.000000,15.500000,48.000000,0.000000,0.000000,0.000000,1772011514.432819,0.000000
162.000000,9420.187404,10691.107594,6269.910189,12575.292596,10023.751560,12985.134183,-9962.641890,-17704.369748,11782.945607,10568.485924,10289.044415,6174.736461,9114.572002,15963.459428,10115.572526,7716.448035,-0.000500,-0.015000,1.004500,192.000000,0.000000,0.000000,0.000000,0.000000,0.000000,0.000000,0.000000,0.000000,0.000000,1772011514.432830,0.000000
164.000000,9433.799617,10703.423405,6276.571009,12577.907750,10039.330726,12985.223590,-9954.125876,-17691.025757,11782.498572,10557.242996,10278.539095,6161.794801,9117.567136,15931.965820,10117.405369,7709.407235,-0.000500,-0.015000,1.004500,192.000000,0.000000,0.000000,0.000000,0.000000,0.000000,0.000000,0.000000,0.000000,0.000000,1772011514.432841,0.000000
166.000000,9433.464340,10702.149356,6264.076384,12576.611349,10037.453179,12990.565656,-9951.510722,-17691.875123,11794.210886,10569.245883,10300.890839,6178.759775,9134.777979,15962.431248,10126.033142,7712.335314,-0.000500,-0.015000,1.004500,192.000000,0.000000,0.000000,0.000000,0.000000,0.000000,0.000000,0.000000,0.000000,0.000000,1772011514.432853,0.000000
168.000000,9402.484823,10668.644091,6265.819820,12551.309174,10014.520289,12952.500636,-9972.431954,-17723.592248,11782.051537,10543.027287,10272.146496,6149.389583,9115.711941,15921.080520,10115.013732,7704.869831,-0.000500,-0.015000,1.004500,192.000000,0.000000,0.000000,0.000000,0.000000,0.000000,0.000000,0.000000,0.000000,0.000000,1772011514.432863,0.000000
170.000000,9416.700532,10686.391376,6279.901419,12573.817381,10046.684450,12983.323691,-9947.241538,-17701.396966,11770.920369,10540.054505,10281.042490,6146.461504,9113.744988,15922.131052,10126.636639,7700.175965,-0.001250,-0.016500,1.005250,192.000000,127.500000,120.000000,127.500000,56.000000,15.500000,56.000000,0.000000,0.000000,0.000000,1772011514.432874,0.000000
172.000000,9399.646151,10672.130963,6253.526360,12559.087582,10025.226775,12962.290700,-9968.229826,-17720.574763,11771.859142,10541.909700,10278.829667,6153.301138,9116.114273,15935.653858,10123.552099,7705.898011,-0.001250,-0.016500,1.005250,192.000000,0.000000,0.000000,0.000000,0.000000,0.000000,0.000000,0.000000,0.000000,0.000000,1772011514.432885,0.000000
174.000000,9422.690800,10695.220315,6267.943235,12572.856256,10038.526063,12985.827087,-9954.975242,-17696.501934,11770.719203,10536.388819,10268.078478,6146.685022,9118.282392,15921.326389,10118.165328,7707.797910,-0.001250,-0.016500,1.005250,192.000000,0.000000,0.000000,0.000000,0.000000,0.000000,0.000000,0.000000,0.000000,0.000000,1772011514.432896,0.000000
176.000000,9439.923995,10707.178498,6284.461175,12577.818343,10042.214101,12990.722119,-9945.006364,-17678.151152,11799.575305,10567.122467,10306.411720,6180.771432,9129.994706,15946.628564,10128.313020,7713.519956,-0.001250,-0.016500,1.005250,192.000000,0.000000,0.000000,0.000000,0.000000,0.000000,0.000000,0.000000,0.000000,0.000000,1772011514.432908,0.000000
178.000000,9431.810311,10700.316513,6263.227017,12558.841712,10027.797225,12969.599720,-9963.312443,-17694.020890,11793.562686,10555.119581,10297.605133,6167.472144,9128.273622,15932.166986,10119.618192,7710.994209,-0.001250,-0.016500,1.005250,192.000000,0.000000,0.000000,0.000000,0.000000,0.000000,0.000000,0.000000,0.000000,0.000000,1772011514.912104,0.000000
180.000000,9439.186387,10712.297048,6285.288189,12589.351844,10049.791342,12996.444165,-9939.083152,-17677.525303,11793.003892,10560.908682,10299.303865,6173.954150,9125.792578,15940.571241,10124.692038,7711.575355,0.000375,-0.013250,1.007625,192.000000,0.000000,8.000000,127.500000,88.000000,15.500000,72.000000,0.000000,0.000000,0.000000,1772011514.912169,0.000000
182.000000,9409.749140,10684.759698,6258.868427,12561.188646,10021.270516,12970.493790,-9965.011175,-17710.896458,11780.732784,10554.963118,10288.329159,6169.416746,9117.991819,15941.062980,10121.361628,7710.614230,0.000375,-0.013250,1.007625,192.000000,0.000000,0.000000,0.000000,0.000000,0.000000,0.000000,0.000000,0.000000,0.000000,1772011514.912211,0.000000
184.000000,9409.615029,10679.149411,6248.206645,12563.423820,10033.474569,12967.677470,-9958.953853,-17711.589362,11778.743479,10530.711476,10255.539150,6137.453751,9109.364046,15923.069826,10116.019561,7701.874697,0.000375,-0.013250,1.007625,192.000000,0.000000,0.000000,0.000000,0.000000,0.000000,0.000000,0.000000,0.000000,0.000000,1772011514.912253,0.000000
186.000000,9404.518831,10675.662538,6274.492297,12563.222654,10042.214101,12971.812543,-9954.908187,-17712.394024,11765.578302,10540.300374,10277.957949,6151.512999,9111.599220,15927.495471,10125.742570,7703.439320,0.000375,-0.013250,1.007625,192.000000,0.000000,0.000000,0.000000,0.000000,0.000000,0.000000,0.000000,0.000000,0.000000,1772011514.912296,0.000000
188.000000,9412.006666,10687.352501,6254.398078,12561.345108,10026.612583,12967.498656,-9969.548579,-17717.110242,11764.192493,10532.946650,10264.412792,6139.644222,9100.848031,15913.659741,10122.009828,7708.557869,0.000375,-0.013250,1.007625,192.000000,0.000000,0.000000,0.000000,0.000000,0.000000,0.000000,0.000000,0.000000,0.000000,1772011514.912308,0.000000
190.000000,9442.136817,10721.125987,6277.286265,12587.697814,10054.418153,13000.981569,-9940.401905,-17682.375632,11785.158430,10557.444162,10283.836458,6165.058156,9120.785787,15942.068808,10129.162387,7714.078750,0.000375,-0.013250,1.007625,192.000000,0.000000,0.000000,127.500000,80.000000,15.500000,72.000000,0.000000,0.000000,0.000000,1772011514.912324,0.000000
192.000000,9430.715076,10705.300952,6257.683785,12577.036032,10040.224795,12973.734793,-9958.216245,-17699.005329,11791.215753,10566.094287,10290.407871,6178.066871,9129.637078,15943.767541,10128.447131,7721.231308,0.000375,-0.013250,1.007625,192.000000,0.000000,0.000000,0.000000,0.000000,0.000000,0.000000,0.000000,0.000000,0.000000,1772011514.912344,0.000000
194.000000,9438.337021,10708.921934,6277.532134,12582.959245,10048.114961,12999.104023,-9949.141437,-17693.059765,11791.416918,10557.287700,10277.868542,6162.979443,9116.471901,15944.393390,10126.100198,7717.520919,0.000375,-0.013250,1.007625,192.000000,0.000000,0.000000,0.000000,0.000000,0.000000,0.000000,0.000000,0.000000,0.000000,1772011514.912362,0.000000
196.000000,9444.997841,10714.442815,6272.771212,12583.652149,10052.317089,13002.255619,-9944.559329,-17687.561236,11799.508250,10577.516029,10301.963723,6183.498345,9139.427142,15977.071640,10135.018544,7722.304192,0.000375,-0.013250,1.007625,192.000000,0.000000,0.000000,0.000000,0.000000,0.000000,0.000000,0.000000,0.000000,0.000000,1772011514.912416,0.000000
198.000000,9422.959020,10696.047329,6258.823724,12561.903901,10031.619374,12966.157552,-9966.240521,-17712.863411,11785.113726,10557.153589,10280.841324,6156.206865,9127.223090,15943.745189,10127.530709,7712.670590,0.000375,-0.013250,1.007625,192.000000,0.000000,0.000000,0.000000,0.000000,0.000000,0.000000,0.000000,0.000000,0.000000,1772011514.912473,0.000000
200.000000,9440.035753,10711.581792,6274.648759,12579.651186,10047.958499,12993.158459,-9943.061762,-17691.003405,11790.008758,10555.320746,10288.485621,6154.955167,9114.683761,15925.930849,10130.525843,7704.489852,-0.000813,-0.014625,1.007812,192.000000,127.500000,120.000000,127.500000,64.000000,15.500000,64.000000,0.000000,0.000000,0.000000,1772011514.912492,0.000000
202.000000,9413.861860,10685.787879,6269.664320,12554.773695,10030.613545,12958.245034,-9964.027699,-17717.356112,11794.702625,10559.612281,10281.176601,6157.078583,9119.399979,15930.289439,10128.894166,7709.831918,-0.000813,-0.014625,1.007812,192.000000,0.000000,0.000000,0.000000,0.000000,0.000000,0.000000,0.000000,0.000000,0.000000,1772011514.912509,0.000000
204.000000,9420.612087,10694.773280,6271.184238,12573.012718,10039.800112,12983.346043,-9954.170579,-17707.253123,11763.901921,10537.238185,10266.871484,6136.112647,9099.283409,15916.967799,10125.608459,7704.042817,-0.000813,-0.014625,1.007812,192.000000,0.000000,0.000000,0.000000,0.000000,0.000000,0.000000,0.000000,0.000000,0.000000,1772011514.912526,0.000000
206.000000,9434.403114,10710.732426,6273.307654,12582.758079,10045.499807,12990.967988,-9945.565158,-17692.657434,11782.431517,10567.748316,10291.614865,6170.377871,9126.261965,15946.069771,10132.246927,7713.788177,-0.000813,-0.014625,1.007812,192.000000,0.000000,0.000000,0.000000,0.000000,0.000000,0.000000,0.000000,0.000000,0.000000,1772011514.912544,0.000000
208.000000,9429.999820,10706.552649,6250.195950,12579.293559,10026.456121,12971.186694,-9961.680765,-17701.464021,11783.996139,10558.919377,10279.455516,6162.174781,9119.958773,15931.049398,10119.573488,7714.235212,-0.000813,-0.014625,1.007812,192.000000,0.000000,0.000000,0.000000,0.000000,0.000000,0.000000,0.000000,0.000000,0.000000,1772011514.912561,0.000000
210.000000,9449.691707,10721.505966,6291.211401,12591.966998,10050.461894,13000.690997,-9936.020963,-17673.412582,11798.234200,10568.396517,10297.739243,6173.104784,9124.406770,15942.158215,10127.441302,7716.448035,-0.000813,-0.014625,1.007812,192.000000,0.000000,0.000000,0.000000,0.000000,0.000000,0.000000,0.000000,0.000000,0.000000,1772011514.912579,0.000000
212.000000,9419.941535,10697.924876,6261.729450,12568.788239,10030.546490,12981.937883,-9961.636062,-17707.655455,11784.711395,10567.681261,10297.828650,6173.484763,9121.344581,15952.663535,10129.117683,7715.665724,-0.000813,-0.014625,1.007812,192.000000,0.000000,0.000000,127.500000,72.000000,15.500000,64.000000,0.000000,0.000000,0.000000,1772011514.912596,0.000000
214.000000,9420.545032,10697.567248,6270.089003,12567.514189,10030.322973,12973.444220,-9953.924710,-17706.537867,11770.965072,10540.210967,10267.407926,6142.326432,9104.267848,15932.636372,10126.860157,7708.043779,-0.000813,-0.014625,1.007812,192.000000,0.000000,0.000000,0.000000,0.000000,0.000000,0.000000,0.000000,0.000000,0.000000,1772011514.912613,0.000000
216.000000,9424.233070,10702.976370,6262.802334,12573.280939,10035.665039,12973.645386,-9948.761457,-17700.681710,11782.498572,10555.566616,10288.686787,6164.991100,9123.624459,15933.463387,10129.184738,7705.182756,-0.000813,-0.014625,1.007812,192.000000,0.000000,0.000000,0.000000,0.000000,0.000000,0.000000,0.000000,0.000000,0.000000,1772011514.912630,0.000000
218.000000,9408.408035,10683.239780,6253.347546,12551.957375,10018.118920,12953.439409,-9968.498047,-17720.150080,11762.426706,10531.538490,10266.737374,6141.298251,9095.483612,15920.477023,10123.395636,7701.852346,-0.000813,-0.014625,1.007812,192.000000,0.000000,0.000000,0.000000,0.000000,0.000000,0.000000,0.000000,0.000000,0.000000,1772011514.912652,0.000000
220.000000,9434.961907,10708.251382,6259.986014,12584.657977,10046.259766,12994.857191,-9941.720658,-17686.845981,11779.369328,10549.553996,10277.510915,6150.887150,9108.827604,15927.160195,10126.211956,7708.602573,-0.000813,-0.014625,1.007812,192.000000,0.000000,0.000000,0.000000,0.000000,0.000000,0.000000,0.000000,0.000000,0.000000,1772011514.912670,0.000000
222.000000,9416.946401,10695.354425,6270.536038,12573.415050,10026.858452,12966.805752,-9958.775039,-17703.878010,11774.228427,10552.057392,10287.904476,6170.042595,9111.599220,15926.132015,10124.513224,7714.615192,-0.000813,-0.014625,1.007812,192.000000,0.000000,0.000000,127.500000,88.000000,15.500000,32.000000,0.000000,0.000000,0.000000,1772011514.912687,0.000000
224.000000,9444.707268,10725.439873,6260.164828,12585.954378,10053.077048,12993.381976,-9948.314422,-17684.297882,11781.515095,10546.558863,10277.108583,6157.883246,9119.176462,15943.409913,10125.161424,7714.101102,-0.000813,-0.014625,1.007812,192.000000,0.000000,0.000000,0.000000,0.000000,0.000000,0.000000,0.000000,0.000000,0.000000,1772011514.912705,0.000000
226.000000,9451.278681,10734.425275,6291.569029,12587.049614,10049.210197,12994.320750,-9941.810065,-17673.211416,11800.312913,10583.752165,10310.971476,6193.981313,9137.482540,15970.187303,10137.209015,7722.907689,-0.000813,-0.014625,1.007812,192.000000,0.000000,0.000000,0.000000,0.000000,0.000000,0.000000,0.000000,0.000000,0.000000,1772011514.912722,0.000000
228.000000,9434.693686,10718.332019,6262.288244,12573.415050,10022.768083,12971.030232,-9960.652585,-17694.199704,11782.945607,10566.071935,10291.301941,6176.301083,9107.575906,15922.846308,10130.011753,7708.848442,-0.000813,-0.014625,1.007812,192.000000,0.000000,0.000000,0.000000,0.000000,0.000000,0.000000,0.000000,0.000000,0.000000,1772011514.912739,0.000000
230.000000,9442.829721,10722.601202,6280.102584,12582.758079,10040.113037,12991.884409,-9937.272660,-17678.888759,11785.896037,10566.720136,10293.514764,6172.836563,9113.454415,15933.396331,10126.927212,7707.932020,-0.000813,-0.014625,1.007812,192.000000,0.000000,0.000000,0.000000,0.000000,0.000000,0.000000,0.000000,0.000000,0.000000,1772011514.912756,0.000000
232.000000,9418.421616,10694.862687,6257.862599,12559.400506,10025.293830,12957.082743,-9962.597187,-17712.349321,11779.436383,10553.666717,10289.178525,6163.471182,9115.555479,15926.534346,10125.273183,7703.260506,-0.000813,-0.014625,1.007812,192.000000,0.000000,0.000000,127.500000,120.000000,15.500000,40.000000,0.000000,0.000000,0.000000,1772011514.912774,0.000000
234.000000,9426.356486,10704.675103,6269.932541,12563.982614,10042.728191,12963.743563,-9955.824608,-17706.828440,11774.407241,10533.170168,10267.944368,6138.280766,9107.084168,15905.434299,10124.468520,7698.879564,-0.000813,-0.014625,1.007812,192.000000,0.000000,0.000000,0.000000,0.000000,0.000000,0.000000,0.000000,0.000000,0.000000,1772011514.912791,0.000000
