Sample_index,EXG Channel 0,EXG Channel 1,EXG Channel 2,EXG Channel 3,EXG Channel 4,EXG Channel 5,EXG Channel 6,EXG Channel 7,EXG Channel 8,EXG Channel 9,EXG Channel 10,EXG Channel 11,EXG Channel 12,EXG Channel 13,EXG Channel 14,EXG Channel 15,Accel Channel 0,Accel Channel 1,Accel Channel 2,Not Used,Digital Channel 0 (D11),Digital Channel 1 (D12),Digital Channel 2 (D13),Digital Channel 3 (D17),Not Used,Digital Channel 4 (D18),Analog Channel 0,Analog Channel 1,Analog Channel 2,Timestamp,Marker Channel
210.000000,9792.388653,13669.946929,9286.591028,13545.760637,4339.010041,16159.283061,-8808.666028,-14961.877759,11203.387225,13216.698255,14222.035017,6536.924128,8778.804097,17383.957491,12792.015110,9307.869888,-0.004000,-0.008000,1.006000,192.000000,0.000000,0.000000,0.000000,0.000000,0.000000,0.000000,0.000000,0.000000,0.000000,1772010507.272378,101.000000
212.000000,9809.733607,13696.724319,9298.929191,13570.235797,4354.388041,16190.642558,-8781.821583,-14929.423026,11215.747740,13233.663229,14232.942669,6553.017384,8787.230705,17402.196515,12799.212372,9313.323714,-0.004000,-0.008000,1.006000,192.000000,0.000000,0.000000,0.000000,0.000000,0.000000,0.000000,0.000000,0.000000,0.000000,1772010507.272482,0.000000
214.000000,9789.728795,13684.386156,9285.093461,13553.539044,4334.696154,16170.593044,-8803.346312,-14951.350087,11229.851691,13254.807979,14230.439273,6564.416774,8800.015903,17433.645419,12790.897523,9313.591935,-0.004000,-0.008000,1.006000,192.000000,0.000000,0.000000,0.000000,0.000000,0.000000,0.000000,0.000000,0.000000,0.000000,1772010507.272569,0.000000
216.000000,9805.889106,13695.785546,9310.105063,13568.291195,4342.742782,16195.917570,-8787.163649,-14932.328753,11191.652559,13222.554412,14226.214793,6548.457628,8770.399841,17420.726111,12795.412576,9314.441301,0.002000,-0.012000,1.006000,192.000000,0.000000,8.000000,127.500000,80.000000,15.500000,56.000000,0.000000,0.000000,0.000000,1772010507.272646,0.000000
218.000000,9808.817185,13697.663092,9305.612362,13562.122114,4342.519265,16190.977835,-8790.806984,-14934.385113,11226.007190,13252.818674,14249.326497,6574.586818,8793.288027,17420.033207,12794.406747,9323.381999,0.002000,-0.012000,1.006000,192.000000,0.000000,0.000000,0.000000,0.000000,0.000000,0.000000,0.000000,0.000000,0.000000,1772010507.272732,0.000000
220.000000,9794.445013,13685.973130,9292.558943,13549.560434,4333.645622,16167.843779,-8806.319094,-14951.819474,11212.886716,13233.171491,14228.494671,6546.982413,8785.017882,17410.511364,12793.691491,9310.663856,0.002000,-0.012000,1.006000,192.000000,0.000000,0.000000,0.000000,0.000000,0.000000,0.000000,0.000000,0.000000,0.000000,1772010507.272818,0.000000
222.000000,9806.850232,13710.984732,9309.970952,13568.268844,4347.168427,16177.902064,-8780.860458,-14925.265601,11219.234612,13248.281270,14237.949459,6561.399288,8787.253056,17425.241163,12798.430061,9311.960258,0.002000,-0.012000,1.006000,192.000000,0.000000,0.000000,0.000000,0.000000,0.000000,0.000000,0.000000,0.000000,0.000000,1772010507.272904,0.000000
224.000000,9785.258446,13673.947891,9288.803850,13548.956936,4327.007154,16159.685392,-8804.016865,-14951.193625,11209.913934,13230.086950,14234.060256,6555.699594,8776.725385,17402.710605,12792.037462,9309.345103,0.002000,-0.012000,1.006000,192.000000,0.000000,0.000000,0.000000,0.000000,0.000000,0.000000,0.000000,0.000000,0.000000,1772010507.272933,0.000000
226.000000,9801.597572,13696.053767,9298.884487,13564.044364,4345.246177,16179.109058,-8788.750623,-14933.625154,11202.001417,13224.163738,14221.476224,6546.781247,8783.922647,17402.442384,12793.244456,9310.060359,0.006000,-0.012000,1.014000,192.000000,0.000000,24.000000,127.500000,80.000000,15.500000,88.000000,0.000000,0.000000,0.000000,1772010507.272957,0.000000
228.000000,9802.111662,13697.864258,9306.662894,13558.545835,4342.653375,16187.423907,-8789.711748,-14934.251003,11221.089807,13248.840064,14245.258480,6570.965835,8795.389091,17429.733864,12796.150183,9320.655086,0.006000,-0.012000,1.014000,192.000000,0.000000,0.000000,0.000000,0.000000,0.000000,0.000000,0.000000,0.000000,0.000000,1772010507.272981,0.000000
230.000000,9800.927019,13694.600903,9288.066243,13560.222216,4326.090732,16177.678547,-8799.501812,-14942.051761,11204.907144,13233.015029,14226.170090,6552.637405,8771.785649,17428.728036,12792.149221,9316.184737,0.006000,-0.012000,1.014000,192.000000,0.000000,0.000000,0.000000,0.000000,0.000000,0.000000,0.000000,0.000000,0.000000,1772010507.273005,0.000000
232.000000,9815.813281,13714.985694,9316.676476,13579.489419,4344.687384,16191.827201,-8772.925588,-14909.395863,11221.536842,13250.985831,14242.442160,6577.604303,8792.528068,17412.187745,12791.389262,9318.285801,0.006000,-0.012000,1.014000,192.000000,0.000000,0.000000,0.000000,0.000000,0.000000,0.000000,0.000000,0.000000,0.000000,1772010507.273028,0.000000
234.000000,9793.260371,13692.253970,9294.101214,13554.611928,4331.633965,16158.657212,-8795.724368,-14934.586279,11204.773033,13248.616546,14245.079666,6578.386614,8768.656405,17405.258704,12792.328035,9315.201260,0.006000,-0.012000,1.014000,192.000000,0.000000,0.000000,0.000000,0.000000,0.000000,0.000000,0.000000,0.000000,0.000000,1772010507.273067,0.000000
236.000000,9806.246734,13699.093604,9294.257676,13567.397126,4340.842884,16178.639672,-8781.978045,-14924.975029,11222.609725,13231.584517,14225.723055,6557.666547,8779.429946,17418.714454,12789.623474,9311.245002,0.006000,-0.012000,1.015000,192.000000,0.000000,24.000000,127.500000,80.000000,15.500000,96.000000,0.000000,0.000000,0.000000,1772010507.273091,0.000000
238.000000,9798.311865,13689.258836,9313.770749,13562.055059,4333.757381,16172.872922,-8785.308455,-14935.614459,11208.863402,13239.720552,14251.986355,6568.417736,8785.017882,17397.525000,12790.562247,9307.713426,0.006000,-0.012000,1.015000,192.000000,0.000000,0.000000,0.000000,0.000000,0.000000,0.000000,0.000000,0.000000,0.000000,1772010507.273115,0.000000
240.000000,9786.443089,13670.215150,9293.251847,13545.715934,4327.990631,16152.398724,-8801.066435,-14954.859311,11200.213277,13216.944124,14226.460663,6541.975622,8771.852705,17395.915675,12787.812983,9303.533650,0.006000,-0.012000,1.015000,192.000000,0.000000,0.000000,0.000000,0.000000,0.000000,0.000000,0.000000,0.000000,0.000000,1772010507.273138,0.000000
242.000000,9802.469290,13691.650473,9312.921383,13555.595405,4350.677651,16181.657157,-8779.608760,-14929.199508,11215.345408,13232.433883,14237.301259,6553.643233,8784.660254,17439.859204,12797.692454,9312.653162,0.006000,-0.012000,1.015000,192.000000,0.000000,0.000000,0.000000,0.000000,0.000000,0.000000,0.000000,0.000000,0.000000,1772010507.273162,0.000000
244.000000,9783.537362,13672.517380,9284.780536,13559.976346,4337.356012,16173.409363,-8803.234554,-14952.177102,11211.992647,13227.337686,14234.529642,6555.073745,8789.845859,17403.157640,12794.585561,9319.939830,0.006000,-0.012000,1.015000,192.000000,0.000000,0.000000,0.000000,0.000000,0.000000,0.000000,0.000000,0.000000,0.000000,1772010507.273186,0.000000
246.000000,9808.347798,13703.362787,9309.747435,13573.454448,4359.283073,16199.046814,-8785.844897,-14929.110101,11213.959600,13230.601040,14223.621991,6553.419716,8791.611647,17412.143041,12798.072433,9322.175005,0.004000,-0.012000,1.010500,192.000000,0.000000,8.000000,127.500000,80.000000,15.500000,56.000000,0.000000,0.000000,0.000000,1772010507.273210,0.000000
248.000000,9814.449825,13705.307389,9311.021484,13574.393222,4358.970148,16187.803887,-8785.487269,-14926.919630,11232.310382,13264.575692,14257.708401,6584.131012,8805.402673,17427.923373,12806.253172,9324.968973,0.004000,-0.012000,1.010500,192.000000,0.000000,0.000000,0.000000,0.000000,0.000000,0.000000,0.000000,0.000000,0.000000,1772010507.273234,0.000000
250.000000,9800.278819,13687.381290,9298.750377,13555.170721,4346.877855,16179.690204,-8798.540687,-14946.410352,11223.392036,13238.357096,14238.597660,6558.270044,8797.780728,17420.144966,12799.748814,9319.023409,0.004000,-0.012000,1.010500,192.000000,0.000000,0.000000,0.000000,0.000000,0.000000,0.000000,0.000000,0.000000,0.000000,1772010507.273258,0.000000
252.000000,9812.125243,13699.294770,9309.546269,13565.519579,4359.953625,16207.294608,-8775.697205,-14926.494947,11237.786560,13243.319183,14245.057314,6557.733602,8806.877888,17449.403399,12804.710901,9318.911650,0.004000,-0.012000,1.010500,192.000000,0.000000,0.000000,0.000000,0.000000,0.000000,0.000000,0.000000,0.000000,0.000000,1772010507.273282,0.000000
254.000000,9787.091289,13677.635929,9297.901010,13553.270823,4330.449323,16168.402573,-8800.015903,-14954.077000,11223.392036,13227.985886,14236.943631,6552.212721,8798.451280,17429.867975,12796.641922,9316.944697,0.004000,-0.012000,1.010500,192.000000,0.000000,0.000000,0.000000,0.000000,0.000000,0.000000,0.000000,0.000000,0.000000,1772010507.273294,0.000000
0.000000,9799.720025,13691.270493,9304.248906,13564.513751,4340.082924,16179.287872,-8786.448394,-14938.520186,11209.489251,13225.661305,14222.303238,6546.624785,8779.117021,17384.024547,12795.278465,9314.083673,0.003000,-0.011000,1.007250,192.000000,0.000000,8.000000,127.500000,88.000000,15.500000,48.000000,0.000000,0.000000,0.000000,1772010507.273307,0.000000
2.000000,9795.316731,13688.051842,9287.082766,13559.350498,4338.674764,16170.101305,-8788.616513,-14942.029410,11233.807949,13243.989735,14235.781340,6567.143687,8794.182097,17412.679483,12795.546686,9320.677438,0.003000,-0.011000,1.007250,192.000000,0.000000,0.000000,0.000000,0.000000,0.000000,0.000000,0.000000,0.000000,0.000000,1772010507.273319,0.000000
4.000000,9775.468382,13671.176275,9294.123565,13546.922928,4327.655354,16160.624166,-8802.541650,-14962.481256,11188.255094,13214.217212,14224.337247,6538.332288,8765.571864,17397.972035,12791.009282,9310.261525,0.003000,-0.011000,1.007250,192.000000,0.000000,0.000000,0.000000,0.000000,0.000000,0.000000,0.000000,0.000000,0.000000,1772010507.273330,0.000000
6.000000,9803.184545,13692.544543,9317.302324,13557.428248,4349.649471,16190.106117,-8780.100498,-14937.983744,11211.545612,13231.606869,14235.110788,6551.318652,8781.106327,17419.429710,12800.441718,9317.905822,0.003000,-0.011000,1.007250,192.000000,0.000000,0.000000,0.000000,0.000000,0.000000,0.000000,0.000000,0.000000,0.000000,1772010507.273341,0.000000
8.000000,9790.712272,13682.150982,9288.379167,13560.646899,4336.596052,16172.448238,-8802.295780,-14958.659108,11220.441606,13234.132616,14236.116616,6552.458591,8792.013978,17416.523983,12796.954846,9315.245964,0.003000,-0.011000,1.007250,192.000000,0.000000,0.000000,0.000000,0.000000,0.000000,0.000000,0.000000,0.000000,0.000000,1772010507.273352,0.000000
10.000000,9812.304057,13703.765119,9321.012714,13564.513751,4353.806895,16196.118736,-8787.007187,-14937.492006,11226.521281,13235.585479,14231.422750,6549.619919,8787.320112,17427.655152,12800.329959,9317.727008,0.002500,-0.008500,1.005625,192.000000,0.000000,8.000000,127.500000,104.000000,15.500000,48.000000,0.000000,0.000000,0.000000,1772010507.273362,0.000000
12.000000,9807.207859,13702.848697,9315.916516,13568.224140,4350.118858,16183.959387,-8787.767147,-14936.642639,11241.273432,13258.674831,14255.339116,6572.083422,8805.760301,17430.963210,12807.951904,9322.085598,0.002500,-0.008500,1.005625,192.000000,0.000000,0.000000,0.000000,0.000000,0.000000,0.000000,0.000000,0.000000,0.000000,1772010507.273374,0.000000
14.000000,9796.099042,13682.665072,9299.376225,13553.717858,4334.986727,16160.110075,-8802.161670,-14952.847654,11223.704961,13231.986848,14236.004858,6551.072782,8795.366740,17400.251913,12800.240552,9310.596801,0.002500,-0.008500,1.005625,192.000000,0.000000,0.000000,0.000000,0.000000,0.000000,0.000000,0.000000,0.000000,0.000000,1772010507.273384,0.000000
16.000000,9804.302133,13694.287979,9319.224574,13564.781972,4360.087736,16190.888428,-8778.468821,-14933.066360,11231.997458,13243.430942,14243.895023,6557.800657,8798.183059,17431.276134,12806.923724,9317.235269,0.002500,-0.008500,1.005625,192.000000,0.000000,0.000000,0.000000,0.000000,0.000000,0.000000,0.000000,0.000000,0.000000,1772010507.273395,0.000000
18.000000,9781.123374,13671.444496,9295.643484,13549.672192,4342.988651,16170.257767,-8802.899278,-14961.341317,11219.346371,13223.962572,14238.105922,6548.323518,8794.427966,17425.419977,12803.235686,9314.508356,0.002500,-0.008500,1.005625,192.000000,0.000000,0.000000,0.000000,0.000000,0.000000,0.000000,0.000000,0.000000,0.000000,1772010507.273412,0.000000
20.000000,9808.593668,13696.769023,9299.175060,13561.988003,4363.976939,16189.726137,-8790.024673,-14942.945831,11218.675818,13223.694351,14221.163299,6539.204006,8799.390054,17417.887439,12805.470861,9316.967048,0.002250,-0.013250,1.004812,192.000000,0.000000,8.000000,127.500000,56.000000,15.500000,48.000000,0.000000,0.000000,0.000000,1772010507.273423,0.000000
22.000000,9812.192298,13703.496898,9303.086615,13567.799457,4351.974052,16196.521067,-8788.571809,-14932.708732,11226.029542,13245.576709,14247.024268,6564.997919,8792.393958,17436.998181,12807.035483,9323.337295,0.002250,-0.013250,1.004812,192.000000,0.000000,0.000000,0.000000,0.000000,0.000000,0.000000,0.000000,0.000000,0.000000,1772010507.273434,0.000000
24.000000,9807.587839,13705.016816,9296.090519,13566.346594,4327.878872,16176.739773,-8796.752548,-14932.753436,11237.607746,13247.141331,14231.981544,6565.400251,8798.361873,17414.557030,12794.116174,9322.376170,0.002250,-0.013250,1.004812,192.000000,0.000000,0.000000,0.000000,0.000000,0.000000,0.000000,0.000000,0.000000,0.000000,1772010507.273445,0.000000
26.000000,9821.714142,13720.551279,9316.765883,13574.907312,4338.406544,16193.347119,-8768.678757,-14906.110156,11221.961525,13255.657346,14258.691878,6583.259294,8784.280274,17427.833966,12793.669140,9320.833900,0.002250,-0.013250,1.004812,192.000000,0.000000,0.000000,0.000000,0.000000,0.000000,0.000000,0.000000,0.000000,0.000000,1772010507.273456,0.000000
28.000000,9792.120432,13683.983825,9289.697920,13555.595405,4323.475578,16160.355945,-8795.165574,-14944.309288,11216.552403,13243.542700,14245.258480,6573.759803,8774.490210,17400.721300,12786.918913,9311.557926,0.002250,-0.013250,1.004812,192.000000,0.000000,0.000000,0.000000,0.000000,0.000000,0.000000,0.000000,0.000000,0.000000,1772010507.273467,0.000000
30.000000,9799.272990,13692.499839,9305.165327,13556.511826,4340.753477,16176.471552,-8786.180173,-14940.889471,11212.260868,13221.325066,14222.213831,6544.456666,8775.004300,17398.128497,12794.853782,9304.964162,0.004125,-0.013625,1.005406,192.000000,0.000000,24.000000,127.500000,72.000000,15.500000,56.000000,0.000000,0.000000,0.000000,1772010507.273478,0.000000
32.000000,9801.463461,13692.388081,9308.719255,13548.889881,4339.680593,16194.643521,-8789.465879,-14943.817549,11226.476577,13245.084971,14240.944593,6562.472172,8792.706882,17425.978771,12799.882925,9316.117682,0.004125,-0.013625,1.005406,192.000000,0.000000,0.000000,0.000000,0.000000,0.000000,0.000000,0.000000,0.000000,0.000000,1772010507.273489,0.000000
34.000000,9797.171926,13687.493049,9292.156612,13560.177512,4338.965337,16173.543474,-8803.927458,-14957.541520,11212.998475,13234.043209,14224.516061,6544.590777,8786.850725,17423.028341,12799.212372,9319.872775,0.004125,-0.013625,1.005406,192.000000,0.000000,0.000000,0.000000,0.000000,0.000000,0.000000,0.000000,0.000000,0.000000,1772010507.273499,0.000000
36.000000,9816.595592,13708.213116,9311.490871,13576.360175,4355.460925,16194.509410,-8778.871152,-14926.539651,11229.516414,13243.721514,14239.692895,6570.049413,8787.990664,17437.601678,12802.229858,9324.074903,0.004125,-0.013625,1.005406,192.000000,0.000000,0.000000,0.000000,0.000000,0.000000,0.000000,0.000000,0.000000,0.000000,1772010507.273510,0.000000
38.000000,9792.455708,13683.916769,9290.815507,13557.227082,4338.160674,16176.695070,-8800.127661,-14949.874872,11225.537804,13233.551470,14241.928070,6567.322501,8786.023710,17423.028341,12797.513640,9319.202223,0.004125,-0.013625,1.005406,192.000000,0.000000,0.000000,0.000000,0.000000,0.000000,0.000000,0.000000,0.000000,0.000000,1772010507.273521,0.000000
40.000000,9816.908517,13711.230601,9299.622095,13571.040460,4357.763154,16187.602721,-8784.459088,-14931.658200,11225.470749,13225.437787,14229.813424,6554.336137,8795.076167,17412.500669,12797.513640,9317.771711,0.004063,-0.011813,1.004703,192.000000,0.000000,16.000000,127.500000,88.000000,15.500000,48.000000,0.000000,0.000000,0.000000,1772010507.273532,0.000000
42.000000,9820.529499,13706.715549,9297.208106,13561.943300,4361.205323,16193.704747,-8787.610684,-14932.999305,11248.113066,13250.985831,14254.266233,6576.821992,8821.585336,17447.101169,12802.699244,9325.773636,0.004063,-0.011813,1.004703,192.000000,0.000000,0.000000,0.000000,0.000000,0.000000,0.000000,0.000000,0.000000,0.000000,1772010507.273543,0.000000
44.000000,9800.457633,13684.877895,9303.198374,13555.126018,4339.613538,16165.586253,-8802.653408,-14954.613442,11247.554272,13229.394046,14231.243936,6552.592701,8800.753510,17424.011817,12797.446584,9318.911650,0.004063,-0.011813,1.004703,192.000000,0.000000,0.000000,0.000000,0.000000,0.000000,0.000000,0.000000,0.000000,0.000000,1772010507.273554,0.000000
46.000000,9819.613078,13707.721377,9324.454883,13572.202751,4350.029451,16188.027404,-8778.222952,-14927.746645,11227.325943,13233.998505,14251.673430,6560.013480,8786.068414,17408.343245,12803.235686,9314.620115,0.004063,-0.011813,1.004703,192.000000,0.000000,0.000000,0.000000,0.000000,0.000000,0.000000,0.000000,0.000000,0.000000,1772010507.273564,0.000000
48.000000,9798.848307,13684.162639,9297.006940,13552.287346,4326.515415,16167.977890,-8801.826394,-14954.009945,11227.594164,13231.517462,14245.705515,6557.331271,8789.175306,17426.045826,12794.294988,9314.977743,0.004063,-0.011813,1.004703,192.000000,0.000000,0.000000,0.000000,0.000000,0.000000,0.000000,0.000000,0.000000,0.000000,1772010507.273575,0.000000
50.000000,9810.091234,13697.081947,9305.008865,13567.195960,4340.485256,16187.647425,-8787.029539,-14939.235442,11223.749664,13217.413511,14230.640439,6546.401268,8780.256960,17399.491954,12793.646788,9313.390769,0.004063,-0.011813,1.004703,192.000000,0.000000,0.000000,0.000000,0.000000,0.000000,0.000000,0.000000,0.000000,0.000000,1772010507.273587,0.000000
52.000000,9796.076691,13678.820572,9302.952505,13548.174625,4337.914805,16177.589140,-8789.689397,-14950.835997,11222.185042,13232.836215,14243.425637,6560.795791,8785.263751,17430.359713,12797.804212,9317.659952,0.006000,-0.012000,1.006000,192.000000,0.000000,24.000000,127.500000,80.000000,15.500000,56.000000,0.000000,0.000000,0.000000,1772010507.273598,0.000000
54.000000,9769.880446,13649.651545,9286.546324,13541.670268,4326.604822,16155.617375,-8800.820565,-14974.662957,11205.845917,13200.694406,14216.290619,6525.524738,8774.669024,17397.815573,12794.160878,9307.847537,0.006000,-0.012000,1.006000,192.000000,0.000000,0.000000,0.000000,0.000000,0.000000,0.000000,0.000000,0.000000,0.000000,1772010507.273609,0.000000
56.000000,9784.185563,13671.556255,9302.706635,13562.725611,4340.485256,16172.738811,-8773.886713,-14947.460884,11209.064568,13207.288171,14220.805671,6545.216625,8777.485344,17410.444309,12795.345520,9309.881545,0.006000,-0.012000,1.006000,192.000000,0.000000,0.000000,0.000000,0.000000,0.000000,0.000000,0.000000,0.000000,0.000000,1772010507.273619,0.000000
58.000000,9781.816278,13661.117990,9282.902990,13549.605137,4317.150035,16151.929337,-8797.065472,-14961.140151,11216.820623,13217.905249,14223.018494,6552.190370,8784.101460,17388.137268,12786.047195,9307.646371,0.006000,-0.012000,1.006000,192.000000,0.000000,0.000000,0.000000,0.000000,0.000000,0.000000,0.000000,0.000000,0.000000,1772010507.273630,0.000000
60.000000,9796.456670,13682.843886,9306.037045,13561.339803,4329.041163,16175.845704,-8782.492135,-14938.251965,11211.769129,13213.323142,14222.884384,6544.993108,8771.606835,17412.143041,12789.802288,9307.311095,0.006000,-0.012000,1.006000,192.000000,0.000000,0.000000,0.000000,0.000000,0.000000,0.000000,0.000000,0.000000,0.000000,1772010507.273641,0.000000
62.000000,9798.267162,13684.207342,9299.465632,13564.446695,4328.057686,16167.597910,-8786.314283,-14941.470616,11221.246269,13230.109302,14246.510177,6565.109678,8779.005263,17427.565745,12792.193924,9314.016618,0.006000,-0.012000,1.006000,192.000000,0.000000,0.000000,127.500000,96.000000,15.500000,56.000000,0.000000,0.000000,0.000000,1772010507.273653,0.000000
64.000000,9794.757938,13681.771002,9268.799039,13560.468085,4327.007154,16162.009974,-8801.446414,-14954.859311,11220.821586,13220.252183,14222.236183,6549.128181,8773.283216,17389.970111,12785.555456,9307.400502,0.006000,-0.012000,1.006000,192.000000,0.000000,0.000000,0.000000,0.000000,0.000000,0.000000,0.000000,0.000000,0.000000,1772010507.273663,0.000000
66.000000,9805.240906,13698.378348,9316.005923,13573.566207,4341.334622,16202.064300,-8778.737042,-14934.027485,11220.508661,13236.256032,14232.965020,6562.449820,8781.486306,17424.704722,12794.764375,9317.123510,0.006000,-0.012000,1.006000,192.000000,0.000000,0.000000,0.000000,0.000000,0.000000,0.000000,0.000000,0.000000,0.000000,1772010507.273673,0.000000
68.000000,9791.271066,13687.381290,9287.753318,13558.523483,4329.309384,16181.567750,-8804.888583,-14956.267471,11213.534917,13238.066523,14231.780378,6563.768573,8786.202524,17443.726056,12791.791593,9322.018543,0.006000,-0.012000,1.006000,192.000000,0.000000,0.000000,0.000000,0.000000,0.000000,0.000000,0.000000,0.000000,0.000000,1772010507.273684,0.000000
70.000000,9815.343894,13716.997351,9302.974856,13573.633262,4335.925500,16187.155686,-8788.370644,-14931.814662,11217.088844,13230.399874,14225.030151,6555.923111,8783.363853,17415.652265,12793.803250,9319.962182,0.006000,-0.012000,1.006000,192.000000,0.000000,0.000000,0.000000,0.000000,0.000000,0.000000,0.000000,0.000000,0.000000,1772010507.273695,0.000000
72.000000,9827.503243,13714.426901,9311.692037,13576.851914,4321.307459,16177.075050,-8782.358024,-14919.051816,11241.407542,13256.998450,14258.289547,6585.740338,8793.198620,17434.763007,12792.484497,9317.659952,0.006000,-0.012000,1.006000,192.000000,0.000000,0.000000,127.500000,80.000000,15.500000,48.000000,0.000000,0.000000,0.000000,1772010507.273705,0.000000
74.000000,9821.177700,13699.473584,9300.851441,13556.780047,4322.425046,16161.205311,-8796.685493,-14934.183947,11236.803083,13239.251165,14249.728829,6566.964873,8786.023710,17416.345169,12787.522410,9309.456862,0.006000,-0.012000,1.006000,192.000000,0.000000,0.000000,0.000000,0.000000,0.000000,0.000000,0.000000,0.000000,0.000000,1772010507.753306,0.000000
76.000000,9822.295287,13708.526040,9314.888336,13569.408783,4354.656262,16184.317015,-8775.585446,-14919.923534,11250.728220,13243.855625,14257.976622,6568.261274,8816.287972,17427.521041,12797.357177,9314.038970,0.006000,-0.012000,1.006000,192.000000,0.000000,0.000000,0.000000,0.000000,0.000000,0.000000,0.000000,0.000000,0.000000,1772010507.753378,0.000000
78.000000,9799.854135,13691.359900,9294.190621,13553.203768,4332.572738,16155.952651,-8801.938153,-14952.199453,11228.331772,13233.149139,14242.464512,6561.756916,8788.996493,17410.399605,12796.306645,9312.072016,0.006000,-0.012000,1.006000,192.000000,0.000000,0.000000,0.000000,0.000000,0.000000,0.000000,0.000000,0.000000,0.000000,1772010507.753416,0.000000
80.000000,9803.050435,13695.852601,9286.859249,13570.995757,4344.374459,16185.635768,-8790.829336,-14945.292764,11227.571813,13225.013104,14220.001009,6545.328384,8790.292894,17414.221753,12797.580695,9312.474348,0.006000,-0.012000,1.006000,192.000000,0.000000,0.000000,0.000000,0.000000,0.000000,0.000000,0.000000,0.000000,0.000000,1772010507.753453,0.000000
82.000000,9797.820127,13684.900246,9310.440339,13561.496265,4332.103352,16169.162532,-8791.119908,-14949.114913,11241.072266,13236.881880,14236.071913,6566.003748,8792.684530,17431.790225,12792.953884,9320.766845,-0.004000,-0.014000,1.008000,192.000000,127.500000,112.000000,127.500000,72.000000,15.500000,64.000000,0.000000,0.000000,0.000000,1772010507.753508,0.000000
84.000000,9787.270103,13676.630101,9294.838821,13550.543910,4324.481407,16164.781590,-8804.508603,-14964.850541,11201.286161,13213.881935,14226.885346,6538.466399,8765.124829,17413.528849,12791.322206,9307.467557,-0.004000,-0.014000,1.008000,192.000000,0.000000,0.000000,0.000000,0.000000,0.000000,0.000000,0.000000,0.000000,0.000000,1772010507.753546,0.000000
86.000000,9802.715159,13688.990615,9312.049665,13571.196922,4339.367669,16195.962274,-8777.954731,-14937.201433,11224.755493,13228.455273,14236.898927,6555.274910,8788.951789,17425.710550,12794.585561,9317.972877,-0.004000,-0.014000,1.008000,192.000000,0.000000,0.000000,0.000000,0.000000,0.000000,0.000000,0.000000,0.000000,0.000000,1772010507.753583,0.000000
88.000000,9792.098080,13677.010080,9288.826202,13548.308736,4327.208320,16165.139218,-8799.300647,-14954.278166,11221.514490,13224.454310,14234.641401,6555.945463,8782.045100,17412.143041,12791.053985,9315.067150,-0.004000,-0.014000,1.008000,192.000000,0.000000,0.000000,0.000000,0.000000,0.000000,0.000000,0.000000,0.000000,0.000000,1772010507.753620,0.000000
90.000000,9805.978513,13693.997406,9305.701769,13574.415573,4338.808875,16174.750468,-8784.481440,-14933.111064,11219.726350,13227.225927,14227.600602,6556.548960,8776.278350,17396.697986,12789.668177,9308.451034,-0.004000,-0.014000,1.008000,192.000000,0.000000,0.000000,0.000000,0.000000,0.000000,0.000000,0.000000,0.000000,0.000000,1772010507.753657,0.000000
92.000000,9810.337104,13700.166488,9297.118699,13570.459315,4331.991593,16182.439468,-8786.023710,-14932.440511,11235.596089,13238.290040,14246.778398,6577.716062,8791.544591,17411.763061,12792.171573,9316.832938,-0.004000,-0.014000,1.008000,192.000000,0.000000,0.000000,127.500000,72.000000,15.500000,88.000000,0.000000,0.000000,0.000000,1772010507.753694,0.000000
94.000000,9794.333255,13685.481392,9289.362644,13556.020088,4316.390075,16157.405514,-8803.189850,-14953.227634,11215.591278,13220.185127,14224.359599,6556.414849,8773.462030,17416.881611,12786.091898,9307.020522,-0.004000,-0.014000,1.008000,192.000000,0.000000,0.000000,0.000000,0.000000,0.000000,0.000000,0.000000,0.000000,0.000000,1772010507.753732,0.000000
96.000000,9811.857022,13703.608656,9309.568621,13567.888864,4342.474561,16178.371451,-8779.161725,-14929.445378,11226.297763,13222.666171,14236.071913,6564.282663,8791.410481,17410.757233,12792.618608,9310.462691,-0.004000,-0.014000,1.008000,192.000000,0.000000,0.000000,0.000000,0.000000,0.000000,0.000000,0.000000,0.000000,0.000000,1772010507.753769,0.000000
98.000000,9790.466403,13679.513476,9282.679472,13549.895710,4327.834168,16165.005108,-8805.626190,-14958.256776,11217.491176,13221.034494,14233.635573,6558.448858,8781.978045,17408.879686,12792.909180,9310.149766,-0.004000,-0.014000,1.008000,192.000000,0.000000,0.000000,0.000000,0.000000,0.000000,0.000000,0.000000,0.000000,0.000000,1772010507.753807,0.000000
100.000000,9806.134976,13691.963397,9299.353874,13568.134733,4344.262701,16175.666890,-8791.499888,-14938.229613,11221.827414,13210.283304,14222.169128,6547.764724,8791.142260,17402.196515,12792.931532,9312.809624,-0.004000,-0.014000,1.008000,192.000000,0.000000,0.000000,0.000000,0.000000,0.000000,0.000000,0.000000,0.000000,0.000000,1772010507.753845,0.000000
102.000000,9810.962952,13697.685444,9296.515202,13567.106553,4338.518302,16164.513369,-8790.136431,-14932.552270,11221.738007,13230.489281,14245.079666,6572.463402,8781.821583,17406.711567,12799.301779,9313.927211,-0.004000,-0.014000,1.008000,192.000000,0.000000,0.000000,127.500000,88.000000,15.500000,88.000000,0.000000,0.000000,0.000000,1772010507.753858,0.000000
104.000000,9800.792909,13684.766136,9286.501621,13555.953032,4333.287994,16157.293756,-8804.195679,-14947.326773,11237.473635,13211.043264,14221.610334,6555.677242,8791.857516,17402.174163,12790.204619,9309.099234,-0.004000,-0.014000,1.008000,192.000000,0.000000,0.000000,0.000000,0.000000,0.000000,0.000000,0.000000,0.000000,0.000000,1772010507.753869,0.000000
106.000000,9832.688848,13718.360808,9310.328580,13580.182323,4344.285052,16199.806774,-8774.467859,-14912.323941,11227.102426,13227.784720,14246.666640,6572.262236,8791.812812,17410.041977,12794.920837,9312.139071,-0.004000,-0.014000,1.008000,192.000000,0.000000,0.000000,0.000000,0.000000,0.000000,0.000000,0.000000,0.000000,0.000000,1772010507.753880,0.000000
108.000000,9813.265182,13693.304502,9298.482156,13549.538082,4315.898337,16162.702878,-8798.004246,-14942.364686,11230.790464,13236.613659,14246.823102,6575.302073,8784.324978,17421.463719,12784.035538,9309.345103,-0.004000,-0.014000,1.008000,192.000000,0.000000,0.000000,0.000000,0.000000,0.000000,0.000000,0.000000,0.000000,0.000000,1772010507.753891,0.000000
110.000000,9815.857985,13698.825383,9303.712464,13559.953995,4322.201529,16165.742715,-8785.956655,-14936.754398,11227.705923,13219.402816,14230.439273,6547.384745,8772.813830,17402.017701,12784.460221,9299.085653,-0.004000,-0.014000,1.008000,192.000000,0.000000,0.000000,0.000000,0.000000,0.000000,0.000000,0.000000,0.000000,0.000000,1772010507.753902,0.000000
112.000000,9804.324484,13689.392947,9300.002074,13551.572091,4323.252061,16169.162532,-8790.538763,-14947.751456,11229.628173,13227.069465,14242.933898,6562.069841,8781.151030,17439.769797,12786.918913,9305.142975,-0.004000,-0.014000,1.008000,192.000000,0.000000,0.000000,127.500000,80.000000,15.500000,80.000000,0.000000,0.000000,0.000000,1772010507.753913,0.000000
114.000000,9782.911513,13671.645662,9286.903952,13547.638184,4319.631078,16158.590157,-8809.135414,-14972.360727,11209.869231,13207.064653,14216.447081,6534.621898,8766.890617,17415.294637,12786.181305,9303.377188,-0.004000,-0.014000,1.008000,192.000000,0.000000,0.000000,0.000000,0.000000,0.000000,0.000000,0.000000,0.000000,0.000000,1772010507.753926,0.000000
116.000000,9807.878412,13699.428880,9307.579316,13579.109440,4341.289919,16201.259637,-8784.772013,-14946.320945,11225.314286,13228.432921,14223.353770,6556.973643,8780.748699,17403.872896,12792.104517,9314.418949,-0.004000,-0.014000,1.008000,192.000000,0.000000,0.000000,0.000000,0.000000,0.000000,0.000000,0.000000,0.000000,0.000000,1772010507.753937,0.000000
118.000000,9791.516935,13682.374499,9281.740699,13560.043402,4331.812779,16178.930244,-8807.906068,-14971.801933,11223.794368,13231.875090,14225.186613,6560.616977,8785.733138,17415.115823,12792.618608,9314.888336,-0.004000,-0.014000,1.008000,192.000000,0.000000,0.000000,0.000000,0.000000,0.000000,0.000000,0.000000,0.000000,0.000000,1772010507.753948,0.000000
120.000000,9798.580086,13687.314235,9289.943789,13559.909291,4345.581454,16189.815544,-8795.120870,-14958.480294,11221.447435,13228.723494,14206.209982,6548.144704,8785.219048,17441.200309,12792.529201,9320.006886,-0.004000,-0.014000,1.008000,192.000000,0.000000,0.000000,0.000000,0.000000,0.000000,0.000000,0.000000,0.000000,0.000000,1772010507.753959,0.000000
122.000000,9800.502336,13684.073232,9282.523010,13570.325204,4336.439590,16184.607587,-8796.484327,-14956.043953,11237.898319,13233.126787,14226.192442,6565.668472,8792.751586,17413.640608,12794.049119,9318.822243,-0.004000,-0.010000,1.008000,192.000000,127.500000,112.000000,127.500000,104.000000,15.500000,64.000000,0.000000,0.000000,0.000000,1772010507.753970,0.000000
124.000000,9785.280798,13665.364822,9294.235324,13551.907367,4326.582471,16162.971099,-8811.348237,-14969.589111,11211.165632,13210.238601,14218.056407,6544.031983,8776.725385,17401.369500,12790.428137,9308.741606,-0.004000,-0.010000,1.008000,192.000000,0.000000,0.000000,0.000000,0.000000,0.000000,0.000000,0.000000,0.000000,0.000000,1772010507.753981,0.000000
126.000000,9809.733607,13698.154831,9307.400502,13564.312585,4344.575625,16197.191620,-8788.325940,-14938.877814,11223.660257,13224.566069,14230.931012,6556.548960,8782.156859,17436.484091,12797.468936,9316.899993,-0.004000,-0.010000,1.008000,192.000000,0.000000,0.000000,0.000000,0.000000,0.000000,0.000000,0.000000,0.000000,0.000000,1772010507.753992,0.000000
128.000000,9799.608266,13683.134458,9283.797060,13550.990945,4325.800160,16171.800038,-8809.515394,-14959.150846,11221.939173,13222.844985,14230.349866,6555.789000,8787.789498,17439.054541,12789.288198,9316.877641,-0.004000,-0.010000,1.008000,192.000000,0.000000,0.000000,0.000000,0.000000,0.000000,0.000000,0.000000,0.000000,0.000000,1772010507.754003,0.000000
130.000000,9813.354589,13697.014892,9298.191583,13561.965652,4337.847750,16174.705765,-8792.461013,-14939.660125,11228.085903,13215.424206,14222.973791,6548.479980,8782.849763,17403.381157,12787.477706,9307.758130,-0.004000,-0.010000,1.008000,192.000000,0.000000,0.000000,0.000000,0.000000,0.000000,0.000000,0.000000,0.000000,0.000000,1772010507.754014,0.000000
132.000000,9805.397368,13688.588284,9293.341254,13551.728553,4340.105276,16177.499733,-8794.115042,-14943.057590,11240.155845,13232.523290,14243.559747,6563.209780,8793.958580,17422.290733,12791.791593,9312.876679,-0.003000,-0.009000,1.005000,192.000000,127.500000,120.000000,127.500000,96.000000,15.500000,40.000000,0.000000,0.000000,0.000000,1772010507.754025,0.000000
134.000000,9799.854135,13678.999386,9288.647388,13551.706201,4323.743799,16168.983718,-8808.621324,-14955.172235,11222.632077,13207.310522,14227.555898,6544.791942,8790.359949,17412.500669,12784.661387,9307.333446,-0.003000,-0.009000,1.005000,192.000000,0.000000,0.000000,0.000000,0.000000,0.000000,0.000000,0.000000,0.000000,0.000000,1772010507.754036,0.000000
136.000000,9823.055246,13709.397758,9314.865984,13575.801382,4336.976032,16179.466686,-8780.458126,-14919.968238,11235.238461,13223.940220,14240.475206,6565.601416,8786.180173,17411.427785,12791.702186,9309.568621,-0.003000,-0.009000,1.005000,192.000000,0.000000,0.000000,0.000000,0.000000,0.000000,0.000000,0.000000,0.000000,0.000000,1772010507.754047,0.000000
138.000000,9810.113586,13692.589246,9292.693054,13557.025916,4325.219014,16169.318994,-8802.496946,-14942.632907,11232.936231,13228.187052,14243.671506,6573.424527,8784.302626,17416.121652,12786.069546,9307.646371,-0.003000,-0.009000,1.005000,192.000000,0.000000,0.000000,0.000000,0.000000,0.000000,0.000000,0.000000,0.000000,0.000000,1772010507.754058,0.000000
140.000000,9818.651953,13703.228677,9305.478252,13561.608024,4333.287994,16179.354927,-8786.984836,-14927.277258,11233.383266,13218.195822,14231.467453,6558.180637,8782.603894,17430.247954,12787.544762,9307.422853,-0.003000,-0.009000,1.005000,192.000000,0.000000,0.000000,0.000000,0.000000,0.000000,0.000000,0.000000,0.000000,0.000000,1772010507.754069,0.000000
142.000000,9819.702485,13701.552296,9274.990472,13557.495303,4330.806950,16184.696994,-8787.409519,-14932.149939,11249.074191,13234.825520,14248.834759,6575.011501,8806.050874,17445.491844,12788.014148,9307.981647,-0.003000,-0.009000,1.005000,192.000000,0.000000,0.000000,127.500000,80.000000,15.500000,56.000000,0.000000,0.000000,0.000000,1772010507.754080,0.000000
144.000000,9782.598589,13676.540694,9292.357778,13542.966669,4306.443549,16144.955593,-8807.034350,-14965.141113,11228.197661,13215.848889,14216.938820,6552.011556,8780.547533,17398.307311,12778.469953,9300.404406,-0.003000,-0.009000,1.005000,192.000000,0.000000,0.000000,0.000000,0.000000,0.000000,0.000000,0.000000,0.000000,0.000000,1772010507.754091,0.000000
146.000000,9808.057226,13696.947837,9307.020522,13570.906350,4329.152921,16173.454067,-8785.107289,-14939.838939,11215.501871,13220.855680,14228.740541,6559.365280,8766.220065,17402.554143,12786.091898,9302.505470,-0.003000,-0.009000,1.005000,192.000000,0.000000,0.000000,0.000000,0.000000,0.000000,0.000000,0.000000,0.000000,0.000000,1772010507.754104,0.000000
148.000000,9796.523726,13680.698118,9286.702786,13541.960840,4324.302593,16151.929337,-8811.907031,-14966.303404,11224.420217,13218.285229,14229.567555,6557.264216,8777.865324,17392.495858,12789.735233,9304.315961,-0.003000,-0.009000,1.005000,192.000000,0.000000,0.000000,0.000000,0.000000,0.000000,0.000000,0.000000,0.000000,0.000000,1772010507.754114,0.000000
150.000000,9807.945467,13693.997406,9298.616266,13567.061849,4337.735991,16178.080878,-8796.238458,-14947.103256,11226.118949,13207.198764,14216.402378,6548.301166,8785.800193,17401.905942,12793.535029,9305.545307,-0.003000,-0.009000,1.005000,192.000000,0.000000,0.000000,0.000000,0.000000,0.000000,0.000000,0.000000,0.000000,0.000000,1772010507.754126,0.000000
152.000000,9814.047493,13698.311293,9299.353874,13559.641070,4337.803046,16199.918532,-8792.997455,-14937.916689,11245.855540,13225.415435,14242.732733,6570.474097,8796.596086,17444.955402,12794.920837,9314.977743,-0.000500,-0.008500,1.007500,192.000000,0.000000,8.000000,127.500000,96.000000,15.500000,72.000000,0.000000,0.000000,0.000000,1772010507.754137,0.000000
154.000000,9799.049473,13674.797258,9290.726100,13555.349535,4323.274413,16167.754372,-8806.877888,-14952.199453,11230.566946,13208.741034,14230.774549,6554.224378,8786.046062,17426.470509,12785.778974,9314.977743,-0.000500,-0.008500,1.007500,192.000000,0.000000,0.000000,0.000000,0.000000,0.000000,0.000000,0.000000,0.000000,0.000000,1772010507.754148,0.000000
156.000000,9822.876432,13701.999331,9312.809624,13564.022012,4340.127628,16185.099326,-8782.827411,-14924.773863,11246.637851,13215.603020,14247.404247,6564.126201,8795.724368,17416.300466,12794.876134,9314.374246,-0.000500,-0.008500,1.007500,192.000000,0.000000,0.000000,0.000000,0.000000,0.000000,0.000000,0.000000,0.000000,0.000000,1772010507.754160,0.000000
158.000000,9810.448862,13691.114031,9289.541458,13550.432152,4319.608726,16151.549357,-8806.453205,-14948.556119,11238.054781,13210.238601,14245.213776,6565.199085,8791.388129,17395.870971,12790.204619,9308.898069,-0.000500,-0.008500,1.007500,192.000000,0.000000,0.000000,0.000000,0.000000,0.000000,0.000000,0.000000,0.000000,0.000000,1772010507.754171,0.000000
160.000000,9819.970706,13700.322950,9301.969028,13561.116285,4338.428895,16179.779611,-8792.461013,-14936.888508,11235.618441,13199.710929,14230.081645,6549.396402,8785.844897,17405.057538,12790.517544,9302.997208,-0.000500,-0.008500,1.007500,192.000000,0.000000,0.000000,0.000000,0.000000,0.000000,0.000000,0.000000,0.000000,0.000000,1772010507.754182,0.000000
162.000000,9816.506185,13695.852601,9272.241208,13557.808227,4341.580491,16173.610529,-8793.869173,-14941.425913,11255.645604,13220.721569,14245.794922,6570.451745,8800.641751,17431.097320,12793.087994,9310.462691,0.000750,-0.007250,1.007750,192.000000,0.000000,8.000000,127.500000,104.000000,15.500000,64.000000,0.000000,0.000000,0.000000,1772010507.754194,0.000000
164.000000,9785.370205,13666.594168,9287.082766,13544.128960,4319.541671,16166.323860,-8809.649504,-14965.744611,11229.315249,13196.626389,14213.854279,6542.534416,8792.930400,17401.637721,12784.259055,9309.769787,0.000750,-0.007250,1.007750,192.000000,0.000000,0.000000,0.000000,0.000000,0.000000,0.000000,0.000000,0.000000,0.000000,1772010507.754210,0.000000
166.000000,9813.779272,13693.528020,9314.709522,13553.382582,4332.706849,16174.057564,-8781.463955,-14931.144110,11223.682609,13195.218229,14235.870747,6547.071820,8773.059699,17392.160582,12790.919875,9304.383016,0.000750,-0.007250,1.007750,192.000000,0.000000,0.000000,0.000000,0.000000,0.000000,0.000000,0.000000,0.000000,0.000000,1772010507.754221,0.000000
168.000000,9801.664627,13681.748650,9291.329597,13537.870471,4318.200567,16153.985698,-8802.720464,-14951.104218,11228.555289,13196.559333,14240.117579,6552.458591,8778.245303,17400.944817,12787.455355,9297.118699,0.000750,-0.007250,1.007750,192.000000,0.000000,0.000000,0.000000,0.000000,0.000000,0.000000,0.000000,0.000000,0.000000,1772010507.754232,0.000000
170.000000,9816.819110,13698.467755,9297.699845,13564.960786,4327.230671,16178.058526,-8788.683568,-14933.491043,11231.617478,13197.989845,14228.472320,6551.430410,8775.361928,17403.783489,12786.024843,9298.459804,0.000750,-0.007250,1.007750,192.000000,0.000000,0.000000,0.000000,0.000000,0.000000,0.000000,0.000000,0.000000,0.000000,1772010507.754243,0.000000
172.000000,9815.545060,13698.288941,9300.225592,13564.089067,4327.878872,16178.282044,-8788.281237,-14933.289878,11238.278298,13222.733226,14246.599584,6577.850172,8789.085899,17423.922410,12787.075375,9310.485042,0.001375,-0.007625,1.008875,192.000000,0.000000,8.000000,127.500000,96.000000,15.500000,72.000000,0.000000,0.000000,0.000000,1772010507.754254,0.000000
174.000000,9804.771519,13689.035319,9282.612417,13538.205747,4330.806950,16149.515349,-8809.805967,-14957.429762,11232.712714,13205.656493,14226.035980,6553.799695,8779.675815,17397.502649,12785.488401,9302.304304,0.001375,-0.007625,1.008875,192.000000,0.000000,0.000000,0.000000,0.000000,0.000000,0.000000,0.000000,0.000000,0.000000,1772010507.754265,0.000000
176.000000,9818.048455,13686.084889,9304.539478,13560.222216,4342.720430,16167.977890,-8787.186001,-14940.107160,11243.329792,13212.116148,14231.221584,6555.364317,8786.113117,17406.309236,12797.088956,9299.487984,0.001375,-0.007625,1.008875,192.000000,0.000000,0.000000,0.000000,0.000000,0.000000,0.000000,0.000000,0.000000,0.000000,1772010507.754277,0.000000
178.000000,9793.506240,13668.985804,9286.993359,13548.308736,4321.240404,16173.878750,-8810.968257,-14968.471523,11234.366743,13198.861563,14230.841605,6550.804561,8789.845859,17392.182933,12786.918913,9301.030254,0.001375,-0.007625,1.008875,192.000000,0.000000,0.000000,0.000000,0.000000,0.000000,0.000000,0.000000,0.000000,0.000000,1772010507.754289,0.000000
180.000000,9805.777348,13684.229694,9300.829089,13555.036611,4339.054744,16176.650366,-8796.126699,-14949.718410,11233.629135,13192.334854,14220.179822,6539.561634,8790.739929,17411.584248,12791.433965,9301.589048,0.001375,-0.007625,1.008875,192.000000,0.000000,0.000000,0.000000,0.000000,0.000000,0.000000,0.000000,0.000000,0.000000,1772010507.754300,0.000000
182.000000,9800.547040,13681.100450,9283.014748,13559.059925,4342.161637,16186.932169,-8794.360911,-14947.349125,11239.351182,13207.288171,14236.608355,6559.208817,8800.038254,17411.584248,12794.831430,9312.228478,0.001375,-0.007625,1.008875,192.000000,0.000000,0.000000,0.000000,0.000000,0.000000,0.000000,0.000000,0.000000,0.000000,1772010507.754311,0.000000
184.000000,9797.775423,13674.931368,9283.417080,13545.917099,4334.807913,16169.564863,-8809.247173,-14960.626061,11251.644641,13199.353301,14213.407244,6547.563559,8802.072263,17413.841774,12788.192962,9311.088539,0.002000,-0.012000,1.008000,192.000000,0.000000,8.000000,127.500000,80.000000,15.500000,64.000000,0.000000,0.000000,0.000000,1772010507.754323,0.000000
186.000000,9814.874508,13691.404604,9316.855290,13566.056021,4354.700965,16189.949654,-8784.526144,-14932.686380,11222.676781,13205.634142,14239.357619,6554.537303,8784.012053,17426.559916,12798.430061,9311.446167,0.002000,-0.012000,1.008000,192.000000,0.000000,0.000000,0.000000,0.000000,0.000000,0.000000,0.000000,0.000000,0.000000,1772010507.754333,0.000000
188.000000,9802.357531,13683.693252,9292.938923,13548.062867,4336.841921,16151.035267,-8808.733083,-14954.278166,11234.702019,13206.438804,14239.715247,6558.873541,8796.081995,17399.268436,12794.160878,9310.999133,0.002000,-0.012000,1.008000,192.000000,0.000000,0.000000,0.000000,0.000000,0.000000,0.000000,0.000000,0.000000,0.000000,1772010507.754344,0.000000
190.000000,9812.974609,13695.986712,9301.432586,13563.262053,4335.143189,16193.548285,-8792.975103,-14935.815625,11241.586356,13200.627351,14230.975715,6550.134009,8792.706882,17394.708680,12793.400919,9303.645409,0.002000,-0.012000,1.008000,192.000000,0.000000,0.000000,0.000000,0.000000,0.000000,0.000000,0.000000,0.000000,0.000000,1772010507.754356,0.000000
192.000000,9806.649066,13687.694214,9294.570600,13556.198902,4332.304517,16171.509465,-8791.790461,-14940.844767,11246.950775,13216.340627,14246.241957,6568.842419,8796.797251,17422.849527,12789.981102,9307.579316,0.002000,-0.012000,1.008000,192.000000,0.000000,0.000000,0.000000,0.000000,0.000000,0.000000,0.000000,0.000000,0.000000,1772010507.754366,0.000000
194.000000,9790.868734,13670.684537,9277.180943,13542.162006,4316.412427,16148.531872,-8809.917725,-14962.794180,11225.649563,13187.149249,14218.749311,6540.478056,8778.401766,17391.333567,12783.230875,9297.029292,0.002000,-0.012000,1.006000,192.000000,0.000000,8.000000,127.500000,80.000000,15.500000,56.000000,0.000000,0.000000,0.000000,1772010508.233669,0.000000
196.000000,9808.437205,13696.076118,9289.384996,13575.063774,4336.417238,16193.034195,-8785.219048,-14934.742741,11240.334659,13209.299828,14229.254631,6559.566445,8786.269580,17393.613445,12787.433003,9304.673589,0.002000,-0.012000,1.006000,192.000000,0.000000,0.000000,0.000000,0.000000,0.000000,0.000000,0.000000,0.000000,0.000000,1772010508.233737,0.000000
198.000000,9797.462499,13677.904150,9280.801926,13547.146445,4320.502796,16171.308299,-8809.716560,-14960.268433,11231.885699,13210.439767,14226.684180,6560.438163,8785.621379,17419.429710,12782.493267,9311.177946,0.002000,-0.012000,1.006000,192.000000,0.000000,0.000000,0.000000,0.000000,0.000000,0.000000,0.000000,0.000000,0.000000,1772010508.233794,0.000000
200.000000,9814.382769,13689.974092,9304.360664,13550.119227,4335.903148,16172.694108,-8795.411443,-14941.425913,11236.601917,13193.072461,14223.197308,6539.226358,8773.394975,17417.015721,12790.226971,9302.304304,0.002000,-0.012000,1.006000,192.000000,0.000000,0.000000,0.000000,0.000000,0.000000,0.000000,0.000000,0.000000,0.000000,1772010508.233845,0.000000
202.000000,9817.534365,13708.995427,9298.504507,13558.612890,4336.730163,16159.059543,-8789.868211,-14934.563927,11253.544540,13218.240526,14250.287622,6562.941559,8805.648542,17405.102242,12793.020939,9301.857269,0.002000,-0.012000,1.006000,192.000000,0.000000,0.000000,0.000000,0.000000,0.000000,0.000000,0.000000,0.000000,0.000000,1772010508.233896,0.000000
204.000000,9796.434319,13678.641758,9283.618246,13556.780047,4317.708828,16163.529892,-8805.067397,-14955.239291,11237.607746,13204.516554,14226.728884,6552.637405,8790.583466,17390.730070,12785.555456,9295.509374,0.002000,-0.012000,1.006000,192.000000,0.000000,0.000000,127.500000,56.000000,15.500000,48.000000,0.000000,0.000000,0.000000,1772010508.233921,0.000000
206.000000,9808.236040,13687.738918,9304.450071,13562.658556,4334.763209,16189.837896,-8783.699129,-14935.905032,11260.585339,13210.752691,14229.724017,6558.426506,8794.472670,17433.868937,12789.735233,9301.857269,0.002000,-0.012000,1.006000,192.000000,0.000000,0.000000,0.000000,0.000000,0.000000,0.000000,0.000000,0.000000,0.000000,1772010508.233946,0.000000
208.000000,9777.502391,13653.205473,9293.162440,13537.870471,4316.211261,16152.912814,-8809.627153,-14969.499704,11218.206432,13183.796487,14231.690971,6538.153474,8774.221989,17399.268436,12792.484497,9298.996246,0.002000,-0.012000,1.006000,192.000000,0.000000,0.000000,0.000000,0.000000,0.000000,0.000000,0.000000,0.000000,0.000000,1772010508.233971,0.000000
210.000000,9797.529554,13673.031470,9296.872830,13555.617756,4334.830264,16165.854474,-8797.043121,-14952.892357,11220.642772,13179.281435,14210.903849,6525.569442,8774.713728,17374.010965,12791.299855,9297.990417,0.002000,-0.012000,1.006000,192.000000,0.000000,0.000000,0.000000,0.000000,0.000000,0.000000,0.000000,0.000000,0.000000,1772010508.234005,0.000000
212.000000,9803.363359,13680.429897,9294.391786,13555.438942,4341.781657,16169.251939,-8793.153917,-14945.315116,11244.313269,13208.785738,14238.888233,6557.778306,8802.228725,17401.347149,12792.864477,9305.545307,0.002000,-0.012000,1.006000,192.000000,0.000000,0.000000,0.000000,0.000000,0.000000,0.000000,0.000000,0.000000,0.000000,1772010508.234029,0.000000
214.000000,9787.627731,13670.997461,9277.359757,13549.694544,4333.802084,16168.581387,-8812.018789,-14965.744611,11223.302629,13194.771194,14217.564668,6539.874558,8775.384280,17405.415166,12786.807154,9308.182813,-0.002000,-0.012000,1.006000,192.000000,127.500000,120.000000,127.500000,80.000000,15.500000,56.000000,0.000000,0.000000,0.000000,1772010508.234054,0.000000
216.000000,9816.103854,13702.424014,9308.495737,13572.247454,4356.176180,16193.682396,-8783.743833,-14930.384151,11245.050877,13213.144328,14234.641401,6559.186466,8804.106272,17415.272285,12797.312474,9316.899993,-0.002000,-0.012000,1.006000,192.000000,0.000000,0.000000,0.000000,0.000000,0.000000,0.000000,0.000000,0.000000,0.000000,1772010508.234079,0.000000
218.000000,9803.832746,13683.670900,9288.736795,13559.752829,4339.367669,16192.654215,-8804.419196,-14948.466712,11250.392944,13222.174433,14240.385799,6569.825896,8804.575658,17422.111919,12792.931532,9312.362589,-0.002000,-0.012000,1.006000,192.000000,0.000000,0.000000,0.000000,0.000000,0.000000,0.000000,0.000000,0.000000,0.000000,1772010508.234100,0.000000
220.000000,9820.954182,13698.087775,9300.292647,13566.681870,4347.011965,16195.716404,-8791.835164,-14934.183947,11247.397810,13211.758520,14229.276982,6555.632538,8803.502775,17421.106091,12795.971369,9311.781444,-0.002000,-0.012000,1.006000,192.000000,0.000000,0.000000,0.000000,0.000000,0.000000,0.000000,0.000000,0.000000,0.000000,1772010508.234111,0.000000
222.000000,9811.700560,13695.606732,9291.642522,13562.323280,4341.669898,16189.144992,-8790.985798,-14937.044971,11260.741801,13230.623392,14247.180730,6574.922094,8816.556193,17427.431634,12797.088956,9315.201260,-0.002000,-0.012000,1.006000,192.000000,0.000000,0.000000,0.000000,0.000000,0.000000,0.000000,0.000000,0.000000,0.000000,1772010508.234122,0.000000
224.000000,9795.093214,13676.205418,9286.680435,13550.789780,4330.382267,16168.000241,-8807.481385,-14962.078924,11229.471711,13209.813918,14221.744445,6549.418753,8784.369681,17410.511364,12790.450488,9309.233345,-0.002000,-0.012000,1.006000,192.000000,0.000000,0.000000,127.500000,96.000000,15.500000,64.000000,0.000000,0.000000,0.000000,1772010508.234133,0.000000
226.000000,9806.582011,13689.772927,9301.320827,13563.172646,4342.720430,16183.869980,-8785.643731,-14941.694133,11244.156807,13213.010217,14232.093302,6553.576178,8788.750623,17397.703814,12795.569038,9310.105063,-0.002000,-0.012000,1.006000,192.000000,0.000000,0.000000,0.000000,0.000000,0.000000,0.000000,0.000000,0.000000,0.000000,1772010508.234144,0.000000
228.000000,9788.767670,13670.550426,9278.946731,13538.473968,4318.759360,16157.830198,-8807.257868,-14963.308270,11233.562080,13204.896534,14227.198270,6549.597567,8783.475612,17408.432652,12789.846991,9307.445205,-0.002000,-0.012000,1.006000,192.000000,0.000000,0.000000,0.000000,0.000000,0.000000,0.000000,0.000000,0.000000,0.000000,1772010508.234156,0.000000
230.000000,9803.899801,13690.644645,9289.295589,13560.915120,4327.811817,16175.421020,-8794.092690,-14946.119779,11228.756455,13201.253200,14213.519003,6535.605375,8777.351234,17405.795146,12788.394128,9302.304304,-0.002000,-0.012000,1.006000,192.000000,0.000000,0.000000,0.000000,0.000000,0.000000,0.000000,0.000000,0.000000,0.000000,1772010508.234167,0.000000
232.000000,9816.103854,13694.667959,9283.707653,13564.603158,4331.008116,16185.322843,-8790.181135,-14935.949735,11261.725278,13224.499014,14236.004858,6574.698576,8801.938153,17422.424844,12788.528238,9311.222650,-0.002000,-0.012000,1.006000,192.000000,0.000000,0.000000,0.000000,0.000000,0.000000,0.000000,0.000000,0.000000,0.000000,1772010508.234178,0.000000
234.000000,9801.485813,13682.061575,9290.569638,13539.546852,4317.887642,16164.893349,-8807.079054,-14954.345221,11230.276374,13214.150156,14232.741503,6554.894931,8795.143222,17408.030320,12785.913084,9301.723159,-0.002000,-0.012000,1.006000,192.000000,0.000000,0.000000,127.500000,80.000000,15.500000,80.000000,0.000000,0.000000,0.000000,1772010508.234190,0.000000
236.000000,9806.760825,13693.013929,9308.518089,13567.307719,4334.584395,16186.596893,-8784.123812,-14938.207261,11239.328830,13219.000485,14236.742465,6559.409983,8783.944998,17405.236352,12794.362044,9303.086615,-0.002000,-0.012000,1.006000,192.000000,0.000000,0.000000,0.000000,0.000000,0.000000,0.000000,0.000000,0.000000,0.000000,1772010508.234201,0.000000
238.000000,9788.790022,13670.863351,9281.807754,13547.347611,4316.054799,16155.460913,-8808.375455,-14965.364631,11229.941097,13209.545697,14227.175918,6551.855093,8774.356100,17393.501686,12789.444660,9300.002074,-0.002000,-0.012000,1.006000,192.000000,0.000000,0.000000,0.000000,0.000000,0.000000,0.000000,0.000000,0.000000,0.000000,1772010508.234213,0.000000
240.000000,9798.870659,13679.893455,9296.828127,13551.862663,4330.672840,16161.898215,-8799.568868,-14954.166407,11224.844900,13200.292075,14214.100148,6538.533454,8777.977082,17389.500724,12791.121041,9293.073033,-0.002000,-0.012000,1.006000,192.000000,0.000000,0.000000,0.000000,0.000000,0.000000,0.000000,0.000000,0.000000,0.000000,1772010508.234225,0.000000
242.000000,9803.184545,13680.005214,9298.817432,13553.851969,4338.518302,16170.369526,-8796.059644,-14945.672744,11237.183063,13218.396988,14235.155491,6561.600454,8788.750623,17416.255762,12798.273599,9303.533650,-0.002000,-0.012000,1.006000,192.000000,0.000000,0.000000,0.000000,0.000000,0.000000,0.000000,0.000000,0.000000,0.000000,1772010508.234237,0.000000
244.000000,9791.740452,13667.868217,9274.789306,13540.083294,4336.283128,16158.388991,-8814.276315,-14965.051706,11224.599031,13199.152136,14220.403340,6541.796808,8783.855591,17410.868992,12797.088956,9299.085653,-0.002000,-0.012000,1.006000,192.000000,0.000000,0.000000,127.500000,72.000000,15.500000,80.000000,0.000000,0.000000,0.000000,1772010508.234249,0.000000
246.000000,9807.610191,13693.237447,9312.228478,13562.479742,4350.498837,16192.788326,-8786.448394,-14938.877814,11235.149054,13212.049092,14230.081645,6550.938672,8796.104347,17421.687236,12802.587486,9309.009827,-0.002000,-0.012000,1.006000,192.000000,0.000000,0.000000,0.000000,0.000000,0.000000,0.000000,0.000000,0.000000,0.000000,1772010508.234261,0.000000
248.000000,9789.840554,13672.360918,9267.435583,13553.181416,4339.121799,16180.472515,-8808.576621,-14963.665898,11240.111141,13217.704084,14231.132177,6554.470248,8797.847783,17393.993425,12796.753680,9310.306228,-0.002000,-0.012000,1.006000,192.000000,0.000000,0.000000,0.000000,0.000000,0.000000,0.000000,0.000000,0.000000,0.000000,1772010508.234272,0.000000
250.000000,9799.809432,13683.693252,9309.032179,13560.512788,4337.043087,16199.762070,-8791.701054,-14946.455055,11240.915804,13210.909153,14213.340189,6547.407096,8798.563039,17415.004064,12791.612779,9311.088539,-0.002000,-0.012000,1.006000,192.000000,0.000000,0.000000,0.000000,0.000000,0.000000,0.000000,0.000000,0.000000,0.000000,1772010508.234283,0.000000
252.000000,9800.055301,13683.715604,9297.655141,13562.502094,4331.432799,16190.620207,-8790.337597,-14942.543500,11231.371609,13227.874127,14240.095227,6570.697614,8790.672873,17418.155660,12794.049119,9309.389807,-0.002000,-0.012000,1.006000,192.000000,0.000000,0.000000,0.000000,0.000000,0.000000,0.000000,0.000000,0.000000,0.000000,1772010508.234294,0.000000
254.000000,9787.135993,13671.265682,9279.460821,13541.111474,4316.121854,16164.826294,-8809.537746,-14960.559006,11217.066493,13200.850868,14216.581192,6547.071820,8771.070393,17402.934122,12786.985968,9301.231420,-0.002000,-0.011000,1.003000,192.000000,127.500000,120.000000,127.500000,88.000000,15.500000,32.000000,0.000000,0.000000,0.000000,1772010508.234305,0.000000
0.000000,9799.898839,13690.689348,9299.353874,13563.396163,4334.204416,16180.070183,-8785.509620,-14937.536709,11231.952754,13214.954819,14229.187575,6552.190370,8781.642769,17427.923373,12792.819773,9306.841708,-0.002000,-0.011000,1.003000,192.000000,0.000000,0.000000,0.000000,0.000000,0.000000,0.000000,0.000000,0.000000,0.000000,1772010508.234316,0.000000
2.000000,9780.050490,13672.092697,9277.829144,13552.689678,4315.026619,16156.846721,-8806.855536,-14963.352974,11230.365781,13211.646761,14226.348904,6555.006689,8788.013016,17408.075024,12788.349424,9305.120624,-0.002000,-0.011000,1.003000,192.000000,0.000000,0.000000,0.000000,0.000000,0.000000,0.000000,0.000000,0.000000,0.000000,1772010508.234327,0.000000
4.000000,9786.398385,13677.501819,9284.892295,13557.674117,4327.543596,16182.998262,-8795.120870,-14952.646488,11219.435778,13204.784775,14205.114747,6545.037811,8773.059699,17398.329663,12785.644863,9304.405368,-0.002000,-0.011000,1.003000,192.000000,0.000000,0.000000,0.000000,0.000000,0.000000,0.000000,0.000000,0.000000,0.000000,1772010508.234338,0.000000
6.000000,9785.549019,13669.343432,9288.580333,13554.097838,4323.050895,16162.680526,-8793.198620,-14950.567776,11230.857519,13217.145290,14228.159395,6558.761782,8782.492135,17407.315064,12790.003453,9307.713426,-0.002000,-0.011000,1.003000,192.000000,0.000000,0.000000,0.000000,0.000000,0.000000,0.000000,0.000000,0.000000,0.000000,1772010508.234349,0.000000
8.000000,9783.380900,13664.291938,9274.141106,13554.410762,4319.474616,16159.394820,-8809.917725,-14961.698945,11218.809929,13190.122031,14207.931067,6543.853169,8778.178248,17400.475431,12784.616683,9301.834917,0.000000,-0.012500,1.004500,192.000000,0.000000,8.000000,127.500000,72.000000,15.500000,56.000000,0.000000,0.000000,0.000000,1772010508.234361,0.000000
10.000000,9799.965894,13693.215095,9308.831013,13566.815980,4338.004212,16190.843724,-8782.693301,-14929.668895,11232.153920,13216.921773,14230.707494,6561.399288,8787.767147,17423.542431,12795.457279,9305.567659,0.000000,-0.012500,1.004500,192.000000,0.000000,0.000000,0.000000,0.000000,0.000000,0.000000,0.000000,0.000000,0.000000,1772010508.234372,0.000000
12.000000,9775.066051,13663.464923,9284.758185,13546.252375,4319.049933,16167.530855,-8805.179155,-14958.904977,11225.537804,13213.569011,14233.076779,6560.259349,8782.916818,17435.120634,12791.366910,9301.007903,0.000000,-0.012500,1.004500,192.000000,0.000000,0.000000,0.000000,0.000000,0.000000,0.000000,0.000000,0.000000,0.000000,1772010508.234382,0.000000
14.000000,9777.524743,13658.726353,9290.904914,13547.682887,4334.405581,16158.009012,-8796.886658,-14960.044916,11220.620420,13189.317368,14212.490822,6533.593718,8787.521277,17379.822419,12793.982064,9289.340292,0.000000,-0.012500,1.004500,192.000000,0.000000,0.000000,0.000000,0.000000,0.000000,0.000000,0.000000,0.000000,0.000000,1772010508.234393,0.000000
16.000000,9778.396461,13657.698173,9281.606589,13545.201843,4327.476541,16164.043983,-8797.400748,-14964.470561,11232.176272,13200.336778,14226.527718,6546.311861,8794.807946,17388.517247,12794.630265,9296.671664,0.000000,-0.012500,1.004500,192.000000,0.000000,0.000000,0.000000,0.000000,0.000000,0.000000,0.000000,0.000000,0.000000,1772010508.234405,0.000000
18.000000,9758.212836,13639.235632,9285.764013,13537.512843,4316.032447,16138.205366,-8814.365722,-14983.581303,11222.319153,13188.624464,14198.185706,6528.609279,8779.407594,17390.215980,12789.779936,9291.933094,0.000000,-0.012500,1.004500,192.000000,0.000000,0.000000,127.500000,80.000000,15.500000,64.000000,0.000000,0.000000,0.000000,1772010508.234418,0.000000
20.000000,9782.263313,13675.847790,9306.528784,13559.462256,4340.485256,16184.629939,-8788.482402,-14947.572642,11211.255039,13192.468964,14218.838718,6540.321593,8770.355138,17388.919579,12798.251247,9294.570600,0.000000,-0.012500,1.004500,192.000000,0.000000,0.000000,0.000000,0.000000,0.000000,0.000000,0.000000,0.000000,0.000000,1772010508.234429,0.000000
22.000000,9784.118507,13673.053822,9285.518144,13545.715934,4319.944003,16181.120715,-8807.011999,-14957.720334,11219.748702,13206.327046,14225.387779,6552.793867,8773.216161,17413.886477,12793.825602,9303.041911,0.000000,-0.012500,1.004500,192.000000,0.000000,0.000000,0.000000,0.000000,0.000000,0.000000,0.000000,0.000000,0.000000,1772010508.234440,0.000000
24.000000,9802.379883,13691.426956,9296.448147,13562.703259,4319.564023,16172.537645,-8791.566943,-14934.630982,11230.477539,13207.623447,14220.068064,6550.469285,8780.547533,17421.798995,12790.606951,9299.286818,0.000000,-0.012500,1.004500,192.000000,0.000000,0.000000,0.000000,0.000000,0.000000,0.000000,0.000000,0.000000,0.000000,1772010508.234452,0.000000
26.000000,9812.058188,13701.820517,9295.017635,13557.271785,4324.302593,16161.495884,-8788.527106,-14929.512433,11255.623252,13232.947973,14251.069933,6575.972626,8792.215144,17436.819367,12790.651654,9302.840746,0.000000,-0.012500,1.004500,192.000000,0.000000,0.000000,0.000000,0.000000,0.000000,0.000000,0.000000,0.000000,0.000000,1772010508.234463,0.000000
28.000000,9799.340045,13681.525133,9288.468574,13555.751867,4310.712732,16158.254881,-8808.017827,-14953.607613,11246.973127,13221.146252,14228.137043,6563.790925,8792.461013,17406.242181,12784.415517,9295.419967,0.001000,-0.012250,1.006250,192.000000,0.000000,8.000000,127.500000,80.000000,15.500000,64.000000,0.000000,0.000000,0.000000,1772010508.234474,0.000000
30.000000,9810.985304,13703.899229,9309.076882,13564.312585,4339.680593,16182.573579,-8784.816716,-14929.914764,11243.419199,13220.185127,14231.847433,6565.266140,8788.281237,17424.391797,12794.607913,9303.533650,0.001000,-0.012250,1.006250,192.000000,0.000000,0.000000,0.000000,0.000000,0.000000,0.000000,0.000000,0.000000,0.000000,1772010508.234486,0.000000
32.000000,9783.604417,13679.222903,9283.215914,13551.102704,4319.228747,16164.021631,-8808.755435,-14959.821398,11238.792388,13217.391159,14233.479110,6566.026099,8790.494059,17405.839849,12792.462145,9300.650275,0.001000,-0.012250,1.006250,192.000000,0.000000,0.000000,0.000000,0.000000,0.000000,0.000000,0.000000,0.000000,0.000000,1772010508.234497,0.000000
34.000000,9785.817240,13680.072269,9290.927266,13557.696469,4331.253985,16173.409363,-8799.434757,-14954.144055,11223.056760,13203.130746,14210.792090,6545.954233,8775.361928,17395.848619,12792.372738,9299.353874,0.001000,-0.012250,1.006250,192.000000,0.000000,0.000000,0.000000,0.000000,0.000000,0.000000,0.000000,0.000000,0.000000,1772010508.234509,0.000000
36.000000,9779.581103,13675.579569,9288.312112,13557.651765,4329.398791,16165.675660,-8797.959542,-14959.374363,11234.076170,13218.039360,14228.114692,6562.539227,8784.079109,17413.327684,12794.876134,9303.757167,0.001000,-0.012250,1.006250,192.000000,0.000000,0.000000,0.000000,0.000000,0.000000,0.000000,0.000000,0.000000,0.000000,1772010508.234519,0.000000
38.000000,9760.626824,13650.545615,9269.558998,13537.736361,4319.139340,16169.698974,-8819.305458,-14988.074003,11209.310437,13196.536982,14199.035072,6536.365335,8769.394013,17401.235390,12788.394128,9303.600705,0.001500,-0.012125,1.005125,192.000000,0.000000,8.000000,127.500000,80.000000,15.500000,48.000000,0.000000,0.000000,0.000000,1772010508.234530,0.000000
40.000000,9783.336196,13671.399793,9294.503545,13554.231948,4344.665032,16191.089593,-8792.595123,-14960.536654,11226.767150,13208.629275,14209.473337,6536.030058,8779.117021,17436.506443,12802.028692,9306.774653,0.001500,-0.012125,1.005125,192.000000,0.000000,0.000000,0.000000,0.000000,0.000000,0.000000,0.000000,0.000000,0.000000,1772010508.234541,0.000000
42.000000,9778.038833,13664.247234,9278.499696,13548.889881,4325.129607,16158.321936,-8810.722388,-14971.757230,11250.974089,13215.535964,14210.501517,6554.939634,8799.166536,17401.213038,12795.747852,9305.031217,0.001500,-0.012125,1.005125,192.000000,0.000000,0.000000,0.000000,0.000000,0.000000,0.000000,0.000000,0.000000,0.000000,1772010508.234552,0.000000
44.000000,9787.404214,13675.959548,9302.974856,13557.472951,4327.387134,16180.897198,-8799.211240,-14954.144055,11215.613629,13189.764403,14214.033093,6538.153474,8774.691376,17385.477410,12797.468936,9296.850478,0.001500,-0.012125,1.005125,192.000000,0.000000,0.000000,0.000000,0.000000,0.000000,0.000000,0.000000,0.000000,0.000000,1772010508.234563,0.000000
46.000000,9787.851249,13678.038261,9299.376225,13559.216387,4327.275375,16183.601759,-8795.500850,-14950.366610,11238.635926,13219.715741,14235.826044,6566.540190,8789.689397,17421.843698,12796.150183,9303.108967,0.001500,-0.012125,1.005125,192.000000,0.000000,0.000000,0.000000,0.000000,0.000000,0.000000,0.000000,0.000000,0.000000,1772010508.234574,0.000000
48.000000,9772.830876,13661.632080,9269.380184,13539.390390,4322.156825,16136.439578,-8815.885641,-14978.932140,11220.910993,13193.877124,14207.506383,6538.175826,8772.120925,17397.882628,12793.087994,9297.386920,0.001750,-0.010063,1.003563,192.000000,0.000000,8.000000,127.500000,96.000000,15.500000,40.000000,0.000000,0.000000,0.000000,1772010508.234585,0.000000
50.000000,9787.068938,13678.015909,9303.868926,13558.098800,4333.578567,16191.626035,-8789.443527,-14951.819474,11237.630098,13201.186144,14215.240087,6544.613128,8795.366740,17396.675634,12796.530163,9299.756205,0.001750,-0.010063,1.003563,192.000000,0.000000,0.000000,0.000000,0.000000,0.000000,0.000000,0.000000,0.000000,0.000000,1772010508.234598,0.000000
52.000000,9782.062147,13665.856560,9278.097365,13537.065808,4321.106293,16175.108096,-8811.348237,-14965.588148,11222.028580,13202.013159,14219.799843,6548.770553,8782.380376,17427.275172,12793.579733,9303.086615,0.001750,-0.010063,1.003563,192.000000,0.000000,0.000000,0.000000,0.000000,0.000000,0.000000,0.000000,0.000000,0.000000,1772010508.234609,0.000000
54.000000,9793.461537,13680.988691,9297.722196,13553.695506,4327.253023,16177.455029,-8797.490155,-14946.298593,11229.449359,13197.699272,14215.843584,6542.936747,8785.107289,17394.216942,12795.233762,9298.057472,0.001750,-0.010063,1.003563,192.000000,0.000000,0.000000,0.000000,0.000000,0.000000,0.000000,0.000000,0.000000,0.000000,1772010508.234630,0.000000
56.000000,9794.266199,13685.056708,9300.493813,13557.830579,4327.096561,16173.655233,-8794.986760,-14942.208224,11238.770037,13215.044226,14239.134102,6569.803544,8785.599027,17403.783489,12799.547648,9303.466595,0.001750,-0.010063,1.003563,192.000000,0.000000,0.000000,0.000000,0.000000,0.000000,0.000000,0.000000,0.000000,0.000000,1772010508.234641,0.000000
58.000000,9788.722967,13682.083926,9284.758185,13546.610003,4319.921651,16151.325840,-8812.130548,-14957.563872,11228.220013,13203.376615,14220.425692,6553.978509,8780.614588,17390.283035,12794.227933,9301.387882,0.002875,-0.009031,1.002781,192.000000,0.000000,16.000000,127.500000,96.000000,15.500000,40.000000,0.000000,0.000000,0.000000,1772010508.714630,0.000000
60.000000,9814.360418,13712.214078,9304.874755,13566.659518,4338.563006,16187.245093,-8786.314283,-14927.210203,11247.643679,13220.207479,14232.450930,6569.915303,8791.768109,17399.246085,12798.474765,9306.215859,0.002875,-0.009031,1.002781,192.000000,0.000000,0.000000,0.000000,0.000000,0.000000,0.000000,0.000000,0.000000,0.000000,1772010508.714705,0.000000
62.000000,9791.673397,13686.487220,9280.086670,13552.332050,4322.693267,16165.765067,-8809.917725,-14956.826264,11241.228728,13225.974229,14231.288639,6572.552809,8781.352196,17418.535640,12791.277503,9306.148804,0.002875,-0.009031,1.002781,192.000000,0.000000,0.000000,0.000000,0.000000,0.000000,0.000000,0.000000,0.000000,0.000000,1772010508.714747,0.000000
64.000000,9804.592705,13696.679616,9277.002129,13551.125056,4328.996459,16184.093497,-8801.625228,-14951.797122,11251.868159,13212.272610,14206.679369,6548.055297,8785.129641,17423.430672,12791.121041,9299.890316,0.002875,-0.009031,1.002781,192.000000,0.000000,0.000000,0.000000,0.000000,0.000000,0.000000,0.000000,0.000000,0.000000,1772010508.714815,0.000000
66.000000,9788.432394,13682.598017,9301.745510,13550.052172,4315.406598,16173.722288,-8798.227763,-14953.898186,11239.328830,13219.358113,14229.031113,6563.343890,8781.262789,17421.217849,12791.433965,9300.985551,0.002875,-0.009031,1.002781,192.000000,0.000000,0.000000,0.000000,0.000000,0.000000,0.000000,0.000000,0.000000,0.000000,1772010508.714856,0.000000
68.000000,9779.290531,13674.484333,9279.147897,13538.004582,4312.299706,16143.614488,-8816.332676,-14970.706698,11223.906126,13202.370787,14209.965075,6545.484846,8778.513524,17378.838942,12788.349424,9287.127469,0.002875,-0.009031,1.002781,192.000000,0.000000,0.000000,0.000000,0.000000,0.000000,0.000000,0.000000,0.000000,0.000000,1772010508.714898,0.000000
70.000000,9799.787080,13700.457060,9296.917534,13549.627489,4334.316174,16190.866076,-8791.254019,-14941.962354,11239.239423,13216.497089,14217.497613,6558.292396,8784.436737,17408.097375,12795.054948,9299.085653,0.004000,-0.012000,1.010000,192.000000,0.000000,16.000000,127.500000,80.000000,15.500000,72.000000,0.000000,0.000000,0.000000,1772010508.714940,0.000000
72.000000,9784.833763,13684.386156,9266.005071,13546.118265,4321.732142,16168.134352,-8814.298667,-14966.348108,11238.568871,13220.945087,14216.871764,6562.203951,8789.108251,17408.186782,12789.221142,9303.712464,0.004000,-0.012000,1.010000,192.000000,0.000000,0.000000,0.000000,0.000000,0.000000,0.000000,0.000000,0.000000,0.000000,1772010508.714992,0.000000
74.000000,9797.775423,13697.417223,9297.588086,13555.327184,4330.851654,16186.306320,-8800.820565,-14952.221805,11231.349257,13211.043264,14207.841660,6548.412925,8772.165629,17421.843698,12791.255151,9297.409272,0.004000,-0.012000,1.010000,192.000000,0.000000,0.000000,0.000000,0.000000,0.000000,0.000000,0.000000,0.000000,0.000000,1772010508.715003,0.000000
76.000000,9798.378920,13694.958531,9298.079824,13559.730477,4329.063514,16181.925378,-8796.171402,-14944.711619,11248.805970,13232.545642,14234.842567,6573.446879,8790.292894,17421.106091,12794.943189,9306.417025,0.004000,-0.012000,1.010000,192.000000,0.000000,0.000000,0.000000,0.000000,0.000000,0.000000,0.000000,0.000000,0.000000,1772010508.715014,0.000000
78.000000,9777.994129,13671.511551,9277.896199,13541.603213,4316.300668,16153.628070,-8816.824414,-14969.075020,11229.941097,13209.880973,14214.927163,6553.687937,8773.573789,17405.504573,12788.438831,9296.358740,0.004000,-0.012000,1.010000,192.000000,0.000000,0.000000,0.000000,0.000000,0.000000,0.000000,0.000000,0.000000,0.000000,1772010508.715030,0.000000
80.000000,9797.708368,13697.394871,9298.906839,13548.733419,4330.628136,16189.435564,-8793.109213,-14943.057590,11237.920670,13218.844023,14218.972828,6555.699594,8783.185039,17400.140154,12793.467974,9297.923362,0.002000,-0.012000,1.010000,192.000000,0.000000,8.000000,127.500000,80.000000,15.500000,72.000000,0.000000,0.000000,0.000000,1772010508.715043,0.000000
82.000000,9778.776440,13664.448400,9273.716423,13541.379695,4314.579584,16145.290869,-8813.963391,-14968.024488,11231.326906,13209.500993,14217.944648,6557.420678,8779.742870,17403.850544,12786.851858,9294.615304,0.002000,-0.012000,1.010000,192.000000,0.000000,0.000000,0.000000,0.000000,0.000000,0.000000,0.000000,0.000000,0.000000,1772010508.715067,0.000000
84.000000,9791.539287,13679.401717,9283.841763,13547.794646,4324.459055,16165.675660,-8803.391016,-14953.607613,11226.163653,13192.893647,14205.651189,6542.512064,8772.098574,17384.896265,12787.477706,9289.362644,0.002000,-0.012000,1.010000,192.000000,0.000000,0.000000,0.000000,0.000000,0.000000,0.000000,0.000000,0.000000,0.000000,1772010508.715080,0.000000
86.000000,9798.065996,13689.281188,9282.277141,13554.030782,4324.324945,16171.800038,-8800.619400,-14946.052724,11246.213167,13216.966476,14230.975715,6564.483829,8781.531010,17411.964227,12789.489363,9298.526859,0.002000,-0.012000,1.010000,192.000000,0.000000,0.000000,0.000000,0.000000,0.000000,0.000000,0.000000,0.000000,0.000000,1772010508.715094,0.000000
88.000000,9796.479022,13685.973130,9262.518199,13542.743152,4315.786578,16160.244186,-8816.757359,-14957.005078,11248.336583,13208.986903,14210.792090,6552.078611,8787.543629,17412.657131,12781.778012,9293.944751,0.002000,-0.012000,1.010000,192.000000,0.000000,0.000000,0.000000,0.000000,0.000000,0.000000,0.000000,0.000000,0.000000,1772010508.715181,0.000000
90.000000,9810.270048,13701.172316,9313.279010,13565.430172,4324.861386,16192.810678,-8788.258885,-14927.411369,11239.865272,13225.571898,14236.921279,6565.802582,8784.213219,17422.760120,12789.467012,9294.458842,0.002000,-0.006000,1.010000,192.000000,0.000000,8.000000,127.500000,104.000000,15.500000,72.000000,0.000000,0.000000,0.000000,1772010508.715245,0.000000
92.000000,9791.963970,13680.362842,9276.353929,13549.873358,4309.550441,16148.934203,-8810.811795,-14952.422971,11244.536787,13223.917869,14233.881442,6571.167001,8786.850725,17408.097375,12783.655558,9298.348045,0.002000,-0.006000,1.010000,192.000000,0.000000,0.000000,0.000000,0.000000,0.000000,0.000000,0.000000,0.000000,0.000000,1772010508.715296,0.000000
94.000000,9799.652970,13695.003235,9289.966141,13556.198902,4319.005229,16169.341346,-8800.127661,-14941.962354,11227.370647,13204.203630,14211.887325,6552.436239,8761.392088,17382.415221,12784.661387,9288.289760,0.002000,-0.006000,1.010000,192.000000,0.000000,0.000000,0.000000,0.000000,0.000000,0.000000,0.000000,0.000000,0.000000,1772010508.715337,0.000000
96.000000,9802.715159,13693.617427,9294.749414,13542.787855,4314.713694,16164.826294,-8797.959542,-14941.135340,11245.654374,13226.957706,14236.094265,6574.542114,8777.664158,17418.736806,12785.667215,9289.429699,0.002000,-0.006000,1.010000,192.000000,0.000000,0.000000,0.000000,0.000000,0.000000,0.000000,0.000000,0.000000,0.000000,1772010508.715378,0.000000
98.000000,9781.860981,13673.277339,9274.588141,13534.785930,4306.488252,16136.372523,-8818.321981,-14966.549273,11228.421179,13194.793546,14214.480128,6544.814294,8776.479516,17396.966207,12781.375680,9285.071109,0.002000,-0.006000,1.010000,192.000000,0.000000,0.000000,0.000000,0.000000,0.000000,0.000000,0.000000,0.000000,0.000000,1772010508.715389,0.000000
100.000000,9804.726816,13694.600903,9299.108004,13550.566262,4327.051857,16179.533741,-8793.288027,-14939.660125,11244.536787,13209.322179,14223.666695,6553.956157,8781.821583,17417.686274,12791.545724,9289.049719,0.002000,-0.012000,1.012000,192.000000,0.000000,8.000000,127.500000,80.000000,15.500000,80.000000,0.000000,0.000000,0.000000,1772010508.715400,0.000000
102.000000,9787.113641,13677.345357,9279.416118,13535.098855,4319.586375,16163.306375,-8816.265621,-14965.699907,11236.646621,13208.584572,14220.313933,6560.818143,8781.151030,17427.543393,12789.243494,9295.464670,0.002000,-0.012000,1.012000,192.000000,0.000000,0.000000,0.000000,0.000000,0.000000,0.000000,0.000000,0.000000,0.000000,1772010508.715411,0.000000
104.000000,9801.709330,13696.053767,9290.480231,13560.423381,4331.455151,16173.230549,-8801.647580,-14946.857386,11238.412409,13210.059787,14206.925238,6548.703497,8776.188943,17409.594942,12791.836297,9297.118699,0.002000,-0.012000,1.012000,192.000000,0.000000,0.000000,0.000000,0.000000,0.000000,0.000000,0.000000,0.000000,0.000000,1772010508.715421,0.000000
106.000000,9808.347798,13705.732072,9292.871868,13568.425306,4337.892453,16172.202369,-8796.126699,-14938.341372,11249.230653,13232.567994,14232.406227,6582.566390,8790.292894,17401.168335,12794.876134,9301.499641,0.002000,-0.012000,1.012000,192.000000,0.000000,0.000000,0.000000,0.000000,0.000000,0.000000,0.000000,0.000000,0.000000,1772010508.715432,0.000000
108.000000,9792.120432,13686.598979,9277.650330,13548.800474,4323.900261,16155.326802,-8816.198566,-14962.458904,11241.251080,13217.704084,14216.961171,6558.158285,8776.524219,17395.982730,12789.534067,9292.447185,0.002000,-0.012000,1.012000,192.000000,0.000000,0.000000,0.000000,0.000000,0.000000,0.000000,0.000000,0.000000,0.000000,1772010508.715443,0.000000
110.000000,9813.667514,13706.067348,9299.063301,13564.379640,4330.628136,16191.335462,-8791.544591,-14932.418160,11248.671859,13221.235659,14225.544241,6562.650986,8789.845859,17417.172184,12795.367872,9295.218801,0.002000,-0.012000,1.012000,192.000000,0.000000,0.000000,127.500000,112.000000,15.500000,80.000000,0.000000,0.000000,0.000000,1772010508.715454,0.000000
112.000000,9800.435281,13688.387118,9253.912777,13543.771332,4317.999401,16163.887520,-8816.824414,-14959.128494,11250.884682,13222.844985,14221.297410,6566.361376,8789.264713,17442.116730,12786.471878,9295.442318,0.002000,-0.012000,1.012000,192.000000,0.000000,0.000000,0.000000,0.000000,0.000000,0.000000,0.000000,0.000000,0.000000,1772010508.715464,0.000000
114.000000,9797.686016,13688.677691,9296.716368,13542.854910,4323.520282,16145.939070,-8804.173327,-14951.283032,11237.764208,13202.504897,14204.332436,6546.289509,8785.867248,17405.303407,12787.120078,9287.350987,0.002000,-0.012000,1.012000,192.000000,0.000000,0.000000,0.000000,0.000000,0.000000,0.000000,0.000000,0.000000,0.000000,1772010508.715479,0.000000
116.000000,9807.252563,13696.634912,9298.437452,13555.282480,4330.426971,16167.240282,-8799.658275,-14940.464788,11235.573737,13214.686598,14233.210889,6564.752050,8777.284178,17392.249989,12794.987893,9290.100251,0.002000,-0.012000,1.012000,192.000000,0.000000,0.000000,0.000000,0.000000,0.000000,0.000000,0.000000,0.000000,0.000000,1772010508.715489,0.000000
118.000000,9794.422662,13683.626197,9275.571618,13543.033724,4321.888604,16168.179055,-8820.065417,-14961.117799,11234.858481,13211.155023,14216.402378,6555.945463,8775.965425,17421.195498,12788.528238,9296.492850,0.002000,-0.012000,1.012000,192.000000,0.000000,0.000000,0.000000,0.000000,0.000000,0.000000,0.000000,0.000000,0.000000,1772010508.715500,0.000000
120.000000,9822.742322,13718.181994,9301.678455,13565.541931,4336.484294,16190.329634,-8792.170440,-14931.188814,11251.376420,13232.344476,14228.338209,6565.914341,8783.900295,17445.000106,12795.412576,9300.069129,0.002000,-0.006000,1.010000,192.000000,0.000000,8.000000,127.500000,104.000000,15.500000,72.000000,0.000000,0.000000,0.000000,1772010508.715510,0.000000
122.000000,9805.710293,13692.857467,9282.143030,13549.135750,4318.647601,16148.218947,-8812.063493,-14953.249985,11248.738915,13229.125825,14231.154529,6571.345815,8782.559190,17414.400567,12790.405785,9297.945714,0.002000,-0.006000,1.010000,192.000000,0.000000,0.000000,0.000000,0.000000,0.000000,0.000000,0.000000,0.000000,0.000000,1772010508.715520,0.000000
124.000000,9819.322505,13709.196592,9288.937961,13560.736306,4326.202491,16175.488076,-8801.133490,-14939.995401,11250.437647,13214.038398,14216.938820,6557.666547,8781.218085,17410.667826,12788.863515,9293.587124,0.002000,-0.006000,1.010000,192.000000,0.000000,0.000000,0.000000,0.000000,0.000000,0.000000,0.000000,0.000000,0.000000,1772010508.715531,0.000000
126.000000,9815.478005,13701.395834,9292.201315,13556.936509,4327.074209,16160.266538,-8796.149051,-14936.620287,11263.245197,13228.745845,14240.475206,6577.559600,8797.154879,17420.659056,12790.159916,9297.789252,0.002000,-0.006000,1.010000,192.000000,0.000000,0.000000,0.000000,0.000000,0.000000,0.000000,0.000000,0.000000,0.000000,1772010508.715542,0.000000
128.000000,9788.365339,13673.523208,9276.890370,13538.563375,4319.631078,16153.024572,-8814.991571,-14960.424895,11239.865272,13202.750767,14217.184689,6549.105829,8775.116059,17397.055614,12787.276541,9288.155650,0.002000,-0.006000,1.010000,192.000000,0.000000,0.000000,0.000000,0.000000,0.000000,0.000000,0.000000,0.000000,0.000000,1772010508.715552,0.000000
130.000000,9807.721950,13694.690310,9297.901010,13557.674117,4342.362802,16191.938960,-8793.332731,-14937.737875,11245.609670,13209.031607,14223.957267,6556.504256,8789.376472,17417.976846,12796.105480,9296.224629,-0.002000,-0.008000,1.010000,192.000000,127.500000,120.000000,127.500000,96.000000,15.500000,72.000000,0.000000,0.000000,0.000000,1772010508.715563,0.000000
132.000000,9793.595647,13682.977996,9274.141106,13539.300983,4327.007154,16165.653308,-8816.735007,-14963.867064,11242.770999,13215.066578,14224.449006,6561.220474,8781.754527,17405.839849,12796.016073,9296.649313,-0.002000,-0.008000,1.010000,192.000000,0.000000,0.000000,0.000000,0.000000,0.000000,0.000000,0.000000,0.000000,0.000000,1772010508.715574,0.000000
134.000000,9815.098025,13698.333645,9259.456010,13556.288309,4340.999346,16173.007032,-8803.815699,-14949.405485,11260.831208,13211.132671,14201.694930,6547.474152,8802.251077,17415.764024,12792.819773,9297.588086,-0.002000,-0.008000,1.010000,192.000000,0.000000,0.000000,0.000000,0.000000,0.000000,0.000000,0.000000,0.000000,0.000000,1772010508.715584,0.000000
136.000000,9806.358493,13695.763194,9309.009827,13559.551663,4323.095599,16180.114887,-8794.584429,-14942.476445,11247.867197,13227.024761,14236.027209,6571.815201,8783.453260,17433.332495,12794.339692,9298.862135,-0.002000,-0.008000,1.010000,192.000000,0.000000,0.000000,0.000000,0.000000,0.000000,0.000000,0.000000,0.000000,0.000000,1772010508.715595,0.000000
138.000000,9791.583990,13685.391985,9283.886466,13544.575995,4314.490177,16155.393857,-8814.119853,-14960.715468,11235.573737,13205.365921,14220.269229,6552.503294,8764.364870,17418.379178,12789.623474,9289.362644,-0.002000,-0.008000,1.010000,192.000000,0.000000,0.000000,0.000000,0.000000,0.000000,0.000000,0.000000,0.000000,0.000000,1772010508.715605,0.000000
140.000000,9811.722912,13704.368616,9304.695941,13563.105591,4336.260776,16182.327709,-8790.024673,-14935.346238,11251.801104,13211.512650,14226.371256,6559.454687,8785.934304,17405.482221,12796.843087,9294.749414,0.000000,-0.012000,1.007000,192.000000,0.000000,8.000000,127.500000,64.000000,15.500000,48.000000,0.000000,0.000000,0.000000,1772010508.715616,0.000000
142.000000,9793.752109,13679.848752,9284.624074,13537.199919,4322.223881,16148.196596,-8813.918688,-14959.374363,11249.677688,13212.250258,14228.405264,6561.354585,8788.862382,17410.846640,12794.742023,9292.357778,0.000000,-0.012000,1.007000,192.000000,0.000000,0.000000,0.000000,0.000000,0.000000,0.000000,0.000000,0.000000,0.000000,1772010508.715626,0.000000
144.000000,9804.369188,13691.248142,9285.607551,13554.455466,4329.778770,16171.621224,-8803.994513,-14947.460884,11241.116970,13200.403833,14209.830965,6544.143742,8779.474649,17400.028396,12795.501983,9283.662949,0.000000,-0.012000,1.007000,192.000000,0.000000,0.000000,0.000000,0.000000,0.000000,0.000000,0.000000,0.000000,0.000000,1772010508.715642,0.000000
146.000000,9814.002790,13705.597962,9286.434565,13562.367983,4324.459055,16179.354927,-8797.356045,-14936.553232,11256.807894,13225.750712,14231.534509,6574.966797,8784.839068,17424.838832,12791.411613,9296.671664,0.000000,-0.012000,1.007000,192.000000,0.000000,0.000000,0.000000,0.000000,0.000000,0.000000,0.000000,0.000000,0.000000,1772010508.715654,0.000000
148.000000,9806.000865,13693.639778,9275.906894,13543.167835,4315.406598,16144.955593,-8814.186909,-14951.081866,11247.442513,13214.910116,14222.571459,6556.683070,8779.944036,17417.798032,12787.745927,9288.356815,0.000000,-0.012000,1.007000,192.000000,0.000000,0.000000,0.000000,0.000000,0.000000,0.000000,0.000000,0.000000,0.000000,1772010508.715664,0.000000
150.000000,9818.495490,13717.086758,9301.186717,13560.423381,4332.013945,16171.598872,-8788.214181,-14925.243250,11253.812761,13216.273572,14229.925183,6571.994015,8772.836181,17422.447195,12791.277503,9288.803850,0.001000,-0.014000,1.007500,192.000000,0.000000,8.000000,127.500000,64.000000,15.500000,64.000000,0.000000,0.000000,0.000000,1772010508.715674,0.000000
152.000000,9799.340045,13696.813726,9281.293664,13554.299003,4319.474616,16156.556148,-8810.454167,-14949.092561,11251.935214,13219.201651,14230.305163,6571.099945,8788.169478,17420.189669,12790.361081,9293.385958,0.001000,-0.014000,1.007500,192.000000,0.000000,0.000000,0.000000,0.000000,0.000000,0.000000,0.000000,0.000000,0.000000,1772010508.715685,0.000000
154.000000,9823.457578,13714.851584,9291.977798,13562.815018,4333.735029,16177.544436,-8801.066435,-14932.686380,11253.321022,13216.810014,14219.039883,6562.203951,8788.907086,17413.372387,12791.053985,9292.603647,0.001000,-0.014000,1.007500,192.000000,0.000000,0.000000,0.000000,0.000000,0.000000,0.000000,0.000000,0.000000,0.000000,1772010508.715695,0.000000
156.000000,9823.748150,13716.751482,9289.206182,13562.479742,4332.483331,16180.986605,-8798.183059,-14931.948773,11273.437592,13238.535909,14244.923204,6585.159193,8801.267600,17435.254745,12794.719672,9298.705673,0.001000,-0.014000,1.007500,192.000000,0.000000,0.000000,0.000000,0.000000,0.000000,0.000000,0.000000,0.000000,0.000000,1772010508.715706,0.000000
158.000000,9814.315714,13698.892438,9250.112981,13542.206710,4319.407561,16152.286965,-8816.980877,-14955.015773,11271.425935,13222.733226,14213.653113,6564.707347,8795.612609,17410.578419,12784.817849,9293.877696,0.001000,-0.014000,1.007500,192.000000,0.000000,0.000000,0.000000,0.000000,0.000000,0.000000,0.000000,0.000000,0.000000,1772010508.715716,0.000000
160.000000,9812.527575,13702.088738,9310.552098,13558.948166,4332.684497,16174.146971,-8789.175306,-14937.201433,11244.425028,13222.643819,14227.421788,6562.807448,8777.842972,17418.982675,12792.238628,9287.574504,0.003500,-0.013000,1.006750,192.000000,0.000000,24.000000,127.500000,80.000000,15.500000,56.000000,0.000000,0.000000,0.000000,1772010508.715727,0.000000
162.000000,9787.605380,13676.808915,9282.970045,13542.966669,4324.861386,16141.289907,-8813.762225,-14970.036145,11237.719505,13208.763386,14221.409168,6555.252559,8771.852705,17410.131384,12793.736195,9286.255751,0.003500,-0.013000,1.006750,192.000000,0.000000,0.000000,0.000000,0.000000,0.000000,0.000000,0.000000,0.000000,0.000000,1772010508.715738,0.000000
164.000000,9801.664627,13697.640741,9291.664874,13555.662460,4335.880796,16179.734907,-8805.089749,-14956.490988,11233.383266,13196.134650,14199.996197,6539.315765,8771.740946,17395.043957,12796.865439,9284.489964,0.003500,-0.013000,1.006750,192.000000,0.000000,0.000000,0.000000,0.000000,0.000000,0.000000,0.000000,0.000000,0.000000,1772010508.715748,0.000000
166.000000,9807.789005,13705.039168,9291.106080,13564.446695,4332.058648,16184.138201,-8800.082958,-14943.862253,11255.645604,13227.561203,14225.231317,6572.284588,8792.684530,17430.158547,12796.664273,9299.264467,0.003500,-0.013000,1.006750,192.000000,0.000000,0.000000,0.000000,0.000000,0.000000,0.000000,0.000000,0.000000,0.000000,1772010508.715758,0.000000
168.000000,9800.904667,13700.792337,9277.896199,13553.695506,4322.425046,16170.525988,-8816.176214,-14957.049782,11249.364763,13222.688523,14214.435424,6566.651948,8787.230705,17425.308219,12787.656520,9295.129394,0.003500,-0.013000,1.006750,192.000000,0.000000,0.000000,0.000000,0.000000,0.000000,0.000000,0.000000,0.000000,0.000000,1772010508.715769,0.000000
170.000000,9822.049418,13721.311238,9300.627923,13570.369908,4341.513436,16186.686300,-8788.638865,-14927.456072,11264.407487,13229.774026,14228.628782,6574.698576,8792.572772,17435.388855,12792.797422,9294.682359,0.002750,-0.012500,1.007375,192.000000,0.000000,8.000000,127.500000,80.000000,15.500000,64.000000,0.000000,0.000000,0.000000,1772010508.715779,0.000000
172.000000,9807.990170,13702.803994,9270.944806,13558.679945,4322.626212,16166.636785,-8812.130548,-14954.211110,11261.613519,13231.070427,14228.561727,6577.134916,8800.418234,17415.719320,12786.963616,9295.330560,0.002750,-0.012500,1.007375,192.000000,0.000000,0.000000,0.000000,0.000000,0.000000,0.000000,0.000000,0.000000,0.000000,1772010508.715790,0.000000
174.000000,9806.403197,13698.467755,9296.694016,13557.249434,4331.455151,16171.554169,-8806.877888,-14958.793218,11252.717525,13210.819746,14210.143889,6552.637405,8781.285141,17400.117803,12789.265846,9289.161478,0.002750,-0.012500,1.007375,192.000000,0.000000,0.000000,0.000000,0.000000,0.000000,0.000000,0.000000,0.000000,0.000000,1772010508.715800,0.000000
176.000000,9799.630618,13697.528982,9301.343179,13553.829617,4337.266605,16180.807791,-8805.670894,-14962.682422,11253.052801,13223.247316,14223.689046,6561.175771,8791.611647,17436.037056,12801.313436,9296.470499,0.002750,-0.012500,1.007375,192.000000,0.000000,0.000000,0.000000,0.000000,0.000000,0.000000,0.000000,0.000000,0.000000,1772010508.715810,0.000000
178.000000,9786.308978,13689.236485,9275.191638,13540.910308,4328.370610,16150.610584,-8825.474539,-14981.122611,11236.065475,13202.616656,14198.520982,6541.193311,8770.310434,17412.724187,12795.904314,9292.737757,0.002750,-0.012500,1.007375,192.000000,0.000000,0.000000,0.000000,0.000000,0.000000,0.000000,0.000000,0.000000,0.000000,1772010509.195421,0.000000
180.000000,9808.034874,13709.397758,9303.108967,13565.899559,4343.502741,16195.559942,-8795.903182,-14945.806854,11252.203435,13218.307581,14208.109880,6558.471210,8794.606780,17421.329608,12797.603047,9295.911705,0.005375,-0.012250,1.007688,192.000000,0.000000,32.000000,127.500000,80.000000,15.500000,64.000000,0.000000,0.000000,0.000000,1772010509.195491,0.000000
182.000000,9808.951295,13704.815651,9267.234417,13553.427285,4332.550386,16171.308299,-8814.477481,-14956.669802,11252.628118,13226.376560,14222.638514,6564.305015,8783.386205,17423.520079,12793.110346,9295.263504,0.005375,-0.012250,1.007688,192.000000,0.000000,0.000000,0.000000,0.000000,0.000000,0.000000,0.000000,0.000000,0.000000,1772010509.195528,0.000000
184.000000,9816.908517,13711.968209,9306.864060,13562.010355,4341.871064,16169.989547,-8803.391016,-14944.219881,11261.099429,13210.484470,14209.227468,6563.723870,8786.448394,17400.654245,12789.802288,9294.034158,0.005375,-0.012250,1.007688,192.000000,0.000000,0.000000,0.000000,0.000000,0.000000,0.000000,0.000000,0.000000,0.000000,1772010509.195565,0.000000
186.000000,9827.324429,13721.959439,9304.405368,13565.139599,4343.145113,16193.816506,-8799.658275,-14938.766055,11266.530903,13233.730284,14241.726904,6578.900704,8795.769071,17434.137158,12800.151145,9297.185754,0.005375,-0.012250,1.007688,192.000000,0.000000,0.000000,0.000000,0.000000,0.000000,0.000000,0.000000,0.000000,0.000000,1772010509.195603,0.000000
188.000000,9807.967819,13699.250066,9282.746528,13550.476855,4328.460017,16158.277232,-8818.567850,-14964.224692,11257.299633,13220.945087,14219.352808,6562.315710,8787.878905,17413.931181,12793.400919,9294.101214,0.005375,-0.012250,1.007688,192.000000,0.000000,0.000000,0.000000,0.000000,0.000000,0.000000,0.000000,0.000000,0.000000,1772010509.195640,0.000000
190.000000,9809.443034,13701.686406,9303.824223,13557.763524,4332.483331,16185.591064,-8794.629132,-14946.209186,11253.164560,13214.261915,14210.412110,6557.107753,8783.676777,17433.712475,12796.932494,9295.598781,0.003687,-0.011125,1.006844,192.000000,0.000000,8.000000,127.500000,88.000000,15.500000,56.000000,0.000000,0.000000,0.000000,1772010509.195696,0.000000
192.000000,9794.199144,13690.309368,9290.994321,13547.526425,4315.428950,16159.394820,-8812.532879,-14966.146942,11250.169426,13213.747825,14215.731825,6557.443030,8781.821583,17405.057538,12791.903352,9291.977798,0.003687,-0.011125,1.006844,192.000000,0.000000,0.000000,0.000000,0.000000,0.000000,0.000000,0.000000,0.000000,0.000000,1772010509.195732,0.000000
194.000000,9806.693769,13701.887572,9301.499641,13561.339803,4334.249119,16174.102268,-8801.714635,-14953.115875,11250.012964,13198.526287,14207.864011,6545.507198,8775.987777,17403.783489,12791.031634,9287.395690,0.003687,-0.011125,1.006844,192.000000,0.000000,0.000000,0.000000,0.000000,0.000000,0.000000,0.000000,0.000000,0.000000,1772010509.195770,0.000000
196.000000,9820.015409,13709.867145,9302.773691,13561.719783,4337.043087,16181.277177,-8798.495984,-14946.477407,11269.838961,13225.504842,14232.138006,6569.311806,8799.010074,17427.364579,12799.145317,9296.962237,0.003687,-0.011125,1.006844,192.000000,0.000000,0.000000,0.000000,0.000000,0.000000,0.000000,0.000000,0.000000,0.000000,1772010509.195807,0.000000
198.000000,9805.464423,13699.004197,9282.411251,13555.148370,4321.799197,16164.245148,-8818.232574,-14963.509436,11258.484275,13212.362017,14214.413072,6555.006689,8787.811850,17425.554088,12792.462145,9294.168269,0.003687,-0.011125,1.006844,192.000000,0.000000,0.000000,0.000000,0.000000,0.000000,0.000000,0.000000,0.000000,0.000000,1772010509.195853,0.000000
200.000000,9823.837557,13728.396741,9305.902935,13574.303815,4340.395849,16188.027404,-8790.628170,-14932.127587,11263.535769,13236.725418,14222.549107,6573.826858,8794.003283,17415.138175,12796.351349,9295.777595,0.004844,-0.011562,1.008422,192.000000,0.000000,24.000000,127.500000,80.000000,15.500000,72.000000,0.000000,0.000000,0.000000,1772010509.195890,0.000000
202.000000,9800.256467,13706.961418,9286.367510,13550.633317,4316.591241,16170.481285,-8812.711693,-14956.669802,11256.003232,13232.165662,14228.204099,6571.859905,8783.386205,17435.433559,12790.316378,9294.570600,0.004844,-0.011562,1.008422,192.000000,0.000000,0.000000,0.000000,0.000000,0.000000,0.000000,0.000000,0.000000,0.000000,1772010509.195930,0.000000
204.000000,9812.549926,13708.213116,9281.383071,13560.758658,4324.928442,16175.018689,-8804.262734,-14948.801988,11250.929386,13207.489336,14209.205116,6550.446934,8788.817679,17428.012780,12788.148259,9288.736795,0.004844,-0.011562,1.008422,192.000000,0.000000,0.000000,0.000000,0.000000,0.000000,0.000000,0.000000,0.000000,0.000000,1772010509.195969,0.000000
206.000000,9809.644200,13704.458023,9298.906839,13556.333012,4335.053782,16158.143122,-8801.982856,-14949.696058,11281.640682,13230.779854,14224.806634,6572.955140,8792.371606,17432.617239,12793.490326,9297.945714,0.004844,-0.011562,1.008422,192.000000,0.000000,0.000000,0.000000,0.000000,0.000000,0.000000,0.000000,0.000000,0.000000,1772010509.195989,0.000000
208.000000,9788.410042,13686.710738,9284.154687,13545.961803,4322.715619,16163.351078,-8822.904089,-14974.260625,11232.958583,13197.989845,14213.898982,6544.590777,8774.244341,17398.664939,12795.792555,9287.172173,0.004844,-0.011562,1.008422,192.000000,0.000000,0.000000,0.000000,0.000000,0.000000,0.000000,0.000000,0.000000,0.000000,1772010509.196014,0.000000
210.000000,9804.793871,13697.640741,9300.985551,13563.776143,4343.279224,16178.192637,-8796.305513,-14946.008020,11251.242310,13212.831403,14214.860107,6557.018346,8787.633036,17403.895247,12798.765337,9293.698882,0.004844,-0.011562,1.008422,192.000000,0.000000,0.000000,0.000000,0.000000,0.000000,0.000000,0.000000,0.000000,0.000000,1772010509.196033,0.000000
212.000000,9789.527630,13679.602883,9274.655196,13538.965707,4335.478465,16164.714535,-8816.042103,-14963.420029,11247.263699,13208.472813,14218.123462,6555.967814,8796.149051,17413.685312,12795.010244,9294.928228,0.004000,-0.014000,1.008000,192.000000,0.000000,16.000000,127.500000,72.000000,15.500000,64.000000,0.000000,0.000000,0.000000,1772010509.196044,0.000000
214.000000,9802.648104,13699.764156,9294.369435,13562.189169,4334.450285,16172.381183,-8801.647580,-14944.733971,11238.814740,13196.782851,14205.315912,6548.077649,8771.539780,17414.154698,12792.104517,9292.111908,0.004000,-0.014000,1.008000,192.000000,0.000000,0.000000,0.000000,0.000000,0.000000,0.000000,0.000000,0.000000,0.000000,1772010509.196056,0.000000
216.000000,9815.165080,13710.358883,9302.147842,13558.545835,4340.149980,16183.490000,-8796.014940,-14935.145072,11263.491066,13226.175395,14236.250727,6577.939579,8781.329844,17432.237259,12792.775070,9295.352911,0.004000,-0.014000,1.008000,192.000000,0.000000,0.000000,0.000000,0.000000,0.000000,0.000000,0.000000,0.000000,0.000000,1772010509.196067,0.000000
218.000000,9794.534420,13688.275360,9280.354891,13555.394239,4331.745724,16169.631919,-8817.159691,-14963.531788,11252.203435,13203.466022,14218.995180,6556.101925,8786.962484,17419.295599,12791.009282,9295.665836,0.004000,-0.014000,1.008000,192.000000,0.000000,0.000000,0.000000,0.000000,0.000000,0.000000,0.000000,0.000000,0.000000,1772010509.196078,0.000000
220.000000,9806.313790,13703.429842,9298.392749,13563.373812,4347.168427,16183.020614,-8794.383263,-14942.029410,11257.120819,13217.592325,14218.905773,6561.354585,8791.701054,17415.451099,12796.776032,9298.571563,0.004000,-0.014000,1.008000,192.000000,0.000000,0.000000,0.000000,0.000000,0.000000,0.000000,0.000000,0.000000,0.000000,1772010509.196091,0.000000
222.000000,9776.295397,13672.226807,9280.600760,13540.999715,4326.805988,16170.190712,-8816.109159,-14970.818457,11254.662127,13210.976209,14216.849413,6556.258387,8794.830298,17418.893268,12792.305683,9294.727063,0.002000,-0.010000,1.008000,192.000000,0.000000,8.000000,127.500000,88.000000,15.500000,64.000000,0.000000,0.000000,0.000000,1772010509.196102,0.000000
224.000000,9789.080595,13680.318139,9284.557019,13553.941375,4329.197625,16167.441448,-8806.095577,-14960.201378,11225.716618,13180.734298,14191.636645,6531.738523,8767.047079,17412.880649,12791.791593,9286.881600,0.002000,-0.010000,1.008000,192.000000,0.000000,0.000000,0.000000,0.000000,0.000000,0.000000,0.000000,0.000000,0.000000,1772010509.196113,0.000000
226.000000,9796.277856,13691.784584,9284.221743,13556.981213,4329.711715,16164.625128,-8800.507641,-14949.360782,11242.927461,13214.373674,14218.950477,6566.562541,8775.674853,17402.956474,12791.925704,9287.865077,0.002000,-0.010000,1.008000,192.000000,0.000000,0.000000,0.000000,0.000000,0.000000,0.000000,0.000000,0.000000,0.000000,1772010509.196124,0.000000
228.000000,9787.985359,13683.089755,9264.261635,13547.280556,4320.435741,16143.279212,-8818.947830,-14967.108067,11256.159694,13197.565162,14200.353825,6553.263253,8781.732176,17398.977864,12783.834372,9287.507449,0.002000,-0.010000,1.008000,192.000000,0.000000,0.000000,0.000000,0.000000,0.000000,0.000000,0.000000,0.000000,0.000000,1772010509.196136,0.000000
230.000000,9798.736548,13698.244238,9306.417025,13560.602195,4339.300613,16177.589140,-8793.645655,-14941.738837,11237.205414,13204.963589,14219.330456,6559.633501,8776.501867,17403.582323,12794.764375,9286.747490,0.002000,-0.010000,1.008000,192.000000,0.000000,0.000000,0.000000,0.000000,0.000000,0.000000,0.000000,0.000000,0.000000,1772010509.196147,0.000000
232.000000,9786.420737,13682.352147,9284.624074,13542.832558,4323.319116,16167.664965,-8814.321019,-14960.559006,11249.364763,13208.919848,14223.711398,6559.812314,8783.833240,17407.627989,12791.076337,9287.574504,0.002000,-0.012000,1.010000,192.000000,0.000000,8.000000,127.500000,80.000000,15.500000,72.000000,0.000000,0.000000,0.000000,1772010509.196158,0.000000
234.000000,9795.249676,13701.306427,9282.970045,13563.642033,4320.703962,16177.700898,-8804.776824,-14945.516282,11231.125740,13198.123956,14199.459755,6551.430410,8765.437754,17410.913695,12787.589465,9288.960312,0.002000,-0.012000,1.010000,192.000000,0.000000,0.000000,0.000000,0.000000,0.000000,0.000000,0.000000,0.000000,0.000000,1772010509.196170,0.000000
236.000000,9803.497470,13712.884630,9293.967103,13555.528349,4316.054799,16173.342308,-8800.686455,-14940.822415,11250.616461,13233.082084,14224.627820,6578.699539,8787.342463,17438.205175,12785.488401,9292.827164,0.002000,-0.012000,1.010000,192.000000,0.000000,0.000000,0.000000,0.000000,0.000000,0.000000,0.000000,0.000000,0.000000,1772010509.196181,0.000000
238.000000,9799.720025,13688.431822,9282.791231,13533.847157,4317.172386,16144.150930,-8820.579507,-14961.989517,11247.576624,13201.610828,14213.429596,6548.122352,8776.904199,17427.409283,12784.348462,9285.875772,0.002000,-0.012000,1.010000,192.000000,0.000000,0.000000,0.000000,0.000000,0.000000,0.000000,0.000000,0.000000,0.000000,1772010509.196192,0.000000
240.000000,9812.929906,13710.560049,9302.281952,13564.469047,4342.005174,16174.906930,-8795.545554,-14938.028447,11265.547426,13220.207479,14226.326552,6562.583931,8792.013978,17418.580344,12795.367872,9289.809679,0.002000,-0.012000,1.010000,192.000000,0.000000,0.000000,0.000000,0.000000,0.000000,0.000000,0.000000,0.000000,0.000000,1772010509.196204,0.000000
242.000000,9790.622865,13689.951740,9269.268426,13551.169759,4330.806950,16158.567805,-8817.494967,-14964.336451,11259.624214,13219.738092,14222.280886,6566.204913,8811.549403,17417.954495,12794.697320,9291.709577,0.006000,-0.016000,1.014000,192.000000,0.000000,24.000000,127.500000,64.000000,15.500000,88.000000,0.000000,0.000000,0.000000,1772010509.196226,0.000000
244.000000,9780.095193,13686.464868,9286.456917,13562.792666,4324.816683,16177.119753,-8809.493042,-14959.977860,11242.413371,13200.694406,14191.256665,6550.223416,8778.222952,17409.952570,12789.422308,9293.117737,0.006000,-0.016000,1.014000,192.000000,0.000000,0.000000,0.000000,0.000000,0.000000,0.000000,0.000000,0.000000,0.000000,1772010509.196238,0.000000
246.000000,9790.131127,13690.801107,9295.107042,13558.478780,4331.589261,16170.257767,-8800.462937,-14944.711619,11238.367705,13217.234697,14215.508308,6568.261274,8767.069431,17419.966152,12794.831430,9294.592952,0.006000,-0.016000,1.014000,192.000000,0.000000,0.000000,0.000000,0.000000,0.000000,0.000000,0.000000,0.000000,0.000000,1772010509.196249,0.000000
248.000000,9784.185563,13678.708813,9269.782516,13534.227137,4324.593165,16164.736887,-8817.159691,-14959.955509,11256.427915,13196.268761,14206.969941,6551.385707,8784.414385,17419.049730,12791.076337,9287.328635,0.006000,-0.016000,1.014000,192.000000,0.000000,0.000000,0.000000,0.000000,0.000000,0.000000,0.000000,0.000000,0.000000,1772010509.196260,0.000000
250.000000,9788.186525,13691.024624,9311.267353,13564.379640,4330.561081,16176.225683,-8791.186963,-14942.409389,11246.481388,13206.729377,14221.297410,6554.827875,8784.526144,17424.570611,12796.619570,9289.876734,0.006000,-0.016000,1.014000,192.000000,0.000000,0.000000,0.000000,0.000000,0.000000,0.000000,0.000000,0.000000,0.000000,1772010509.196272,0.000000
252.000000,9762.929054,13667.756458,9276.018652,13543.972497,4316.814758,16143.927413,-8817.159691,-14973.478314,11235.506682,13197.788679,14214.703645,6554.626710,8779.318187,17391.221808,12789.802288,9285.853420,0.006000,-0.008000,1.010000,192.000000,0.000000,24.000000,127.500000,96.000000,15.500000,72.000000,0.000000,0.000000,0.000000,1772010509.196283,0.000000
254.000000,9773.143801,13671.019813,9277.002129,13555.416591,4322.872081,16174.929282,-8811.191775,-14966.146942,11229.024676,13180.957816,14191.390776,6535.426561,8766.711803,17396.966207,12787.231837,9281.137202,0.006000,-0.008000,1.010000,192.000000,0.000000,0.000000,0.000000,0.000000,0.000000,0.000000,0.000000,0.000000,0.000000,1772010509.196294,0.000000
0.000000,9774.484906,13670.952758,9283.551190,13550.566262,4332.706849,16157.629032,-8808.174289,-14962.280090,11237.741856,13196.738147,14207.327569,6556.459553,8778.647635,17426.135233,12792.708015,9294.280028,0.006000,-0.008000,1.010000,192.000000,0.000000,0.000000,0.000000,0.000000,0.000000,0.000000,0.000000,0.000000,0.000000,1772010509.196305,0.000000
2.000000,9763.800772,13658.659298,9264.306338,13539.166872,4320.771017,16148.733038,-8826.122740,-14979.848561,11225.001362,13178.722641,14189.647340,6537.997012,8762.912007,17385.611520,12789.288198,9285.026405,0.006000,-0.008000,1.010000,192.000000,0.000000,0.000000,0.000000,0.000000,0.000000,0.000000,0.000000,0.000000,0.000000,1772010509.196316,0.000000
4.000000,9788.767670,13687.068365,9288.960312,13555.595405,4337.177198,16192.520105,-8798.607743,-14949.338430,11238.613574,13192.401909,14201.672578,6547.876483,8776.703033,17416.814556,12794.205581,9293.385958,0.006000,-0.008000,1.010000,192.000000,0.000000,0.000000,0.000000,0.000000,0.000000,0.000000,0.000000,0.000000,0.000000,1772010509.196327,0.000000
6.000000,9774.551961,13674.350223,9271.905931,13547.593480,4321.620383,16165.452142,-8818.232574,-14970.550236,11240.938156,13196.626389,14209.361578,6556.236035,8784.615551,17407.203306,12789.511715,9293.788289,0.004000,-0.010000,1.008000,192.000000,0.000000,16.000000,127.500000,88.000000,15.500000,64.000000,0.000000,0.000000,0.000000,1772010509.196338,0.000000
8.000000,9788.611208,13688.297711,9275.258693,13543.413704,4340.641718,16169.676622,-8810.767092,-14961.251910,11233.830301,13186.836325,14190.876685,6545.730715,8778.312359,17393.188762,12790.405785,9288.736795,0.004000,-0.010000,1.008000,192.000000,0.000000,0.000000,0.000000,0.000000,0.000000,0.000000,0.000000,0.000000,0.000000,1772010509.196349,0.000000
10.000000,9786.756013,13687.180124,9295.308208,13557.204730,4334.204416,16172.716459,-8803.525126,-14954.680497,11253.522188,13208.182241,14216.424729,6566.607245,8786.470745,17429.175070,12798.497116,9291.664874,0.004000,-0.010000,1.008000,192.000000,0.000000,0.000000,0.000000,0.000000,0.000000,0.000000,0.000000,0.000000,0.000000,1772010509.196360,0.000000
12.000000,9787.247752,13680.251083,9271.838876,13546.431189,4318.178215,16144.061523,-8817.986705,-14961.676593,11243.195682,13196.179354,14204.108918,6556.638367,8771.830353,17395.714509,12788.639997,9283.372376,0.004000,-0.010000,1.008000,192.000000,0.000000,0.000000,0.000000,0.000000,0.000000,0.000000,0.000000,0.000000,0.000000,1772010509.196371,0.000000
14.000000,9797.998941,13675.333700,9273.135277,13563.105591,4332.192759,16187.021576,-8795.634961,-14939.950697,11262.529941,13208.875145,14208.735729,6568.730661,8786.873077,17422.089567,12789.779936,9286.032234,0.004000,-0.010000,1.008000,192.000000,0.000000,0.000000,0.000000,0.000000,0.000000,0.000000,0.000000,0.000000,0.000000,1772010509.196382,0.000000
16.000000,9776.496563,13656.088848,9278.857324,13542.050247,4319.184043,16142.318087,-8818.366685,-14968.739744,11239.060609,13202.236676,14212.334360,6563.321538,8778.826449,17426.291695,12787.656520,9290.055548,0.004000,-0.010000,1.008000,192.000000,0.000000,0.000000,127.500000,104.000000,15.500000,40.000000,0.000000,0.000000,0.000000,1772010509.196393,0.000000
18.000000,9779.715214,13662.526150,9289.809679,13551.907367,4327.767113,16173.118791,-8811.124720,-14965.409334,11235.551385,13186.970435,14196.531677,6542.534416,8782.290969,17404.297579,12790.562247,9282.299493,0.004000,-0.010000,1.008000,192.000000,0.000000,0.000000,0.000000,0.000000,0.000000,0.000000,0.000000,0.000000,0.000000,1772010509.196405,0.000000
20.000000,9779.804621,13664.157827,9291.620170,13557.562358,4326.671878,16183.646462,-8805.380321,-14958.882625,11243.933290,13206.908191,14211.149718,6562.136896,8780.055795,17417.820384,12795.412576,9292.357778,0.004000,-0.010000,1.008000,192.000000,0.000000,0.000000,0.000000,0.000000,0.000000,0.000000,0.000000,0.000000,0.000000,1772010509.196416,0.000000
22.000000,9774.931940,13660.983880,9271.280083,13535.992925,4326.157788,16143.212157,-8823.574641,-14974.975881,11236.668973,13199.934447,14197.045767,6543.115561,8773.260864,17406.197477,12790.651654,9284.467612,0.004000,-0.010000,1.008000,192.000000,0.000000,0.000000,0.000000,0.000000,0.000000,0.000000,0.000000,0.000000,0.000000,1772010509.196428,0.000000
24.000000,9791.136955,13682.888589,9285.205219,13567.397126,4338.138323,16192.810678,-8797.087824,-14947.215014,11245.497912,13207.690502,14201.538468,6557.733602,8774.065527,17423.341265,12794.607913,9292.178964,0.004000,-0.010000,1.008000,192.000000,0.000000,0.000000,0.000000,0.000000,0.000000,0.000000,0.000000,0.000000,0.000000,1772010509.196439,0.000000
26.000000,9772.786173,13665.945967,9271.883580,13553.673155,4324.280241,16168.380221,-8818.657257,-14967.622157,11242.256909,13210.126842,14208.109880,6563.746222,8780.078146,17409.706701,12788.595294,9297.073996,0.003000,-0.007000,1.009000,192.000000,0.000000,8.000000,127.500000,112.000000,15.500000,72.000000,0.000000,0.000000,0.000000,1772010509.196451,0.000000
28.000000,9780.609284,13678.798220,9275.079879,13556.712992,4337.914805,16169.274291,-8811.504699,-14958.189721,11244.134455,13198.191011,14191.234313,6548.167056,8781.754527,17408.745576,12791.881000,9293.631827,0.003000,-0.007000,1.009000,192.000000,0.000000,0.000000,0.000000,0.000000,0.000000,0.000000,0.000000,0.000000,0.000000,1772010509.196463,0.000000
30.000000,9784.409080,13680.295787,9294.548249,13554.880149,4344.530922,16183.177076,-8804.553307,-14950.076038,11251.644641,13217.681732,14214.725997,6571.368166,8785.353158,17432.661943,12801.626361,9294.235324,0.003000,-0.007000,1.009000,192.000000,0.000000,0.000000,0.000000,0.000000,0.000000,0.000000,0.000000,0.000000,0.000000,1772010509.196475,0.000000
32.000000,9771.288606,13659.463961,9264.194580,13539.099817,4323.810854,16161.875863,-8826.301554,-14976.339337,11239.597051,13194.592380,14193.648302,6548.412925,8776.792440,17419.139137,12793.825602,9287.865077,0.003000,-0.007000,1.009000,192.000000,0.000000,0.000000,0.000000,0.000000,0.000000,0.000000,0.000000,0.000000,0.000000,1772010509.196486,0.000000
34.000000,9798.244810,13689.057671,9288.222705,13543.905442,4347.727221,16183.601759,-8801.491118,-14947.393828,11254.684479,13207.221115,14200.286770,6553.084439,8786.113117,17416.479280,12800.933457,9288.580333,0.003000,-0.007000,1.009000,192.000000,0.000000,0.000000,0.000000,0.000000,0.000000,0.000000,0.000000,0.000000,0.000000,1772010509.196497,0.000000
36.000000,9778.083536,13668.851694,9266.899141,13547.682887,4322.089770,16154.790360,-8820.825377,-14969.946738,11274.354014,13218.866374,14202.521944,6557.688899,8802.854574,17431.723169,12794.183230,9288.245057,0.003500,-0.005500,1.010500,192.000000,0.000000,16.000000,127.500000,112.000000,15.500000,80.000000,0.000000,0.000000,0.000000,1772010509.196508,0.000000
38.000000,9787.538324,13675.758383,9284.579371,13557.204730,4321.754494,16156.690259,-8810.744740,-14958.234424,11230.052856,13191.463136,14195.279979,6542.690878,8767.360004,17402.487088,12788.304721,9279.527876,0.003500,-0.005500,1.010500,192.000000,0.000000,0.000000,0.000000,0.000000,0.000000,0.000000,0.000000,0.000000,0.000000,1772010509.196521,0.000000
40.000000,9786.756013,13678.485296,9286.479269,13554.209596,4325.956622,16187.781535,-8805.223859,-14954.546387,11254.036278,13218.799319,14216.089453,6566.897817,8785.487269,17426.112881,12791.143392,9293.698882,0.003500,-0.005500,1.010500,192.000000,0.000000,0.000000,0.000000,0.000000,0.000000,0.000000,0.000000,0.000000,0.000000,1772010509.196533,0.000000
42.000000,9771.199199,13665.096601,9265.111001,13546.811169,4317.619421,16158.165474,-8825.653353,-14978.730974,11238.390057,13198.459232,14193.201267,6544.501370,8779.407594,17433.734826,12788.528238,9287.060414,0.003500,-0.005500,1.010500,192.000000,0.000000,0.000000,0.000000,0.000000,0.000000,0.000000,0.000000,0.000000,0.000000,1772010509.675570,0.000000
44.000000,9795.808470,13690.689348,9289.072071,13560.691602,4343.525093,16194.442355,-8800.060606,-14948.533767,11255.511493,13211.199726,14199.772680,6553.643233,8782.492135,17423.564783,12796.731329,9290.614342,0.003500,-0.005500,1.010500,192.000000,0.000000,0.000000,0.000000,0.000000,0.000000,0.000000,0.000000,0.000000,0.000000,1772010509.675632,0.000000
46.000000,9787.270103,13673.344394,9267.189713,13543.950146,4328.460017,16158.701916,-8820.467749,-14965.342279,11257.970185,13209.344531,14211.596753,6560.505219,8789.801155,17416.054596,12796.932494,9287.663911,0.002750,-0.004750,1.010250,192.000000,0.000000,8.000000,127.500000,112.000000,15.500000,72.000000,0.000000,0.000000,0.000000,1772010509.675672,0.000000
48.000000,9785.146688,13674.752554,9278.656158,13545.805341,4333.556215,16166.077991,-8814.768054,-14964.112933,11247.084885,13195.106470,14193.357729,6540.209835,8782.693301,17394.775736,12794.920837,9282.634769,0.002750,-0.004750,1.010250,192.000000,0.000000,0.000000,0.000000,0.000000,0.000000,0.000000,0.000000,0.000000,0.000000,1772010509.675716,0.000000
50.000000,9778.217647,13664.761324,9276.018652,13539.591556,4337.892453,16164.043983,-8812.644638,-14969.566759,11259.579511,13201.744938,14207.729901,6547.831779,8796.596086,17421.597829,12801.872230,9289.764975,0.002750,-0.004750,1.010250,192.000000,0.000000,0.000000,0.000000,0.000000,0.000000,0.000000,0.000000,0.000000,0.000000,1772010509.675758,0.000000
52.000000,9760.671527,13651.842016,9269.491943,13532.506053,4316.345372,16141.848700,-8828.827301,-14988.565742,11230.097560,13178.208551,14184.014700,6523.781302,8767.382356,17390.439497,12796.083128,9280.645464,0.002750,-0.004750,1.010250,192.000000,0.000000,0.000000,0.000000,0.000000,0.000000,0.000000,0.000000,0.000000,0.000000,1772010509.675794,0.000000
54.000000,9798.043644,13696.098470,9287.820374,13555.416591,4333.802084,16182.104192,-8797.579562,-14945.069247,11250.527054,13203.220153,14198.342168,6548.412925,8781.285141,17396.899151,12795.725500,9285.093461,0.002750,-0.004750,1.010250,192.000000,0.000000,0.000000,0.000000,0.000000,0.000000,0.000000,0.000000,0.000000,0.000000,1772010509.675836,0.000000
56.000000,9797.104871,13691.158735,9270.475420,13549.225157,4311.942078,16168.357869,-8814.902164,-14953.697020,11261.322947,13223.604944,14214.278962,6574.296245,8784.794365,17425.554088,12783.342634,9288.356815,0.002375,-0.007375,1.011125,192.000000,0.000000,8.000000,127.500000,88.000000,15.500000,80.000000,0.000000,0.000000,0.000000,1772010509.675854,0.000000
58.000000,9807.766653,13702.178145,9263.971062,13563.060887,4319.765189,16162.457009,-8806.386150,-14939.615421,11258.730144,13209.389235,14201.940799,6562.516876,8769.908103,17416.032245,12784.482573,9277.650330,0.002375,-0.007375,1.011125,192.000000,0.000000,0.000000,0.000000,0.000000,0.000000,0.000000,0.000000,0.000000,0.000000,1772010509.675865,0.000000
60.000000,9791.159307,13684.453211,9295.330560,13552.197939,4320.882776,16157.561977,-8802.720464,-14945.002192,11271.850618,13223.359075,14218.235221,6582.029948,8787.767147,17421.463719,12790.919875,9279.349062,0.002375,-0.007375,1.011125,192.000000,0.000000,0.000000,0.000000,0.000000,0.000000,0.000000,0.000000,0.000000,0.000000,1772010509.675875,0.000000
62.000000,9763.130219,13655.954737,9266.295644,13533.645992,4308.701075,16138.205366,-8825.452188,-14980.094430,11233.673839,13190.144383,14194.318854,6544.613128,8758.374603,17405.303407,12788.930570,9273.045870,0.002375,-0.007375,1.011125,192.000000,0.000000,0.000000,0.000000,0.000000,0.000000,0.000000,0.000000,0.000000,0.000000,1772010509.675886,0.000000
64.000000,9783.157382,13676.652453,9291.620170,13552.354402,4327.387134,16161.272366,-8799.546516,-14954.255814,11246.749609,13190.502011,14193.022453,6545.909529,8780.860458,17414.378216,12796.530163,9272.665891,0.002375,-0.007375,1.011125,192.000000,0.000000,0.000000,0.000000,0.000000,0.000000,0.000000,0.000000,0.000000,0.000000,1772010509.675897,0.000000
66.000000,9758.905740,13653.831321,9270.520123,13542.810207,4319.966354,16153.940994,-8824.647525,-14986.330567,11241.474598,13196.134650,14196.218752,6550.670451,8779.228780,17391.244160,12795.613741,9279.840801,0.002188,-0.009687,1.011563,192.000000,0.000000,8.000000,127.500000,80.000000,15.500000,80.000000,0.000000,0.000000,0.000000,1772010509.675908,0.000000
68.000000,9774.306092,13666.124781,9276.420984,13549.739248,4344.597977,16169.229587,-8817.740836,-14974.953529,11231.461016,13182.880066,14176.571569,6531.492654,8775.451335,17402.844715,12800.508773,9288.848554,0.002188,-0.009687,1.011563,192.000000,0.000000,0.000000,0.000000,0.000000,0.000000,0.000000,0.000000,0.000000,0.000000,1772010509.675920,0.000000
70.000000,9790.578162,13678.373537,9275.795135,13552.108532,4357.450230,16177.052698,-8810.923554,-14958.301480,11258.774848,13205.991770,14207.774604,6558.851189,8797.154879,17423.140099,12809.404768,9297.655141,0.002188,-0.009687,1.011563,192.000000,0.000000,0.000000,0.000000,0.000000,0.000000,0.000000,0.000000,0.000000,0.000000,1772010509.675932,0.000000
72.000000,9773.479077,13668.292900,9272.956463,13536.663477,4327.498892,16145.492035,-8828.290859,-14977.322814,11245.564967,13193.698310,14194.475316,6546.155399,8786.336635,17405.616332,12804.129756,9294.995283,0.002188,-0.009687,1.011563,192.000000,0.000000,0.000000,0.000000,0.000000,0.000000,0.000000,0.000000,0.000000,0.000000,1772010509.675943,0.000000
74.000000,9792.925095,13687.269531,9292.625999,13550.230986,4330.829302,16174.772820,-8798.205411,-14946.097427,11253.701002,13198.168659,14205.137098,6553.419716,8783.565019,17404.342282,12803.347445,9282.478307,0.002188,-0.009687,1.011563,192.000000,0.000000,0.000000,0.000000,0.000000,0.000000,0.000000,0.000000,0.000000,0.000000,1772010509.675953,0.000000
76.000000,9776.496563,13664.806028,9269.737812,13539.524500,4302.397883,16147.593099,-8815.304496,-14967.130419,11246.973127,13198.302769,14209.205116,6556.101925,8785.353158,17407.829154,12787.455355,9276.510391,0.002094,-0.011844,1.012781,192.000000,0.000000,8.000000,127.500000,72.000000,15.500000,88.000000,0.000000,0.000000,0.000000,1772010509.675964,0.000000
78.000000,9787.404214,13677.390060,9274.588141,13546.453541,4308.544613,16147.302526,-8807.839013,-14957.608576,11243.262737,13181.293092,14195.279979,6542.310899,8767.248245,17374.547407,12780.436907,9265.982719,0.002094,-0.011844,1.012781,192.000000,0.000000,0.000000,0.000000,0.000000,0.000000,0.000000,0.000000,0.000000,0.000000,1772010509.675974,0.000000
80.000000,9786.465441,13681.301615,9277.739737,13557.741172,4316.390075,16154.052753,-8802.675760,-14953.160578,11255.355031,13208.875145,14216.581192,6564.483829,8782.425080,17412.724187,12787.924741,9275.616321,0.002094,-0.011844,1.012781,192.000000,0.000000,0.000000,0.000000,0.000000,0.000000,0.000000,0.000000,0.000000,0.000000,1772010509.675985,0.000000
82.000000,9775.893065,13664.247234,9244.547396,13543.704277,4316.792407,16137.691276,-8823.865214,-14974.551198,11248.716563,13188.937389,14192.240142,6543.629652,8778.625283,17404.074061,12785.264884,9278.164420,0.002094,-0.011844,1.012781,192.000000,0.000000,0.000000,0.000000,0.000000,0.000000,0.000000,0.000000,0.000000,0.000000,1772010509.675996,0.000000
84.000000,9789.259409,13679.446421,9301.991379,13555.930681,4333.466808,16169.341346,-8793.846821,-14942.565852,11257.925482,13198.749804,14206.209982,6556.303091,8784.526144,17399.670768,12794.496154,9279.840801,0.002094,-0.011844,1.012781,192.000000,0.000000,0.000000,0.000000,0.000000,0.000000,0.000000,0.000000,0.000000,0.000000,1772010509.676006,0.000000
86.000000,9773.613188,13670.438668,9268.597873,13540.575032,4326.604822,16152.354020,-8815.483310,-14964.872892,11252.583415,13202.460194,14215.307142,6560.929902,8786.336635,17414.869954,12792.529201,9281.383071,0.002094,-0.011844,1.012781,192.000000,0.000000,0.000000,0.000000,0.000000,0.000000,0.000000,0.000000,0.000000,0.000000,1772010509.676017,0.000000
88.000000,9775.311920,13673.277339,9283.193562,13543.100779,4341.356974,16159.864206,-8811.661161,-14964.425858,11236.981897,13181.829534,14188.172124,6540.634518,8776.680681,17387.958454,12799.793518,9279.013786,0.002094,-0.011844,1.012781,192.000000,0.000000,0.000000,127.500000,80.000000,15.500000,88.000000,0.000000,0.000000,0.000000,1772010509.676027,0.000000
90.000000,9776.518914,13672.942063,9273.023519,13542.609041,4353.739840,16178.840837,-8811.750568,-14969.969090,11259.981842,13208.182241,14207.551087,6552.279777,8800.239420,17432.930163,12813.003399,9290.681397,0.002094,-0.011844,1.012781,192.000000,0.000000,0.000000,0.000000,0.000000,0.000000,0.000000,0.000000,0.000000,0.000000,1772010509.676038,0.000000
92.000000,9747.171074,13641.828435,9256.907911,13536.127035,4335.433762,16164.938052,-8833.387057,-15000.501573,11235.216109,13182.433031,14175.722203,6527.178768,8775.652501,17411.964227,12802.609837,9287.619208,0.002094,-0.011844,1.012781,192.000000,0.000000,0.000000,0.000000,0.000000,0.000000,0.000000,0.000000,0.000000,0.000000,1772010509.676049,0.000000
94.000000,9772.026214,13667.801162,9272.978815,13554.611928,4345.670860,16178.036175,-8807.906068,-14970.639643,11237.585394,13186.724566,14179.767868,6530.911509,8794.047987,17405.772794,12803.503907,9290.167307,0.002094,-0.011844,1.012781,192.000000,0.000000,0.000000,0.000000,0.000000,0.000000,0.000000,0.000000,0.000000,0.000000,1772010509.676059,0.000000
96.000000,9755.888254,13651.529092,9259.813638,13543.279593,4317.284145,16159.886558,-8825.787464,-14989.459811,11232.086865,13195.285284,14185.378156,6537.885253,8767.047079,17411.539544,12789.735233,9292.201315,0.002094,-0.011844,1.012781,192.000000,0.000000,0.000000,0.000000,0.000000,0.000000,0.000000,0.000000,0.000000,0.000000,1772010509.676069,0.000000
98.000000,9771.020385,13662.235577,9270.654234,13552.309698,4329.801122,16154.790360,-8813.449301,-14972.204265,11231.371609,13178.990862,14174.336395,6528.095189,8762.800248,17381.990538,12785.466049,9280.958388,-0.004000,-0.008000,1.006000,192.000000,127.500000,112.000000,127.500000,96.000000,15.500000,56.000000,0.000000,0.000000,0.000000,1772010509.676080,0.000000
100.000000,9785.861943,13678.865275,9283.215914,13560.691602,4336.193721,16180.584273,-8802.876926,-14956.066305,11256.964357,13209.948028,14206.455851,6558.739431,8775.585446,17403.068233,12793.378567,9289.027368,-0.004000,-0.008000,1.006000,192.000000,0.000000,0.000000,0.000000,0.000000,0.000000,0.000000,0.000000,0.000000,0.000000,1772010509.676091,0.000000
