Sample_index,EXG Channel 0,EXG Channel 1,EXG Channel 2,EXG Channel 3,EXG Channel 4,EXG Channel 5,EXG Channel 6,EXG Channel 7,EXG Channel 8,EXG Channel 9,EXG Channel 10,EXG Channel 11,EXG Channel 12,EXG Channel 13,EXG Channel 14,EXG Channel 15,Accel Channel 0,Accel Channel 1,Accel Channel 2,Not Used,Digital Channel 0 (D11),Digital Channel 1 (D12),Digital Channel 2 (D13),Digital Channel 3 (D17),Not Used,Digital Channel 4 (D18),Analog Channel 0,Analog Channel 1,Analog Channel 2,Timestamp,Marker Channel
90.000000,9091.661464,11288.525020,6562.025137,12486.064432,8012.049855,13487.601398,-9855.487627,-17417.283942,11978.724537,10316.872336,10897.324788,5967.088755,8893.423843,15358.934147,10579.393575,7693.492793,0.002000,-0.010000,1.012000,192.000000,0.000000,0.000000,0.000000,0.000000,0.000000,0.000000,0.000000,0.000000,0.000000,1772011184.857985,101.000000
92.000000,9097.428214,11300.304389,6568.730661,12504.906953,8020.029428,13487.489639,-9845.295232,-17406.130422,11979.193923,10317.721703,10881.924436,5957.768078,8892.038034,15355.201406,10579.661796,7690.363549,0.002000,-0.010000,1.012000,192.000000,0.000000,0.000000,0.000000,0.000000,0.000000,0.000000,0.000000,0.000000,0.000000,1772011184.858038,0.000000
94.000000,9107.307685,11312.061407,6563.232131,12502.515316,8026.511434,13497.279703,-9845.630508,-17405.415166,11982.591389,10330.417494,10901.884544,5979.158697,8909.628857,15364.142104,10584.623883,7694.431567,-0.002000,-0.012000,1.006000,192.000000,127.500000,120.000000,127.500000,80.000000,15.500000,56.000000,0.000000,0.000000,0.000000,1772011184.858085,0.000000
96.000000,9081.402013,11274.041089,6555.498428,12487.830220,8006.417216,13483.935712,-9864.562436,-17429.286829,11981.742022,10318.772235,10881.745622,5960.807915,8907.460738,15350.842816,10576.711366,7694.833898,-0.002000,-0.012000,1.006000,192.000000,0.000000,0.000000,0.000000,0.000000,0.000000,0.000000,0.000000,0.000000,0.000000,1772011184.858154,0.000000
98.000000,9100.311589,11291.073119,6579.750071,12498.000264,8026.489082,13507.650913,-9839.103799,-17405.683387,11965.671118,10321.074464,10882.550285,5962.037261,8891.412186,15359.582348,10580.555866,7694.990360,-0.002000,-0.012000,1.006000,192.000000,0.000000,0.000000,0.000000,0.000000,0.000000,0.000000,0.000000,0.000000,0.000000,1772011184.858196,0.000000
100.000000,9072.885999,11271.783563,6558.247692,12495.049834,8008.898259,13483.734546,-9859.823866,-17433.310143,11966.699298,10316.447653,10889.054643,5961.903150,8894.675540,15356.676621,10577.292511,7695.012712,-0.002000,-0.012000,1.006000,192.000000,0.000000,0.000000,0.000000,0.000000,0.000000,0.000000,0.000000,0.000000,0.000000,1772011184.858237,0.000000
102.000000,9086.677025,11296.392834,6556.817181,12513.914706,8020.923498,13508.321465,-9847.083372,-17419.161489,11966.475781,10316.380598,10865.652366,5951.442534,8890.451061,15364.835008,10574.833819,7697.918439,-0.002000,-0.012000,1.006000,192.000000,0.000000,0.000000,0.000000,0.000000,0.000000,0.000000,0.000000,0.000000,0.000000,1772011184.858251,0.000000
104.000000,9080.552647,11283.719395,6568.909474,12508.572639,8021.750512,13501.884163,-9843.685906,-17418.937971,11970.566150,10339.559357,10882.796154,5980.164526,8898.944723,15371.585235,10576.823125,7702.768767,0.001000,-0.012000,1.009000,192.000000,0.000000,16.000000,127.500000,80.000000,15.500000,80.000000,0.000000,0.000000,0.000000,1772011184.858262,0.000000
106.000000,9075.098822,11278.489086,6554.961986,12492.837011,8002.237439,13470.278796,-9859.890921,-17432.907812,11954.182321,10310.479738,10866.188808,5954.236502,8878.559933,15351.043981,10573.448011,7692.062282,0.001000,-0.012000,1.009000,192.000000,0.000000,0.000000,0.000000,0.000000,0.000000,0.000000,0.000000,0.000000,0.000000,1772011184.858281,0.000000
108.000000,9088.129889,11285.306369,6577.201972,12502.582372,8021.012905,13495.268046,-9836.846273,-17411.092509,11964.061792,10318.883993,10883.265541,5963.914807,8895.882534,15351.580423,10577.896008,7688.195430,0.001000,-0.012000,1.009000,192.000000,0.000000,0.000000,0.000000,0.000000,0.000000,0.000000,0.000000,0.000000,0.000000,1772011184.858293,0.000000
110.000000,9065.129944,11264.027508,6552.503294,12481.504677,8018.509509,13479.420659,-9864.361270,-17443.927222,11956.864531,10314.212479,10875.487134,5959.042127,8899.078834,15355.603737,10577.538380,7687.927209,0.001000,-0.012000,1.009000,192.000000,0.000000,0.000000,0.000000,0.000000,0.000000,0.000000,0.000000,0.000000,0.000000,1772011184.858305,0.000000
112.000000,9073.288330,11271.090659,6572.932788,12493.574619,8036.368553,13490.373014,-9856.024069,-17435.277097,11964.642938,10299.415624,10861.137314,5935.572795,8904.957343,15341.924470,10588.133107,7690.944694,0.001000,-0.012000,1.009000,192.000000,0.000000,0.000000,0.000000,0.000000,0.000000,0.000000,0.000000,0.000000,0.000000,1772011184.858317,0.000000
114.000000,9077.624569,11285.239313,6573.469230,12495.988607,8037.039106,13501.280666,-9852.559549,-17428.683332,11959.144409,10315.575935,10883.712576,5956.896360,8903.035093,15351.312202,10594.212782,7697.493756,0.001000,-0.012000,1.009000,192.000000,0.000000,0.000000,127.500000,64.000000,15.500000,72.000000,0.000000,0.000000,0.000000,1772011184.858328,0.000000
116.000000,9075.098822,11271.180066,6557.241864,12493.753432,8019.068303,13492.541133,-9866.395279,-17438.428693,11962.608929,10313.474871,10871.106192,5947.843903,8891.993331,15358.531816,10583.036909,7700.220668,0.001000,-0.012000,1.009000,192.000000,0.000000,0.000000,0.000000,0.000000,0.000000,0.000000,0.000000,0.000000,0.000000,1772011184.858340,0.000000
118.000000,9094.164860,11299.209154,6582.901667,12512.126566,8034.088675,13513.954105,-9836.220424,-17403.291750,11974.254188,10324.226060,10885.970102,5965.188857,8903.884459,15358.241243,10583.059261,7701.718235,0.001000,-0.012000,1.009000,192.000000,0.000000,0.000000,0.000000,0.000000,0.000000,0.000000,0.000000,0.000000,0.000000,1772011184.858351,0.000000
120.000000,9087.772261,11291.453098,6566.182562,12498.223781,8012.675704,13491.401195,-9855.666441,-17417.239239,11974.924740,10332.630316,10896.184849,5976.945874,8907.348979,15366.936072,10581.740508,7699.818337,0.001000,-0.012000,1.009000,192.000000,0.000000,0.000000,0.000000,0.000000,0.000000,0.000000,0.000000,0.000000,0.000000,1772011184.858362,0.000000
122.000000,9105.228973,11304.104186,6569.915303,12505.041063,8022.175195,13509.886087,-9846.770447,-17406.152774,11977.428136,10323.220232,10883.846686,5965.680595,8897.782433,15366.757258,10579.974720,7695.951485,0.001000,-0.012000,1.009000,192.000000,0.000000,0.000000,0.000000,0.000000,0.000000,0.000000,0.000000,0.000000,0.000000,1772011184.858374,0.000000
124.000000,9094.611894,11299.231505,6566.316672,12502.291799,8026.645544,13511.249544,-9847.709220,-17413.908829,11984.312473,10339.291136,10900.878716,5984.389005,8914.970924,15382.403479,10581.405232,7700.332427,-0.000500,-0.017000,1.008500,192.000000,127.500000,120.000000,127.500000,40.000000,15.500000,64.000000,0.000000,0.000000,0.000000,1772011184.858385,0.000000
126.000000,9075.076470,11272.878799,6557.063050,12477.324900,8012.273373,13482.348738,-9868.183418,-17442.899042,11954.562301,10314.212479,10871.262654,5949.989671,8882.918523,15347.914737,10578.655968,7692.889296,-0.000500,-0.017000,1.008500,192.000000,0.000000,0.000000,0.000000,0.000000,0.000000,0.000000,0.000000,0.000000,0.000000,1772011184.858397,0.000000
128.000000,9087.101708,11278.623197,6567.747184,12503.811717,8037.620251,13503.873468,-9844.714087,-17420.033207,11963.726516,10316.246488,10875.040099,5955.309386,8894.452023,15357.570691,10584.534476,7695.705616,-0.000500,-0.017000,1.008500,192.000000,0.000000,0.000000,0.000000,0.000000,0.000000,0.000000,0.000000,0.000000,0.000000,1772011184.858408,0.000000
130.000000,9061.240740,11263.379307,6557.152457,12488.634883,8023.717466,13484.136878,-9866.931721,-17448.643440,11956.641013,10310.792662,10872.961387,5955.689365,8898.184764,15354.732019,10583.551000,7696.689093,-0.000500,-0.017000,1.008500,192.000000,0.000000,0.000000,0.000000,0.000000,0.000000,0.000000,0.000000,0.000000,0.000000,1772011184.858419,0.000000
132.000000,9076.059947,11271.895322,6570.094117,12491.831182,8032.971088,13490.887104,-9856.225235,-17435.142986,11952.684754,10301.986075,10861.651404,5938.657336,8900.665808,15357.436580,10583.662758,7696.309113,-0.000500,-0.017000,1.008500,192.000000,0.000000,0.000000,0.000000,0.000000,0.000000,0.000000,0.000000,0.000000,0.000000,1772011184.858431,0.000000
134.000000,9086.118232,11283.808802,6577.447841,12505.331636,8024.052742,13499.134898,-9847.262185,-17417.686274,11958.540912,10322.080293,10889.144050,5965.457078,8900.799918,15369.193598,10587.931942,7696.309113,-0.001250,-0.019500,1.008250,192.000000,127.500000,120.000000,127.500000,40.000000,15.500000,64.000000,0.000000,0.000000,0.000000,1772011184.858442,0.000000
136.000000,9089.716862,11290.693139,6559.588797,12503.409386,7998.370588,13489.993035,-9856.024069,-17414.132346,11967.213388,10322.661438,10885.791288,5966.999348,8890.473412,15357.995374,10570.162305,7694.945657,-0.001250,-0.019500,1.008250,192.000000,0.000000,0.000000,0.000000,0.000000,0.000000,0.000000,0.000000,0.000000,0.000000,1772011184.858453,0.000000
138.000000,9118.237688,11320.599773,6577.738414,12521.715465,8014.083864,13504.901648,-9830.520729,-17381.029413,11980.065641,10349.908215,10904.700864,5991.630970,8902.073968,15378.626034,10569.379994,7696.912610,-0.001250,-0.019500,1.008250,192.000000,0.000000,0.000000,0.000000,0.000000,0.000000,0.000000,0.000000,0.000000,0.000000,1772011184.858465,0.000000
140.000000,9083.659540,11282.870028,6555.498428,12494.066357,7994.101404,13469.764706,-9857.923968,-17420.189669,11976.891694,10339.089970,10902.309227,5987.473546,8897.067177,15372.881636,10565.021403,7689.178907,-0.001250,-0.019500,1.008250,192.000000,0.000000,0.000000,0.000000,0.000000,0.000000,0.000000,0.000000,0.000000,0.000000,1772011184.858476,0.000000
142.000000,9089.739214,11287.675653,6561.175771,12491.115927,8012.519242,13474.905607,-9852.268976,-17419.407358,11971.594330,10307.417549,10871.530875,5954.907054,8891.255723,15349.546415,10572.799811,7682.518087,-0.001250,-0.019500,1.008250,192.000000,0.000000,0.000000,0.000000,0.000000,0.000000,0.000000,0.000000,0.000000,0.000000,1772011184.858488,0.000000
144.000000,9071.880170,11274.577531,6568.663605,12488.344310,8014.016809,13472.156343,-9851.419610,-17426.738730,11957.423324,10316.492357,10886.305378,5966.909941,8895.547258,15357.302470,10584.556828,7681.758127,0.000375,-0.019750,1.007125,192.000000,0.000000,8.000000,127.500000,48.000000,15.500000,56.000000,0.000000,0.000000,0.000000,1772011184.858499,0.000000
146.000000,9057.619757,11258.037240,6561.600454,12470.932301,8001.589239,13464.087363,-9867.378755,-17448.196405,11945.934528,10298.365092,10860.444410,5940.803104,8882.918523,15334.146063,10580.175886,7679.567656,0.000375,-0.019750,1.007125,192.000000,0.000000,0.000000,0.000000,0.000000,0.000000,0.000000,0.000000,0.000000,0.000000,1772011184.858510,0.000000
148.000000,9080.284426,11277.237389,6577.649007,12503.163517,8022.532823,13492.652892,-9840.467255,-17416.568687,11953.578824,10311.753787,10879.130468,5949.654394,8890.182840,15353.323859,10587.194334,7685.468517,0.000375,-0.019750,1.007125,192.000000,0.000000,0.000000,0.000000,0.000000,0.000000,0.000000,0.000000,0.000000,0.000000,1772011184.858522,0.000000
150.000000,9074.316510,11279.941950,6560.147591,12493.909895,8005.903126,13479.063032,-9856.806380,-17426.716379,11956.909234,10313.363113,10884.159611,5971.894380,8890.294598,15352.876824,10577.158401,7684.641502,0.000375,-0.019750,1.007125,192.000000,0.000000,0.000000,0.000000,0.000000,0.000000,0.000000,0.000000,0.000000,0.000000,1772011184.858533,0.000000
152.000000,9089.627455,11298.471546,6563.478001,12501.978874,8022.063437,13499.581933,-9845.630508,-17410.824288,11967.615720,10319.509842,10873.497829,5965.390022,8895.748424,15372.121676,10574.543247,7687.390767,0.000375,-0.019750,1.007125,192.000000,0.000000,0.000000,0.000000,0.000000,0.000000,0.000000,0.000000,0.000000,0.000000,1772011184.858544,0.000000
154.000000,9084.620665,11290.782546,6570.362338,12498.581409,8024.790350,13505.795718,-9843.931776,-17413.171221,11973.181304,10340.676944,10893.256771,5987.182973,8912.892212,15386.896180,10577.806601,7694.968008,0.002188,-0.017875,1.006562,192.000000,0.000000,16.000000,127.500000,64.000000,15.500000,56.000000,0.000000,0.000000,0.000000,1772011184.858556,0.000000
156.000000,9068.013319,11274.197552,6555.565483,12485.639749,8006.707788,13481.968758,-9865.322395,-17439.099245,11951.477760,10322.527328,10865.428849,5957.723374,8884.416090,15365.952595,10576.577255,7691.525840,0.002188,-0.017875,1.006562,192.000000,0.000000,0.000000,0.000000,0.000000,0.000000,0.000000,0.000000,0.000000,0.000000,1772011184.858568,0.000000
158.000000,9083.100746,11285.596941,6575.123259,12504.661084,8022.868100,13502.889991,-9843.395334,-17418.401530,11965.179380,10318.124034,10876.068279,5960.986729,8894.921409,15361.549301,10579.684148,7686.876677,0.002188,-0.017875,1.006562,192.000000,0.000000,0.000000,0.000000,0.000000,0.000000,0.000000,0.000000,0.000000,0.000000,1772011184.858579,0.000000
160.000000,9061.866589,11265.122743,6553.307957,12489.283084,8004.740835,13481.365261,-9864.607139,-17439.434521,11951.880092,10317.386427,10874.280140,5964.518304,8891.680407,15357.570691,10578.991244,7687.502526,0.002188,-0.017875,1.006562,192.000000,0.000000,0.000000,0.000000,0.000000,0.000000,0.000000,0.000000,0.000000,0.000000,1772011184.858590,0.000000
162.000000,9072.953054,11268.721374,6564.215608,12491.630017,8024.276259,13497.659683,-9854.951186,-17431.052617,11949.667269,10307.641066,10858.186884,5951.017851,8888.238238,15349.546415,10576.957235,7687.904857,0.002188,-0.017875,1.006562,192.000000,0.000000,0.000000,0.000000,0.000000,0.000000,0.000000,0.000000,0.000000,0.000000,1772011184.858602,0.000000
164.000000,9083.368967,11272.699985,6566.629597,12484.723328,8034.736876,13505.482794,-9851.732534,-17425.710550,11966.408726,10318.258145,10883.042024,5963.691290,8908.377160,15392.014729,10586.099098,7695.705616,0.002094,-0.012938,1.008281,192.000000,0.000000,8.000000,127.500000,96.000000,15.500000,72.000000,0.000000,0.000000,0.000000,1772011184.858613,0.000000
166.000000,9071.522542,11267.626139,6566.182562,12483.516334,8021.862271,13473.855075,-9865.255340,-17437.892251,11955.031688,10296.666360,10871.150895,5945.005232,8892.999159,15361.996336,10581.360529,7689.447128,0.002094,-0.012938,1.008281,192.000000,0.000000,0.000000,0.000000,0.000000,0.000000,0.000000,0.000000,0.000000,0.000000,1772011184.858624,0.000000
168.000000,9094.589543,11291.184877,6583.639274,12501.129508,8038.022582,13499.023139,-9840.064924,-17405.996311,11968.308624,10313.586630,10886.618303,5962.283130,8900.196421,15359.582348,10583.618055,7692.308151,0.002094,-0.012938,1.008281,192.000000,0.000000,0.000000,0.000000,0.000000,0.000000,0.000000,0.000000,0.000000,0.000000,1772011184.858636,0.000000
170.000000,9079.300949,11276.946816,6561.376937,12488.433717,8012.631001,13482.840476,-9860.337956,-17424.771777,11966.296967,10317.498185,10889.792250,5974.710700,8902.699817,15354.307336,10578.052470,7690.207087,0.002094,-0.012938,1.008281,192.000000,0.000000,0.000000,0.000000,0.000000,0.000000,0.000000,0.000000,0.000000,0.000000,1772011184.858647,0.000000
172.000000,9085.045348,11290.939008,6568.529495,12494.938075,8016.117873,13491.892933,-9851.017279,-17416.032245,11964.173551,10311.329104,10871.888503,5962.081964,8901.850450,15357.883615,10573.425659,7686.183773,0.002094,-0.012938,1.008281,192.000000,0.000000,0.000000,0.000000,0.000000,0.000000,0.000000,0.000000,0.000000,0.000000,1772011184.858658,0.000000
174.000000,9084.821830,11287.630950,6576.129088,12490.847706,8016.743722,13480.739412,-9850.525540,-17418.066253,11960.664327,10325.768331,10889.814602,5977.459964,8886.450098,15361.012859,10578.231284,7685.043834,0.002094,-0.012938,1.008281,192.000000,0.000000,0.000000,0.000000,0.000000,0.000000,0.000000,0.000000,0.000000,0.000000,1772011184.858669,0.000000
176.000000,9072.707185,11265.458019,6559.320576,12475.492057,8008.764149,13458.924110,-9869.837447,-17439.009838,11959.993775,10305.383540,10869.988605,5949.944967,8890.048729,15348.048848,10578.477154,7679.075918,0.008000,-0.010000,1.006000,192.000000,0.000000,32.000000,127.500000,88.000000,15.500000,56.000000,0.000000,0.000000,0.000000,1772011184.858680,0.000000
178.000000,9082.609008,11280.836020,6571.882256,12496.301531,8028.724257,13497.704386,-9844.624680,-17414.937009,11959.837313,10310.680903,10874.458954,5959.958549,8894.832003,15364.343269,10581.472287,7684.485040,0.008000,-0.010000,1.006000,192.000000,0.000000,0.000000,0.000000,0.000000,0.000000,0.000000,0.000000,0.000000,0.000000,1772011184.858692,0.000000
180.000000,9067.812153,11266.329737,6550.826913,12487.897275,8007.288934,13476.246712,-9864.048346,-17435.455911,11949.823731,10312.670209,10873.766050,5963.579531,8895.189630,15361.102266,10573.805639,7685.535572,0.008000,-0.010000,1.006000,192.000000,0.000000,0.000000,0.000000,0.000000,0.000000,0.000000,0.000000,0.000000,0.000000,1772011184.858704,0.000000
182.000000,9084.128926,11284.322892,6556.683070,12506.695093,8016.207280,13495.223343,-9849.475008,-17416.322817,11960.977252,10310.904421,10861.696108,5958.371575,8891.747462,15351.513368,10566.228398,7686.608456,0.008000,-0.010000,1.006000,192.000000,0.000000,0.000000,0.000000,0.000000,0.000000,0.000000,0.000000,0.000000,0.000000,1772011184.858715,0.000000
184.000000,9092.130851,11296.370482,6586.232076,12501.889467,8016.475501,13491.714119,-9844.043534,-17406.666864,11969.247397,10332.764427,10901.213992,5986.154793,8897.223639,15384.526895,10573.492715,7684.797965,0.008000,-0.010000,1.006000,192.000000,0.000000,0.000000,0.000000,0.000000,0.000000,0.000000,0.000000,0.000000,0.000000,1772011184.858727,0.000000
186.000000,9079.122136,11273.325833,6562.628634,12483.203409,8011.848690,13471.865770,-9866.372927,-17432.483129,11961.826618,10316.805281,10882.170306,5967.178162,8890.965151,15361.146970,10573.827991,7679.008863,0.002000,-0.008000,1.006000,192.000000,0.000000,8.000000,127.500000,96.000000,15.500000,56.000000,0.000000,0.000000,0.000000,1772011184.858738,0.000000
188.000000,9085.738252,11282.311235,6578.587780,12487.249075,8029.975954,13496.005654,-9846.032840,-17415.473451,11970.230874,10318.772235,10883.846686,5965.032395,8908.041883,15355.983717,10581.762860,7680.797002,0.002000,-0.008000,1.006000,192.000000,0.000000,0.000000,0.000000,0.000000,0.000000,0.000000,0.000000,0.000000,0.000000,1772011184.858749,0.000000
190.000000,9064.437039,11264.675708,6552.793867,12477.906046,8005.947829,13479.487715,-9866.417630,-17439.859204,11951.768333,10313.988961,10876.939997,5959.779735,8884.974883,15354.843778,10577.471325,7678.159497,0.002000,-0.008000,1.006000,192.000000,0.000000,0.000000,0.000000,0.000000,0.000000,0.000000,0.000000,0.000000,0.000000,1772011184.858761,0.000000
192.000000,9075.970540,11277.460906,6559.454687,12482.622264,8015.469672,13494.552790,-9857.789857,-17431.454948,11943.475836,10303.774214,10853.403610,5945.541673,8874.670729,15364.946766,10571.190485,7682.227514,0.002000,-0.008000,1.006000,192.000000,0.000000,0.000000,0.000000,0.000000,0.000000,0.000000,0.000000,0.000000,0.000000,1772011184.858773,0.000000
194.000000,9088.420461,11283.004139,6564.237960,12487.718461,8011.871041,13492.563485,-9854.191226,-17420.569649,11952.908272,10320.850947,10883.399651,5969.592150,8890.562819,15369.126543,10573.783287,7686.697863,0.002000,-0.008000,1.006000,192.000000,0.000000,0.000000,0.000000,0.000000,0.000000,0.000000,0.000000,0.000000,0.000000,1772011184.858784,0.000000
196.000000,9086.855839,11286.535714,6552.257425,12481.884656,8000.136375,13481.678186,-9867.177590,-17427.386931,11958.585615,10313.229002,10872.782573,5960.942025,8885.310159,15356.967194,10565.311976,7683.635674,0.004000,-0.008000,1.008000,192.000000,0.000000,16.000000,127.500000,96.000000,15.500000,64.000000,0.000000,0.000000,0.000000,1772011184.858795,0.000000
198.000000,9110.794557,11304.528869,6572.329291,12506.046892,8025.170329,13507.807375,-9838.075619,-17391.400622,11973.941263,10326.975325,10890.842782,5982.287941,8899.458814,15367.159589,10568.463572,7687.122546,0.004000,-0.008000,1.008000,192.000000,0.000000,0.000000,0.000000,0.000000,0.000000,0.000000,0.000000,0.000000,0.000000,1772011184.858807,0.000000
200.000000,9092.689644,11288.301502,6567.277797,12492.971121,8009.367646,13486.550866,-9858.259244,-17413.953532,11965.872284,10337.145369,10895.156669,5990.625142,8900.576401,15372.054621,10566.451915,7690.765880,0.004000,-0.008000,1.008000,192.000000,0.000000,0.000000,0.000000,0.000000,0.000000,0.000000,0.000000,0.000000,0.000000,1772011184.858819,0.000000
202.000000,9092.510830,11283.138249,6559.946425,12491.518258,8020.297649,13500.252485,-9854.794723,-17420.994332,11972.980138,10314.681866,10877.834067,5962.663110,8899.145889,15358.040077,10570.207008,7685.110889,0.004000,-0.008000,1.008000,192.000000,0.000000,0.000000,0.000000,0.000000,0.000000,0.000000,0.000000,0.000000,0.000000,1772011184.858830,0.000000
204.000000,9076.082298,11272.699985,6575.190315,12480.945883,8020.364704,13490.663587,-9857.298119,-17436.841719,11956.596310,10323.734322,10879.510448,5964.831229,8893.222677,15378.380165,10575.839648,7683.948598,0.004000,-0.008000,1.008000,192.000000,0.000000,0.000000,0.000000,0.000000,0.000000,0.000000,0.000000,0.000000,0.000000,1772011184.858842,0.000000
206.000000,9068.281539,11267.447325,6551.810390,12469.233569,8015.603783,13479.398308,-9875.559494,-17453.471417,11944.995754,10299.370921,10858.633919,5937.875025,8895.279037,15355.246109,10577.359566,7677.444241,0.002000,-0.010000,1.006000,192.000000,0.000000,8.000000,127.500000,88.000000,15.500000,56.000000,0.000000,0.000000,0.000000,1772011184.858853,0.000000
208.000000,9085.939418,11280.366633,6577.671358,12493.038177,8035.072152,13507.472099,-9848.044497,-17419.988503,11960.194941,10311.820842,10868.222817,5953.856522,8898.631799,15370.869979,10580.242941,7686.340235,0.002000,-0.010000,1.006000,192.000000,0.000000,0.000000,0.000000,0.000000,0.000000,0.000000,0.000000,0.000000,0.000000,1772011184.858865,0.000000
210.000000,9068.147429,11275.069270,6551.341003,12491.406499,8013.703884,13489.389538,-9864.897712,-17434.606544,11947.208577,10322.952011,10870.457991,5967.960473,8884.416090,15364.589139,10574.051508,7692.755186,0.002000,-0.010000,1.006000,192.000000,0.000000,0.000000,0.000000,0.000000,0.000000,0.000000,0.000000,0.000000,0.000000,1772011185.339014,0.000000
212.000000,9087.504040,11289.597903,6560.840495,12500.704825,8016.319038,13503.985227,-9850.749058,-17413.528849,11946.918004,10318.258145,10857.114000,5962.864275,8885.600732,15371.920511,10565.691956,7695.750319,0.002000,-0.010000,1.006000,192.000000,0.000000,0.000000,0.000000,0.000000,0.000000,0.000000,0.000000,0.000000,0.000000,1772011185.339113,0.000000
214.000000,9097.763490,11294.381177,6564.908512,12499.229610,8017.347219,13508.992017,-9845.719915,-17404.342282,11960.306699,10342.889767,10889.613436,5990.803956,8900.978732,15394.473421,10563.948520,7699.147785,0.002000,-0.010000,1.006000,192.000000,0.000000,0.000000,0.000000,0.000000,0.000000,0.000000,0.000000,0.000000,0.000000,1772011185.339188,0.000000
216.000000,9093.539011,11288.636778,6553.643233,12483.739851,7999.666989,13483.801601,-9862.483723,-17419.764986,11955.434019,10323.399046,10875.911817,5974.241313,8890.831040,15378.626034,10559.567578,7692.844593,0.008000,-0.006000,1.000000,192.000000,0.000000,32.000000,127.500000,104.000000,15.500000,32.000000,0.000000,0.000000,0.000000,1772011185.339233,0.000000
218.000000,9099.350464,11290.536677,6575.994977,12500.928342,8016.900184,13500.096023,-9841.495435,-17402.889419,11971.370813,10328.651706,10890.596913,5980.790374,8892.149793,15366.310223,10565.379031,7685.624979,0.008000,-0.006000,1.000000,192.000000,0.000000,0.000000,0.000000,0.000000,0.000000,0.000000,0.000000,0.000000,0.000000,1772011185.339299,0.000000
220.000000,9077.579865,11282.981787,6552.883274,12480.834124,8000.225782,13472.737488,-9863.243683,-17426.582268,11951.835388,10319.018104,10880.762146,5974.420127,8886.137174,15385.108040,10563.032098,7682.451032,0.008000,-0.006000,1.000000,192.000000,0.000000,0.000000,0.000000,0.000000,0.000000,0.000000,0.000000,0.000000,0.000000,1772011185.339344,0.000000
222.000000,9084.173630,11280.143116,6552.413887,12492.434680,8023.449245,13483.488677,-9855.398220,-17422.715416,11947.879129,10308.825708,10853.805942,5959.735031,8882.002101,15341.812711,10564.641424,7678.964159,0.008000,-0.006000,1.000000,192.000000,0.000000,0.000000,0.000000,0.000000,0.000000,0.000000,0.000000,0.000000,0.000000,1772011185.339390,0.000000
224.000000,9089.135717,11284.457002,6569.267102,12494.356930,8028.165463,13488.987206,-9852.000755,-17420.323780,11959.010298,10328.271726,10880.136297,5979.046938,8901.895154,15364.522083,10576.778421,7689.156555,0.008000,-0.006000,1.000000,192.000000,0.000000,0.000000,0.000000,0.000000,0.000000,0.000000,0.000000,0.000000,0.000000,1772011185.339454,0.000000
226.000000,9080.329130,11273.169371,6558.761782,12469.479438,8010.060550,13477.319595,-9868.138715,-17434.450082,11956.864531,10303.774214,10866.971119,5954.571778,8887.925313,15351.178092,10573.760936,7686.921380,0.004000,-0.006000,0.998000,192.000000,0.000000,16.000000,127.500000,104.000000,15.500000,24.000000,0.000000,0.000000,0.000000,1772011185.339466,0.000000
228.000000,9108.537031,11296.214020,6576.240847,12498.603761,8024.790350,13500.341892,-9838.455598,-17396.943855,11965.201731,10315.575935,10885.791288,5969.122764,8899.570572,15370.199426,10570.184656,7687.703691,0.004000,-0.006000,0.998000,192.000000,0.000000,0.000000,0.000000,0.000000,0.000000,0.000000,0.000000,0.000000,0.000000,1772011185.339478,0.000000
230.000000,9094.075453,11281.059537,6569.825896,12477.414307,8009.099425,13475.173828,-9857.879264,-17418.245067,11978.545723,10313.832499,10898.688245,5977.884648,8907.393683,15367.763086,10568.329462,7683.926247,0.004000,-0.006000,0.998000,192.000000,0.000000,0.000000,0.000000,0.000000,0.000000,0.000000,0.000000,0.000000,0.000000,1772011185.339491,0.000000
232.000000,9090.968560,11281.953607,6575.033852,12485.952674,8013.592126,13484.293340,-9849.318546,-17412.523021,11966.788705,10304.668284,10877.901122,5961.836095,8889.512287,15371.495828,10567.502447,7679.053566,0.004000,-0.006000,0.998000,192.000000,0.000000,0.000000,0.000000,0.000000,0.000000,0.000000,0.000000,0.000000,0.000000,1772011185.339558,0.000000
234.000000,9087.906371,11277.013871,6568.037756,12483.717499,8017.347219,13475.017366,-9847.731572,-17413.953532,11965.224083,10313.720741,10892.295646,5974.509534,8902.811575,15371.741697,10572.665700,7678.383014,0.004000,-0.006000,0.998000,192.000000,0.000000,0.000000,0.000000,0.000000,0.000000,0.000000,0.000000,0.000000,0.000000,1772011185.339625,0.000000
236.000000,9076.261112,11263.066383,6558.068878,12473.055717,8004.047931,13461.583967,-9865.031822,-17435.411207,11947.141522,10296.353435,10868.714555,5952.649528,8881.845639,15344.092589,10567.390688,7672.258636,0.004000,-0.005000,0.999000,192.000000,0.000000,16.000000,127.500000,112.000000,15.500000,32.000000,0.000000,0.000000,0.000000,1772011185.339701,0.000000
238.000000,9091.750871,11276.902113,6576.710233,12489.908932,8028.523091,13488.540171,-9843.462389,-17414.489974,11954.539949,10305.830575,10875.062451,5959.578569,8890.316950,15354.374391,10574.006805,7678.315959,0.004000,-0.005000,0.999000,192.000000,0.000000,0.000000,0.000000,0.000000,0.000000,0.000000,0.000000,0.000000,0.000000,1772011185.339715,0.000000
240.000000,9088.688682,11275.918636,6555.006689,12475.134429,8014.665009,13475.799677,-9863.154276,-17431.544355,11964.709993,10308.691598,10881.857381,5964.115973,8901.962209,15365.706726,10574.342081,7682.383976,0.004000,-0.005000,0.999000,192.000000,0.000000,0.000000,0.000000,0.000000,0.000000,0.000000,0.000000,0.000000,0.000000,1772011185.339727,0.000000
242.000000,9096.668255,11285.798107,6579.481850,12490.378319,8022.801044,13486.707328,-9851.464313,-17419.630876,11963.346537,10307.238735,10869.139238,5953.722412,8890.898095,15367.383107,10571.391651,7682.003997,0.004000,-0.005000,0.999000,192.000000,0.000000,0.000000,0.000000,0.000000,0.000000,0.000000,0.000000,0.000000,0.000000,1772011185.339739,0.000000
244.000000,9098.031711,11292.525982,6581.113527,12490.981816,8027.740780,13495.066881,-9845.317584,-17412.165393,11972.957787,10319.755712,10899.627018,5975.045976,8913.607468,15380.816505,10576.465497,7684.507392,0.004000,-0.005000,0.999000,192.000000,0.000000,0.000000,0.000000,0.000000,0.000000,0.000000,0.000000,0.000000,0.000000,1772011185.339751,0.000000
246.000000,9085.939418,11284.099374,6561.734565,12479.783592,8016.609611,13481.029985,-9863.668366,-17429.152719,11969.403859,10316.067674,10877.208218,5963.423069,8902.051616,15365.863188,10572.732755,7685.714386,0.000000,-0.005500,0.998500,192.000000,127.500000,112.000000,127.500000,104.000000,15.500000,24.000000,0.000000,0.000000,0.000000,1772011185.339763,0.000000
248.000000,9105.296028,11304.305351,6573.960969,12506.628037,8037.083809,13509.908439,-9838.075619,-17400.855410,11978.053984,10333.434979,10884.628997,5974.107203,8916.960230,15382.112906,10578.320691,7690.385901,0.000000,-0.005500,0.998500,192.000000,0.000000,0.000000,0.000000,0.000000,0.000000,0.000000,0.000000,0.000000,0.000000,1772011185.339776,0.000000
250.000000,9082.497249,11272.007081,6563.679166,12483.739851,8014.419140,13477.207837,-9861.723764,-17430.784396,11958.205635,10325.321296,10879.264579,5980.700967,8899.347055,15376.234397,10573.693880,7692.084633,0.000000,-0.005500,0.998500,192.000000,0.000000,0.000000,0.000000,0.000000,0.000000,0.000000,0.000000,0.000000,0.000000,1772011185.339793,0.000000
252.000000,9089.001607,11278.645549,6562.360413,12487.874924,8020.923498,13483.980415,-9853.364212,-17426.716379,11956.015164,10305.003560,10861.114962,5951.800162,8883.700834,15358.934147,10573.157438,7680.685244,0.000000,-0.005500,0.998500,192.000000,0.000000,0.000000,0.000000,0.000000,0.000000,0.000000,0.000000,0.000000,0.000000,1772011185.339808,0.000000
254.000000,9093.695473,11281.506572,6571.681091,12489.014863,8025.662068,13490.060090,-9848.536235,-17423.833004,11968.353327,10324.337819,10883.198486,5969.569799,8903.258610,15377.083764,10576.532552,7686.720215,0.000000,-0.005500,0.998500,192.000000,0.000000,0.000000,0.000000,0.000000,0.000000,0.000000,0.000000,0.000000,0.000000,1772011185.339820,0.000000
0.000000,9084.330092,11276.455078,6562.405117,12477.615473,8013.972105,13473.609206,-9863.735421,-17433.980695,11958.540912,10308.825708,10870.010957,5953.923578,8893.513250,15354.977888,10573.090383,7679.902933,-0.001000,-0.004750,1.001250,192.000000,127.500000,120.000000,127.500000,112.000000,15.500000,48.000000,0.000000,0.000000,0.000000,1772011185.339832,0.000000
2.000000,9108.179403,11305.713511,6582.387576,12500.526011,8030.959431,13508.477927,-9836.421589,-17400.229561,11973.293063,10330.864529,10885.008977,5973.391947,8905.091453,15379.006014,10578.454802,7685.021482,-0.001000,-0.004750,1.001250,192.000000,0.000000,0.000000,0.000000,0.000000,0.000000,0.000000,0.000000,0.000000,0.000000,1772011185.339844,0.000000
4.000000,9098.702264,11299.164450,6552.235073,12490.735947,8013.815643,13484.762726,-9856.247587,-17419.876745,11960.329051,10339.201729,10887.333558,5986.601828,8896.642494,15375.608549,10572.956273,7686.384939,-0.001000,-0.004750,1.001250,192.000000,0.000000,0.000000,0.000000,0.000000,0.000000,0.000000,0.000000,0.000000,0.000000,1772011185.339857,0.000000
6.000000,9095.014226,11286.870991,6574.855039,12490.825354,8017.593088,13488.517819,-9847.262185,-17415.741672,11970.364984,10318.079331,10871.530875,5965.211208,8894.317912,15369.104191,10570.251712,7681.378148,-0.001000,-0.004750,1.001250,192.000000,0.000000,0.000000,0.000000,0.000000,0.000000,0.000000,0.000000,0.000000,0.000000,1772011185.339868,0.000000
8.000000,9094.567191,11282.221828,6576.486716,12488.523124,8023.315134,13486.148535,-9846.368116,-17417.015721,11958.675022,10314.435996,10890.820431,5974.755403,8891.568648,15375.921473,10578.454802,7684.775613,-0.001000,-0.004750,1.001250,192.000000,0.000000,0.000000,0.000000,0.000000,0.000000,0.000000,0.000000,0.000000,0.000000,1772011185.339881,0.000000
10.000000,9078.317473,11264.049860,6556.101925,12473.860380,8013.905050,13471.932825,-9866.238817,-17440.954440,11957.378621,10298.722720,10867.418154,5949.162656,8888.439404,15360.007031,10575.437316,7681.802831,0.000500,-0.007375,1.002625,192.000000,0.000000,8.000000,127.500000,88.000000,15.500000,48.000000,0.000000,0.000000,0.000000,1772011185.339893,0.000000
12.000000,9099.082243,11284.278188,6570.652911,12492.009996,8035.094504,13503.806413,-9841.942470,-17409.840811,11954.159970,10310.971476,10870.457991,5957.097525,8892.462718,15361.616357,10577.851305,7686.519049,0.000500,-0.007375,1.002625,192.000000,0.000000,0.000000,0.000000,0.000000,0.000000,0.000000,0.000000,0.000000,0.000000,1772011185.339905,0.000000
14.000000,9088.800441,11278.086755,6562.136896,12476.788458,8010.328771,13476.202008,-9858.102782,-17422.178974,11962.631281,10312.558450,10884.651349,5968.496915,8905.940819,15376.614377,10571.212837,7684.485040,0.000500,-0.007375,1.002625,192.000000,0.000000,0.000000,0.000000,0.000000,0.000000,0.000000,0.000000,0.000000,0.000000,1772011185.339917,0.000000
16.000000,9104.513717,11290.424918,6573.111602,12484.991549,8016.497852,13488.495468,-9844.736438,-17400.989521,11960.843141,10303.863621,10874.436602,5956.158752,8882.359729,15376.502618,10570.229360,7678.137145,0.000500,-0.007375,1.002625,192.000000,0.000000,0.000000,0.000000,0.000000,0.000000,0.000000,0.000000,0.000000,0.000000,1772011185.339929,0.000000
18.000000,9107.128871,11299.745595,6569.982358,12502.627075,8019.045951,13487.199067,-9836.376886,-17389.679538,11956.305737,10331.490377,10898.084748,5995.922505,8894.541430,15371.808752,10570.341119,7683.412157,0.000500,-0.007375,1.002625,192.000000,0.000000,0.000000,0.000000,0.000000,0.000000,0.000000,0.000000,0.000000,0.000000,1772011185.339941,0.000000
20.000000,9092.264961,11286.245142,6563.388594,12479.850647,8004.003227,13482.259331,-9857.879264,-17417.507460,11967.459258,10316.358246,10883.913742,5975.493011,8886.070119,15368.523046,10564.507313,7680.752299,0.001250,-0.006687,1.004313,192.000000,0.000000,8.000000,127.500000,104.000000,15.500000,56.000000,0.000000,0.000000,0.000000,1772011185.339952,0.000000
22.000000,9102.591467,11292.458927,6579.593608,12499.564886,8023.069265,13500.252485,-9837.650935,-17405.504573,11974.120077,10327.400008,10885.903047,5971.559104,8899.280000,15371.607586,10573.760936,7683.546267,0.001250,-0.006687,1.004313,192.000000,0.000000,0.000000,0.000000,0.000000,0.000000,0.000000,0.000000,0.000000,0.000000,1772011185.339964,0.000000
24.000000,9080.083261,11266.597958,6563.075669,12472.653386,8004.874945,13472.111639,-9862.126096,-17437.936954,11958.071525,10308.892764,10880.158649,5963.445421,8893.066215,15370.400592,10570.341119,7676.818392,0.001250,-0.006687,1.004313,192.000000,0.000000,0.000000,0.000000,0.000000,0.000000,0.000000,0.000000,0.000000,0.000000,1772011185.339976,0.000000
26.000000,9083.324263,11268.721374,6567.769536,12482.152877,8024.365666,13483.756898,-9854.034764,-17429.644457,11950.494283,10294.006502,10856.264634,5940.892511,8884.170220,15355.737848,10574.297377,7675.097308,0.001250,-0.006687,1.004313,192.000000,0.000000,0.000000,0.000000,0.000000,0.000000,0.000000,0.000000,0.000000,0.000000,1772011185.339990,0.000000
28.000000,9087.079357,11274.354014,6557.241864,12487.316130,8029.148940,13490.127145,-9849.273842,-17421.463719,11959.166760,10317.319371,10877.767012,5968.541618,8903.213907,15381.509409,10576.420793,7683.993302,0.001250,-0.006687,1.004313,192.000000,0.000000,0.000000,0.000000,0.000000,0.000000,0.000000,0.000000,0.000000,0.000000,1772011185.340003,0.000000
30.000000,9075.277635,11264.832171,6559.454687,12475.045022,8008.741797,13468.155380,-9867.021128,-17443.077855,11949.734324,10303.193069,10857.806904,5953.431839,8880.817459,15364.611490,10573.358604,7682.875715,0.001250,-0.006687,1.004313,192.000000,0.000000,0.000000,127.500000,72.000000,15.500000,24.000000,0.000000,0.000000,0.000000,1772011185.340017,0.000000
32.000000,9098.791671,11293.420052,6577.783117,12495.362758,8031.160597,13503.135860,-9840.623717,-17412.411262,11956.059868,10315.263011,10868.871018,5964.495953,8888.685273,15374.803886,10575.839648,7682.451032,0.001250,-0.006687,1.004313,192.000000,0.000000,0.000000,0.000000,0.000000,0.000000,0.000000,0.000000,0.000000,0.000000,1772011185.340034,0.000000
34.000000,9086.788784,11278.757307,6560.035832,12486.824392,8016.900184,13487.735508,-9858.438058,-17430.247954,11960.887845,10320.090988,10877.856419,5973.503706,8897.156584,15388.304339,10573.045680,7684.954427,0.001250,-0.006687,1.004313,192.000000,0.000000,0.000000,0.000000,0.000000,0.000000,0.000000,0.000000,0.000000,0.000000,1772011185.340047,0.000000
36.000000,9106.324209,11298.516249,6560.840495,12493.172287,8027.584318,13493.144631,-9849.407953,-17414.355864,11971.974310,10317.721703,10865.451201,5962.998386,8906.901945,15382.805810,10569.201180,7686.496697,0.001250,-0.006687,1.004313,192.000000,0.000000,0.000000,0.000000,0.000000,0.000000,0.000000,0.000000,0.000000,0.000000,1772011185.340059,0.000000
38.000000,9107.017113,11302.807784,6583.259294,12493.909895,8021.437588,13490.127145,-9843.261223,-17409.885515,11975.327072,10336.653630,10888.898181,5989.731072,8896.351921,15387.812601,10573.760936,7686.496697,0.001250,-0.006687,1.004313,192.000000,0.000000,0.000000,0.000000,0.000000,0.000000,0.000000,0.000000,0.000000,0.000000,1772011185.340071,0.000000
40.000000,9088.822793,11281.797145,6563.455649,12478.621301,7999.711692,13471.686956,-9864.473029,-17437.378161,11958.183284,10311.731435,10871.016785,5962.707813,8886.427747,15373.283967,10569.379994,7674.762031,-0.000375,-0.008344,1.003156,192.000000,127.500000,120.000000,127.500000,88.000000,15.500000,40.000000,0.000000,0.000000,0.000000,1772011185.340083,0.000000
42.000000,9092.734348,11280.321929,6579.660664,12491.786479,8018.241288,13496.050357,-9842.545967,-17421.061387,11959.345574,10312.156118,10870.547398,5961.858447,8890.294598,15379.050717,10571.749279,7679.992340,-0.000375,-0.008344,1.003156,192.000000,0.000000,0.000000,0.000000,0.000000,0.000000,0.000000,0.000000,0.000000,0.000000,1772011185.340096,0.000000
44.000000,9076.506981,11269.146057,6557.621844,12480.945883,8014.061512,13473.475095,-9863.757773,-17443.614297,11954.294080,10306.299961,10871.039137,5959.243293,8891.680407,15368.925377,10573.850342,7680.998168,-0.000375,-0.008344,1.003156,192.000000,0.000000,0.000000,0.000000,0.000000,0.000000,0.000000,0.000000,0.000000,0.000000,1772011185.340108,0.000000
46.000000,9088.018130,11277.393851,6563.723870,12487.047909,8026.377323,13486.461459,-9855.018241,-17429.331533,11952.952975,10297.783947,10851.280195,5944.111162,8886.919485,15359.939976,10576.621959,7682.093404,-0.000375,-0.008344,1.003156,192.000000,0.000000,0.000000,0.000000,0.000000,0.000000,0.000000,0.000000,0.000000,0.000000,1772011185.340120,0.000000
48.000000,9107.486499,11294.157659,6565.914341,12489.774822,8020.454111,13496.273875,-9846.412819,-17409.594942,11967.548665,10320.202746,10882.997320,5975.716528,8903.392721,15387.678491,10576.599607,7686.697863,-0.000375,-0.008344,1.003156,192.000000,0.000000,0.000000,0.000000,0.000000,0.000000,0.000000,0.000000,0.000000,0.000000,1772011185.340133,0.000000
50.000000,9093.449604,11283.540581,6559.767611,12475.112078,7997.901201,13472.424563,-9861.008508,-17423.676541,11959.055002,10307.663418,10874.883637,5962.976034,8879.342244,15372.412249,10566.608377,7679.120622,-0.000375,-0.008344,1.003156,192.000000,0.000000,0.000000,0.000000,0.000000,0.000000,0.000000,0.000000,0.000000,0.000000,1772011185.340145,0.000000
52.000000,9109.296991,11298.113918,6581.046472,12495.027482,8016.453149,13499.559581,-9834.007601,-17392.451154,11965.000566,10323.376694,10882.349119,5973.883685,8887.165354,15383.252845,10568.284758,7679.746470,-0.000375,-0.008344,1.003156,192.000000,0.000000,0.000000,127.500000,80.000000,15.500000,72.000000,0.000000,0.000000,0.000000,1772011185.340157,0.000000
54.000000,9094.656598,11282.422993,6558.426506,12483.002243,8005.724312,13479.443011,-9856.538159,-17417.887439,11964.419420,10319.643953,10886.886524,5985.171316,8885.556029,15371.898159,10563.926168,7679.746470,-0.000375,-0.008344,1.003156,192.000000,0.000000,0.000000,0.000000,0.000000,0.000000,0.000000,0.000000,0.000000,0.000000,1772011185.340169,0.000000
56.000000,9102.457357,11287.742709,6566.406079,12486.019729,8023.426893,13489.389538,-9850.078505,-17414.802899,11967.638071,10309.026874,10866.568788,5960.964377,8895.882534,15374.066278,10567.547151,7682.205162,-0.000375,-0.008344,1.003156,192.000000,0.000000,0.000000,0.000000,0.000000,0.000000,0.000000,0.000000,0.000000,0.000000,1772011185.340181,0.000000
58.000000,9097.651732,11278.466735,6579.638312,12482.041118,8025.840882,13489.322482,-9848.424476,-17420.279076,11971.773144,10317.587592,10890.574561,5970.821496,8900.799918,15377.374336,10579.058299,7681.556962,-0.000375,-0.008344,1.003156,192.000000,0.000000,0.000000,0.000000,0.000000,0.000000,0.000000,0.000000,0.000000,0.000000,1772011185.340195,0.000000
60.000000,9086.855839,11270.956549,6556.884236,12474.799153,8015.782597,13479.085383,-9866.507037,-17437.869899,11959.055002,10304.489470,10863.394840,5953.744764,8889.847563,15365.907892,10575.482020,7681.154630,-0.000375,-0.008344,1.003156,192.000000,0.000000,0.000000,0.000000,0.000000,0.000000,0.000000,0.000000,0.000000,0.000000,1772011185.340207,0.000000
62.000000,9112.001552,11300.527906,6576.084384,12495.049834,8033.261661,13502.331198,-9838.455598,-17402.710605,11963.726516,10319.733360,10874.973044,5968.429860,8894.787299,15381.911741,10576.890180,7684.261523,-0.002000,-0.012000,1.008000,192.000000,127.500000,120.000000,127.500000,80.000000,15.500000,64.000000,0.000000,0.000000,0.000000,1772011185.340219,0.000000
64.000000,9099.730444,11289.396738,6564.617940,12488.567828,8014.396788,13479.532418,-9854.682965,-17416.032245,11961.737211,10325.790683,10885.634826,5980.768023,8898.117709,15379.341290,10571.414002,7682.674549,-0.002000,-0.012000,1.008000,192.000000,0.000000,0.000000,0.000000,0.000000,0.000000,0.000000,0.000000,0.000000,0.000000,1772011185.340231,0.000000
66.000000,9108.671142,11293.352997,6574.497411,12494.535744,8021.169367,13492.094099,-9844.669383,-17408.186782,11970.432040,10318.481662,10877.655253,5973.347243,8891.725110,15375.385031,10568.083592,7678.830049,-0.002000,-0.012000,1.008000,192.000000,0.000000,0.000000,0.000000,0.000000,0.000000,0.000000,0.000000,0.000000,0.000000,1772011185.340243,0.000000
68.000000,9097.651732,11282.221828,6572.932788,12481.504677,8022.868100,13496.519744,-9843.909424,-17414.959361,11972.577807,10326.930621,10891.982721,5982.600866,8908.488918,15399.927247,10572.263369,7681.869886,-0.002000,-0.012000,1.008000,192.000000,0.000000,0.000000,0.000000,0.000000,0.000000,0.000000,0.000000,0.000000,0.000000,1772011185.340255,0.000000
70.000000,9073.265978,11260.875912,6565.690823,12471.133467,8012.228669,13466.657813,-9864.405973,-17444.106036,11959.703202,10297.582781,10859.975023,5954.102391,8889.445232,15360.789342,10569.000014,7674.918494,-0.002000,-0.012000,1.008000,192.000000,0.000000,0.000000,0.000000,0.000000,0.000000,0.000000,0.000000,0.000000,0.000000,1772011185.340267,0.000000
72.000000,9095.885944,11286.625121,6575.480887,12491.227685,8038.223748,13491.602360,-9842.501264,-17420.413187,11959.770257,10301.360226,10863.506599,5955.063517,8889.177011,15379.073069,10578.432450,7677.980683,-0.002000,-0.012000,1.008000,192.000000,0.000000,0.000000,127.500000,80.000000,15.500000,48.000000,0.000000,0.000000,0.000000,1772011185.340279,0.000000
74.000000,9084.374795,11266.597958,6558.739431,12481.638787,8018.978896,13477.319595,-9861.991985,-17435.321800,11954.897577,10305.897630,10865.182980,5963.445421,8895.346093,15370.355889,10574.722061,7681.713424,-0.002000,-0.012000,1.008000,192.000000,0.000000,0.000000,0.000000,0.000000,0.000000,0.000000,0.000000,0.000000,0.000000,1772011185.818337,0.000000
76.000000,9096.176517,11278.287921,6563.589759,12493.060528,8021.057608,13491.602360,-9852.716011,-17420.971980,11954.808170,10302.298999,10858.008070,5955.152923,8887.880610,15360.118790,10571.324595,7681.534610,-0.002000,-0.012000,1.008000,192.000000,0.000000,0.000000,0.000000,0.000000,0.000000,0.000000,0.000000,0.000000,0.000000,1772011185.818395,0.000000
78.000000,9101.831508,11283.339415,6577.246675,12493.753432,8024.723294,13489.076613,-9847.910386,-17415.071120,11969.940301,10322.236755,10885.724233,5980.276284,8902.677465,15376.077935,10572.755107,7685.155593,-0.002000,-0.012000,1.008000,192.000000,0.000000,0.000000,0.000000,0.000000,0.000000,0.000000,0.000000,0.000000,0.000000,1772011185.818437,0.000000
80.000000,9094.410729,11277.997348,6557.979471,12482.778726,8010.440530,13480.292378,-9865.300043,-17431.477300,11961.983080,10311.619677,10866.769954,5965.658243,8889.333473,15367.450162,10568.597683,7681.467555,-0.002000,-0.012000,1.008000,192.000000,0.000000,0.000000,0.000000,0.000000,0.000000,0.000000,0.000000,0.000000,0.000000,1772011185.818478,0.000000
82.000000,9111.979200,11298.091566,6582.432280,12496.882677,8033.306364,13509.059073,-9841.070752,-17405.638684,11973.002490,10321.655610,10879.309282,5974.084851,8897.514212,15384.683357,10572.978624,7683.725081,-0.002000,-0.012000,1.008000,192.000000,0.000000,0.000000,127.500000,72.000000,15.500000,48.000000,0.000000,0.000000,0.000000,1772011185.818521,0.000000
84.000000,9090.722691,11278.779659,6556.079573,12476.274368,8019.001248,13490.440069,-9865.791782,-17435.679428,11964.508827,10323.309639,10879.219875,5974.218962,8903.459776,15401.961255,10573.783287,7685.334407,-0.002000,-0.012000,1.008000,192.000000,0.000000,0.000000,0.000000,0.000000,0.000000,0.000000,0.000000,0.000000,0.000000,1772011185.818563,0.000000
86.000000,9100.579810,11288.703834,6566.450783,12480.476496,8019.090655,13489.791869,-9858.885093,-17428.660980,11957.959766,10311.262049,10856.957538,5949.453229,8884.684311,15381.397650,10572.039851,7681.132279,-0.002000,-0.012000,1.008000,192.000000,0.000000,0.000000,0.000000,0.000000,0.000000,0.000000,0.000000,0.000000,0.000000,1772011185.818592,0.000000
88.000000,9104.871345,11294.716453,6559.052355,12496.279180,8016.207280,13499.246657,-9852.067811,-17419.362655,11971.124944,10329.478720,10881.656215,5974.263665,8905.784357,15386.359738,10573.716232,7682.026348,-0.002000,-0.012000,1.008000,192.000000,0.000000,0.000000,0.000000,0.000000,0.000000,0.000000,0.000000,0.000000,0.000000,1772011185.818605,0.000000
90.000000,9089.515697,11279.427860,6548.412925,12486.153839,7998.459995,13476.492581,-9870.262131,-17441.088550,11967.973348,10321.588555,10860.980852,5967.848714,8895.882534,15372.903988,10562.495656,7682.026348,-0.002000,-0.012000,1.008000,192.000000,0.000000,0.000000,0.000000,0.000000,0.000000,0.000000,0.000000,0.000000,0.000000,1772011185.818626,0.000000
92.000000,9105.497194,11296.482241,6571.412870,12500.146031,8026.399675,13502.912343,-9843.864720,-17413.707663,11966.408726,10322.952011,10867.060526,5970.754441,8891.769814,15384.973930,10569.692918,7684.239171,-0.002000,-0.012000,1.008000,192.000000,0.000000,0.000000,127.500000,88.000000,15.500000,48.000000,0.000000,0.000000,0.000000,1772011185.818639,0.000000
94.000000,9083.614836,11273.504647,6558.582969,12476.296720,8016.520204,13477.006671,-9863.355441,-17435.500614,11960.217292,10319.666305,10872.112021,5971.179124,8898.631799,15384.526895,10571.883389,7681.981645,-0.002000,-0.012000,1.008000,192.000000,0.000000,0.000000,0.000000,0.000000,0.000000,0.000000,0.000000,0.000000,0.000000,1772011185.818651,0.000000
96.000000,9097.428214,11285.485182,6555.341966,12487.830220,8028.634850,13501.839459,-9853.900654,-17418.602695,11966.945167,10304.154194,10858.902140,5955.242330,8897.938895,15386.471496,10568.865903,7680.126450,-0.002000,-0.012000,1.008000,192.000000,0.000000,0.000000,0.000000,0.000000,0.000000,0.000000,0.000000,0.000000,0.000000,1772011185.818664,0.000000
98.000000,9109.319342,11296.370482,6560.013480,12490.691243,8033.485178,13508.030892,-9848.268014,-17406.957436,11976.131734,10337.726514,10883.667872,5989.239334,8917.831948,15412.690093,10570.788154,7691.257619,-0.002000,-0.012000,1.008000,192.000000,0.000000,0.000000,0.000000,0.000000,0.000000,0.000000,0.000000,0.000000,0.000000,1772011185.818676,0.000000
100.000000,9087.302874,11272.677633,6560.616977,12478.844819,8013.659181,13474.369165,-9868.384584,-17432.885460,11961.692507,10318.414607,10869.966253,5964.630063,8894.966113,15377.620206,10566.362508,7683.143936,-0.002000,-0.012000,1.008000,192.000000,0.000000,0.000000,0.000000,0.000000,0.000000,0.000000,0.000000,0.000000,0.000000,1772011185.818688,0.000000
102.000000,9094.455432,11276.231560,6579.280684,12487.450241,8027.092579,13491.334139,-9845.071715,-17417.596867,11973.874208,10311.127938,10875.062451,5967.736956,8898.855317,15370.691165,10575.571427,7678.830049,-0.002000,-0.016000,1.000000,192.000000,127.500000,120.000000,127.500000,64.000000,15.500000,32.000000,0.000000,0.000000,0.000000,1772011185.818702,0.000000
104.000000,9064.884074,11248.403638,6557.130105,12466.931339,8003.802062,13462.701555,-9864.316567,-17444.508367,11955.836350,10293.514764,10867.395802,5954.996461,8889.288770,15367.494865,10570.586988,7673.040947,-0.002000,-0.016000,1.000000,192.000000,0.000000,0.000000,0.000000,0.000000,0.000000,0.000000,0.000000,0.000000,0.000000,1772011185.818715,0.000000
106.000000,9075.389394,11253.298670,6565.288492,12473.614511,8010.954620,13468.267139,-9856.113476,-17434.427730,11942.537062,10276.058051,10847.100418,5931.728295,8872.837886,15361.526950,10564.909645,7670.559903,-0.002000,-0.016000,1.000000,192.000000,0.000000,0.000000,0.000000,0.000000,0.000000,0.000000,0.000000,0.000000,0.000000,1772011185.818727,0.000000
108.000000,9088.688682,11270.040127,6567.277797,12480.342386,8023.605707,13493.703424,-9849.273842,-17418.356826,11957.915063,10300.756729,10881.790326,5961.545522,8896.083700,15393.400537,10569.625863,7678.405366,-0.002000,-0.016000,1.000000,192.000000,0.000000,0.000000,0.000000,0.000000,0.000000,0.000000,0.000000,0.000000,0.000000,1772011185.818740,0.000000
110.000000,9087.392281,11274.018738,6542.869692,12482.756374,8009.635867,13479.398308,-9867.110535,-17431.879632,11952.751810,10296.331083,10861.316128,5959.735031,8888.595866,15359.492941,10563.121505,7680.394671,-0.002000,-0.016000,1.000000,192.000000,0.000000,0.000000,0.000000,0.000000,0.000000,0.000000,0.000000,0.000000,0.000000,1772011185.818752,0.000000
112.000000,9107.307685,11288.748537,6576.665530,12493.976950,8023.784521,13502.845288,-9841.562491,-17408.030320,11972.063717,10312.267877,10878.325805,5974.196610,8891.255723,15374.848589,10565.893121,7681.713424,-0.002000,-0.016000,1.000000,192.000000,0.000000,0.000000,127.500000,80.000000,15.500000,32.000000,0.000000,0.000000,0.000000,1772011185.818765,0.000000
114.000000,9083.860705,11276.231560,6563.276835,12478.777764,8010.954620,13479.107735,-9860.427363,-17433.913640,11965.849932,10317.408778,10877.767012,5977.728185,8892.596828,15379.810677,10563.859113,7681.758127,-0.002000,-0.016000,1.000000,192.000000,0.000000,0.000000,0.000000,0.000000,0.000000,0.000000,0.000000,0.000000,0.000000,1772011185.818777,0.000000
116.000000,9085.246514,11267.514380,6565.668472,12482.599912,8019.425931,13493.435203,-9854.258282,-17430.940858,11953.467066,10303.371883,10855.571730,5953.610653,8876.905903,15371.115848,10563.121505,7677.824220,-0.002000,-0.016000,1.000000,192.000000,0.000000,0.000000,0.000000,0.000000,0.000000,0.000000,0.000000,0.000000,0.000000,1772011185.818789,0.000000
118.000000,9084.888886,11259.624214,6573.223361,12479.068336,8024.812701,13490.551828,-9851.687831,-17430.270306,11964.888807,10306.635238,10880.069242,5965.099450,8892.596828,15380.905912,10570.207008,7676.952502,-0.002000,-0.016000,1.000000,192.000000,0.000000,0.000000,0.000000,0.000000,0.000000,0.000000,0.000000,0.000000,0.000000,1772011185.818801,0.000000
120.000000,9069.019147,11246.682554,6550.983375,12468.227740,8007.646562,13469.675299,-9872.966692,-17454.499597,11951.790685,10290.117298,10856.354041,5941.652470,8880.057499,15362.577482,10563.523837,7673.778555,-0.002000,-0.016000,1.000000,192.000000,0.000000,0.000000,0.000000,0.000000,0.000000,0.000000,0.000000,0.000000,0.000000,1772011185.818813,0.000000
122.000000,9083.100746,11257.478447,6572.038719,12477.749583,8037.374382,13496.787965,-9851.978404,-17434.606544,11957.758600,10287.613903,10859.527988,5940.624290,8887.657093,15374.647424,10570.341119,7676.259598,0.000000,-0.016000,0.999000,192.000000,0.000000,8.000000,127.500000,64.000000,15.500000,24.000000,0.000000,0.000000,0.000000,1772011185.818826,0.000000
124.000000,9072.193095,11252.270490,6550.245768,12464.763220,8025.125626,13485.589741,-9872.676119,-17454.834873,11955.299909,10300.309694,10861.584349,5948.402697,8900.129366,15383.588121,10570.430526,7680.439374,0.000000,-0.016000,0.999000,192.000000,0.000000,0.000000,0.000000,0.000000,0.000000,0.000000,0.000000,0.000000,0.000000,1772011185.818838,0.000000
126.000000,9078.540990,11257.344336,6561.868675,12468.875941,8024.320963,13493.345796,-9860.628529,-17441.535585,11954.003507,10289.670263,10844.954651,5932.801179,8871.720299,15376.592025,10569.245883,7679.455898,0.000000,-0.016000,0.999000,192.000000,0.000000,0.000000,0.000000,0.000000,0.000000,0.000000,0.000000,0.000000,0.000000,1772011185.818851,0.000000
128.000000,9079.680929,11260.764153,6568.820068,12484.164534,8022.219899,13495.916247,-9850.011450,-17426.626972,11955.322260,10309.228040,10872.916683,5961.769040,8888.193534,15386.158572,10570.117601,7680.059395,0.000000,-0.016000,0.999000,192.000000,0.000000,0.000000,0.000000,0.000000,0.000000,0.000000,0.000000,0.000000,0.000000,1772011185.818862,0.000000
130.000000,9073.400089,11253.298670,6552.100963,12475.000319,8012.832166,13476.984319,-9868.831619,-17439.635687,11949.086124,10299.125051,10858.969195,5954.683537,8879.655168,15370.355889,10562.070973,7679.142973,0.000000,-0.016000,0.999000,192.000000,0.000000,0.000000,0.000000,0.000000,0.000000,0.000000,0.000000,0.000000,0.000000,1772011185.818875,0.000000
132.000000,9093.539011,11277.259741,6573.692748,12489.372491,8035.228614,13501.906514,-9844.892901,-17410.980750,11970.074412,10307.730473,10873.721346,5965.345319,8893.133270,15373.462781,10570.944616,7679.835877,0.002000,-0.017000,1.001500,192.000000,0.000000,16.000000,127.500000,56.000000,15.500000,48.000000,0.000000,0.000000,0.000000,1772011185.818887,0.000000
134.000000,9074.249455,11271.045956,6544.255500,12466.819580,8011.245192,13478.481886,-9866.283520,-17434.427730,11958.362098,10311.977304,10869.295701,5970.106241,8894.742596,15383.990453,10565.379031,7676.974854,0.002000,-0.017000,1.001500,192.000000,0.000000,0.000000,0.000000,0.000000,0.000000,0.000000,0.000000,0.000000,0.000000,1772011185.818898,0.000000
136.000000,9071.254321,11249.834150,6570.228227,12469.837066,8007.803024,13467.753049,-9858.795686,-17430.762044,11950.673097,10293.872391,10852.487189,5945.944005,8870.759174,15374.558017,10561.221607,7668.101212,0.002000,-0.017000,1.001500,192.000000,0.000000,0.000000,0.000000,0.000000,0.000000,0.000000,0.000000,0.000000,0.000000,1772011185.818910,0.000000
138.000000,9067.610987,11252.672822,6561.958082,12481.102345,7999.935210,13472.849247,-9853.163046,-17427.833966,11940.458350,10297.225153,10869.183942,5964.764174,8872.033223,15366.533740,10558.606453,7666.290720,0.002000,-0.017000,1.001500,192.000000,0.000000,0.000000,0.000000,0.000000,0.000000,0.000000,0.000000,0.000000,0.000000,1772011185.818922,0.000000
140.000000,9051.875359,11245.363801,6546.200102,12466.260787,7994.928419,13457.426543,-9874.128982,-17449.403399,11928.656629,10285.758708,10849.425000,5948.670918,8859.180970,15352.787418,10552.325613,7666.670700,0.002000,-0.017000,1.001500,192.000000,0.000000,0.000000,0.000000,0.000000,0.000000,0.000000,0.000000,0.000000,0.000000,1772011185.818934,0.000000
142.000000,9077.222237,11272.856447,6564.819105,12488.567828,8025.304440,13493.837535,-9849.296194,-17420.100262,11945.263975,10302.567220,10856.778724,5957.164580,8879.766927,15371.205255,10562.428601,7672.303340,0.000000,-0.016500,1.001750,192.000000,127.500000,120.000000,127.500000,64.000000,15.500000,40.000000,0.000000,0.000000,0.000000,1772011185.818954,0.000000
144.000000,9066.895731,11262.082906,6559.387631,12477.503714,8009.188832,13471.262273,-9865.344747,-17437.869899,11950.829560,10314.592459,10867.127581,5969.368633,8885.891305,15375.116810,10561.109848,7676.617226,0.000000,-0.016500,1.001750,192.000000,0.000000,0.000000,0.000000,0.000000,0.000000,0.000000,0.000000,0.000000,0.000000,1772011185.818966,0.000000
146.000000,9078.876266,11274.063441,6569.468268,12486.377357,8021.392884,13499.470174,-9856.024069,-17425.442329,11945.129865,10307.149328,10849.603814,5955.555255,8871.563837,15378.693089,10561.176903,7676.572523,0.000000,-0.016500,1.001750,192.000000,0.000000,0.000000,0.000000,0.000000,0.000000,0.000000,0.000000,0.000000,0.000000,1772011185.818979,0.000000
148.000000,9088.308703,11280.567799,6570.407041,12489.908932,8027.047876,13510.355474,-9850.950223,-17414.512326,11967.079278,10328.942278,10881.611512,5982.332645,8896.106052,15402.341235,10567.256578,7683.926247,0.000000,-0.016500,1.001750,192.000000,0.000000,0.000000,0.000000,0.000000,0.000000,0.000000,0.000000,0.000000,0.000000,1772011185.818991,0.000000
150.000000,9070.494362,11259.132476,6553.620881,12469.032403,8009.971143,13484.583912,-9871.983215,-17442.899042,11958.116228,10312.424339,10863.998337,5959.287996,8881.912694,15394.585180,10563.657947,7681.065223,0.000000,-0.016500,1.001750,192.000000,0.000000,0.000000,0.000000,0.000000,0.000000,0.000000,0.000000,0.000000,0.000000,1772011185.819004,0.000000
152.000000,9069.779106,11262.440534,6571.614036,12479.649482,8026.131454,13500.900686,-9851.978404,-17431.969038,11958.719725,10305.137671,10860.332651,5954.437668,8881.599770,15386.158572,10564.797886,7678.874752,0.002000,-0.014250,1.002875,192.000000,0.000000,16.000000,127.500000,80.000000,15.500000,48.000000,0.000000,0.000000,0.000000,1772011185.819016,0.000000
154.000000,9052.434153,11239.015906,6545.462495,12462.952729,8008.942963,13473.139819,-9873.950168,-17463.149722,11937.731437,10296.800470,10855.683488,5946.748668,8878.224656,15359.761162,10563.725002,7673.286816,0.002000,-0.014250,1.002875,192.000000,0.000000,0.000000,0.000000,0.000000,0.000000,0.000000,0.000000,0.000000,0.000000,1772011185.819030,0.000000
156.000000,9057.887978,11240.111141,6557.040698,12466.908987,8023.985687,13482.929883,-9866.797610,-17457.807655,11936.010353,10273.733470,10830.180148,5921.245327,8872.547313,15359.336479,10564.216741,7673.890313,0.002000,-0.014250,1.002875,192.000000,0.000000,0.000000,0.000000,0.000000,0.000000,0.000000,0.000000,0.000000,0.000000,1772011185.819041,0.000000
158.000000,9062.872417,11242.189853,6562.963910,12480.007110,8021.884623,13494.709253,-9857.141657,-17440.820329,11939.474873,10296.644008,10857.829256,5948.223883,8881.711529,15379.117772,10570.385822,7680.707595,0.002000,-0.014250,1.002875,192.000000,0.000000,0.000000,0.000000,0.000000,0.000000,0.000000,0.000000,0.000000,0.000000,1772011185.819054,0.000000
160.000000,9063.855894,11247.107237,6553.039736,12470.328804,8009.211184,13482.169924,-9870.999738,-17445.268326,11941.195958,10290.385519,10852.218968,5943.887644,8873.687252,15365.259691,10560.551055,7676.684281,0.002000,-0.014250,1.002875,192.000000,0.000000,0.000000,0.000000,0.000000,0.000000,0.000000,0.000000,0.000000,0.000000,1772011185.819066,0.000000
162.000000,9095.997703,11273.683461,6581.314693,12484.499810,8032.188777,13500.788927,-9844.736438,-17406.376291,11960.239644,10304.355360,10874.235436,5962.864275,8891.121613,15383.275197,10569.111773,7677.555999,0.003000,-0.014125,1.006438,192.000000,0.000000,16.000000,127.500000,72.000000,15.500000,72.000000,0.000000,0.000000,0.000000,1772011185.819077,0.000000
164.000000,9083.525429,11265.212150,6555.274910,12471.781668,8014.508547,13473.966834,-9864.830657,-17427.275172,11965.268787,10309.451557,10882.952617,5973.369595,8900.755215,15372.881636,10567.301281,7675.320825,0.003000,-0.014125,1.006438,192.000000,0.000000,0.000000,0.000000,0.000000,0.000000,0.000000,0.000000,0.000000,0.000000,1772011185.819089,0.000000
166.000000,9078.719804,11264.407487,6567.411908,12479.515371,8015.849652,13477.610168,-9859.332127,-17428.057483,11955.992813,10297.962761,10858.633919,5955.018813,8873.888418,15358.755333,10562.853284,7670.068165,0.003000,-0.014125,1.006438,192.000000,0.000000,0.000000,0.000000,0.000000,0.000000,0.000000,0.000000,0.000000,0.000000,1772011185.819101,0.000000
168.000000,9070.159086,11257.500798,6563.209780,12477.436659,8012.720408,13484.718023,-9856.336994,-17430.583230,11944.481664,10306.523479,10871.106192,5965.591188,8875.453040,15383.029328,10566.854246,7673.912665,0.003000,-0.014125,1.006438,192.000000,0.000000,0.000000,0.000000,0.000000,0.000000,0.000000,0.000000,0.000000,0.000000,1772011185.819113,0.000000
170.000000,9052.501208,11240.312307,6540.455704,12464.427944,7998.236477,13459.706421,-9875.492439,-17453.002030,11928.075484,10287.256275,10845.714610,5940.758400,8855.984671,15366.712554,10558.047659,7670.716366,0.003000,-0.014125,1.006438,192.000000,0.000000,0.000000,0.000000,0.000000,0.000000,0.000000,0.000000,0.000000,0.000000,1772011185.819125,0.000000
172.000000,9080.910275,11272.118839,6563.701518,12485.483287,8021.839919,13489.523648,-9848.647994,-17421.173146,11942.291193,10298.208630,10850.631994,5951.733107,8873.486087,15369.730040,10561.825104,7675.656101,0.004500,-0.013063,1.007219,192.000000,0.000000,24.000000,127.500000,80.000000,15.500000,64.000000,0.000000,0.000000,0.000000,1772011185.819137,0.000000
174.000000,9074.897656,11261.725278,6561.354585,12472.988662,8013.458015,13473.564502,-9865.903540,-17434.919469,11942.157083,10302.723682,10869.608625,5962.841924,8875.922427,15389.466630,10564.395555,7676.281950,0.004500,-0.013063,1.007219,192.000000,0.000000,0.000000,0.000000,0.000000,0.000000,0.000000,0.000000,0.000000,0.000000,1772011185.819149,0.000000
176.000000,9097.763490,11289.329683,6565.109678,12486.645578,8027.874890,13488.763689,-9854.414744,-17415.562858,11955.121095,10307.104624,10863.104267,5959.511514,8881.242142,15378.760145,10564.149685,7677.399537,0.004500,-0.013063,1.007219,192.000000,0.000000,0.000000,0.000000,0.000000,0.000000,0.000000,0.000000,0.000000,0.000000,1772011185.819162,0.000000
178.000000,9101.786804,11293.531810,6574.072727,12494.491040,8024.969164,13494.485735,-9845.362287,-17404.074061,11967.548665,10340.609889,10888.697015,5994.335532,8900.442290,15397.535610,10565.177866,7683.009825,0.004500,-0.013063,1.007219,192.000000,0.000000,0.000000,0.000000,0.000000,0.000000,0.000000,0.000000,0.000000,0.000000,1772011185.819174,0.000000
180.000000,9076.775202,11270.643624,6554.045564,12478.241322,8010.909916,13480.180619,-9867.423459,-17434.405379,11958.071525,10325.030723,10867.596968,5975.940046,8874.782488,15382.358775,10560.059316,7679.053566,0.004500,-0.013063,1.007219,192.000000,0.000000,0.000000,0.000000,0.000000,0.000000,0.000000,0.000000,0.000000,0.000000,1772011185.819187,0.000000
182.000000,9080.195019,11272.543522,6566.450783,12484.745679,8029.461864,13500.431299,-9850.123209,-17423.765948,11952.863568,10322.057941,10860.064430,5971.134421,8879.297540,15383.699880,10562.361546,7681.802831,0.006250,-0.011531,1.009609,192.000000,0.000000,32.000000,127.500000,88.000000,15.500000,80.000000,0.000000,0.000000,0.000000,1772011185.819199,0.000000
184.000000,9065.286406,11259.087772,6546.937710,12464.092668,8017.324867,13481.722889,-9872.452601,-17450.141007,11940.279536,10314.637162,10854.320032,5960.293825,8876.883552,15405.381072,10564.596720,7682.026348,0.006250,-0.011531,1.009609,192.000000,0.000000,0.000000,0.000000,0.000000,0.000000,0.000000,0.000000,0.000000,0.000000,1772011185.819211,0.000000
186.000000,9076.819906,11262.082906,6568.104812,12464.249130,8033.127550,13489.724814,-9865.009471,-17441.535585,11942.402952,10291.324293,10843.255918,5940.221958,8870.490953,15371.071144,10570.855209,7678.517124,0.006250,-0.011531,1.009609,192.000000,0.000000,0.000000,0.000000,0.000000,0.000000,0.000000,0.000000,0.000000,0.000000,1772011185.819224,0.000000
188.000000,9082.541952,11262.529941,6563.612111,12483.918665,8036.010925,13488.562523,-9856.180532,-17430.694989,11958.898539,10308.825708,10875.174209,5961.634929,8899.727035,15382.649348,10580.935845,7681.467555,0.006250,-0.011531,1.009609,192.000000,0.000000,0.000000,0.000000,0.000000,0.000000,0.000000,0.000000,0.000000,0.000000,1772011185.819237,0.000000
190.000000,9069.801458,11251.823455,6559.588797,12468.495961,8012.318076,13470.144686,-9871.245607,-17444.865995,11953.958804,10292.464232,10858.857436,5952.381307,8880.370424,15365.662022,10568.418869,7678.450069,0.006250,-0.011531,1.009609,192.000000,0.000000,0.000000,0.000000,0.000000,0.000000,0.000000,0.000000,0.000000,0.000000,1772011185.819249,0.000000
192.000000,9094.880115,11280.858371,6581.113527,12494.647502,8034.938042,13504.454613,-9840.713124,-17404.789317,11955.925757,10303.751862,10876.537666,5966.686424,8880.616293,15386.292682,10571.995148,7680.864058,0.006250,-0.011531,1.009609,192.000000,0.000000,0.000000,0.000000,0.000000,0.000000,0.000000,0.000000,0.000000,0.000000,1772011185.819260,0.000000
194.000000,9086.699377,11272.431764,6555.900759,12479.157743,8024.097445,13487.936674,-9860.427363,-17420.815518,11960.418458,10315.844156,10886.417137,5983.271418,8885.332511,15391.858267,10566.563674,7683.188639,0.004000,-0.014000,1.012000,192.000000,0.000000,16.000000,127.500000,72.000000,15.500000,80.000000,0.000000,0.000000,0.000000,1772011186.299539,0.000000
196.000000,9086.721729,11271.627101,6563.969739,12474.866208,8027.494911,13490.171849,-9857.834561,-17425.151756,11955.813999,10303.684807,10860.712631,5961.389060,8876.972959,15378.111944,10565.446087,7680.238209,0.004000,-0.014000,1.012000,192.000000,0.000000,0.000000,0.000000,0.000000,0.000000,0.000000,0.000000,0.000000,0.000000,1772011186.299593,0.000000
198.000000,9077.222237,11262.015851,6566.741355,12467.288967,8026.667896,13482.438145,-9855.845255,-17435.970001,11958.339746,10303.796566,10876.180038,5963.020738,8890.495764,15384.459839,10572.576293,7676.974854,0.004000,-0.014000,1.012000,192.000000,0.000000,0.000000,0.000000,0.000000,0.000000,0.000000,0.000000,0.000000,0.000000,1772011186.299670,0.000000
200.000000,9061.643071,11246.637851,6538.958137,12456.023688,8012.228669,13458.700592,-9876.498267,-17459.998126,11941.620641,10280.081365,10845.982831,5933.292917,8878.872857,15370.311185,10564.797886,7670.626959,0.004000,-0.014000,1.012000,192.000000,0.000000,0.000000,0.000000,0.000000,0.000000,0.000000,0.000000,0.000000,0.000000,1772011186.299717,0.000000
202.000000,9075.590560,11256.383211,6573.268065,12481.169400,8034.334544,13482.348738,-9849.027973,-17430.560879,11947.253281,10287.703310,10849.782628,5947.106295,8879.498706,15359.492941,10567.547151,7674.538514,0.004000,-0.014000,1.012000,192.000000,0.000000,0.000000,0.000000,0.000000,0.000000,0.000000,0.000000,0.000000,0.000000,1772011186.299763,0.000000
204.000000,9070.516714,11258.551330,6558.828838,12476.184961,8021.325829,13478.504238,-9863.891883,-17442.116730,11943.095856,10301.874316,10864.199503,5962.931331,8882.225619,15381.911741,10568.351813,7680.685244,0.002000,-0.010000,1.008000,192.000000,0.000000,8.000000,127.500000,88.000000,15.500000,64.000000,0.000000,0.000000,0.000000,1772011186.299799,0.000000
206.000000,9092.980217,11282.043014,6567.143687,12470.149990,8034.289841,13492.831706,-9855.018241,-17425.934067,11944.727533,10308.803357,10851.771933,5960.271473,8876.727089,15387.164400,10565.066107,7684.417985,0.002000,-0.010000,1.008000,192.000000,0.000000,0.000000,0.000000,0.000000,0.000000,0.000000,0.000000,0.000000,0.000000,1772011186.299816,0.000000
208.000000,9097.741139,11290.536677,6568.730661,12496.882677,8029.774789,13499.581933,-9844.915252,-17413.595905,11979.238627,10336.430113,10886.215971,5983.696101,8901.828099,15422.144881,10568.888255,7689.290665,0.002000,-0.010000,1.008000,192.000000,0.000000,0.000000,0.000000,0.000000,0.000000,0.000000,0.000000,0.000000,0.000000,1772011186.299833,0.000000
210.000000,9077.065775,11273.862275,6552.190370,12479.649482,8013.458015,13481.231151,-9865.165933,-17434.204213,11955.948109,10310.792662,10867.038175,5974.375424,8877.084717,15376.703784,10561.132200,7680.953465,0.002000,-0.010000,1.008000,192.000000,0.000000,0.000000,0.000000,0.000000,0.000000,0.000000,0.000000,0.000000,0.000000,1772011186.299845,0.000000
212.000000,9088.353406,11282.199476,6580.398271,12486.645578,8038.201396,13505.706311,-9844.401162,-17416.591038,11964.642938,10315.195956,10871.597930,5974.420127,8896.329569,15407.929171,10566.474267,7683.814488,0.002000,-0.010000,1.008000,192.000000,0.000000,0.000000,0.000000,0.000000,0.000000,0.000000,0.000000,0.000000,0.000000,1772011186.299856,0.000000
214.000000,9066.493400,11262.038203,6561.511047,12467.512484,8021.437588,13479.666529,-9867.132886,-17447.771722,11952.282423,10307.596363,10870.145067,5966.060575,8885.243104,15396.306264,10572.531590,7682.696901,0.004000,-0.010000,1.008000,192.000000,0.000000,16.000000,127.500000,88.000000,15.500000,64.000000,0.000000,0.000000,0.000000,1772011186.299868,0.000000
216.000000,9072.595426,11267.581435,6561.779268,12476.788458,8029.797140,13477.386651,-9861.902578,-17445.737713,11944.705182,10293.179487,10842.406552,5943.775886,8873.419031,15369.662985,10570.966967,7680.081747,0.004000,-0.010000,1.008000,192.000000,0.000000,0.000000,0.000000,0.000000,0.000000,0.000000,0.000000,0.000000,0.000000,1772011186.299879,0.000000
218.000000,9072.438964,11268.073174,6561.399288,12480.655310,8031.272355,13491.177677,-9856.694622,-17438.942783,11952.282423,10304.534174,10866.188808,5964.384194,8888.998197,15393.266427,10574.543247,7685.960255,0.004000,-0.010000,1.008000,192.000000,0.000000,0.000000,0.000000,0.000000,0.000000,0.000000,0.000000,0.000000,0.000000,1772011186.299900,0.000000
220.000000,9063.900598,11257.389040,6547.407096,12472.653386,8010.686399,13469.340023,-9872.407898,-17451.258594,11941.821807,10296.018159,10846.072238,5956.650490,8866.333528,15372.367546,10564.283796,7684.976779,0.004000,-0.010000,1.008000,192.000000,0.000000,0.000000,0.000000,0.000000,0.000000,0.000000,0.000000,0.000000,0.000000,1772011186.299911,0.000000
222.000000,9095.461261,11286.826287,6571.122297,12490.668892,8035.943870,13502.420605,-9844.691735,-17414.668788,11951.902443,10306.992865,10862.098439,5970.463868,8879.722223,15392.260598,10565.915473,7683.814488,0.004000,-0.010000,1.008000,192.000000,0.000000,0.000000,0.000000,0.000000,0.000000,0.000000,0.000000,0.000000,0.000000,1772011186.299923,0.000000
224.000000,9085.134755,11272.297653,6554.984338,12479.224799,8025.662068,13482.371090,-9862.997814,-17430.672637,11961.714859,10324.740151,10874.436602,5986.244200,8899.838793,15411.863078,10565.267273,7689.067148,0.006000,-0.012000,1.006000,192.000000,0.000000,24.000000,127.500000,80.000000,15.500000,56.000000,0.000000,0.000000,0.000000,1772011186.299934,0.000000
226.000000,9082.161973,11270.375403,6577.738414,12476.922569,8031.048838,13483.198104,-9857.700450,-17430.605582,11956.551606,10291.883086,10863.596006,5957.477505,8877.509401,15383.006976,10568.351813,7679.835877,0.006000,-0.012000,1.006000,192.000000,0.000000,0.000000,0.000000,0.000000,0.000000,0.000000,0.000000,0.000000,0.000000,1772011186.299945,0.000000
228.000000,9077.177534,11263.893397,6572.485754,12469.322976,8033.663992,13485.701500,-9853.341860,-17431.678466,11950.069600,10306.657589,10878.281102,5972.453174,8892.797994,15395.993340,10571.101078,7682.272218,0.006000,-0.012000,1.006000,192.000000,0.000000,0.000000,0.000000,0.000000,0.000000,0.000000,0.000000,0.000000,0.000000,1772011186.299957,0.000000
230.000000,9058.804400,11244.469731,6542.534416,12459.599967,8011.938097,13465.473171,-9875.358328,-17459.595795,11940.257185,10284.797583,10850.900215,5942.904168,8870.222732,15388.013767,10562.205084,7679.142973,0.006000,-0.012000,1.006000,192.000000,0.000000,0.000000,0.000000,0.000000,0.000000,0.000000,0.000000,0.000000,0.000000,1772011186.299968,0.000000
232.000000,9074.674138,11257.321984,6567.523666,12478.800115,8034.356896,13484.002767,-9850.592595,-17436.975829,11944.079333,10281.154249,10849.581462,5949.564987,8886.897133,15372.591063,10561.065145,7680.260561,0.006000,-0.012000,1.006000,192.000000,0.000000,0.000000,0.000000,0.000000,0.000000,0.000000,0.000000,0.000000,0.000000,1772011186.299979,0.000000
234.000000,9066.426345,11251.018793,6557.174809,12466.149028,8020.275297,13468.624767,-9867.937549,-17453.449065,11941.799455,10280.886028,10858.209235,5952.001328,8876.660034,15387.253807,10563.948520,7681.489906,0.006000,-0.018000,1.006000,192.000000,0.000000,24.000000,127.500000,56.000000,15.500000,56.000000,0.000000,0.000000,0.000000,1772011186.299990,0.000000
236.000000,9087.235819,11267.939063,6565.601416,12479.403613,8027.070228,13483.958064,-9857.052250,-17433.623068,11952.014202,10281.176601,10849.939090,5946.659261,8879.051671,15395.546305,10562.830932,7683.300398,0.006000,-0.018000,1.006000,192.000000,0.000000,0.000000,0.000000,0.000000,0.000000,0.000000,0.000000,0.000000,0.000000,1772011186.300002,0.000000
238.000000,9105.139566,11275.315139,6578.319559,12485.527991,8033.284012,13497.436166,-9845.429342,-17411.584248,11966.967519,10307.909287,10887.713538,5980.678616,8898.810613,15400.553095,10566.720136,7685.781441,0.006000,-0.018000,1.006000,192.000000,0.000000,0.000000,0.000000,0.000000,0.000000,0.000000,0.000000,0.000000,0.000000,1772011186.300014,0.000000
240.000000,9102.166784,11284.211133,6560.594626,12472.452220,8020.118835,13479.241846,-9861.410840,-17419.630876,11963.659461,10305.696464,10879.398689,5976.923523,8888.774680,15394.138145,10559.656985,7683.658026,0.006000,-0.018000,1.006000,192.000000,0.000000,0.000000,0.000000,0.000000,0.000000,0.000000,0.000000,0.000000,0.000000,1772011186.300025,0.000000
242.000000,9107.397092,11293.218886,6585.986207,12498.335540,8044.214016,13496.206820,-9838.388543,-17399.760175,11973.337766,10320.403912,10884.830163,5988.792299,8898.050654,15401.290703,10567.927130,7685.736738,0.006000,-0.018000,1.006000,192.000000,0.000000,0.000000,0.000000,0.000000,0.000000,0.000000,0.000000,0.000000,0.000000,1772011186.300036,0.000000
244.000000,9086.386452,11270.263644,6550.782210,12477.928397,8023.940983,13475.352642,-9861.075564,-17430.918506,11970.499095,10307.484604,10886.372433,5984.076081,8904.420901,15393.378185,10566.273101,7683.009825,0.006000,-0.018000,1.006000,192.000000,0.000000,24.000000,127.500000,56.000000,15.500000,56.000000,0.000000,0.000000,0.000000,1772011186.300048,0.000000
246.000000,9072.662481,11247.934252,6568.641254,12467.534836,8014.933230,13473.273930,-9860.226197,-17445.916527,11943.431132,10273.621711,10851.011974,5946.502798,8868.680461,15376.390860,10561.713345,7675.946674,0.006000,-0.018000,1.006000,192.000000,0.000000,0.000000,0.000000,0.000000,0.000000,0.000000,0.000000,0.000000,0.000000,1772011186.300060,0.000000
248.000000,9065.688737,11247.889548,6564.752050,12466.908987,8021.169367,13480.158267,-9856.895787,-17446.765893,11939.273708,10282.405947,10864.065393,5951.934272,8876.324758,15387.298511,10566.630729,7676.684281,0.006000,-0.018000,1.006000,192.000000,0.000000,0.000000,0.000000,0.000000,0.000000,0.000000,0.000000,0.000000,0.000000,1772011186.300072,0.000000
250.000000,9059.184379,11240.133493,6551.832742,12455.308432,8010.172309,13458.410020,-9876.051232,-17462.635632,11929.550699,10268.458458,10843.613546,5937.673859,8866.981729,15371.249958,10563.434430,7675.231418,0.006000,-0.018000,1.006000,192.000000,0.000000,0.000000,0.000000,0.000000,0.000000,0.000000,0.000000,0.000000,0.000000,1772011186.300084,0.000000
252.000000,9089.627455,11272.655281,6568.618902,12482.286988,8039.408390,13494.910418,-9847.932738,-17424.704722,11953.198845,10283.925865,10861.874922,5951.017851,8890.607523,15387.522028,10571.637520,7681.512258,0.006000,-0.018000,1.006000,192.000000,0.000000,0.000000,0.000000,0.000000,0.000000,0.000000,0.000000,0.000000,0.000000,1772011186.300096,0.000000
254.000000,9083.704243,11270.151886,6564.327367,12479.358909,8021.079960,13479.957101,-9860.539122,-17433.712475,11957.199807,10301.606095,10876.314148,5976.007101,8892.194497,15387.656139,10567.077764,7688.731872,0.004000,-0.014000,1.012000,192.000000,0.000000,16.000000,127.500000,72.000000,15.500000,80.000000,0.000000,0.000000,0.000000,1772011186.300107,0.000000
0.000000,9094.298970,11276.008043,6568.685957,12479.090688,8027.181986,13481.946407,-9851.218444,-17420.793166,11949.980193,10291.793679,10864.221855,5968.094584,8870.312139,15381.084726,10565.982528,7681.534610,0.004000,-0.014000,1.012000,192.000000,0.000000,0.000000,0.000000,0.000000,0.000000,0.000000,0.000000,0.000000,0.000000,1772011186.300118,0.000000
2.000000,9084.754775,11273.057613,6568.551847,12480.454145,8028.858367,13485.165058,-9845.675212,-17420.860221,11962.027784,10310.658552,10884.807811,5983.897267,8890.071081,15400.083709,10571.458706,7679.947636,0.004000,-0.014000,1.012000,192.000000,0.000000,0.000000,0.000000,0.000000,0.000000,0.000000,0.000000,0.000000,0.000000,1772011186.300130,0.000000
4.000000,9062.246568,11247.554272,6540.478056,12468.942996,8014.888527,13470.189389,-9869.301006,-17455.483074,11944.436961,10284.752880,10848.955613,5960.271473,8866.400584,15371.652290,10558.226473,7677.935979,0.004000,-0.014000,1.012000,192.000000,0.000000,0.000000,0.000000,0.000000,0.000000,0.000000,0.000000,0.000000,0.000000,1772011186.300142,0.000000
6.000000,9078.809211,11259.914787,6572.105774,12478.464839,8033.440475,13493.323445,-9845.719915,-17431.969038,11949.287289,10286.876295,10852.151913,5951.420182,8882.113860,15400.776613,10564.373203,7682.249866,0.004000,-0.014000,1.012000,192.000000,0.000000,0.000000,0.000000,0.000000,0.000000,0.000000,0.000000,0.000000,0.000000,1772011186.300153,0.000000
8.000000,9074.182400,11258.663089,6549.932843,12471.535798,8018.822434,13478.101907,-9863.288386,-17442.742579,11942.000621,10289.178525,10862.478419,5958.505685,8879.901037,15389.064299,10559.254653,7683.233343,0.007000,-0.013000,1.007000,192.000000,0.000000,40.000000,127.500000,80.000000,15.500000,40.000000,0.000000,0.000000,0.000000,1772011186.300164,0.000000
10.000000,9090.029787,11280.187819,6565.266140,12489.551305,8025.997344,13487.802564,-9853.006584,-17425.017646,11960.060830,10293.403005,10852.509541,5959.064479,8883.767889,15389.891313,10556.237168,7685.200296,0.007000,-0.013000,1.007000,192.000000,0.000000,0.000000,0.000000,0.000000,0.000000,0.000000,0.000000,0.000000,0.000000,1772011186.300180,0.000000
12.000000,9099.171650,11283.898209,6577.626655,12496.614456,8037.888472,13495.424509,-9841.897767,-17409.058500,11969.381508,10314.033665,10884.159611,5991.787433,8895.502555,15397.714424,10565.580197,7686.004959,0.007000,-0.013000,1.007000,192.000000,0.000000,0.000000,0.000000,0.000000,0.000000,0.000000,0.000000,0.000000,0.000000,1772011186.300195,0.000000
14.000000,9091.706168,11278.354976,6561.935730,12481.549380,8021.974030,13477.297244,-9861.120267,-17428.258649,11961.044307,10303.841269,10868.468686,5979.806898,8887.187706,15384.303377,10560.975738,7685.200296,0.007000,-0.013000,1.007000,192.000000,0.000000,0.000000,0.000000,0.000000,0.000000,0.000000,0.000000,0.000000,0.000000,1772011186.300210,0.000000
16.000000,9113.052084,11294.694101,6585.092137,12493.596970,8045.197492,13503.873468,-9835.616927,-17401.503611,11976.846990,10314.190127,10879.443393,5983.561991,8895.144927,15400.642502,10567.793020,7684.350930,0.007000,-0.013000,1.007000,192.000000,0.000000,0.000000,0.000000,0.000000,0.000000,0.000000,0.000000,0.000000,0.000000,1772011186.300222,0.000000
18.000000,9089.247476,11265.748592,6561.041660,12471.312281,8026.466730,13471.396383,-9858.326299,-17430.940858,11967.459258,10309.250392,10882.058547,5981.818555,8901.246953,15399.927247,10566.898950,7676.751337,0.009500,-0.009500,1.005500,192.000000,0.000000,48.000000,127.500000,104.000000,15.500000,48.000000,0.000000,0.000000,0.000000,1772011186.300234,0.000000
20.000000,9077.222237,11259.579511,6567.344852,12469.077107,8028.880719,13477.185485,-9856.828732,-17436.774664,11956.059868,10284.127031,10854.543549,5952.135438,8890.026377,15382.135258,10564.373203,7673.733851,0.009500,-0.009500,1.005500,192.000000,0.000000,0.000000,0.000000,0.000000,0.000000,0.000000,0.000000,0.000000,0.000000,1772011186.300245,0.000000
22.000000,9070.941397,11249.968261,6567.925998,12467.825409,8030.892376,13482.393441,-9854.146523,-17439.926260,11944.079333,10291.123127,10866.971119,5960.740860,8875.117764,15380.660043,10572.933921,7675.745508,0.009500,-0.009500,1.005500,192.000000,0.000000,0.000000,0.000000,0.000000,0.000000,0.000000,0.000000,0.000000,0.000000,1772011186.300256,0.000000
24.000000,9054.535217,11232.958583,6557.130105,12454.928452,8020.320001,13461.807485,-9875.492439,-17463.484998,11938.357286,10273.331138,10846.653384,5937.495045,8869.865104,15371.115848,10569.715270,7678.047738,0.009500,-0.009500,1.005500,192.000000,0.000000,0.000000,0.000000,0.000000,0.000000,0.000000,0.000000,0.000000,0.000000,1772011186.300268,0.000000
26.000000,9079.323301,11259.825380,6572.753975,12483.181057,8047.253853,13494.575142,-9848.022145,-17432.773701,11940.279536,10278.181467,10850.944919,5945.564025,8879.275188,15383.901046,10577.471325,7683.948598,0.009500,-0.009500,1.005500,192.000000,0.000000,0.000000,0.000000,0.000000,0.000000,0.000000,0.000000,0.000000,0.000000,1772011186.300281,0.000000
28.000000,9072.774240,11257.187874,6562.114544,12476.497886,8028.679553,13483.980415,-9861.232026,-17443.100207,11955.054039,10294.699406,10868.558093,5964.674767,8888.014720,15397.133279,10574.051508,7688.329540,0.008750,-0.009750,1.006750,192.000000,0.000000,32.000000,127.500000,88.000000,15.500000,64.000000,0.000000,0.000000,0.000000,1772011186.300293,0.000000
30.000000,9089.225124,11273.012909,6562.494524,12482.801078,8040.213053,13493.681072,-9853.900654,-17429.979733,11958.451505,10294.721758,10857.203407,5959.511514,8882.158563,15391.634749,10569.111773,7684.328578,0.008750,-0.009750,1.006750,192.000000,0.000000,0.000000,0.000000,0.000000,0.000000,0.000000,0.000000,0.000000,0.000000,1772011186.300304,0.000000
32.000000,9088.733386,11272.252950,6565.512009,12481.817601,8038.670783,13491.423546,-9846.211653,-17424.548259,11970.856723,10317.788758,10877.945826,5984.836040,8900.844622,15401.894200,10568.932959,7683.322750,0.008750,-0.009750,1.006750,192.000000,0.000000,0.000000,0.000000,0.000000,0.000000,0.000000,0.000000,0.000000,0.000000,1772011186.300316,0.000000
34.000000,9070.494362,11254.528016,6555.900759,12460.941072,8020.163538,13468.714174,-9867.915197,-17452.175015,11943.118208,10285.065804,10859.170360,5954.080040,8867.942854,15385.733889,10565.133162,7671.364566,0.008750,-0.009750,1.006750,192.000000,0.000000,0.000000,0.000000,0.000000,0.000000,0.000000,0.000000,0.000000,0.000000,1772011186.300327,0.000000
36.000000,9082.027862,11267.447325,6568.462440,12479.381261,8042.090600,13495.066881,-9847.351592,-17434.740655,11945.442789,10285.982226,10855.728192,5951.956624,8873.866066,15386.158572,10568.888255,7678.450069,0.008750,-0.009750,1.006750,192.000000,0.000000,0.000000,0.000000,0.000000,0.000000,0.000000,0.000000,0.000000,0.000000,1772011186.300339,0.000000
38.000000,9064.906426,11253.097505,6556.012518,12469.188865,8029.059533,13478.884218,-9865.791782,-17452.778513,11949.153179,10292.732452,10862.590177,5958.729203,8882.560895,15386.136220,10569.424697,7683.613322,0.006375,-0.008875,1.008375,192.000000,0.000000,16.000000,127.500000,96.000000,15.500000,72.000000,0.000000,0.000000,0.000000,1772011186.300359,0.000000
40.000000,9085.648845,11277.796182,6561.622806,12485.863267,8035.519187,13494.396328,-9853.140694,-17425.911716,11944.168740,10290.609037,10848.709744,5952.358955,8880.236313,15395.188677,10565.982528,7682.272218,0.006375,-0.008875,1.008375,192.000000,0.000000,0.000000,0.000000,0.000000,0.000000,0.000000,0.000000,0.000000,0.000000,1772011186.300371,0.000000
42.000000,9110.749854,11297.733938,6579.213629,12492.658197,8043.476408,13505.438090,-9839.215557,-17402.062404,11975.751755,10328.562299,10890.574561,5997.509479,8908.243049,15417.696883,10569.782325,7689.894162,0.006375,-0.008875,1.008375,192.000000,0.000000,0.000000,0.000000,0.000000,0.000000,0.000000,0.000000,0.000000,0.000000,1772011186.300387,0.000000
44.000000,9107.642961,11297.085738,6559.432335,12493.775784,8021.370533,13485.299168,-9856.895787,-17417.462756,11973.695394,10327.534119,10878.661082,5992.346226,8887.411223,15402.654159,10564.820238,7685.133241,0.006375,-0.008875,1.008375,192.000000,0.000000,0.000000,0.000000,0.000000,0.000000,0.000000,0.000000,0.000000,0.000000,1772011186.300404,0.000000
46.000000,9121.255174,11309.222735,6588.154326,12497.530877,8032.814626,13499.358416,-9833.560566,-17395.535695,11984.111307,10333.636145,10888.138221,5996.548354,8896.307218,15417.383959,10566.809543,7682.272218,0.006375,-0.008875,1.008375,192.000000,0.000000,0.000000,0.000000,0.000000,0.000000,0.000000,0.000000,0.000000,0.000000,1772011186.300416,0.000000
48.000000,9097.919953,11276.142153,6557.510085,12474.530932,8010.574640,13464.042659,-9856.314642,-17427.632800,11974.835333,10325.880090,10888.249980,5987.540601,8892.149793,15417.942753,10563.188560,7675.857267,0.004188,-0.007438,1.007188,192.000000,0.000000,8.000000,127.500000,104.000000,15.500000,56.000000,0.000000,0.000000,0.000000,1772011186.300427,0.000000
50.000000,9080.262075,11265.972110,6564.640291,12469.010051,8023.046914,13462.433334,-9857.253415,-17440.999143,11959.122057,10290.318464,10853.425962,5949.185008,8874.000177,15376.748488,10560.908682,7666.625996,0.004188,-0.007438,1.007188,192.000000,0.000000,0.000000,0.000000,0.000000,0.000000,0.000000,0.000000,0.000000,0.000000,1772011186.300439,0.000000
52.000000,9075.568208,11260.473580,6570.205876,12465.567883,8035.385076,13472.581026,-9853.230101,-17442.452007,11950.538987,10294.855868,10862.657233,5959.086831,8881.130383,15388.863133,10573.135087,7668.235322,0.004188,-0.007438,1.007188,192.000000,0.000000,0.000000,0.000000,0.000000,0.000000,0.000000,0.000000,0.000000,0.000000,1772011186.300450,0.000000
54.000000,9058.424420,11246.794313,6551.497466,12464.919682,8025.595012,13464.221473,-9873.525485,-17466.077801,11940.726571,10288.485621,10840.417247,5944.245272,8873.687252,15382.984624,10570.519933,7675.723156,0.004188,-0.007438,1.007188,192.000000,0.000000,0.000000,0.000000,0.000000,0.000000,0.000000,0.000000,0.000000,0.000000,1772011186.300462,0.000000
56.000000,9095.461261,11280.612502,6577.201972,12486.086784,8048.438495,13493.926942,-9841.897767,-17425.084701,11946.940356,10305.674113,10852.062506,5958.282168,8882.940874,15398.899066,10572.643348,7685.356758,0.004188,-0.007438,1.007188,192.000000,0.000000,0.000000,0.000000,0.000000,0.000000,0.000000,0.000000,0.000000,0.000000,1772011186.300473,0.000000
58.000000,9093.941342,11269.682499,6567.210742,12480.543552,8038.782542,13475.687918,-9855.442924,-17429.666809,11968.755659,10308.691598,10880.002186,5971.179124,8897.223639,15398.474383,10573.045680,7684.730909,0.005094,-0.008719,1.010594,192.000000,0.000000,24.000000,127.500000,88.000000,15.500000,88.000000,0.000000,0.000000,0.000000,1772011186.780249,0.000000
60.000000,9105.519546,11283.250008,6565.981396,12488.523124,8043.208187,13496.676206,-9849.095029,-17415.741672,11973.293063,10298.432147,10869.519218,5971.983787,8885.690139,15395.143973,10567.323633,7684.753261,0.005094,-0.008719,1.010594,192.000000,0.000000,0.000000,0.000000,0.000000,0.000000,0.000000,0.000000,0.000000,0.000000,1772011186.780320,0.000000
62.000000,9095.573019,11274.577531,6572.038719,12483.158706,8041.017716,13492.719947,-9843.440037,-17412.835945,11980.579732,10309.228040,10890.462803,5990.267514,8916.513195,15409.225572,10569.379994,7685.133241,0.005094,-0.008719,1.010594,192.000000,0.000000,0.000000,0.000000,0.000000,0.000000,0.000000,0.000000,0.000000,0.000000,1772011186.780362,0.000000
64.000000,9062.648900,11246.056705,6555.811352,12458.236511,8019.761207,13467.037793,-9869.859799,-17453.493768,11954.964632,10280.081365,10862.657233,5957.030470,8873.687252,15392.975854,10565.624901,7675.231418,0.005094,-0.008719,1.010594,192.000000,0.000000,0.000000,0.000000,0.000000,0.000000,0.000000,0.000000,0.000000,0.000000,1772011186.780405,0.000000
66.000000,9077.199886,11261.680575,6568.305977,12472.586330,8034.736876,13483.421622,-9847.999793,-17438.361637,11947.901481,10274.627539,10851.593119,5949.475580,8872.100278,15368.657156,10570.050546,7675.521991,0.005094,-0.008719,1.010594,192.000000,0.000000,0.000000,0.000000,0.000000,0.000000,0.000000,0.000000,0.000000,0.000000,1772011186.780448,0.000000
68.000000,9071.544894,11245.274394,6553.822047,12462.170418,8019.783559,13470.211741,-9864.473029,-17451.437408,11941.531234,10274.515781,10858.879788,5951.978976,8871.720299,15369.350060,10565.557845,7674.314997,0.001547,-0.007359,1.008297,192.000000,127.500000,120.000000,127.500000,104.000000,15.500000,56.000000,0.000000,0.000000,0.000000,1772011186.780491,0.000000
70.000000,9088.755737,11274.979863,6563.679166,12480.700014,8037.508492,13488.182543,-9853.744191,-17430.940858,11963.100667,10281.377766,10854.051811,5952.180141,8882.024453,15382.247017,10563.792057,7679.679415,0.001547,-0.007359,1.008297,192.000000,0.000000,0.000000,0.000000,0.000000,0.000000,0.000000,0.000000,0.000000,0.000000,1772011186.780533,0.000000
72.000000,9101.585639,11290.000235,6580.062995,12489.305435,8048.237330,13503.068805,-9843.082409,-17411.248971,11965.425249,10310.032703,10883.846686,5989.105223,8888.551162,15408.040930,10572.062203,7686.429642,0.001547,-0.007359,1.008297,192.000000,0.000000,0.000000,0.000000,0.000000,0.000000,0.000000,0.000000,0.000000,0.000000,1772011186.780545,0.000000
74.000000,9101.831508,11279.629025,6568.328329,12477.190790,8032.680515,13478.951273,-9861.455543,-17423.944762,11969.448563,10305.919982,10877.565846,5979.717491,8887.433575,15404.062319,10571.704575,7681.936941,0.001547,-0.007359,1.008297,192.000000,0.000000,0.000000,0.000000,0.000000,0.000000,0.000000,0.000000,0.000000,0.000000,1772011186.780558,0.000000
76.000000,9113.655581,11289.150869,6581.739376,12489.126621,8045.800989,13501.459480,-9839.260261,-17408.164431,11982.256112,10312.491395,10883.958445,5985.819517,8890.965151,15401.983607,10572.688052,7678.807697,0.001547,-0.007359,1.008297,192.000000,0.000000,0.000000,0.000000,0.000000,0.000000,0.000000,0.000000,0.000000,0.000000,1772011186.780571,0.000000
78.000000,9081.737290,11258.774848,6553.687937,12464.226778,8024.209204,13475.196180,-9865.680023,-17450.409228,11968.979176,10300.935543,10878.683433,5970.799145,8882.940874,15405.582238,10569.290587,7677.086613,0.001547,-0.007359,1.008297,192.000000,0.000000,0.000000,0.000000,0.000000,0.000000,0.000000,0.000000,0.000000,0.000000,1772011186.780583,0.000000
80.000000,9071.947226,11252.739877,6549.038774,12465.299662,8025.505605,13474.257407,-9865.165933,-17458.366449,11946.649783,10276.974473,10838.696163,5938.702040,8867.518171,15374.848589,10562.003918,7673.935017,0.002000,-0.006000,1.002000,192.000000,0.000000,8.000000,127.500000,104.000000,15.500000,40.000000,0.000000,0.000000,0.000000,1772011186.780595,0.000000
82.000000,9073.578903,11255.243272,6568.171867,12469.770011,8034.938042,13476.336119,-9854.548854,-17447.704667,11951.813036,10284.976397,10861.003204,5952.224845,8869.172200,15390.517162,10570.519933,7675.231418,0.002000,-0.006000,1.002000,192.000000,0.000000,0.000000,0.000000,0.000000,0.000000,0.000000,0.000000,0.000000,0.000000,1772011186.780607,0.000000
84.000000,9077.199886,11254.684479,6553.665585,12472.675737,8022.219899,13469.071802,-9867.691680,-17453.627879,11948.504978,10278.069708,10847.905081,5946.838075,8881.733880,15384.035156,10566.228398,7676.080784,0.002000,-0.006000,1.002000,192.000000,0.000000,0.000000,0.000000,0.000000,0.000000,0.000000,0.000000,0.000000,0.000000,1772011186.780619,0.000000
86.000000,9105.452491,11293.129479,6583.974550,12494.736909,8045.443361,13513.417663,-9839.774351,-17414.065291,11962.407763,10303.863621,10862.478419,5971.492049,8880.213962,15410.410215,10571.883389,7683.970950,0.002000,-0.006000,1.002000,192.000000,0.000000,0.000000,0.000000,0.000000,0.000000,0.000000,0.000000,0.000000,0.000000,1772011186.780631,0.000000
88.000000,9097.919953,11288.323854,6564.975567,12475.894389,8032.211129,13491.870581,-9855.219407,-17424.883535,11974.097726,10322.013238,10881.097422,5991.854488,8890.115784,15426.123491,10568.843552,7685.848497,0.002000,-0.006000,1.002000,192.000000,0.000000,0.000000,0.000000,0.000000,0.000000,0.000000,0.000000,0.000000,0.000000,1772011186.780643,0.000000
90.000000,9100.669217,11298.404491,6560.594626,12491.182982,8037.284975,13492.563485,-9849.184436,-17422.178974,11971.348461,10313.519575,10863.707765,5978.555200,8888.506459,15400.418985,10566.362508,7680.819354,0.004000,-0.010000,1.006000,192.000000,0.000000,16.000000,127.500000,88.000000,15.500000,56.000000,0.000000,0.000000,0.000000,1772011186.780664,0.000000
92.000000,9086.520563,11262.798162,6573.871562,12476.944921,8038.939004,13482.460497,-9847.508055,-17430.225602,11963.324185,10304.288304,10878.929303,5983.561991,8885.399566,15408.778537,10569.223531,7680.372319,0.004000,-0.010000,1.006000,192.000000,0.000000,0.000000,0.000000,0.000000,0.000000,0.000000,0.000000,0.000000,0.000000,1772011186.780676,0.000000
94.000000,9061.419554,11239.686458,6547.384745,12457.297737,8014.463844,13451.816255,-9872.296139,-17462.814446,11944.705182,10275.409851,10847.078067,5949.319118,8866.825267,15361.303432,10562.853284,7667.698880,0.004000,-0.010000,1.006000,192.000000,0.000000,0.000000,0.000000,0.000000,0.000000,0.000000,0.000000,0.000000,0.000000,1772011186.780689,0.000000
96.000000,9069.175609,11254.706830,6568.954178,12470.440563,8033.909861,13483.600436,-9848.916215,-17440.149777,11942.447655,10275.767478,10841.758352,5945.049935,8868.076964,15379.363642,10566.608377,7668.704709,0.004000,-0.010000,1.006000,192.000000,0.000000,0.000000,0.000000,0.000000,0.000000,0.000000,0.000000,0.000000,0.000000,1772011186.780701,0.000000
98.000000,9064.258225,11254.326851,6550.335175,12460.538740,8023.002210,13469.228264,-9865.724726,-17451.102132,11941.754751,10285.736356,10849.827331,5952.068383,8873.240217,15393.042909,10564.999052,7674.605569,0.004000,-0.010000,1.006000,192.000000,0.000000,0.000000,0.000000,0.000000,0.000000,0.000000,0.000000,0.000000,0.000000,1772011186.780712,0.000000
100.000000,9094.947171,11279.696081,6561.756916,12482.488153,8030.266527,13482.214628,-9851.911348,-17423.944762,11940.190129,10284.708176,10841.043096,5956.270511,8865.953549,15381.107078,10559.925206,7677.019558,0.006000,-0.010000,1.010000,192.000000,0.000000,24.000000,127.500000,88.000000,15.500000,72.000000,0.000000,0.000000,0.000000,1772011186.780725,0.000000
102.000000,9107.642961,11289.061462,6576.821992,12486.466764,8031.182948,13495.916247,-9840.690773,-17406.085718,11973.270711,10312.491395,10891.111003,5992.368578,8881.644473,15401.156593,10566.273101,7678.584180,0.006000,-0.010000,1.010000,192.000000,0.000000,0.000000,0.000000,0.000000,0.000000,0.000000,0.000000,0.000000,0.000000,1772011186.780736,0.000000
104.000000,9092.890810,11272.230598,6557.241864,12467.065450,8012.832166,13464.556749,-9862.036689,-17431.030265,11969.314452,10299.594438,10877.163515,5976.655302,8876.660034,15391.612398,10559.478171,7671.297511,0.006000,-0.010000,1.010000,192.000000,0.000000,0.000000,0.000000,0.000000,0.000000,0.000000,0.000000,0.000000,0.000000,1772011186.780749,0.000000
106.000000,9100.959790,11285.753403,6572.061070,12476.140258,8031.227652,13480.091212,-9840.914290,-17414.534678,11965.849932,10297.538078,10874.101326,5971.559104,8875.989482,15378.961310,10564.216741,7667.184790,0.006000,-0.010000,1.010000,192.000000,0.000000,0.000000,0.000000,0.000000,0.000000,0.000000,0.000000,0.000000,0.000000,1772011186.780761,0.000000
108.000000,9072.103688,11253.768057,6558.247692,12461.231644,8016.207280,13465.473171,-9865.970596,-17453.046734,11957.982118,10295.235848,10871.106192,5963.892456,8886.271284,15381.129429,10565.803714,7667.207142,0.006000,-0.010000,1.010000,192.000000,0.000000,0.000000,0.000000,0.000000,0.000000,0.000000,0.000000,0.000000,0.000000,1772011186.780773,0.000000
110.000000,9077.669272,11264.094563,6564.774402,12469.702955,8032.524053,13479.040680,-9863.958939,-17452.219719,11945.398086,10280.081365,10837.466817,5938.612633,8858.108086,15373.261615,10568.463572,7673.309168,0.002000,-0.008000,1.016000,192.000000,0.000000,8.000000,127.500000,96.000000,15.500000,96.000000,0.000000,0.000000,0.000000,1772011186.780786,0.000000
112.000000,9093.896639,11279.092584,6568.261274,12482.398746,8043.007021,13501.817107,-9851.799590,-17431.745521,11965.492304,10309.049226,10867.172285,5968.541618,8890.920447,15403.704691,10574.856171,7685.110889,0.002000,-0.008000,1.016000,192.000000,0.000000,0.000000,0.000000,0.000000,0.000000,0.000000,0.000000,0.000000,0.000000,1772011186.780797,0.000000
114.000000,9096.221220,11286.669825,6556.616015,12478.509543,8025.215033,13488.517819,-9864.048346,-17435.545318,11974.947092,10311.060883,10862.210198,5969.726261,8888.841735,15409.225572,10567.971834,7690.408253,0.002000,-0.008000,1.016000,192.000000,0.000000,0.000000,0.000000,0.000000,0.000000,0.000000,0.000000,0.000000,0.000000,1772011186.780810,0.000000
116.000000,9120.674028,11306.428767,6579.951236,12497.039139,8049.220806,13509.304942,-9835.773389,-17398.933160,11979.305682,10321.365037,10875.062451,5987.361787,8883.365558,15412.019540,10572.308072,7688.128375,0.002000,-0.008000,1.016000,192.000000,0.000000,0.000000,0.000000,0.000000,0.000000,0.000000,0.000000,0.000000,0.000000,1772011186.780823,0.000000
118.000000,9108.067645,11288.033281,6563.053317,12471.535798,8032.658164,13487.824915,-9855.599386,-17422.424844,11977.472839,10330.082217,10883.712576,5997.308314,8890.451061,15415.707578,10569.670566,7686.317883,0.002000,-0.008000,1.016000,192.000000,0.000000,0.000000,0.000000,0.000000,0.000000,0.000000,0.000000,0.000000,0.000000,1772011186.780835,0.000000
120.000000,9098.121118,11284.032319,6564.774402,12480.521200,8031.607632,13479.241846,-9852.246624,-17426.179937,11968.442734,10302.388406,10863.886579,5967.111107,8877.643511,15393.020558,10565.647252,7676.572523,0.004000,-0.010000,1.012000,192.000000,0.000000,16.000000,127.500000,88.000000,15.500000,80.000000,0.000000,0.000000,0.000000,1772011186.780847,0.000000
122.000000,9094.276618,11283.272360,6570.205876,12465.187903,8041.487103,13481.454668,-9849.877340,-17428.862146,11970.588502,10313.340761,10877.655253,5980.209229,8881.756232,15398.384976,10573.626825,7677.958331,0.004000,-0.010000,1.012000,192.000000,0.000000,0.000000,0.000000,0.000000,0.000000,0.000000,0.000000,0.000000,0.000000,1772011186.780868,0.000000
124.000000,9067.655691,11250.661165,6547.429448,12462.930377,8018.040123,13457.739467,-9872.363195,-17457.002992,11952.483589,10286.764537,10850.922567,5953.074211,8869.239255,15369.797095,10567.010709,7674.762031,0.004000,-0.010000,1.012000,192.000000,0.000000,0.000000,0.000000,0.000000,0.000000,0.000000,0.000000,0.000000,0.000000,1772011186.780880,0.000000
126.000000,9084.419499,11269.056650,6567.389556,12477.615473,8031.808797,13488.562523,-9846.882206,-17427.699855,11950.471932,10282.204781,10849.581462,5954.750592,8870.334491,15366.779610,10566.273101,7675.142011,0.004000,-0.010000,1.012000,192.000000,0.000000,0.000000,0.000000,0.000000,0.000000,0.000000,0.000000,0.000000,0.000000,1772011186.780893,0.000000
128.000000,9081.402013,11268.631967,6545.283681,12472.452220,8019.180062,13474.547979,-9862.349613,-17437.176995,11951.567167,10287.055109,10862.187846,5969.323929,8879.632816,15379.989491,10559.098191,7679.254732,0.004000,-0.010000,1.012000,192.000000,0.000000,0.000000,0.000000,0.000000,0.000000,0.000000,0.000000,0.000000,0.000000,1772011186.780905,0.000000
130.000000,9088.979255,11278.086755,6561.801620,12476.229665,8020.632925,13483.287511,-9857.387526,-17428.973905,11952.438885,10282.808278,10849.246186,5959.198589,8857.035203,15375.474438,10557.913549,7680.864058,0.004000,-0.010000,1.012000,192.000000,0.000000,0.000000,127.500000,112.000000,15.500000,64.000000,0.000000,0.000000,0.000000,1772011186.780917,0.000000
132.000000,9103.552592,11297.018683,6563.433297,12483.069299,8039.140170,13493.502258,-9845.608156,-17413.551201,11964.866455,10316.470005,10877.252922,5993.620276,8885.399566,15406.811584,10566.586026,7684.015654,0.004000,-0.010000,1.012000,192.000000,0.000000,0.000000,0.000000,0.000000,0.000000,0.000000,0.000000,0.000000,0.000000,1772011186.780930,0.000000
134.000000,9079.680929,11268.766078,6558.694727,12464.383240,8024.455073,13459.639366,-9868.339881,-17444.642478,11962.675984,10302.589572,10863.014861,5974.956569,8874.693081,15394.786345,10567.144819,7678.919456,0.004000,-0.010000,1.012000,192.000000,0.000000,0.000000,0.000000,0.000000,0.000000,0.000000,0.000000,0.000000,0.000000,1772011186.780941,0.000000
136.000000,9093.874287,11276.455078,6565.310844,12477.034328,8044.549292,13489.702462,-9846.412819,-17425.598791,11959.747906,10293.872391,10859.483285,5965.814706,8877.040014,15380.950616,10572.889217,7677.958331,0.004000,-0.010000,1.012000,192.000000,0.000000,0.000000,0.000000,0.000000,0.000000,0.000000,0.000000,0.000000,0.000000,1772011186.780954,0.000000
138.000000,9072.081336,11260.160656,6553.397364,12458.840008,8031.920556,13466.099020,-9866.462334,-17452.197367,11951.522464,10288.731490,10859.572692,5962.528999,8875.453040,15389.041947,10567.547151,7680.282912,0.004000,-0.010000,1.012000,192.000000,0.000000,0.000000,0.000000,0.000000,0.000000,0.000000,0.000000,0.000000,0.000000,1772011186.780966,0.000000
140.000000,9082.609008,11264.519246,6560.281701,12472.832200,8040.704792,13476.671395,-9858.482761,-17445.178919,11948.549682,10278.628502,10841.199558,5942.323022,8864.254816,15372.032269,10566.720136,7678.248904,0.004000,-0.010000,1.012000,192.000000,0.000000,0.000000,127.500000,96.000000,15.500000,40.000000,0.000000,0.000000,0.000000,1772011186.780978,0.000000
142.000000,9093.516659,11280.009005,6570.652911,12490.154802,8044.929271,13510.064901,-9846.926909,-17429.018608,11960.373755,10306.434072,10869.630977,5975.224790,8888.014720,15401.983607,10571.101078,7690.944694,0.004000,-0.010000,1.012000,192.000000,0.000000,0.000000,0.000000,0.000000,0.000000,0.000000,0.000000,0.000000,0.000000,1772011186.780990,0.000000
144.000000,9091.259133,11279.070232,6558.739431,12476.631996,8035.966222,13490.641235,-9863.646014,-17438.808672,11970.610854,10305.830575,10866.680547,5971.983787,8885.019587,15411.371340,10566.608377,7690.564715,0.004000,-0.010000,1.012000,192.000000,0.000000,0.000000,0.000000,0.000000,0.000000,0.000000,0.000000,0.000000,0.000000,1772011186.781002,0.000000
146.000000,9114.750816,11299.633837,6581.940541,12493.865191,8058.720298,13506.890953,-9837.047438,-17404.789317,11976.869342,10316.425302,10876.314148,5983.204363,8893.937933,15402.117718,10573.179790,7690.072976,0.004000,-0.010000,1.012000,192.000000,0.000000,0.000000,0.000000,0.000000,0.000000,0.000000,0.000000,0.000000,0.000000,1772011186.781014,0.000000
148.000000,9103.507889,11285.775755,6561.511047,12477.906046,8045.689231,13481.164096,-9854.526502,-17423.542431,11973.538932,10324.784854,10882.080899,5992.301523,8907.304276,15404.107023,10573.291549,7686.519049,0.004000,-0.010000,1.012000,192.000000,0.000000,0.000000,0.000000,0.000000,0.000000,0.000000,0.000000,0.000000,0.000000,1772011186.781026,0.000000
150.000000,9095.215392,11276.499781,6572.686919,12471.289929,8045.912748,13471.351680,-9853.699488,-17430.046788,11970.789667,10298.320389,10861.807866,5962.461944,8879.521058,15376.413211,10573.470363,7676.974854,0.004000,-0.010000,1.009000,192.000000,0.000000,16.000000,127.500000,88.000000,15.500000,56.000000,0.000000,0.000000,0.000000,1772011186.781038,0.000000
152.000000,9093.091976,11278.511438,6570.474097,12476.274368,8046.382135,13490.305959,-9847.664517,-17431.834928,11969.895598,10306.746996,10874.727175,5971.290883,8889.847563,15396.350967,10581.338177,7681.244037,0.004000,-0.010000,1.009000,192.000000,0.000000,0.000000,0.000000,0.000000,0.000000,0.000000,0.000000,0.000000,0.000000,1772011186.781050,0.000000
154.000000,9069.823810,11259.311290,6541.752105,12455.733115,8021.124663,13480.515895,-9871.156200,-17461.473341,11962.139542,10295.504069,10848.396820,5948.134476,8883.566723,15392.640578,10567.323633,7682.674549,0.004000,-0.010000,1.009000,192.000000,0.000000,0.000000,0.000000,0.000000,0.000000,0.000000,0.000000,0.000000,0.000000,1772011186.781062,0.000000
156.000000,9076.238760,11270.196589,6570.272931,12479.515371,8031.272355,13489.814221,-9846.792799,-17435.321800,11940.994792,10292.106604,10840.506654,5953.476543,8860.298557,15383.006976,10561.713345,7679.969988,0.004000,-0.010000,1.009000,192.000000,0.000000,0.000000,0.000000,0.000000,0.000000,0.000000,0.000000,0.000000,0.000000,1772011186.781074,0.000000
158.000000,9079.792688,11269.056650,6555.699594,12469.770011,8030.043010,13482.125221,-9861.209674,-17444.106036,11946.672135,10301.851964,10856.890483,5968.228694,8867.518171,15387.991415,10559.277005,7682.071052,0.004000,-0.010000,1.009000,192.000000,0.000000,0.000000,0.000000,0.000000,0.000000,0.000000,0.000000,0.000000,0.000000,1772011186.781086,0.000000
160.000000,9096.757662,11281.215999,6569.468268,12484.276293,8045.488065,13499.157250,-9853.833598,-17431.142024,11968.979176,10300.555563,10852.710706,5961.500819,8882.896171,15392.774688,10565.937825,7686.407290,0.005000,-0.010000,1.010500,192.000000,0.000000,24.000000,127.500000,88.000000,15.500000,80.000000,0.000000,0.000000,0.000000,1772011186.781098,0.000000
162.000000,9098.657560,11290.939008,6579.995940,12486.891447,8062.900074,13504.007578,-9843.797665,-17416.747501,11974.008319,10331.535081,10882.952617,5992.502688,8897.558915,15418.702712,10579.058299,7690.520011,0.005000,-0.010000,1.010500,192.000000,0.000000,0.000000,0.000000,0.000000,0.000000,0.000000,0.000000,0.000000,0.000000,1772011186.781110,0.000000
164.000000,9082.966636,11270.956549,6559.499390,12461.388107,8049.779600,13482.661662,-9866.060003,-17440.619164,11972.846028,10317.721703,10867.507561,5977.281150,8893.066215,15410.454918,10577.180752,7687.904857,0.005000,-0.010000,1.010500,192.000000,0.000000,0.000000,0.000000,0.000000,0.000000,0.000000,0.000000,0.000000,0.000000,1772011186.781122,0.000000
166.000000,9088.353406,11275.069270,6579.146573,12481.102345,8063.682385,13500.140727,-9843.931776,-17427.029303,11962.385412,10306.523479,10861.360831,5966.529961,8891.591000,15412.354816,10577.963063,7685.982607,0.005000,-0.010000,1.010500,192.000000,0.000000,0.000000,0.000000,0.000000,0.000000,0.000000,0.000000,0.000000,0.000000,1772011186.781134,0.000000
168.000000,9066.225179,11247.621327,6554.380841,12463.958557,8038.089638,13471.262273,-9864.942415,-17456.220681,11963.346537,10296.822822,10862.992509,5958.729203,8888.372348,15386.784421,10569.871732,7683.881543,0.005000,-0.010000,1.010500,192.000000,0.000000,0.000000,0.000000,0.000000,0.000000,0.000000,0.000000,0.000000,0.000000,1772011186.781146,0.000000
170.000000,9075.121173,11265.413316,6555.364317,12473.011014,8048.483199,13489.724814,-9860.427363,-17447.838777,11957.266862,10284.305845,10840.931337,5940.534883,8880.593941,15385.353909,10560.796924,7683.948598,0.004500,-0.012000,1.007250,192.000000,0.000000,16.000000,127.500000,72.000000,15.500000,48.000000,0.000000,0.000000,0.000000,1772011186.781159,0.000000
172.000000,9089.962732,11274.421069,6575.726757,12495.519220,8055.926330,13514.021160,-9844.490569,-17425.107053,11967.816885,10319.219270,10872.849628,5974.554238,8887.522982,15417.562773,10569.670566,7692.598723,0.004500,-0.012000,1.007250,192.000000,0.000000,0.000000,0.000000,0.000000,0.000000,0.000000,0.000000,0.000000,0.000000,1772011186.781172,0.000000
174.000000,9088.286351,11262.954624,6564.461477,12483.493982,8042.023545,13495.223343,-9860.494418,-17433.600716,11972.421345,10306.791700,10870.703861,5970.709738,8891.859220,15406.163383,10567.591854,7694.543325,0.004500,-0.012000,1.007250,192.000000,0.000000,0.000000,0.000000,0.000000,0.000000,0.000000,0.000000,0.000000,0.000000,1772011186.781183,0.000000
176.000000,9108.045293,11283.965264,6578.654835,12490.132450,8062.788315,13518.446805,-9836.555700,-17406.800974,11980.333862,10313.184299,10878.638730,5979.628084,8896.418976,15420.289686,10573.269197,7694.655084,0.004500,-0.012000,1.007250,192.000000,0.000000,0.000000,0.000000,0.000000,0.000000,0.000000,0.000000,0.000000,0.000000,1772011186.781196,0.000000
178.000000,9081.603179,11265.770944,6569.848248,12468.942996,8049.310213,13487.757860,-9857.901616,-17437.400512,11976.109383,10320.538023,10877.901122,5977.884648,8910.835852,15432.292573,10573.582122,7693.023407,0.004500,-0.012000,1.007250,192.000000,0.000000,0.000000,0.000000,0.000000,0.000000,0.000000,0.000000,0.000000,0.000000,1772011187.261299,0.000000
180.000000,9067.029842,11246.257871,6567.925998,12476.922569,8046.873873,13484.069822,-9856.806380,-17449.425751,11942.425304,10286.228095,10845.245224,5948.223883,8872.100278,15376.212046,10573.380956,7680.059395,0.004250,-0.013000,1.009625,192.000000,0.000000,16.000000,127.500000,72.000000,15.500000,80.000000,0.000000,0.000000,0.000000,1772011187.261373,0.000000
182.000000,9068.303891,11248.336583,6569.222399,12475.112078,8043.744629,13487.847267,-9849.296194,-17445.760065,11954.070563,10295.325255,10864.132448,5956.762249,8883.186744,15400.106061,10574.655005,7685.759090,0.004250,-0.013000,1.009625,192.000000,0.000000,0.000000,0.000000,0.000000,0.000000,0.000000,0.000000,0.000000,0.000000,1772011187.261428,0.000000
184.000000,9048.500246,11228.130606,6549.396402,12459.935243,8024.164501,13460.980470,-9871.938511,-17472.559806,11942.000621,10273.889932,10844.015878,5934.611670,8866.333528,15374.155685,10564.172037,7681.311093,0.004250,-0.013000,1.009625,192.000000,0.000000,0.000000,0.000000,0.000000,0.000000,0.000000,0.000000,0.000000,0.000000,1772011187.261477,0.000000
186.000000,9066.716917,11248.291880,6570.787021,12467.467781,8046.806818,13484.092174,-9850.749058,-17448.598736,11947.745019,10278.293226,10843.971174,5936.958603,8873.150810,15374.043926,10569.111773,7682.339273,0.004250,-0.013000,1.009625,192.000000,0.000000,0.000000,0.000000,0.000000,0.000000,0.000000,0.000000,0.000000,0.000000,1772011187.261529,0.000000
188.000000,9061.754830,11245.162635,6555.096096,12465.612586,8033.105199,13476.626691,-9864.964767,-17455.974812,11943.878167,10291.614865,10853.582424,5949.542636,8874.380156,15395.948636,10566.451915,7682.562790,0.004250,-0.013000,1.009625,192.000000,0.000000,0.000000,0.000000,0.000000,0.000000,0.000000,0.000000,0.000000,0.000000,1772011187.261575,0.000000
190.000000,9073.936531,11256.070287,6560.684033,12479.738889,8046.471542,13491.356491,-9855.889959,-17441.110902,11949.175531,10287.390386,10840.886634,5948.782676,8872.524962,15389.109002,10563.725002,7686.429642,0.006125,-0.013500,1.009813,192.000000,0.000000,32.000000,127.500000,72.000000,15.500000,72.000000,0.000000,0.000000,0.000000,1772011187.261600,0.000000
192.000000,9079.189191,11261.501761,6567.814239,12483.695147,8051.277167,13489.635407,-9843.931776,-17429.823271,11962.206598,10308.222211,10868.647500,5973.749575,8891.591000,15406.565715,10570.922264,7693.559848,0.006125,-0.013500,1.009813,192.000000,0.000000,0.000000,0.000000,0.000000,0.000000,0.000000,0.000000,0.000000,0.000000,1772011187.261617,0.000000
194.000000,9058.245606,11238.054781,6540.723925,12461.164589,8031.473521,13473.497447,-9865.791782,-17455.952460,11949.264938,10291.927790,10849.223834,5955.421144,8878.671691,15381.598816,10563.143857,7683.255694,0.006125,-0.013500,1.009813,192.000000,0.000000,0.000000,0.000000,0.000000,0.000000,0.000000,0.000000,0.000000,0.000000,1772011187.261636,0.000000
196.000000,9065.062888,11252.963394,6570.518800,12471.915778,8051.634795,13496.676206,-9844.848197,-17439.076893,11950.047249,10297.962761,10850.207311,5945.832246,8875.363633,15410.901953,10569.067069,7683.948598,0.006125,-0.013500,1.009813,192.000000,0.000000,0.000000,0.000000,0.000000,0.000000,0.000000,0.000000,0.000000,0.000000,1772011187.261654,0.000000
198.000000,9053.797609,11236.847787,6551.743335,12465.389069,8036.860292,13474.682090,-9866.149410,-17459.193463,11944.571071,10286.049281,10850.006145,5951.286072,8880.795107,15399.524915,10568.888255,7684.373282,0.006125,-0.013500,1.009813,192.000000,0.000000,0.000000,0.000000,0.000000,0.000000,0.000000,0.000000,0.000000,0.000000,1772011187.261666,0.000000
200.000000,9056.457467,11243.016868,6565.489658,12479.202447,8046.784466,13490.283607,-9859.421534,-17449.068123,11944.146388,10277.019176,10834.561090,5938.389115,8871.317967,15388.259636,10571.570465,7684.552095,0.005063,-0.011750,1.008906,192.000000,0.000000,16.000000,127.500000,88.000000,15.500000,64.000000,0.000000,0.000000,0.000000,1772011187.261679,0.000000
202.000000,9069.779106,11255.891473,6575.726757,12489.908932,8051.701850,13506.086291,-9844.021183,-17427.699855,11947.454446,10299.817955,10863.327785,5968.251046,8882.136212,15412.131299,10575.683186,7693.090462,0.005063,-0.011750,1.008906,192.000000,0.000000,0.000000,0.000000,0.000000,0.000000,0.000000,0.000000,0.000000,0.000000,1772011187.261692,0.000000
204.000000,9069.153258,11251.130551,6560.326405,12488.746642,8042.761152,13491.669415,-9860.650880,-17441.557937,11955.098743,10301.919019,10862.321956,5962.797220,8882.136212,15401.849497,10570.497581,7694.945657,0.005063,-0.011750,1.008906,192.000000,0.000000,0.000000,0.000000,0.000000,0.000000,0.000000,0.000000,0.000000,0.000000,1772011187.261704,0.000000
206.000000,9093.427252,11278.489086,6584.510992,12502.627075,8068.219789,13522.313657,-9836.823921,-17412.388910,11972.264883,10316.984095,10870.547398,5976.476488,8895.569610,15417.830994,10578.208933,7699.527764,0.005063,-0.011750,1.008906,192.000000,0.000000,0.000000,0.000000,0.000000,0.000000,0.000000,0.000000,0.000000,0.000000,1772011187.261717,0.000000
208.000000,9077.557513,11265.390964,6569.155344,12479.023633,8050.785428,13502.375901,-9857.789857,-17435.075931,11969.739135,10325.030723,10877.722308,5983.271418,8899.995255,15421.049645,10578.924188,7699.147785,0.005063,-0.011750,1.008906,192.000000,0.000000,0.000000,0.000000,0.000000,0.000000,0.000000,0.000000,0.000000,0.000000,1772011187.261730,0.000000
210.000000,9068.840333,11249.118894,6567.300149,12474.575636,8054.540521,13496.184468,-9856.158180,-17440.507405,11965.335842,10306.791700,10853.671831,5955.108220,8886.628912,15406.833936,10578.365395,7692.308151,0.005063,-0.011750,1.008906,192.000000,0.000000,0.000000,0.000000,0.000000,0.000000,0.000000,0.000000,0.000000,0.000000,1772011187.261743,0.000000
212.000000,9067.499228,11242.927461,6567.657777,12476.788458,8051.008946,13487.646101,-9847.105723,-17441.334419,11960.731382,10303.796566,10867.328747,5961.456115,8890.339302,15410.186697,10578.924188,7688.038968,0.002000,-0.012000,1.002000,192.000000,0.000000,8.000000,127.500000,80.000000,15.500000,40.000000,0.000000,0.000000,0.000000,1772011187.261767,0.000000
214.000000,9040.297155,11214.853670,6541.036849,12460.739906,8027.472559,13464.757915,-9871.513828,-17477.365431,11938.781969,10272.861752,10836.818616,5929.895452,8865.461810,15371.764049,10565.781363,7682.227514,0.002000,-0.012000,1.002000,192.000000,0.000000,0.000000,0.000000,0.000000,0.000000,0.000000,0.000000,0.000000,0.000000,1772011187.261780,0.000000
216.000000,9054.155237,11239.194720,6553.576178,12475.559112,8052.394754,13483.600436,-9850.480837,-17455.594832,11941.240661,10277.153287,10832.571785,5928.755513,8867.160543,15389.913665,10568.955310,7682.048700,0.002000,-0.012000,1.002000,192.000000,0.000000,0.000000,0.000000,0.000000,0.000000,0.000000,0.000000,0.000000,0.000000,1772011187.261793,0.000000
218.000000,9050.154275,11232.533900,6549.843436,12469.278272,8037.441437,13485.947369,-9864.115401,-17461.138065,11945.174568,10294.900572,10843.568843,5948.827380,8892.239200,15402.162421,10563.456781,7686.116718,0.002000,-0.012000,1.002000,192.000000,0.000000,0.000000,0.000000,0.000000,0.000000,0.000000,0.000000,0.000000,0.000000,1772011187.261806,0.000000
220.000000,9074.294159,11263.871046,6563.276835,12480.834124,8045.510417,13499.447823,-9852.961880,-17435.165338,11950.047249,10290.832554,10839.567881,5950.794333,8860.902054,15402.162421,10565.267273,7688.664816,0.002000,-0.012000,1.002000,192.000000,0.000000,0.000000,0.000000,0.000000,0.000000,0.000000,0.000000,0.000000,0.000000,1772011187.261819,0.000000
222.000000,9078.004548,11265.368612,6575.145611,12481.884656,8048.639661,13506.958009,-9842.076581,-17421.150794,11957.982118,10319.018104,10874.503657,5985.305427,8877.934084,15428.850404,10572.442183,7692.978703,-0.002000,-0.014000,1.004000,192.000000,127.500000,120.000000,127.500000,72.000000,15.500000,48.000000,0.000000,0.000000,0.000000,1772011187.261832,0.000000
224.000000,9055.809266,11245.900243,6550.849265,12465.187903,8034.647469,13470.725831,-9865.747078,-17458.455856,11949.779028,10294.453537,10854.498846,5959.109182,8865.662976,15400.128412,10566.876598,7686.675511,-0.002000,-0.014000,1.004000,192.000000,0.000000,0.000000,0.000000,0.000000,0.000000,0.000000,0.000000,0.000000,0.000000,1772011187.261844,0.000000
226.000000,9059.609063,11230.209318,6566.339024,12477.749583,8058.206208,13494.753956,-9848.335069,-17454.343135,11948.884958,10278.449688,10844.820541,5941.384249,8875.140116,15374.669775,10572.151610,7684.328578,-0.002000,-0.014000,1.004000,192.000000,0.000000,0.000000,0.000000,0.000000,0.000000,0.000000,0.000000,0.000000,0.000000,1772011187.261857,0.000000
228.000000,9035.268013,11211.433853,6557.174809,12466.104325,8043.118780,13482.706366,-9868.831619,-17481.411097,11942.268842,10284.059976,10846.563977,5939.685516,8882.180915,15389.936017,10572.956273,7687.055491,-0.002000,-0.014000,1.004000,192.000000,0.000000,0.000000,0.000000,0.000000,0.000000,0.000000,0.000000,0.000000,0.000000,1772011187.261869,0.000000
230.000000,9052.277690,11234.277336,6559.164114,12477.280197,8053.780562,13490.305959,-9861.679061,-17462.926205,11934.378676,10271.632406,10829.621354,5925.335696,8869.529828,15377.016708,10571.995148,7686.295532,-0.002000,-0.014000,1.004000,192.000000,0.000000,0.000000,0.000000,0.000000,0.000000,0.000000,0.000000,0.000000,0.000000,1772011187.261882,0.000000
232.000000,9079.524467,11263.759287,6576.866696,12490.177153,8066.319891,13503.404081,-9844.244700,-17427.342227,11961.960728,10305.584706,10870.681509,5970.307406,8896.597790,15413.070072,10577.717194,7693.179869,-0.002000,-0.014000,1.004000,192.000000,0.000000,0.000000,127.500000,88.000000,15.500000,72.000000,0.000000,0.000000,0.000000,1772011187.261894,0.000000
234.000000,9075.702319,11264.541598,6554.447896,12482.018767,8047.790295,13483.622787,-9860.673232,-17433.645419,11970.364984,10302.835441,10867.216988,5976.096508,8889.489936,15404.576409,10573.895046,7695.303285,-0.002000,-0.014000,1.004000,192.000000,0.000000,0.000000,0.000000,0.000000,0.000000,0.000000,0.000000,0.000000,0.000000,1772011187.261907,0.000000
