Sample_index,EXG Channel 0,EXG Channel 1,EXG Channel 2,EXG Channel 3,EXG Channel 4,EXG Channel 5,EXG Channel 6,EXG Channel 7,EXG Channel 8,EXG Channel 9,EXG Channel 10,EXG Channel 11,EXG Channel 12,EXG Channel 13,EXG Channel 14,EXG Channel 15,Accel Channel 0,Accel Channel 1,Accel Channel 2,Not Used,Digital Channel 0 (D11),Digital Channel 1 (D12),Digital Channel 2 (D13),Digital Channel 3 (D17),Not Used,Digital Channel 4 (D18),Analog Channel 0,Analog Channel 1,Analog Channel 2,Timestamp,Marker Channel
90.000000,9407.625724,10279.991958,6228.760627,12647.064048,11144.222158,12687.118374,-9960.026736,-17971.830722,11456.096048,10466.338452,9788.566505,6279.297922,9435.811274,16123.274401,9820.015409,7359.490676,0.002000,-0.012000,1.008000,192.000000,0.000000,0.000000,0.000000,0.000000,0.000000,0.000000,0.000000,0.000000,0.000000,1772011866.443348,101.000000
92.000000,9416.633477,10288.083290,6234.281508,12652.249652,11164.517541,12696.729624,-9951.734239,-17963.448818,11449.703449,10456.593091,9768.919321,6257.013232,9429.172805,16101.995540,9818.249621,7357.300205,0.002000,-0.012000,1.008000,192.000000,0.000000,0.000000,0.000000,0.000000,0.000000,0.000000,0.000000,0.000000,0.000000,1772011866.443421,0.000000
94.000000,9420.969715,10294.319426,6237.723677,12652.093190,11166.842123,12695.030891,-9947.867387,-17956.855054,11467.853065,10483.079908,9793.506240,6281.421337,9457.939501,16123.207345,9829.604307,7361.949368,-0.002000,-0.016000,1.000000,192.000000,127.500000,120.000000,127.500000,64.000000,15.500000,32.000000,0.000000,0.000000,0.000000,1772011866.443481,0.000000
96.000000,9409.436215,10279.679034,6227.508930,12631.686048,11144.244509,12683.765612,-9964.899417,-17970.757839,11448.943490,10455.453152,9777.770612,6263.204666,9427.339962,16100.855601,9819.926002,7354.997975,-0.002000,-0.016000,1.000000,192.000000,0.000000,0.000000,0.000000,0.000000,0.000000,0.000000,0.000000,0.000000,0.000000,1772011866.443540,0.000000
98.000000,9430.603317,10318.347552,6246.574968,12666.688879,11160.605986,12724.714008,-9936.110370,-17939.018361,11460.566397,10485.359786,9793.953275,6277.554486,9436.146550,16124.324933,9821.512976,7358.216626,-0.002000,-0.016000,1.000000,192.000000,0.000000,0.000000,0.000000,0.000000,0.000000,0.000000,0.000000,0.000000,0.000000,1772011866.443598,0.000000
100.000000,9407.893945,10279.768441,6210.990991,12650.461513,11142.702239,12692.259275,-9961.367841,-17966.309841,11451.648051,10483.124612,9789.706444,6286.472832,9436.682992,16124.950781,9817.422607,7361.390574,-0.002000,-0.016000,1.000000,192.000000,0.000000,0.000000,0.000000,0.000000,0.000000,0.000000,0.000000,0.000000,0.000000,1772011866.443629,0.000000
102.000000,9415.828814,10281.869505,6234.505026,12648.382801,11160.136600,12697.176659,-9950.728411,-17958.509083,11446.708315,10457.397754,9763.733716,6262.198837,9429.485730,16117.038264,9816.617944,7356.875522,-0.002000,-0.016000,1.000000,192.000000,0.000000,0.000000,0.000000,0.000000,0.000000,0.000000,0.000000,0.000000,0.000000,1772011866.443655,0.000000
104.000000,9414.755930,10285.401080,6247.111410,12657.256443,11150.480646,12693.399214,-9945.945137,-17956.720943,11456.543083,10476.955530,9796.121394,6277.263913,9440.996878,16128.661171,9825.491586,7360.943539,-0.004000,-0.015000,1.000000,192.000000,127.500000,104.000000,127.500000,72.000000,15.500000,32.000000,0.000000,0.000000,0.000000,1772011866.443682,0.000000
106.000000,9398.506212,10280.930731,6219.685819,12641.364353,11131.168739,12672.589740,-9966.151114,-17973.708269,11436.694734,10459.901149,9770.349833,6264.702232,9415.359427,16101.280284,9811.588801,7356.786115,-0.004000,-0.015000,1.000000,192.000000,0.000000,0.000000,0.000000,0.000000,0.000000,0.000000,0.000000,0.000000,0.000000,1772011866.443708,0.000000
108.000000,9424.545994,10293.604171,6243.512779,12663.783153,11165.076335,12695.433223,-9937.831454,-17940.538280,11446.574205,10469.780620,9783.358548,6278.180334,9428.614012,16097.055804,9820.037761,7354.796810,-0.004000,-0.015000,1.000000,192.000000,0.000000,0.000000,0.000000,0.000000,0.000000,0.000000,0.000000,0.000000,0.000000,1772011866.443734,0.000000
110.000000,9408.586849,10287.882124,6221.585717,12645.879405,11139.014201,12679.429374,-9962.507780,-17965.415772,11448.630565,10469.713565,9785.593723,6279.588494,9433.039657,16108.432842,9819.367208,7356.562597,-0.004000,-0.015000,1.000000,192.000000,0.000000,0.000000,0.000000,0.000000,0.000000,0.000000,0.000000,0.000000,0.000000,1772011866.443762,0.000000
112.000000,9425.820044,10298.633313,6233.923880,12657.055277,11148.044306,12693.622731,-9949.811989,-17950.440103,11447.535330,10459.096486,9771.512124,6265.439840,9417.929878,16103.962493,9810.270048,7354.595644,-0.004000,-0.015000,1.000000,192.000000,0.000000,0.000000,0.000000,0.000000,0.000000,0.000000,0.000000,0.000000,0.000000,1772011866.443788,0.000000
114.000000,9429.418675,10302.120185,6234.236805,12651.467341,11157.722611,12694.740319,-9946.414524,-17948.942536,11463.226254,10485.315083,9798.647141,6286.405776,9451.479846,16117.999389,9823.926964,7359.468324,-0.001000,-0.015500,1.000000,192.000000,0.000000,8.000000,127.500000,64.000000,15.500000,32.000000,0.000000,0.000000,0.000000,1772011866.443814,0.000000
116.000000,9408.273924,10283.970569,6221.429255,12630.076722,11147.016126,12670.198103,-9967.492219,-17973.082420,11455.023164,10475.100335,9780.274007,6259.494276,9437.107675,16100.319159,9821.669438,7354.841513,-0.001000,-0.015500,1.000000,192.000000,0.000000,0.000000,0.000000,0.000000,0.000000,0.000000,0.000000,0.000000,0.000000,1772011866.443840,0.000000
118.000000,9426.445893,10298.946237,6249.793619,12667.806467,11168.451448,12718.030836,-9938.010268,-17945.925050,11453.190321,10461.398716,9783.403252,6274.157020,9435.699515,16123.766139,9822.071769,7359.781249,-0.001000,-0.015500,1.000000,192.000000,0.000000,0.000000,0.000000,0.000000,0.000000,0.000000,0.000000,0.000000,0.000000,1772011866.443866,0.000000
120.000000,9413.191308,10281.869505,6227.866558,12647.734600,11148.670155,12680.792830,-9963.021870,-17968.410905,11452.340955,10468.372460,9789.997016,6279.588494,9435.677163,16111.807956,9823.435226,7361.569388,-0.001000,-0.015500,1.000000,192.000000,0.000000,0.000000,0.000000,0.000000,0.000000,0.000000,0.000000,0.000000,0.000000,1772011866.443892,0.000000
122.000000,9424.523643,10297.538078,6234.594433,12656.787057,11155.398030,12691.298150,-9951.287204,-17954.977507,11446.149522,10462.493952,9771.422717,6261.863561,9423.450759,16095.267665,9815.835633,7361.100001,-0.001000,-0.015500,1.000000,192.000000,0.000000,0.000000,0.000000,0.000000,0.000000,0.000000,0.000000,0.000000,0.000000,1772011866.443923,0.000000
124.000000,9426.825872,10300.555563,6240.428238,12650.237995,11156.090934,12701.401138,-9947.353297,-17951.311821,11458.733554,10478.564856,9798.334217,6286.294018,9455.592567,16110.355092,9821.848252,7360.675318,-0.001000,-0.015500,1.000000,192.000000,0.000000,0.000000,127.500000,72.000000,15.500000,40.000000,0.000000,0.000000,0.000000,1772011866.443949,0.000000
126.000000,9403.915334,10268.860789,6227.240709,12636.111693,11138.366000,12667.560597,-9968.721565,-17982.514856,11451.849216,10461.286957,9777.815315,6257.370860,9424.121311,16110.288037,9815.165080,7349.946481,-0.001000,-0.015500,1.000000,192.000000,0.000000,0.000000,0.000000,0.000000,0.000000,0.000000,0.000000,0.000000,0.000000,1772011866.443976,0.000000
128.000000,9422.914317,10287.792717,6245.077401,12659.849246,11164.741059,12698.808336,-9938.166730,-17951.222414,11450.910443,10458.068306,9775.267217,6261.260064,9429.396323,16092.250179,9821.468272,7356.361432,-0.001000,-0.015500,1.000000,192.000000,0.000000,0.000000,0.000000,0.000000,0.000000,0.000000,0.000000,0.000000,0.000000,1772011866.444002,0.000000
130.000000,9408.206869,10276.281569,6216.511871,12634.480016,11143.126922,12677.976510,-9959.512646,-17969.819065,11450.195187,10470.272359,9784.096156,6277.085099,9438.806407,16105.393005,9822.362342,7354.886217,-0.001000,-0.015500,1.000000,192.000000,0.000000,0.000000,0.000000,0.000000,0.000000,0.000000,0.000000,0.000000,0.000000,1772011866.444028,0.000000
132.000000,9405.479956,10282.897685,6234.706191,12651.109713,11148.625451,12682.066880,-9949.096733,-17961.168940,11438.773446,10447.965318,9761.185618,6256.610901,9416.946401,16082.482467,9812.281705,7352.494580,-0.001000,-0.015500,1.000000,192.000000,0.000000,0.000000,0.000000,0.000000,0.000000,0.000000,0.000000,0.000000,0.000000,1772011866.444054,0.000000
134.000000,9418.645134,10284.551714,6245.055049,12648.226338,11154.414553,12686.112545,-9945.229881,-17952.407056,11439.421647,10468.975958,9792.835688,6275.922808,9424.993029,16107.002331,9826.184490,7351.891083,0.000500,-0.013750,1.005000,192.000000,0.000000,8.000000,127.500000,80.000000,15.500000,72.000000,0.000000,0.000000,0.000000,1772011866.444081,0.000000
136.000000,9410.531451,10270.470115,6225.363162,12627.170995,11144.378620,12668.655833,-9966.039356,-17969.841417,11433.163158,10448.010021,9774.551961,6258.376689,9421.595564,16105.035377,9817.847290,7352.583987,0.000500,-0.013750,1.005000,192.000000,0.000000,0.000000,0.000000,0.000000,0.000000,0.000000,0.000000,0.000000,0.000000,1772011866.444107,0.000000
138.000000,9431.519739,10300.041473,6247.379630,12665.437182,11166.193922,12708.307828,-9936.691515,-17941.119425,11460.253472,10469.557103,9789.035891,6280.303750,9437.979393,16103.426052,9821.915307,7353.478057,0.000500,-0.013750,1.005000,192.000000,0.000000,0.000000,0.000000,0.000000,0.000000,0.000000,0.000000,0.000000,0.000000,1772011866.444134,0.000000
140.000000,9409.927953,10274.716946,6228.850034,12637.050466,11140.601175,12673.774382,-9959.423239,-17966.041620,11455.045516,10460.348184,9790.913438,6282.650683,9440.594547,16108.879877,9817.422607,7353.343946,0.000500,-0.013750,1.005000,192.000000,0.000000,0.000000,0.000000,0.000000,0.000000,0.000000,0.000000,0.000000,0.000000,1772011866.444163,0.000000
142.000000,9421.014419,10285.669301,6226.950136,12654.015440,11150.212425,12683.586798,-9951.913053,-17959.090228,11439.555757,10447.630042,9767.533513,6255.225093,9429.508082,16082.035432,9810.985304,7353.187484,0.000500,-0.013750,1.005000,192.000000,0.000000,0.000000,0.000000,0.000000,0.000000,0.000000,0.000000,0.000000,0.000000,1772011866.444189,0.000000
144.000000,9429.373971,10289.089118,6242.126971,12646.348792,11161.053021,12685.196124,-9946.593338,-17951.222414,11459.694679,10474.765059,9799.340045,6284.483526,9440.952175,16106.220020,9824.306944,7355.780286,0.001250,-0.011875,1.001500,192.000000,0.000000,8.000000,127.500000,88.000000,15.500000,24.000000,0.000000,0.000000,0.000000,1772011866.444215,0.000000
146.000000,9413.571288,10284.864638,6217.495348,12639.889138,11144.244509,12688.079499,-9967.894550,-17970.869597,11448.988193,10456.973071,9774.619016,6264.948102,9426.781169,16093.010139,9814.673342,7357.523722,0.001250,-0.011875,1.001500,192.000000,0.000000,0.000000,0.000000,0.000000,0.000000,0.000000,0.000000,0.000000,0.000000,1772011866.444240,0.000000
148.000000,9439.253442,10307.059921,6238.282470,12662.263234,11171.893617,12698.718929,-9939.574890,-17942.929917,11461.639281,10473.133382,9783.425603,6277.822706,9443.209701,16115.965380,9820.708313,7359.825952,0.001250,-0.011875,1.001500,192.000000,0.000000,0.000000,0.000000,0.000000,0.000000,0.000000,0.000000,0.000000,0.000000,1772011866.444282,0.000000
150.000000,9423.339000,10290.318464,6229.922918,12644.113617,11145.585614,12669.907531,-9959.870274,-17964.767571,11451.424533,10474.899170,9791.785156,6287.925695,9430.133930,16106.667054,9823.949316,7360.340042,0.001250,-0.011875,1.001500,192.000000,0.000000,0.000000,0.000000,0.000000,0.000000,0.000000,0.000000,0.000000,0.000000,1772011866.444298,0.000000
152.000000,9427.742294,10288.664435,6241.255253,12654.462475,11148.938376,12691.946351,-9949.811989,-17958.710248,11447.848254,10453.039164,9774.775478,6266.468020,9423.137834,16089.031528,9813.645162,7352.606339,0.001250,-0.011875,1.001500,192.000000,0.000000,0.000000,0.000000,0.000000,0.000000,0.000000,0.000000,0.000000,0.000000,1772011866.444310,0.000000
154.000000,9430.268041,10303.818918,6241.814046,12661.011536,11154.168684,12699.858868,-9942.726486,-17952.518815,11455.269033,10486.835001,9797.127223,6287.478660,9440.393381,16105.482412,9824.329296,7359.021289,0.001250,-0.011875,1.001500,192.000000,0.000000,0.000000,127.500000,72.000000,15.500000,48.000000,0.000000,0.000000,0.000000,1772011866.444322,0.000000
156.000000,9418.443968,10282.227133,6219.708171,12644.046562,11138.142483,12675.428411,-9966.732260,-17977.664528,11448.250586,10467.612501,9775.311920,6279.007349,9424.277773,16096.787583,9814.226307,7356.115562,0.001250,-0.011875,1.001500,192.000000,0.000000,0.000000,0.000000,0.000000,0.000000,0.000000,0.000000,0.000000,0.000000,1772011866.444334,0.000000
158.000000,9437.487654,10302.857793,6242.641061,12656.004745,11169.613739,12700.730586,-9939.239614,-17950.596565,11455.581958,10482.677577,9781.011615,6282.248352,9437.778227,16104.431880,9823.323467,7356.383783,0.001250,-0.011875,1.001500,192.000000,0.000000,0.000000,0.000000,0.000000,0.000000,0.000000,0.000000,0.000000,0.000000,1772011866.444346,0.000000
160.000000,9410.017360,10273.197028,6227.643040,12633.787111,11149.296003,12665.817161,-9962.105448,-17974.512932,11459.091182,10474.340376,9784.878467,6283.276532,9445.266061,16108.522249,9823.725799,7352.740449,0.001250,-0.011875,1.001500,192.000000,0.000000,0.000000,0.000000,0.000000,0.000000,0.000000,0.000000,0.000000,0.000000,1772011866.444358,0.000000
162.000000,9426.267079,10296.554601,6238.483636,12648.829836,11160.538931,12683.787964,-9952.449495,-17962.979432,11444.160216,10453.128571,9768.181714,6255.605072,9424.031904,16088.338624,9818.584897,7348.739487,0.001250,-0.011875,1.001500,192.000000,0.000000,0.000000,0.000000,0.000000,0.000000,0.000000,0.000000,0.000000,0.000000,1772011866.444369,0.000000
164.000000,9433.062009,10295.660531,6236.092000,12655.200083,11169.010242,12711.280610,-9947.330945,-17957.212681,11462.756868,10478.341338,9797.373092,6287.501012,9450.496370,16133.131520,9828.330258,7358.998937,0.001625,-0.009938,1.001750,192.000000,0.000000,8.000000,127.500000,96.000000,15.500000,40.000000,0.000000,0.000000,0.000000,1772011866.444381,0.000000
166.000000,9414.331247,10282.920037,6222.479787,12635.977582,11143.372791,12671.338042,-9967.849847,-17978.715060,11456.699545,10460.594053,9774.194333,6265.752764,9432.816140,16091.065537,9818.115511,7359.915359,0.001625,-0.009938,1.001750,192.000000,0.000000,0.000000,0.000000,0.000000,0.000000,0.000000,0.000000,0.000000,0.000000,1772011866.444393,0.000000
168.000000,9431.855015,10305.830575,6247.424334,12662.017365,11174.039385,12697.087252,-9937.496178,-17946.036809,11453.302080,10473.982748,9785.012577,6278.739128,9432.391457,16093.993615,9821.915307,7355.534417,0.001625,-0.009938,1.001750,192.000000,0.000000,0.000000,0.000000,0.000000,0.000000,0.000000,0.000000,0.000000,0.000000,1772011866.444405,0.000000
170.000000,9423.070779,10302.276647,6226.100770,12643.465417,11145.317393,12675.316653,-9960.116143,-17965.058144,11455.134923,10477.715490,9790.801679,6287.076329,9443.477922,16101.794374,9819.143691,7360.787077,0.001625,-0.009938,1.001750,192.000000,0.000000,0.000000,0.000000,0.000000,0.000000,0.000000,0.000000,0.000000,0.000000,1772011866.444418,0.000000
172.000000,9429.172805,10293.648874,6238.215415,12643.219548,11158.057887,12705.983246,-9950.527245,-17952.362353,11437.298231,10468.014832,9769.902798,6260.745974,9414.420654,16108.097566,9815.030970,7355.668528,0.001625,-0.009938,1.001750,192.000000,0.000000,0.000000,0.000000,0.000000,0.000000,0.000000,0.000000,0.000000,0.000000,1772011866.444429,0.000000
174.000000,9435.185425,10294.811165,6242.439895,12649.209815,11159.890730,12690.269970,-9943.352335,-17945.254498,11468.188342,10477.894304,9801.083481,6295.078253,9443.679088,16122.223869,9824.485758,7358.104868,0.001625,-0.009938,1.001750,192.000000,0.000000,0.000000,0.000000,0.000000,0.000000,0.000000,0.000000,0.000000,0.000000,1772011866.444441,0.000000
176.000000,9416.164090,10283.747051,6227.330116,12644.560652,11141.070562,12664.498408,-9962.038393,-17963.024135,11449.591690,10452.547425,9785.459612,6267.205628,9427.205852,16103.269589,9817.467310,7352.047545,0.006000,-0.012000,1.004000,192.000000,0.000000,24.000000,127.500000,80.000000,15.500000,48.000000,0.000000,0.000000,0.000000,1772011866.444453,0.000000
178.000000,9444.662564,10317.431130,6250.195950,12663.671394,11169.613739,12694.986188,-9934.702210,-17933.430425,11456.408972,10475.077984,9789.795850,6293.491279,9434.939556,16096.340549,9819.546022,7353.455705,0.006000,-0.012000,1.004000,192.000000,0.000000,0.000000,0.000000,0.000000,0.000000,0.000000,0.000000,0.000000,0.000000,1772011866.444466,0.000000
180.000000,9427.988163,10295.861697,6229.721752,12645.588833,11151.620585,12673.282644,-9958.260948,-17959.067876,11459.091182,10481.180010,9795.070862,6292.127823,9441.622727,16096.675825,9822.943488,7358.350737,0.006000,-0.012000,1.004000,192.000000,0.000000,0.000000,0.000000,0.000000,0.000000,0.000000,0.000000,0.000000,0.000000,1772011866.444477,0.000000
182.000000,9431.385628,10296.599304,6233.007459,12645.789998,11162.572940,12685.218475,-9951.845998,-17955.357487,11457.325394,10462.672766,9776.474211,6268.591436,9440.080457,16085.879932,9814.829804,7356.562597,0.006000,-0.012000,1.004000,192.000000,0.000000,0.000000,0.000000,0.000000,0.000000,0.000000,0.000000,0.000000,0.000000,1772011866.444489,0.000000
184.000000,9432.883195,10296.241676,6245.703250,12649.209815,11165.031632,12692.125165,-9945.833379,-17954.441065,11463.047440,10467.567798,9800.614095,6281.801317,9444.684916,16114.691331,9826.430360,7355.445010,0.006000,-0.012000,1.004000,192.000000,0.000000,0.000000,0.000000,0.000000,0.000000,0.000000,0.000000,0.000000,0.000000,1772011866.444502,0.000000
186.000000,9414.912392,10284.059976,6217.093017,12635.508196,11142.545777,12668.991109,-9967.693385,-17977.999804,11444.808417,10460.504646,9775.133106,6259.136648,9428.904585,16097.681653,9816.215612,7352.941615,0.004000,-0.012000,1.002000,192.000000,0.000000,16.000000,127.500000,80.000000,15.500000,40.000000,0.000000,0.000000,0.000000,1772011866.444514,0.000000
188.000000,9444.014364,10310.010351,6242.194026,12664.587815,11169.949015,12702.362263,-9935.797445,-17941.991143,11453.033859,10467.299577,9783.425603,6281.063709,9437.822931,16093.792450,9814.718046,7351.466400,0.004000,-0.012000,1.002000,192.000000,0.000000,0.000000,0.000000,0.000000,0.000000,0.000000,0.000000,0.000000,0.000000,1772011866.444525,0.000000
190.000000,9418.622782,10281.511877,6232.716886,12639.732676,11150.592405,12662.844379,-9957.925672,-17965.952214,11452.787990,10465.958472,9794.757938,6281.913076,9439.789884,16108.410491,9819.076636,7355.400307,0.004000,-0.012000,1.002000,192.000000,0.000000,0.000000,0.000000,0.000000,0.000000,0.000000,0.000000,0.000000,0.000000,1772011866.444537,0.000000
192.000000,9434.805445,10296.509897,6242.484598,12647.421676,11163.332899,12690.225266,-9948.783809,-17952.049428,11448.988193,10453.061515,9776.809487,6265.238674,9423.473111,16078.369746,9811.834671,7352.561635,0.004000,-0.012000,1.002000,192.000000,0.000000,0.000000,0.000000,0.000000,0.000000,0.000000,0.000000,0.000000,0.000000,1772011866.444549,0.000000
194.000000,9437.755875,10305.182374,6244.809180,12649.455684,11172.564169,12710.833575,-9941.921823,-17943.220489,11468.747135,10477.156696,9805.397368,6290.786718,9451.770419,16126.358941,9824.262240,7360.787077,0.004000,-0.012000,1.002000,192.000000,0.000000,0.000000,0.000000,0.000000,0.000000,0.000000,0.000000,0.000000,0.000000,1772011866.444561,0.000000
196.000000,9417.773416,10273.420545,6220.646944,12639.956193,11147.865492,12665.079554,-9963.893588,-17971.160170,11451.312775,10467.813667,9784.140859,6274.291131,9434.671335,16107.382310,9813.980438,7353.790981,0.004000,-0.014000,1.006000,192.000000,0.000000,16.000000,127.500000,72.000000,15.500000,56.000000,0.000000,0.000000,0.000000,1772011866.444573,0.000000
198.000000,9436.146550,10312.379636,6235.130875,12664.654871,11176.833353,12704.351569,-9937.987916,-17943.131082,11455.939586,10470.674690,9780.586932,6272.257122,9441.510968,16098.799240,9816.103854,7359.088344,0.004000,-0.014000,1.006000,192.000000,0.000000,0.000000,0.000000,0.000000,0.000000,0.000000,0.000000,0.000000,0.000000,1772011866.444585,0.000000
200.000000,9415.940573,10284.395252,6232.739238,12643.465417,11148.983079,12671.718022,-9960.630233,-17965.415772,11455.447847,10471.792277,9789.885257,6285.511707,9444.371992,16106.443537,9815.790929,7358.440144,0.004000,-0.014000,1.006000,192.000000,0.000000,0.000000,0.000000,0.000000,0.000000,0.000000,0.000000,0.000000,0.000000,1772011866.444596,0.000000
202.000000,9433.710210,10290.989016,6234.594433,12642.481940,11165.545722,12685.084365,-9953.880007,-17953.368181,11445.478969,10452.748591,9775.334272,6264.501067,9424.255422,16088.584493,9809.957124,7353.008670,0.004000,-0.014000,1.006000,192.000000,0.000000,0.000000,0.000000,0.000000,0.000000,0.000000,0.000000,0.000000,0.000000,1772011866.444610,0.000000
204.000000,9442.650907,10300.063825,6242.417543,12661.167998,11169.904312,12686.537228,-9944.425219,-17941.968792,11475.296196,10479.660091,9805.799700,6300.465024,9461.761649,16110.846831,9822.496453,7359.311862,0.004000,-0.014000,1.006000,192.000000,0.000000,0.000000,0.000000,0.000000,0.000000,0.000000,0.000000,0.000000,0.000000,1772011866.444622,0.000000
206.000000,9431.005648,10297.247505,6224.469092,12632.513062,11154.638070,12679.652891,-9967.380460,-17967.427429,11453.503246,10456.838960,9787.337159,6271.944198,9437.822931,16102.129650,9815.410950,7357.255501,0.004000,-0.016000,1.004000,192.000000,0.000000,16.000000,127.500000,64.000000,15.500000,48.000000,0.000000,0.000000,0.000000,1772011866.444633,0.000000
208.000000,9446.763628,10301.673150,6250.777096,12670.555731,11177.190981,12712.353493,-9938.747876,-17942.840510,11466.288443,10477.201399,9794.042682,6284.908209,9447.948271,16111.316217,9819.724836,7367.380842,0.004000,-0.016000,1.004000,192.000000,0.000000,0.000000,0.000000,0.000000,0.000000,0.000000,0.000000,0.000000,0.000000,1772011866.444645,0.000000
210.000000,9434.313707,10286.764537,6228.760627,12643.733638,11163.444658,12685.330234,-9961.099620,-17965.773400,11470.825847,10479.101298,9801.619923,6283.723567,9455.234939,16116.323008,9821.110644,7362.396403,0.004000,-0.016000,1.004000,192.000000,0.000000,0.000000,0.000000,0.000000,0.000000,0.000000,0.000000,0.000000,0.000000,1772011866.924307,0.000000
212.000000,9438.538186,10312.066711,6244.071572,12648.896891,11170.731326,12689.487659,-9953.544730,-17957.212681,11465.841408,10467.791315,9781.793926,6262.221189,9452.999765,16093.457174,9815.098025,7357.076687,0.004000,-0.016000,1.004000,192.000000,0.000000,0.000000,0.000000,0.000000,0.000000,0.000000,0.000000,0.000000,0.000000,1772011866.924380,0.000000
214.000000,9450.675184,10313.877203,6240.741162,12658.686955,11170.664271,12705.044473,-9944.291108,-17945.679181,11471.138772,10483.795164,9804.592705,6297.894573,9452.798599,16116.412415,9826.139787,7358.104868,0.004000,-0.016000,1.004000,192.000000,0.000000,0.000000,0.000000,0.000000,0.000000,0.000000,0.000000,0.000000,0.000000,1772011866.924436,0.000000
216.000000,9428.502253,10284.976397,6221.541014,12640.582042,11146.479684,12683.765612,-9966.709908,-17975.742278,11464.567359,10475.525019,9782.039795,6277.710948,9443.813198,16121.329799,9810.135938,7360.652967,0.002000,-0.020000,1.004000,192.000000,0.000000,8.000000,127.500000,48.000000,15.500000,48.000000,0.000000,0.000000,0.000000,1772011866.924497,0.000000
218.000000,9445.735448,10311.016179,6254.867465,12655.401248,11178.800306,12716.913249,-9937.362067,-17945.098036,11453.056211,10477.380213,9785.616074,6275.207552,9435.677163,16113.149060,9815.723874,7359.378917,0.002000,-0.020000,1.004000,192.000000,0.000000,0.000000,0.000000,0.000000,0.000000,0.000000,0.000000,0.000000,0.000000,1772011866.924554,0.000000
220.000000,9420.209756,10290.743147,6224.513796,12646.125274,11153.162855,12676.724813,-9960.406716,-17971.830722,11452.810341,10478.475449,9793.662702,6287.366901,9440.773361,16116.948857,9819.814243,7356.093211,0.002000,-0.020000,1.004000,192.000000,0.000000,0.000000,0.000000,0.000000,0.000000,0.000000,0.000000,0.000000,0.000000,1772011866.924577,0.000000
222.000000,9424.523643,10290.921961,6228.760627,12653.300184,11156.694431,12687.766574,-9953.589434,-17964.722868,11437.834673,10455.542559,9766.103001,6260.343642,9421.215584,16075.531074,9805.889106,7359.334214,0.002000,-0.020000,1.004000,192.000000,0.000000,0.000000,0.000000,0.000000,0.000000,0.000000,0.000000,0.000000,0.000000,1772011866.924600,0.000000
224.000000,9431.363276,10286.630426,6239.690630,12655.311841,11162.394126,12693.332159,-9944.447570,-17957.726772,11452.385658,10481.850562,9794.981455,6285.265837,9442.762666,16111.942066,9816.752054,7360.608263,0.002000,-0.020000,1.004000,192.000000,0.000000,0.000000,0.000000,0.000000,0.000000,0.000000,0.000000,0.000000,0.000000,1772011866.924622,0.000000
226.000000,9418.063988,10284.328197,6216.489520,12634.859995,11145.630317,12658.306975,-9966.575797,-17975.585815,11442.148559,10454.648489,9773.702594,6267.563256,9426.155320,16084.807048,9807.341970,7353.053373,0.002000,-0.016000,1.006000,192.000000,0.000000,8.000000,127.500000,64.000000,15.500000,56.000000,0.000000,0.000000,0.000000,1772011866.924645,0.000000
228.000000,9446.674221,10315.777101,6243.289261,12658.664603,11175.134620,12705.111528,-9939.105503,-17942.862861,11451.245719,10467.590149,9782.933865,6276.012215,9436.571233,16108.946932,9812.058188,7357.680185,0.002000,-0.016000,1.006000,192.000000,0.000000,0.000000,0.000000,0.000000,0.000000,0.000000,0.000000,0.000000,0.000000,1772011866.924668,0.000000
230.000000,9439.655774,10292.732452,6216.266002,12638.682144,11154.772181,12695.857906,-9961.814876,-17961.571272,11461.549874,10483.817516,9798.200106,6286.651645,9447.635346,16133.153872,9813.198127,7362.374051,0.002000,-0.016000,1.006000,192.000000,0.000000,0.000000,0.000000,0.000000,0.000000,0.000000,0.000000,0.000000,0.000000,1772011866.924690,0.000000
232.000000,9445.020192,10298.052168,6227.061895,12650.036830,11161.745925,12686.201952,-9954.259986,-17954.910452,11468.657728,10463.030393,9774.976644,6272.368881,9450.384611,16113.417281,9802.692807,7362.217589,0.002000,-0.016000,1.006000,192.000000,0.000000,0.000000,0.000000,0.000000,0.000000,0.000000,0.000000,0.000000,0.000000,1772011866.924713,0.000000
234.000000,9448.819989,10308.848060,6252.140552,12649.142760,11165.880998,12699.836516,-9943.933480,-17947.869652,11461.773391,10478.207228,9808.370150,6286.003445,9441.153340,16119.452252,9819.546022,7357.613129,0.002000,-0.016000,1.006000,192.000000,0.000000,0.000000,0.000000,0.000000,0.000000,0.000000,0.000000,0.000000,0.000000,1772011866.924735,0.000000
236.000000,9429.955117,10281.802449,6223.910299,12630.546109,11150.368887,12668.477019,-9967.022832,-17971.160170,11453.950280,10478.631911,9786.621903,6268.502029,9430.603317,16106.152964,9813.108720,7353.947443,0.002000,-0.016000,1.006000,192.000000,0.000000,0.000000,127.500000,56.000000,15.500000,72.000000,0.000000,0.000000,0.000000,1772011866.924757,0.000000
238.000000,9447.724753,10308.356322,6252.185256,12665.861865,11175.335786,12689.085327,-9938.300841,-17941.588812,11455.201978,10464.617367,9785.727833,6279.610846,9432.257346,16082.147191,9815.902688,7353.612167,0.002000,-0.016000,1.006000,192.000000,0.000000,0.000000,0.000000,0.000000,0.000000,0.000000,0.000000,0.000000,0.000000,1772011866.924779,0.000000
240.000000,9434.246651,10294.252371,6230.168787,12644.650059,11151.821751,12676.501295,-9959.646757,-17963.895853,11464.165028,10475.480315,9800.949371,6292.731320,9450.205797,16101.682615,9817.266144,7354.997975,0.002000,-0.016000,1.006000,192.000000,0.000000,0.000000,0.000000,0.000000,0.000000,0.000000,0.000000,0.000000,0.000000,1772011866.924801,0.000000
242.000000,9430.715076,10285.065804,6228.157130,12644.739466,11157.052059,12679.943464,-9955.198759,-17965.125199,11449.077600,10448.546463,9772.093269,6263.361128,9429.977468,16093.501877,9806.917287,7355.132086,0.002000,-0.016000,1.006000,192.000000,0.000000,0.000000,0.000000,0.000000,0.000000,0.000000,0.000000,0.000000,0.000000,1772011866.924824,0.000000
244.000000,9441.600375,10299.639142,6228.738276,12642.079609,11166.126867,12694.963836,-9945.051067,-17957.503254,11455.671365,10469.065364,9792.880391,6290.429090,9449.892873,16113.104357,9818.294325,7357.099039,0.002000,-0.016000,1.006000,192.000000,0.000000,0.000000,0.000000,0.000000,0.000000,0.000000,0.000000,0.000000,0.000000,1772011866.924846,0.000000
246.000000,9414.286544,10266.022118,6220.244613,12633.250670,11140.556471,12666.554769,-9967.425164,-17985.711156,11442.997926,10446.713620,9770.171019,6258.287282,9432.726733,16099.425089,9805.173851,7356.964929,0.002000,-0.012000,1.006000,192.000000,0.000000,8.000000,127.500000,96.000000,15.500000,56.000000,0.000000,0.000000,0.000000,1772011866.924868,0.000000
248.000000,9433.062009,10290.005540,6236.896662,12653.635461,11169.278463,12691.745185,-9941.340678,-17959.358449,11436.202995,10460.191722,9775.736603,6264.523418,9429.083398,16084.918807,9812.013484,7351.958138,0.002000,-0.012000,1.006000,192.000000,0.000000,0.000000,0.000000,0.000000,0.000000,0.000000,0.000000,0.000000,0.000000,1772011866.924891,0.000000
250.000000,9414.554765,10267.631443,6224.402037,12630.009667,11145.138579,12672.098001,-9962.418373,-17980.883179,11441.120379,10464.349146,9783.269141,6266.602131,9443.097942,16106.667054,9812.304057,7354.148609,0.002000,-0.012000,1.006000,192.000000,0.000000,0.000000,0.000000,0.000000,0.000000,0.000000,0.000000,0.000000,0.000000,1772011866.924916,0.000000
252.000000,9424.680105,10283.076499,6227.687744,12638.436274,11149.251300,12679.697595,-9954.952890,-17968.187388,11427.150539,10436.945908,9768.628748,6251.626462,9416.544070,16088.249217,9804.078615,7346.101981,0.002000,-0.012000,1.006000,192.000000,0.000000,0.000000,0.000000,0.000000,0.000000,0.000000,0.000000,0.000000,0.000000,1772011866.924938,0.000000
254.000000,9428.502253,10289.066766,6233.767418,12654.149551,11155.286271,12687.364243,-9945.431047,-17957.503254,11439.466350,10469.378289,9791.762804,6288.596247,9444.036716,16113.037302,9810.381807,7353.835685,0.002000,-0.012000,1.006000,192.000000,0.000000,0.000000,0.000000,0.000000,0.000000,0.000000,0.000000,0.000000,0.000000,1772011866.924960,0.000000
0.000000,9423.406055,10272.906455,6217.942383,12636.223452,11128.665343,12657.591719,-9968.006309,-17976.546940,11433.252565,10457.934196,9774.998996,6268.345567,9415.784111,16094.239485,9803.296304,7349.521798,0.002000,-0.013000,1.008000,192.000000,0.000000,8.000000,127.500000,72.000000,15.500000,72.000000,0.000000,0.000000,0.000000,1772011866.924982,0.000000
2.000000,9455.749030,10310.010351,6248.005479,12659.379859,11154.906291,12691.320502,-9939.261966,-17940.940611,11454.643185,10469.355937,9791.405176,6273.799392,9437.755875,16107.494069,9804.369188,7352.047545,0.002000,-0.013000,1.008000,192.000000,0.000000,0.000000,0.000000,0.000000,0.000000,0.000000,0.000000,0.000000,0.000000,1772011866.925004,0.000000
4.000000,9437.174730,10300.443804,6228.179482,12645.812350,11140.020030,12675.540170,-9960.630233,-17960.744257,11449.837559,10484.219847,9805.307961,6294.810032,9441.108637,16118.044092,9806.827880,7352.092248,0.002000,-0.013000,1.008000,192.000000,0.000000,0.000000,0.000000,0.000000,0.000000,0.000000,0.000000,0.000000,0.000000,1772011866.925027,0.000000
6.000000,9438.471131,10293.090080,6231.241671,12646.572309,11155.062754,12669.684013,-9954.662318,-17957.547958,11440.919213,10454.044992,9779.379938,6264.523418,9428.390494,16077.319214,9801.932848,7347.353679,0.002000,-0.013000,1.008000,192.000000,0.000000,0.000000,0.000000,0.000000,0.000000,0.000000,0.000000,0.000000,0.000000,1772011866.925049,0.000000
8.000000,9443.544977,10301.404929,6237.053125,12656.116504,11161.209483,12692.013406,-9943.441742,-17946.126216,11453.257376,10475.413260,9802.446938,6292.776023,9448.216492,16119.116976,9814.069845,7353.075725,0.002000,-0.013000,1.008000,192.000000,0.000000,0.000000,0.000000,0.000000,0.000000,0.000000,0.000000,0.000000,0.000000,1772011866.925071,0.000000
10.000000,9426.602355,10283.478830,6203.570211,12633.921222,11145.742076,12669.192275,-9968.989786,-17972.970661,11443.199091,10459.364707,9777.480039,6272.882971,9438.068800,16108.075214,9804.391540,7355.780286,0.002000,-0.014500,1.012000,192.000000,0.000000,8.000000,127.500000,64.000000,15.500000,96.000000,0.000000,0.000000,0.000000,1772011866.925093,0.000000
12.000000,9445.154303,10307.462252,6251.268834,12650.528568,11170.150181,12701.512897,-9939.798408,-17942.840510,11438.840501,10460.147018,9782.687996,6271.675977,9426.088265,16102.420223,9812.013484,7356.249673,0.002000,-0.014500,1.012000,192.000000,0.000000,0.000000,0.000000,0.000000,0.000000,0.000000,0.000000,0.000000,0.000000,1772011866.925115,0.000000
14.000000,9429.821006,10291.279589,6230.213491,12633.585946,11151.665288,12674.914321,-9959.467943,-17961.504216,11449.345821,10474.139210,9802.603400,6288.998579,9442.427390,16109.349264,9818.093159,7349.924129,0.002000,-0.014500,1.012000,192.000000,0.000000,0.000000,0.000000,0.000000,0.000000,0.000000,0.000000,0.000000,0.000000,1772011866.925138,0.000000
16.000000,9437.174730,10290.787851,6225.340810,12637.922184,11152.849931,12672.477981,-9955.064649,-17960.945423,11435.353629,10456.816609,9774.127278,6254.778058,9428.658715,16082.750688,9806.917287,7352.807504,0.002000,-0.014500,1.012000,192.000000,0.000000,0.000000,0.000000,0.000000,0.000000,0.000000,0.000000,0.000000,0.000000,1772011866.925160,0.000000
18.000000,9437.822931,10287.993883,6231.733409,12658.821065,11161.298890,12680.591664,-9945.207530,-17958.307917,11439.265184,10458.560045,9793.238019,6287.880991,9447.612995,16090.663205,9812.214650,7350.617033,0.002000,-0.014500,1.012000,192.000000,0.000000,0.000000,0.000000,0.000000,0.000000,0.000000,0.000000,0.000000,0.000000,1772011866.925217,0.000000
20.000000,9410.978485,10280.863676,6215.796616,12626.791015,11141.025858,12658.955176,-9971.962568,-17988.371013,11428.245774,10445.931309,9768.964025,6261.863561,9417.348733,16081.163714,9806.045569,7351.242882,0.004000,-0.014250,1.013000,192.000000,0.000000,24.000000,127.500000,72.000000,15.500000,88.000000,0.000000,0.000000,0.000000,1772011866.925228,0.000000
22.000000,9438.828759,10294.721758,6242.886930,12652.160245,11169.658443,12696.975493,-9943.821722,-17954.731638,11436.985306,10461.398716,9777.547095,6267.272683,9428.412846,16108.991636,9811.499394,7354.170961,0.004000,-0.014250,1.013000,192.000000,0.000000,0.000000,0.000000,0.000000,0.000000,0.000000,0.000000,0.000000,0.000000,1772011866.925240,0.000000
24.000000,9421.304991,10277.846191,6225.340810,12638.257460,11151.441771,12681.128106,-9962.798353,-17976.613996,11438.751094,10464.103277,9787.761842,6281.711910,9439.074628,16101.503802,9814.650990,7356.115562,0.004000,-0.014250,1.013000,192.000000,0.000000,0.000000,0.000000,0.000000,0.000000,0.000000,0.000000,0.000000,0.000000,1772011866.925251,0.000000
26.000000,9420.634439,10272.705289,6225.050238,12637.653963,11159.711916,12675.026080,-9959.177370,-17975.675222,11431.844405,10439.248137,9763.309033,6255.158038,9428.345791,16086.908112,9806.716121,7351.399344,0.004000,-0.014250,1.013000,192.000000,0.000000,0.000000,0.000000,0.000000,0.000000,0.000000,0.000000,0.000000,0.000000,1772011866.925264,0.000000
28.000000,9433.017305,10283.478830,6229.945270,12649.165112,11161.611815,12689.331196,-9948.359126,-17966.667469,11442.148559,10460.996385,9787.426566,6277.755651,9445.780152,16093.144249,9816.036798,7350.617033,0.004000,-0.014250,1.013000,192.000000,0.000000,0.000000,0.000000,0.000000,0.000000,0.000000,0.000000,0.000000,0.000000,1772011866.925281,0.000000
30.000000,9409.480919,10273.152324,6201.804424,12631.239013,11148.021954,12668.812295,-9974.488315,-17994.696557,11431.486777,10452.525074,9760.671527,6259.337814,9432.480864,16095.737051,9805.151499,7351.801676,0.003000,-0.012125,1.008500,192.000000,0.000000,8.000000,127.500000,88.000000,15.500000,48.000000,0.000000,0.000000,0.000000,1772011866.925292,0.000000
32.000000,9438.784056,10300.890839,6250.441819,12650.707382,11173.771164,12703.748072,-9945.274585,-17959.917243,11436.784141,10456.816609,9769.567522,6265.842171,9430.223337,16099.738014,9813.220479,7352.204007,0.003000,-0.012125,1.008500,192.000000,0.000000,0.000000,0.000000,0.000000,0.000000,0.000000,0.000000,0.000000,0.000000,1772011866.925304,0.000000
34.000000,9423.093131,10286.965702,6233.163921,12629.428521,11152.157027,12677.395365,-9963.111277,-17977.306900,11446.194225,10470.518228,9793.238019,6273.061785,9444.886082,16109.170450,9819.233098,7354.953272,0.003000,-0.012125,1.008500,192.000000,0.000000,0.000000,0.000000,0.000000,0.000000,0.000000,0.000000,0.000000,0.000000,1772011866.925315,0.000000
36.000000,9416.991105,10266.938539,6225.631383,12643.957155,11146.993774,12683.229170,-9959.065611,-17978.335080,11432.783178,10445.372515,9767.958196,6259.650738,9425.507119,16090.618502,9807.967819,7346.370202,0.003000,-0.012125,1.008500,192.000000,0.000000,0.000000,0.000000,0.000000,0.000000,0.000000,0.000000,0.000000,0.000000,1772011866.925326,0.000000
38.000000,9424.456587,10276.438031,6232.962755,12648.293394,11158.840198,12690.828763,-9949.834341,-17970.199045,11434.683077,10454.983765,9780.184600,6279.588494,9436.548881,16094.038319,9811.231173,7358.931882,0.003000,-0.012125,1.008500,192.000000,0.000000,0.000000,0.000000,0.000000,0.000000,0.000000,0.000000,0.000000,0.000000,1772011866.925338,0.000000
40.000000,9413.034846,10263.228150,6211.616839,12623.684123,11140.556471,12664.476057,-9973.795411,-17991.589664,11429.720989,10444.590204,9765.007766,6257.683785,9425.261250,16088.718604,9806.961990,7352.919263,0.003500,-0.008063,1.009250,192.000000,0.000000,16.000000,127.500000,112.000000,15.500000,72.000000,0.000000,0.000000,0.000000,1772011866.925349,0.000000
42.000000,9445.511931,10297.448671,6238.617747,12654.194254,11170.865437,12693.309807,-9944.760495,-17954.172844,11435.331277,10455.900187,9772.540304,6265.149267,9430.983297,16096.675825,9812.259354,7353.388650,0.003500,-0.008063,1.009250,192.000000,0.000000,0.000000,0.000000,0.000000,0.000000,0.000000,0.000000,0.000000,0.000000,1772011866.925360,0.000000
44.000000,9438.292317,10297.158098,6215.528395,12633.630649,11162.774105,12688.191257,-9962.284262,-17966.801580,11451.446885,10466.874894,9792.433356,6281.913076,9451.770419,16116.881802,9817.109682,7353.858036,0.003500,-0.008063,1.009250,192.000000,0.000000,0.000000,0.000000,0.000000,0.000000,0.000000,0.000000,0.000000,0.000000,1772011866.925371,0.000000
46.000000,9417.236974,10287.837420,6221.786883,12649.075705,11160.293062,12688.124202,-9959.557350,-17972.143647,11447.691792,10455.028469,9766.125353,6267.496201,9439.544015,16092.160772,9808.191336,7356.003804,0.003500,-0.008063,1.009250,192.000000,0.000000,0.000000,0.000000,0.000000,0.000000,0.000000,0.000000,0.000000,0.000000,1772011866.925383,0.000000
48.000000,9426.580003,10278.449688,6246.776133,12648.382801,11168.607911,12696.215534,-9949.253195,-17966.198083,11430.637411,10467.344280,9785.079632,6279.923770,9426.557651,16098.352206,9822.742322,7355.847342,0.003500,-0.008063,1.009250,192.000000,0.000000,0.000000,0.000000,0.000000,0.000000,0.000000,0.000000,0.000000,0.000000,1772011866.925394,0.000000
50.000000,9414.152433,10270.134839,6218.836453,12625.539318,11149.407762,12676.031909,-9974.801239,-17986.493467,11428.089312,10446.087771,9770.618054,6263.070555,9417.840471,16088.763307,9812.907554,7352.382821,0.003750,-0.008031,1.008625,192.000000,0.000000,16.000000,127.500000,96.000000,15.500000,64.000000,0.000000,0.000000,0.000000,1772011866.925405,0.000000
52.000000,9438.627593,10289.603208,6241.434066,12643.666583,11172.541818,12701.132918,-9949.566120,-17957.883234,11438.684039,10459.431763,9778.284702,6264.992805,9431.564442,16101.615560,9814.852156,7352.271062,0.003750,-0.008031,1.008625,192.000000,0.000000,0.000000,0.000000,0.000000,0.000000,0.000000,0.000000,0.000000,0.000000,1772011866.925417,0.000000
54.000000,9427.116445,10287.837420,6223.999706,12635.195271,11149.340707,12670.220455,-9965.033527,-17967.494484,11439.667516,10464.237388,9792.254542,6282.360111,9435.475997,16106.018854,9813.622810,7352.740449,0.003750,-0.008031,1.008625,192.000000,0.000000,0.000000,0.000000,0.000000,0.000000,0.000000,0.000000,0.000000,0.000000,1772011866.925428,0.000000
56.000000,9432.771436,10297.538078,6225.430217,12641.990202,11155.174512,12680.949292,-9960.809047,-17963.672336,11429.341010,10460.571702,9772.585007,6266.736241,9419.270983,16088.808011,9804.145670,7348.672432,0.003750,-0.008031,1.008625,192.000000,0.000000,0.000000,0.000000,0.000000,0.000000,0.000000,0.000000,0.000000,0.000000,1772011866.925439,0.000000
58.000000,9440.035753,10302.500165,6226.436046,12652.182597,11161.209483,12708.687807,-9949.811989,-17954.821045,11444.473141,10472.909865,9790.891086,6290.540849,9437.085323,16113.529040,9814.583935,7356.316728,0.003750,-0.008031,1.008625,192.000000,0.000000,0.000000,0.000000,0.000000,0.000000,0.000000,0.000000,0.000000,0.000000,1772011866.925452,0.000000
60.000000,9430.491558,10280.506048,6204.844261,12633.831815,11140.578823,12676.277778,-9971.314367,-17976.569292,11435.487740,10457.621271,9774.529609,6270.938369,9428.234032,16107.359959,9804.056263,7355.087382,0.003750,-0.008031,1.008625,192.000000,0.000000,0.000000,0.000000,0.000000,0.000000,0.000000,0.000000,0.000000,0.000000,1772011866.925463,0.000000
62.000000,9446.942442,10304.869450,6248.407811,12649.120408,11169.211408,12706.832612,-9944.760495,-17947.310859,11447.378868,10472.261664,9780.966911,6276.705119,9440.214567,16102.487278,9807.811357,7352.047545,0.002000,-0.010000,1.010000,192.000000,0.000000,8.000000,127.500000,88.000000,15.500000,72.000000,0.000000,0.000000,0.000000,1772011866.925475,0.000000
64.000000,9439.566367,10294.498240,6227.687744,12638.011591,11144.132751,12684.614978,-9965.726431,-17967.248615,11450.441057,10482.141135,9804.033912,6290.093814,9449.423486,16118.759348,9812.482871,7350.058240,0.002000,-0.010000,1.010000,192.000000,0.000000,0.000000,0.000000,0.000000,0.000000,0.000000,0.000000,0.000000,0.000000,1772011866.925486,0.000000
66.000000,9438.739352,10301.583743,6231.889872,12632.244841,11144.915062,12678.177676,-9960.876103,-17964.633461,11432.671420,10459.431763,9773.121449,6259.002538,9407.849241,16078.101525,9800.882316,7351.131123,0.002000,-0.010000,1.010000,192.000000,0.000000,0.000000,0.000000,0.000000,0.000000,0.000000,0.000000,0.000000,0.000000,1772011866.925497,0.000000
68.000000,9445.757800,10306.299961,6239.824741,12643.890100,11158.326108,12683.117412,-9947.733277,-17953.569347,11449.658745,10477.179048,9801.664627,6285.891686,9434.648983,16110.958589,9814.650990,7347.934824,0.002000,-0.010000,1.010000,192.000000,0.000000,0.000000,0.000000,0.000000,0.000000,0.000000,0.000000,0.000000,0.000000,1772011866.925508,0.000000
70.000000,9424.255422,10277.846191,6215.617802,12622.432425,11140.377657,12666.308900,-9975.292978,-17985.219417,11434.638373,10452.569777,9777.860019,6263.539942,9420.522680,16088.964473,9804.592705,7347.040754,0.002000,-0.010000,1.010000,192.000000,0.000000,0.000000,0.000000,0.000000,0.000000,0.000000,0.000000,0.000000,0.000000,1772011866.925519,0.000000
72.000000,9446.361297,10307.126976,6242.037564,12644.068914,11174.262902,12701.378787,-9949.856693,-17960.900719,11444.897824,10475.435612,9779.759917,6263.159962,9435.006611,16098.575723,9813.600458,7348.493618,0.002000,-0.010000,1.012000,192.000000,0.000000,8.000000,127.500000,88.000000,15.500000,80.000000,0.000000,0.000000,0.000000,1772011866.925530,0.000000
74.000000,9426.714114,10284.931694,6214.187290,12638.570385,11156.582672,12690.694653,-9967.291053,-17979.542074,11444.562548,10465.757306,9781.458650,6279.342625,9447.501236,16110.220982,9813.399293,7355.221493,0.002000,-0.010000,1.012000,192.000000,0.000000,0.000000,0.000000,0.000000,0.000000,0.000000,0.000000,0.000000,0.000000,1772011867.405181,0.000000
76.000000,9415.471186,10282.495354,6233.588604,12630.143777,11160.807152,12687.051319,-9965.592321,-17980.212626,11434.079580,10456.257815,9764.337214,6251.872331,9427.988163,16094.083022,9809.599496,7350.237054,0.002000,-0.010000,1.012000,192.000000,0.000000,0.000000,0.000000,0.000000,0.000000,0.000000,0.000000,0.000000,0.000000,1772011867.405252,0.000000
78.000000,9431.005648,10287.099813,6230.973450,12651.400286,11167.289158,12696.640217,-9951.443666,-17964.164074,11443.802588,10477.380213,9786.331330,6279.074404,9440.482788,16115.563049,9819.098987,7354.238016,0.002000,-0.010000,1.012000,192.000000,0.000000,0.000000,0.000000,0.000000,0.000000,0.000000,0.000000,0.000000,0.000000,1772011867.405304,0.000000
80.000000,9414.778282,10277.533266,6215.371932,12630.389646,11136.957841,12661.995013,-9974.108335,-17985.554693,11438.505225,10465.042050,9773.076746,6266.244503,9432.279698,16091.043185,9804.972685,7350.818199,0.002000,-0.010000,1.012000,192.000000,0.000000,0.000000,0.000000,0.000000,0.000000,0.000000,0.000000,0.000000,0.000000,1772011867.405357,0.000000
82.000000,9437.062971,10288.127993,6240.160017,12646.505254,11163.578768,12694.114470,-9945.989841,-17957.682068,11435.934774,10457.442457,9779.983435,6264.836343,9430.536262,16088.316272,9805.173851,7345.677298,0.004000,-0.014000,1.014000,192.000000,0.000000,16.000000,127.500000,72.000000,15.500000,88.000000,0.000000,0.000000,0.000000,1772011867.405404,0.000000
84.000000,9426.669410,10275.119278,6230.951098,12624.734655,11150.838274,12661.212702,-9964.117105,-17972.724792,11433.565489,10460.303481,9790.622865,6268.546732,9423.830739,16109.662188,9814.561583,7348.270100,0.004000,-0.014000,1.014000,192.000000,0.000000,0.000000,0.000000,0.000000,0.000000,0.000000,0.000000,0.000000,0.000000,1772011867.405456,0.000000
86.000000,9433.196119,10297.158098,6220.021095,12635.284678,11154.079277,12678.870580,-9961.747821,-17961.325402,11432.380847,10449.239367,9771.757993,6255.649776,9417.728712,16075.933406,9806.291438,7345.319670,0.004000,-0.014000,1.014000,192.000000,0.000000,0.000000,0.000000,0.000000,0.000000,0.000000,0.000000,0.000000,0.000000,1772011867.405472,0.000000
88.000000,9447.612995,10303.126014,6243.222206,12648.673373,11166.015108,12713.851060,-9946.816855,-17946.729713,11446.283632,10478.721318,9794.959103,6287.165736,9438.851111,16107.158793,9812.907554,7356.003804,0.004000,-0.014000,1.014000,192.000000,0.000000,0.000000,0.000000,0.000000,0.000000,0.000000,0.000000,0.000000,0.000000,1772011867.405489,0.000000
90.000000,9420.835605,10278.896723,6214.209642,12630.836681,11141.048210,12676.322481,-9973.504838,-17976.234016,11438.035838,10472.261664,9782.263313,6274.939331,9425.350657,16114.713682,9806.425548,7350.661737,0.004000,-0.014000,1.014000,192.000000,0.000000,0.000000,0.000000,0.000000,0.000000,0.000000,0.000000,0.000000,0.000000,1772011867.405522,0.000000
92.000000,9452.440971,10316.224136,6243.579834,12649.410981,11169.300815,12694.025063,-9944.604033,-17944.829815,11434.437208,10465.600844,9778.441164,6273.575875,9423.875442,16090.864371,9805.933810,7354.975623,0.004000,-0.014000,1.014000,192.000000,0.000000,0.000000,127.500000,56.000000,15.500000,72.000000,0.000000,0.000000,0.000000,1772011867.405534,0.000000
94.000000,9436.526529,10284.395252,6227.598337,12639.173882,11157.052059,12680.368147,-9963.379498,-17964.164074,11453.659708,10475.614426,9798.043644,6295.972323,9442.069762,16105.705929,9814.874508,7356.383783,0.004000,-0.014000,1.014000,192.000000,0.000000,0.000000,0.000000,0.000000,0.000000,0.000000,0.000000,0.000000,0.000000,1772011867.405545,0.000000
96.000000,9435.677163,10295.705234,6219.864633,12646.684068,11162.885864,12691.521667,-9962.798353,-17967.136856,11435.107760,10461.622234,9767.019423,6266.043337,9428.770474,16098.910999,9806.291438,7358.060164,0.004000,-0.014000,1.014000,192.000000,0.000000,0.000000,0.000000,0.000000,0.000000,0.000000,0.000000,0.000000,0.000000,1772011867.405560,0.000000
98.000000,9442.628556,10299.326217,6245.792657,12656.541187,11168.943187,12700.216496,-9948.828512,-17954.195196,11447.289461,10478.833077,9797.037816,6286.495183,9442.650907,16122.760311,9816.215612,7356.607301,0.004000,-0.014000,1.014000,192.000000,0.000000,0.000000,0.000000,0.000000,0.000000,0.000000,0.000000,0.000000,0.000000,1772011867.405572,0.000000
100.000000,9429.217509,10284.059976,6216.288354,12632.758931,11154.056925,12667.426487,-9974.756536,-17981.598435,11435.621850,10459.655280,9779.446993,6267.406794,9423.182538,16098.933351,9805.911458,7353.589815,0.004000,-0.014000,1.014000,192.000000,0.000000,0.000000,0.000000,0.000000,0.000000,0.000000,0.000000,0.000000,0.000000,1772011867.405584,0.000000
102.000000,9447.277718,10304.198897,6239.131837,12656.228263,11175.492248,12695.924961,-9945.319288,-17950.082475,11443.713181,10464.550312,9781.346891,6269.910189,9430.513910,16085.075269,9809.711255,7353.276891,0.006000,-0.008000,1.012000,192.000000,0.000000,24.000000,127.500000,96.000000,15.500000,80.000000,0.000000,0.000000,0.000000,1772011867.405595,0.000000
104.000000,9428.524605,10281.981263,6209.962810,12644.560652,11150.570053,12684.570275,-9961.926635,-17969.126161,11446.060115,10475.279149,9789.058243,6290.674960,9441.958003,16113.886668,9808.794833,7357.389612,0.006000,-0.008000,1.012000,192.000000,0.000000,0.000000,0.000000,0.000000,0.000000,0.000000,0.000000,0.000000,0.000000,1772011867.405607,0.000000
106.000000,9428.882233,10291.480755,6224.603203,12643.979507,11155.420381,12684.927903,-9959.982033,-17971.763667,11427.262298,10467.567798,9763.309033,6263.428183,9418.667486,16092.965435,9798.110699,7354.617996,0.006000,-0.008000,1.012000,192.000000,0.000000,0.000000,0.000000,0.000000,0.000000,0.000000,0.000000,0.000000,0.000000,1772011867.405618,0.000000
108.000000,9444.260233,10313.921906,6241.814046,12654.887158,11171.312472,12702.742243,-9947.710925,-17958.665545,11443.422609,10492.668807,9793.841516,6286.137555,9433.598451,16125.822499,9816.662647,7356.719060,0.006000,-0.008000,1.012000,192.000000,0.000000,0.000000,0.000000,0.000000,0.000000,0.000000,0.000000,0.000000,0.000000,1772011867.405629,0.000000
110.000000,9427.876404,10282.383595,6222.502139,12629.540280,11151.262957,12673.416754,-9974.689481,-17984.526513,11435.688905,10468.461867,9776.004824,6267.518552,9427.608183,16098.754537,9809.331275,7356.584949,0.006000,-0.008000,1.012000,192.000000,0.000000,0.000000,0.000000,0.000000,0.000000,0.000000,0.000000,0.000000,0.000000,1772011867.405641,0.000000
112.000000,9450.205797,10313.251354,6250.084192,12646.035867,11182.398937,12716.376807,-9946.883911,-17953.971678,11447.803551,10474.943873,9780.117545,6264.769288,9438.582890,16111.472680,9814.025141,7358.954234,0.004000,-0.016000,1.004000,192.000000,0.000000,16.000000,127.500000,64.000000,15.500000,48.000000,0.000000,0.000000,0.000000,1772011867.405652,0.000000
114.000000,9428.234032,10296.420490,6225.877252,12641.632574,11157.856722,12684.547923,-9963.021870,-17976.211664,11447.468275,10480.688272,9791.695749,6284.371768,9448.775285,16128.281191,9819.680133,7354.752106,0.004000,-0.016000,1.004000,192.000000,0.000000,0.000000,0.000000,0.000000,0.000000,0.000000,0.000000,0.000000,0.000000,1772011867.405664,0.000000
116.000000,9431.966774,10285.870467,6211.125101,12639.352696,11161.231835,12688.481830,-9961.837228,-17976.748106,11426.591745,10448.188835,9758.235187,6251.447648,9426.870576,16098.575723,9802.983380,7358.551903,0.004000,-0.016000,1.004000,192.000000,0.000000,0.000000,0.000000,0.000000,0.000000,0.000000,0.000000,0.000000,0.000000,1772011867.405676,0.000000
118.000000,9436.303012,10292.196011,6245.345622,12646.460551,11173.391184,12697.668397,-9950.683707,-17963.225301,11446.909481,10475.547370,9787.426566,6282.270704,9448.261195,16103.135479,9814.382769,7359.893007,0.004000,-0.016000,1.004000,192.000000,0.000000,0.000000,0.000000,0.000000,0.000000,0.000000,0.000000,0.000000,0.000000,1772011867.405687,0.000000
120.000000,9418.488672,10270.760688,6216.131892,12630.747274,11158.549626,12678.937635,-9978.511629,-17987.856923,11429.810396,10461.197550,9774.194333,6262.020023,9428.479901,16087.109278,9811.454691,7356.003804,0.004000,-0.016000,1.004000,192.000000,0.000000,0.000000,0.000000,0.000000,0.000000,0.000000,0.000000,0.000000,0.000000,1772011867.405698,0.000000
122.000000,9445.578986,10297.336912,6241.746991,12657.792885,11179.336748,12703.502202,-9948.180312,-17953.032905,11449.949318,10462.628062,9777.748260,6265.864523,9438.404076,16126.202479,9816.260316,7358.015461,0.002000,-0.014000,1.002000,192.000000,0.000000,8.000000,127.500000,72.000000,15.500000,40.000000,0.000000,0.000000,0.000000,1772011867.405712,0.000000
124.000000,9431.899718,10288.619732,6227.128950,12642.526644,11159.734268,12683.542095,-9963.580664,-17964.879330,11442.774408,10467.344280,9793.327426,6283.947084,9438.426428,16100.319159,9816.550889,7357.836647,0.002000,-0.014000,1.002000,192.000000,0.000000,0.000000,0.000000,0.000000,0.000000,0.000000,0.000000,0.000000,0.000000,1772011867.405722,0.000000
126.000000,9436.660640,10303.371883,6222.993877,12641.029077,11159.868379,12679.831705,-9960.250254,-17961.906548,11437.477045,10456.369574,9772.741469,6263.070555,9421.707323,16081.789563,9804.168022,7353.165132,0.002000,-0.014000,1.002000,192.000000,0.000000,0.000000,0.000000,0.000000,0.000000,0.000000,0.000000,0.000000,0.000000,1772011867.405734,0.000000
128.000000,9433.799617,10292.263066,6236.695497,12648.516911,11169.032594,12686.358414,-9945.475751,-17951.892966,11440.919213,10471.121725,9795.003807,6283.187125,9446.093076,16111.673845,9812.594630,7355.288548,0.002000,-0.014000,1.002000,192.000000,0.000000,0.000000,0.000000,0.000000,0.000000,0.000000,0.000000,0.000000,0.000000,1772011867.405746,0.000000
130.000000,9416.208794,10280.394290,6217.472996,12629.629687,11147.351402,12673.170885,-9971.023795,-17979.586778,11429.162196,10447.674745,9778.239999,6263.495238,9415.918221,16092.853676,9806.984342,7352.673394,0.002000,-0.014000,1.002000,192.000000,0.000000,0.000000,0.000000,0.000000,0.000000,0.000000,0.000000,0.000000,0.000000,1772011867.405757,0.000000
132.000000,9448.171788,10293.403005,6235.354392,12648.248690,11176.475725,12698.763633,-9945.028716,-17945.500367,11441.165083,10457.107181,9778.843496,6266.356262,9434.537224,16110.980941,9811.566450,7353.031022,0.002000,-0.014000,1.006000,192.000000,0.000000,8.000000,127.500000,72.000000,15.500000,72.000000,0.000000,0.000000,0.000000,1772011867.405768,0.000000
134.000000,9424.635401,10278.784964,6240.227072,12636.357562,11155.576844,12667.068859,-9961.926635,-17969.662603,11447.132998,10463.991518,9795.227324,6278.716776,9435.654811,16110.645665,9818.026104,7350.795847,0.002000,-0.014000,1.006000,192.000000,0.000000,0.000000,0.000000,0.000000,0.000000,0.000000,0.000000,0.000000,0.000000,1772011867.405779,0.000000
136.000000,9433.553747,10284.462307,6230.258194,12637.765722,11161.656518,12690.828763,-9961.747821,-17966.600414,11432.649068,10440.745704,9768.114658,6251.022965,9423.227241,16072.781810,9809.197165,7345.587891,0.002000,-0.014000,1.006000,192.000000,0.000000,0.000000,0.000000,0.000000,0.000000,0.000000,0.000000,0.000000,0.000000,1772011867.405791,0.000000
138.000000,9436.839454,10300.086176,6238.953023,12652.875501,11176.565132,12695.589685,-9949.856693,-17958.218510,11444.450789,10469.154771,9790.153478,6288.104509,9443.299108,16108.321084,9819.635429,7358.216626,0.002000,-0.014000,1.006000,192.000000,0.000000,0.000000,0.000000,0.000000,0.000000,0.000000,0.000000,0.000000,0.000000,1772011867.405802,0.000000
140.000000,9418.175747,10285.088156,6211.438025,12633.317725,11149.966556,12679.094098,-9976.723489,-17988.348661,11433.520786,10468.774792,9772.003862,6264.031680,9426.110616,16109.885706,9811.678208,7361.703499,0.002000,-0.014000,1.006000,192.000000,0.000000,0.000000,0.000000,0.000000,0.000000,0.000000,0.000000,0.000000,0.000000,1772011867.405814,0.000000
142.000000,9436.012439,10294.230019,6240.607052,12648.203987,11174.464068,12710.922982,-9946.459227,-17959.447856,11432.023219,10464.572664,9772.808525,6266.378613,9426.803521,16110.288037,9810.001827,7359.647138,-0.001000,-0.015000,1.010000,192.000000,127.500000,112.000000,127.500000,64.000000,15.500000,88.000000,0.000000,0.000000,0.000000,1772011867.405825,0.000000
144.000000,9423.450759,10282.450650,6218.881156,12651.579100,11153.431076,12679.339967,-9961.770172,-17977.016327,11436.202995,10476.083812,9783.492659,6284.885858,9435.900681,16122.045055,9814.025141,7361.144705,-0.001000,-0.015000,1.010000,192.000000,0.000000,0.000000,0.000000,0.000000,0.000000,0.000000,0.000000,0.000000,0.000000,1772011867.405837,0.000000
146.000000,9425.954154,10286.205743,6220.423427,12647.332269,11157.744963,12686.537228,-9964.362975,-17978.536246,11422.322562,10456.771905,9755.396516,6261.796506,9415.426483,16089.925598,9799.563563,7356.294376,-0.001000,-0.015000,1.010000,192.000000,0.000000,0.000000,0.000000,0.000000,0.000000,0.000000,0.000000,0.000000,0.000000,1772011867.405848,0.000000
148.000000,9443.164997,10297.560429,6226.123122,12651.690859,11180.879018,12695.075595,-9953.120047,-17962.577100,11444.294327,10477.335510,9784.520839,6278.381500,9444.662564,16120.346322,9816.640296,7361.390574,-0.001000,-0.015000,1.010000,192.000000,0.000000,0.000000,0.000000,0.000000,0.000000,0.000000,0.000000,0.000000,0.000000,1772011867.405859,0.000000
150.000000,9430.335096,10289.089118,6213.919069,12625.405207,11156.537969,12675.361356,-9977.416393,-17984.504161,11448.272937,10467.701908,9775.870714,6266.535075,9447.098905,16103.738976,9814.002790,7363.402231,-0.001000,-0.015000,1.010000,192.000000,0.000000,0.000000,0.000000,0.000000,0.000000,0.000000,0.000000,0.000000,0.000000,1772011867.405870,0.000000
152.000000,9438.672297,10310.256220,6251.470000,12657.792885,11170.798382,12698.450708,-9947.129780,-17953.010553,11429.631582,10468.014832,9775.513086,6272.860619,9415.828814,16097.346377,9813.734569,7358.306033,0.000500,-0.013500,1.010000,192.000000,0.000000,8.000000,127.500000,80.000000,15.500000,72.000000,0.000000,0.000000,0.000000,1772011867.405882,0.000000
154.000000,9433.285526,10294.230019,6233.655659,12642.526644,11153.922815,12679.429374,-9960.540826,-17968.187388,11439.309888,10474.072155,9796.724891,6284.260009,9432.011477,16116.077139,9819.858947,7357.367260,0.000500,-0.013500,1.010000,192.000000,0.000000,0.000000,0.000000,0.000000,0.000000,0.000000,0.000000,0.000000,0.000000,1772011867.405895,0.000000
156.000000,9435.006611,10294.140612,6229.744104,12643.420713,11153.498131,12682.692728,-9959.132666,-17968.165036,11428.916327,10455.520207,9770.081612,6260.075421,9418.220451,16085.030566,9806.403197,7352.472228,0.000500,-0.013500,1.010000,192.000000,0.000000,0.000000,0.000000,0.000000,0.000000,0.000000,0.000000,0.000000,0.000000,1772011867.405906,0.000000
158.000000,9453.603262,10306.769348,6240.987032,12655.870635,11173.145315,12705.603266,-9944.268756,-17946.126216,11445.903652,10479.458926,9798.110699,6285.221134,9441.667431,16116.412415,9816.372075,7355.333251,0.000500,-0.013500,1.010000,192.000000,0.000000,0.000000,0.000000,0.000000,0.000000,0.000000,0.000000,0.000000,0.000000,1772011867.405918,0.000000
160.000000,9437.174730,10290.765499,6219.775226,12639.755027,11152.291137,12680.882237,-9970.353242,-17966.823932,11446.887129,10469.713565,9786.800717,6276.347491,9436.280660,16107.941104,9810.739435,7356.652004,0.000500,-0.013500,1.010000,192.000000,0.000000,0.000000,0.000000,0.000000,0.000000,0.000000,0.000000,0.000000,0.000000,1772011867.405929,0.000000
162.000000,9465.449687,10322.013238,6242.685764,12658.619900,11184.969388,12713.158156,-9942.726486,-17937.587850,11453.726763,10487.907885,9787.404214,6288.886820,9442.047410,16128.750578,9815.165080,7360.563560,0.001250,-0.012750,1.011000,192.000000,0.000000,8.000000,127.500000,80.000000,15.500000,80.000000,0.000000,0.000000,0.000000,1772011867.405940,0.000000
164.000000,9437.889986,10295.772290,6231.532244,12634.882347,11162.483533,12677.283606,-9962.038393,-17968.254443,11445.411914,10486.298559,9801.239944,6290.697311,9437.331192,16122.559145,9822.451749,7359.557731,0.001250,-0.012750,1.011000,192.000000,0.000000,0.000000,0.000000,0.000000,0.000000,0.000000,0.000000,0.000000,0.000000,1772011867.405951,0.000000
166.000000,9435.185425,10285.825763,6228.604165,12647.846359,11162.170608,12684.458516,-9961.345489,-17971.316632,11434.683077,10461.979861,9772.115621,6257.750840,9424.121311,16086.684595,9810.672380,7355.892045,0.001250,-0.012750,1.011000,192.000000,0.000000,0.000000,0.000000,0.000000,0.000000,0.000000,0.000000,0.000000,0.000000,1772011867.405963,0.000000
168.000000,9454.698498,10306.456424,6239.645927,12653.881330,11176.363966,12702.474022,-9944.358163,-17950.954193,11452.631527,10479.056594,9794.869696,6282.203648,9449.691707,16112.880839,9821.669438,7359.021289,0.001250,-0.012750,1.011000,192.000000,0.000000,0.000000,0.000000,0.000000,0.000000,0.000000,0.000000,0.000000,0.000000,1772011867.405974,0.000000
170.000000,9431.698553,10283.657644,6225.944308,12630.300239,11153.967518,12668.901702,-9969.660338,-17974.647042,11446.328336,10465.623196,9787.001882,6267.898532,9432.257346,16108.030511,9815.187432,7355.601472,0.001250,-0.012750,1.011000,192.000000,0.000000,0.000000,0.000000,0.000000,0.000000,0.000000,0.000000,0.000000,0.000000,1772011867.405986,0.000000
172.000000,9452.776248,10301.002598,6247.446686,12651.042658,11177.906236,12680.323443,-9944.000535,-17946.819120,11442.841463,10455.251986,9786.308978,6270.491334,9431.586794,16092.294883,9819.031932,7352.114600,0.001250,-0.012750,1.011000,192.000000,0.000000,0.000000,127.500000,56.000000,15.500000,64.000000,0.000000,0.000000,0.000000,1772011867.405997,0.000000
174.000000,9435.163073,10287.166868,6222.479787,12646.795827,11157.074411,12697.310769,-9961.144323,-17969.170865,11447.714144,10474.586245,9799.451804,6290.272628,9449.781114,16112.567915,9818.294325,7357.501371,0.001250,-0.012750,1.011000,192.000000,0.000000,0.000000,0.000000,0.000000,0.000000,0.000000,0.000000,0.000000,0.000000,1772011867.406008,0.000000
176.000000,9428.904585,10281.534229,6219.127026,12635.709362,11158.549626,12687.028967,-9966.173466,-17981.531379,11433.967821,10447.920614,9765.275987,6253.615767,9412.923087,16097.055804,9810.851194,7359.133048,0.001250,-0.012750,1.011000,192.000000,0.000000,0.000000,0.000000,0.000000,0.000000,0.000000,0.000000,0.000000,0.000000,1772011867.406020,0.000000
178.000000,9436.347715,10293.403005,6246.373802,12647.891062,11163.422306,12694.002711,-9946.347469,-17963.314708,11442.036801,10464.751478,9787.001882,6274.537000,9432.123236,16109.595133,9819.702485,7356.696708,0.001250,-0.012750,1.011000,192.000000,0.000000,0.000000,0.000000,0.000000,0.000000,0.000000,0.000000,0.000000,0.000000,1772011867.406031,0.000000
180.000000,9412.610163,10272.571179,6213.516738,12631.551937,11141.763466,12673.103830,-9970.733222,-17985.241769,11423.015466,10448.524111,9772.853228,6263.316424,9416.834643,16085.924636,9810.471214,7350.572330,0.001250,-0.012750,1.011000,192.000000,0.000000,0.000000,0.000000,0.000000,0.000000,0.000000,0.000000,0.000000,0.000000,1772011867.406043,0.000000
182.000000,9441.220396,10297.873354,6242.931633,12656.272966,11176.386318,12704.485679,-9944.380515,-17954.083437,11424.311867,10455.117876,9768.025251,6268.949064,9420.053294,16095.580589,9810.650028,7354.170961,0.001250,-0.012750,1.011000,192.000000,0.000000,0.000000,127.500000,72.000000,15.500000,48.000000,0.000000,0.000000,0.000000,1772011867.406054,0.000000
184.000000,9429.239861,10281.958912,6222.748008,12643.554824,11164.718707,12692.795717,-9965.346451,-17975.474057,11439.354591,10470.473524,9788.588856,6284.416471,9439.074628,16115.853621,9820.015409,7358.149571,0.001250,-0.012750,1.011000,192.000000,0.000000,0.000000,0.000000,0.000000,0.000000,0.000000,0.000000,0.000000,0.000000,1772011867.406065,0.000000
186.000000,9426.982334,10285.624598,6223.686781,12638.793902,11165.366908,12688.638292,-9967.894550,-17976.323423,11432.626716,10452.547425,9761.476190,6259.226055,9427.697590,16089.635025,9809.934772,7356.562597,0.001250,-0.012750,1.011000,192.000000,0.000000,0.000000,0.000000,0.000000,0.000000,0.000000,0.000000,0.000000,0.000000,1772011867.406079,0.000000
188.000000,9445.288413,10301.494336,6245.569139,12647.466379,11178.219161,12703.926886,-9947.934443,-17954.262251,11445.054286,10472.038147,9794.042682,6281.622503,9435.654811,16119.474604,9823.949316,7357.054336,0.001250,-0.012750,1.011000,192.000000,0.000000,0.000000,0.000000,0.000000,0.000000,0.000000,0.000000,0.000000,0.000000,1772011867.406092,0.000000
190.000000,9426.445893,10279.835496,6214.790787,12621.560707,11155.778009,12672.589740,-9972.588417,-17980.369089,11437.857024,10464.416202,9780.206952,6273.374709,9425.373009,16122.983828,9815.813281,7350.125295,0.001250,-0.012750,1.011000,192.000000,0.000000,0.000000,0.000000,0.000000,0.000000,0.000000,0.000000,0.000000,0.000000,1772011867.406108,0.000000
192.000000,9450.004631,10303.617752,6233.096866,12667.046507,11175.983986,12700.663531,-9947.062724,-17952.340001,11437.521748,10459.185893,9770.171019,6268.502029,9437.934689,16092.898380,9809.152461,7359.267158,-0.000375,-0.014375,1.008500,192.000000,127.500000,120.000000,127.500000,64.000000,15.500000,56.000000,0.000000,0.000000,0.000000,1772011867.406137,0.000000
194.000000,9429.821006,10291.614865,6235.533206,12641.051428,11162.215312,12669.125219,-9964.050050,-17967.606243,11435.867719,10473.535713,9793.573295,6285.444651,9433.486692,16104.029549,9819.724836,7355.310900,-0.000375,-0.014375,1.008500,192.000000,0.000000,0.000000,0.000000,0.000000,0.000000,0.000000,0.000000,0.000000,0.000000,1772011867.885523,0.000000
196.000000,9428.546957,10284.104679,6232.158093,12638.995068,11160.404820,12681.463382,-9964.273568,-17966.063972,11428.648106,10449.574643,9770.215722,6259.650738,9418.689837,16086.863409,9813.131072,7351.421696,-0.000375,-0.014375,1.008500,192.000000,0.000000,0.000000,0.000000,0.000000,0.000000,0.000000,0.000000,0.000000,0.000000,1772011867.885587,0.000000
198.000000,9456.486637,10312.357284,6242.797523,12650.506216,11172.318300,12690.448784,-9944.246405,-17941.477053,11445.277804,10474.876818,9801.262295,6292.060768,9437.331192,16126.113072,9821.244755,7351.824028,-0.000375,-0.014375,1.008500,192.000000,0.000000,0.000000,0.000000,0.000000,0.000000,0.000000,0.000000,0.000000,0.000000,1772011867.885634,0.000000
200.000000,9429.508082,10284.663473,6212.913241,12631.931917,11139.438884,12658.821065,-9971.113202,-17969.997879,11441.768580,10457.084829,9786.040757,6276.347491,9428.591660,16081.878970,9810.292400,7349.320632,-0.000375,-0.014375,1.008500,192.000000,0.000000,0.000000,0.000000,0.000000,0.000000,0.000000,0.000000,0.000000,0.000000,1772011867.885686,0.000000
202.000000,9446.920091,10298.566258,6240.763514,12658.508141,11162.170608,12693.958008,-9944.045239,-17947.176748,11431.151501,10460.504646,9779.357586,6275.855753,9416.901698,16086.729298,9805.799700,7351.980490,-0.000375,-0.014375,1.008500,192.000000,0.000000,0.000000,0.000000,0.000000,0.000000,0.000000,0.000000,0.000000,0.000000,1772011867.885729,0.000000
204.000000,9432.614974,10289.267932,6218.165900,12645.186501,11156.068582,12683.787964,-9961.121972,-17968.455609,11437.633507,10466.696080,9790.846382,6289.333855,9439.544015,16107.181145,9812.192298,7355.512065,0.006000,-0.008000,1.006000,192.000000,0.000000,24.000000,127.500000,96.000000,15.500000,56.000000,0.000000,0.000000,0.000000,1772011867.885772,0.000000
206.000000,9432.614974,10292.911266,6227.933613,12629.830853,11158.907254,12681.776307,-9964.139457,-17973.417696,11426.725856,10455.989594,9763.353737,6260.343642,9413.861860,16101.749671,9803.989208,7352.628690,0.006000,-0.008000,1.006000,192.000000,0.000000,0.000000,0.000000,0.000000,0.000000,0.000000,0.000000,0.000000,0.000000,1772011867.885791,0.000000
208.000000,9438.717000,10300.041473,6243.065744,12652.540225,11167.602082,12691.342853,-9944.045239,-17955.379838,11433.967821,10470.071193,9791.427528,6283.656512,9429.284564,16121.106281,9816.640296,7351.041716,0.006000,-0.008000,1.006000,192.000000,0.000000,0.000000,0.000000,0.000000,0.000000,0.000000,0.000000,0.000000,0.000000,1772011867.885803,0.000000
210.000000,9417.996933,10279.857848,6215.953078,12630.411998,11145.764428,12665.459533,-9972.297844,-17984.168885,11421.428492,10458.984728,9776.071879,6270.826610,9420.992067,16099.022758,9806.805528,7347.688955,0.006000,-0.008000,1.006000,192.000000,0.000000,0.000000,0.000000,0.000000,0.000000,0.000000,0.000000,0.000000,0.000000,1772011867.885816,0.000000
212.000000,9447.054201,10294.006502,6243.177503,12647.019344,11175.626358,12694.337987,-9947.643870,-17957.167978,11432.537309,10450.356954,9775.580141,6267.160924,9422.959020,16088.986825,9808.325447,7347.510141,0.006000,-0.008000,1.006000,192.000000,0.000000,0.000000,0.000000,0.000000,0.000000,0.000000,0.000000,0.000000,0.000000,1772011867.885828,0.000000
214.000000,9440.929823,10302.790737,6223.396209,12637.318687,11155.822713,12680.725775,-9961.345489,-17969.774362,11443.489664,10478.408394,9798.691845,6287.076329,9449.468189,16121.441558,9814.315714,7346.593719,0.004000,-0.010000,1.010000,192.000000,0.000000,16.000000,127.500000,88.000000,15.500000,72.000000,0.000000,0.000000,0.000000,1772011867.885841,0.000000
216.000000,9430.715076,10284.417604,6226.458398,12646.035867,11142.277556,12670.265158,-9965.145286,-17974.959967,11429.072789,10454.357917,9767.466458,6259.516628,9408.765663,16101.190877,9800.703502,7353.008670,0.004000,-0.010000,1.010000,192.000000,0.000000,0.000000,0.000000,0.000000,0.000000,0.000000,0.000000,0.000000,0.000000,1772011867.885853,0.000000
218.000000,9452.440971,10308.892764,6245.032697,12658.865769,11151.330012,12684.279702,-9944.626384,-17948.763722,11440.740399,10478.430745,9795.272028,6294.251239,9428.546957,16121.776834,9810.717083,7350.773496,0.004000,-0.010000,1.010000,192.000000,0.000000,0.000000,0.000000,0.000000,0.000000,0.000000,0.000000,0.000000,0.000000,1772011867.885872,0.000000
220.000000,9432.413808,10297.247505,6215.215470,12636.022286,11133.515672,12659.357507,-9969.123896,-17975.183484,11431.911460,10470.451173,9783.850286,6284.349416,9416.946401,16102.084947,9801.396406,7347.510141,0.004000,-0.010000,1.010000,192.000000,0.000000,0.000000,0.000000,0.000000,0.000000,0.000000,0.000000,0.000000,0.000000,1772011867.885885,0.000000
222.000000,9454.542035,10322.393217,6229.118255,12656.630594,11168.876132,12693.689787,-9945.699268,-17949.546033,11450.195187,10482.230542,9779.536400,6277.465079,9437.822931,16110.668017,9801.754034,7349.477094,0.004000,-0.010000,1.010000,192.000000,0.000000,0.000000,0.000000,0.000000,0.000000,0.000000,0.000000,0.000000,0.000000,1772011867.885897,0.000000
224.000000,9427.004686,10272.749993,6233.879177,12638.525681,11152.179379,12668.298205,-9962.463076,-17970.713135,11435.018353,10469.870027,9797.082519,6291.099643,9422.847262,16116.971209,9812.862851,7348.225397,0.004000,-0.010000,1.010000,192.000000,0.000000,0.000000,127.500000,72.000000,15.500000,72.000000,0.000000,0.000000,0.000000,1772011867.885910,0.000000
226.000000,9427.407018,10284.082327,6228.715924,12632.535414,11149.161893,12659.111638,-9967.581626,-17975.921092,11420.154443,10446.579510,9768.740507,6264.590474,9407.581020,16088.673900,9801.754034,7345.565539,0.004000,-0.010000,1.010000,192.000000,0.000000,0.000000,0.000000,0.000000,0.000000,0.000000,0.000000,0.000000,0.000000,1772011867.885922,0.000000
228.000000,9448.484713,10305.070615,6248.877197,12636.469321,11172.810039,12684.838496,-9945.699268,-17950.238937,11442.148559,10466.561969,9799.138880,6281.175468,9434.157244,16101.883781,9818.160214,7344.962042,0.004000,-0.010000,1.010000,192.000000,0.000000,0.000000,0.000000,0.000000,0.000000,0.000000,0.000000,0.000000,0.000000,1772011867.885934,0.000000
230.000000,9417.058160,10265.619786,6211.773302,12630.635516,11136.823730,12653.344888,-9968.229826,-17976.815161,11433.990173,10444.478446,9786.219571,6271.072480,9423.718980,16089.255046,9806.157327,7340.402286,0.004000,-0.010000,1.010000,192.000000,0.000000,0.000000,0.000000,0.000000,0.000000,0.000000,0.000000,0.000000,0.000000,1772011867.885946,0.000000
232.000000,9431.117407,10282.875333,6229.989973,12651.892025,11162.662347,12680.368147,-9945.498102,-17960.967775,11410.610248,10441.706829,9768.539342,6264.635177,9404.518831,16084.024737,9801.619923,7346.325498,0.004000,-0.010000,1.010000,192.000000,0.000000,0.000000,0.000000,0.000000,0.000000,0.000000,0.000000,0.000000,0.000000,1772011867.885958,0.000000
234.000000,9426.714114,10282.405947,6214.321400,12639.419751,11154.548663,12680.815182,-9961.971338,-17973.887083,11420.824995,10465.176161,9782.330368,6280.259047,9429.016343,16119.787528,9805.464423,7352.338118,0.002000,-0.012000,1.010000,192.000000,0.000000,8.000000,127.500000,80.000000,15.500000,72.000000,0.000000,0.000000,0.000000,1772011867.885971,0.000000
236.000000,9429.575137,10289.714967,6224.111465,12622.119501,11164.383431,12695.612037,-9968.140419,-17976.122257,11421.607306,10451.251024,9766.371222,6253.816933,9412.341942,16113.171412,9804.302133,7352.002841,0.002000,-0.012000,1.010000,192.000000,0.000000,0.000000,0.000000,0.000000,0.000000,0.000000,0.000000,0.000000,0.000000,1772011867.885983,0.000000
238.000000,9442.449742,10288.776194,6240.897625,12652.450818,11181.236646,12692.147516,-9947.956794,-17952.876443,11443.310850,10474.563894,9791.695749,6283.254180,9442.874425,16115.384235,9820.954182,7351.242882,0.002000,-0.012000,1.010000,192.000000,0.000000,0.000000,0.000000,0.000000,0.000000,0.000000,0.000000,0.000000,0.000000,1772011867.885994,0.000000
240.000000,9435.520701,10275.767478,6233.476845,12636.335210,11153.520483,12657.010574,-9972.342547,-17972.255405,11423.238984,10447.987669,9783.202086,6274.514648,9420.388570,16086.058746,9810.806490,7351.600510,0.002000,-0.012000,1.010000,192.000000,0.000000,0.000000,0.000000,0.000000,0.000000,0.000000,0.000000,0.000000,0.000000,1772011867.886006,0.000000
242.000000,9456.039602,10308.557488,6250.151247,12650.841493,11177.615664,12692.102813,-9947.487408,-17943.958097,11436.404161,10452.748591,9786.823068,6281.108413,9424.210718,16099.246275,9812.840499,7348.784190,0.002000,-0.012000,1.010000,192.000000,0.000000,0.000000,0.000000,0.000000,0.000000,0.000000,0.000000,0.000000,0.000000,1772011867.886019,0.000000
244.000000,9437.688820,10292.307769,6229.319421,12637.855129,11157.342632,12678.065917,-9962.127800,-17964.588757,11439.801626,10467.791315,9798.937714,6291.613733,9438.337021,16123.006180,9815.254487,7353.992147,0.002000,-0.010000,1.006000,192.000000,0.000000,8.000000,127.500000,88.000000,15.500000,56.000000,0.000000,0.000000,0.000000,1772011867.886030,0.000000
246.000000,9421.886137,10273.085269,6224.558499,12633.049504,11151.441771,12667.135914,-9966.955777,-17979.653833,11421.629658,10447.093600,9767.511161,6256.901474,9415.292372,16085.209380,9799.988246,7348.024231,0.002000,-0.010000,1.006000,192.000000,0.000000,0.000000,0.000000,0.000000,0.000000,0.000000,0.000000,0.000000,0.000000,1772011867.886042,0.000000
248.000000,9428.725771,10292.397176,6239.802389,12648.718077,11167.602082,12681.150458,-9947.085076,-17964.208777,11421.987286,10456.950719,9785.481964,6272.346529,9426.088265,16098.463964,9811.477043,7350.862903,0.002000,-0.010000,1.006000,192.000000,0.000000,0.000000,0.000000,0.000000,0.000000,0.000000,0.000000,0.000000,0.000000,1772011867.886055,0.000000
250.000000,9415.985276,10279.254351,6219.507005,12629.674391,11151.039440,12653.009612,-9972.543713,-17986.337004,11414.767672,10452.547425,9773.836705,6262.444706,9421.215584,16093.077194,9807.230211,7349.611205,0.002000,-0.010000,1.006000,192.000000,0.000000,0.000000,0.000000,0.000000,0.000000,0.000000,0.000000,0.000000,0.000000,1772011867.886068,0.000000
252.000000,9450.853998,10294.677054,6234.080343,12652.383763,11182.398937,12710.118319,-9949.230844,-17953.524644,11436.091237,10461.756344,9777.055356,6270.156058,9432.972602,16099.380386,9807.252563,7350.438219,0.002000,-0.010000,1.006000,192.000000,0.000000,0.000000,0.000000,0.000000,0.000000,0.000000,0.000000,0.000000,0.000000,1772011867.886081,0.000000
254.000000,9436.638288,10290.921961,6221.585717,12652.249652,11166.484495,12692.773365,-9963.021870,-17966.734525,11442.774408,10481.135306,9792.366301,6296.218192,9461.046393,16136.953668,9810.761787,7359.758897,0.002000,-0.012000,1.004000,192.000000,0.000000,8.000000,127.500000,80.000000,15.500000,48.000000,0.000000,0.000000,0.000000,1772011867.886093,0.000000
0.000000,9444.640213,10302.723682,6235.443799,12639.352696,11163.958748,12677.864752,-9967.201646,-17973.954138,11434.951298,10465.042050,9775.513086,6270.916017,9420.366218,16107.069386,9804.235077,7355.534417,0.002000,-0.012000,1.004000,192.000000,0.000000,0.000000,0.000000,0.000000,0.000000,0.000000,0.000000,0.000000,0.000000,1772011867.886105,0.000000
2.000000,9453.424448,10299.415624,6251.134724,12653.903682,11175.983986,12707.212592,-9947.912091,-17957.927937,11440.360420,10474.698004,9797.507202,6281.354282,9429.977468,16123.408511,9818.920174,7356.607301,0.002000,-0.012000,1.004000,192.000000,0.000000,0.000000,0.000000,0.000000,0.000000,0.000000,0.000000,0.000000,0.000000,1772011867.886117,0.000000
4.000000,9429.865710,10284.551714,6218.635287,12628.668562,11152.894634,12668.901702,-9974.600074,-17984.772382,11431.509129,10464.349146,9783.023272,6274.760517,9423.987201,16106.309427,9805.889106,7355.489714,0.002000,-0.012000,1.004000,192.000000,0.000000,0.000000,0.000000,0.000000,0.000000,0.000000,0.000000,0.000000,0.000000,1772011867.886129,0.000000
6.000000,9452.239806,10297.649836,6245.278567,12641.699629,11181.661329,12701.311731,-9952.047163,-17958.687897,11440.874510,10464.639719,9774.395499,6264.925750,9426.758817,16110.913886,9807.833708,7351.779324,0.002000,-0.012000,1.004000,192.000000,0.000000,0.000000,0.000000,0.000000,0.000000,0.000000,0.000000,0.000000,0.000000,1772011867.886140,0.000000
8.000000,9431.944422,10282.383595,6223.217395,12645.275908,11166.015108,12690.091156,-9966.888722,-17978.044507,11443.310850,10480.867086,9790.376996,6288.037454,9446.093076,16131.522194,9814.762749,7354.036850,0.004000,-0.014000,1.006000,192.000000,0.000000,16.000000,127.500000,72.000000,15.500000,56.000000,0.000000,0.000000,0.000000,1772011867.886153,0.000000
10.000000,9431.497387,10287.971531,6226.212528,12637.385742,11164.651652,12669.169923,-9972.230789,-17981.039641,11426.390580,10459.699984,9760.403307,6261.952968,9419.673314,16100.185049,9803.296304,7358.663661,0.004000,-0.014000,1.006000,192.000000,0.000000,0.000000,0.000000,0.000000,0.000000,0.000000,0.000000,0.000000,0.000000,1772011867.886165,0.000000
12.000000,9447.814160,10306.746996,6244.116276,12651.936728,11180.923722,12698.093080,-9951.644832,-17959.492559,11439.332240,10478.229580,9791.069900,6284.282361,9438.649945,16116.725339,9818.674304,7354.327423,0.004000,-0.014000,1.006000,192.000000,0.000000,0.000000,0.000000,0.000000,0.000000,0.000000,0.000000,0.000000,0.000000,1772011867.886177,0.000000
14.000000,9427.362314,10276.527438,6208.375836,12630.859033,11158.549626,12689.152383,-9977.349338,-17987.521647,11440.382772,10469.490048,9780.542228,6272.413584,9445.713096,16116.144194,9807.006694,7357.389612,0.004000,-0.014000,1.006000,192.000000,0.000000,0.000000,0.000000,0.000000,0.000000,0.000000,0.000000,0.000000,0.000000,1772011867.886189,0.000000
16.000000,9441.756838,10293.671226,6248.273700,12651.757914,11179.202638,12701.579952,-9951.488370,-17959.894891,11427.977553,10465.243216,9774.417850,6264.657529,9420.120349,16119.899287,9808.593668,7357.479019,0.004000,-0.014000,1.006000,192.000000,0.000000,0.000000,0.000000,0.000000,0.000000,0.000000,0.000000,0.000000,0.000000,1772011867.886201,0.000000
18.000000,9444.729620,10294.431185,6227.441874,12648.583966,11172.251245,12689.688824,-9961.837228,-17965.236958,11441.857987,10481.068251,9795.987284,6290.697311,9438.292317,16120.502784,9815.321543,7356.048507,0.003000,-0.015000,1.006000,192.000000,0.000000,8.000000,127.500000,64.000000,15.500000,56.000000,0.000000,0.000000,0.000000,1772011867.886213,0.000000
20.000000,9438.493483,10289.022063,6230.034677,12643.264251,11160.695393,12688.124202,-9966.955777,-17970.824894,11425.138882,10457.308347,9772.294435,6268.010291,9418.645134,16104.320121,9801.642275,7355.087382,0.003000,-0.015000,1.006000,192.000000,0.000000,0.000000,0.000000,0.000000,0.000000,0.000000,0.000000,0.000000,0.000000,1772011867.886225,0.000000
22.000000,9455.301995,10305.651761,6235.399095,12659.491618,11179.135582,12702.451670,-9947.532111,-17947.199100,11446.574205,10483.616350,9798.445976,6295.525288,9445.355468,16121.665075,9810.426511,7358.037812,0.003000,-0.015000,1.006000,192.000000,0.000000,0.000000,0.000000,0.000000,0.000000,0.000000,0.000000,0.000000,0.000000,1772011867.886237,0.000000
24.000000,9435.140721,10295.995807,6221.563366,12635.128216,11146.703201,12664.364298,-9972.722527,-17974.691746,11435.867719,10482.834039,9784.856115,6281.711910,9430.446855,16108.835174,9802.759862,7353.746278,0.003000,-0.015000,1.006000,192.000000,0.000000,0.000000,0.000000,0.000000,0.000000,0.000000,0.000000,0.000000,0.000000,1772011867.886249,0.000000
26.000000,9452.977413,10304.109490,6239.623575,12643.778341,11169.636091,12699.300074,-9948.493236,-17951.423580,11437.499397,10482.364652,9782.911513,6272.905323,9424.858919,16116.032435,9800.949371,7349.231225,0.003000,-0.015000,1.006000,192.000000,0.000000,0.000000,0.000000,0.000000,0.000000,0.000000,0.000000,0.000000,0.000000,1772011867.886262,0.000000
28.000000,9437.308840,10289.983188,6222.211566,12643.823045,11152.827579,12676.791868,-9962.396021,-17967.539187,11431.844405,10469.601806,9792.768633,6285.958741,9427.138797,16129.287020,9805.531479,7352.047545,0.002500,-0.012500,1.005000,192.000000,0.000000,8.000000,127.500000,88.000000,15.500000,48.000000,0.000000,0.000000,0.000000,1772011867.886274,0.000000
30.000000,9428.502253,10296.576953,6212.041523,12634.837643,11155.398030,12675.964853,-9971.582588,-17979.475019,11412.778367,10461.197550,9761.565597,6264.076384,9407.849241,16097.636950,9793.863868,7349.208873,0.002500,-0.012500,1.005000,192.000000,0.000000,0.000000,0.000000,0.000000,0.000000,0.000000,0.000000,0.000000,0.000000,1772011867.886287,0.000000
32.000000,9445.757800,10301.382578,6241.903453,12643.465417,11177.749774,12678.021214,-9953.410620,-17959.201987,11433.699600,10485.940932,9785.772536,6280.035529,9436.437122,16127.096549,9812.482871,7345.789057,0.002500,-0.012500,1.005000,192.000000,0.000000,0.000000,0.000000,0.000000,0.000000,0.000000,0.000000,0.000000,0.000000,1772011867.886299,0.000000
34.000000,9424.098959,10271.095964,6216.489520,12631.373123,11142.478721,12664.431353,-9979.137478,-17985.152362,11419.975629,10451.407486,9776.407156,6269.641968,9424.434236,16079.621444,9799.742377,7350.751144,0.002500,-0.012500,1.005000,192.000000,0.000000,0.000000,0.000000,0.000000,0.000000,0.000000,0.000000,0.000000,0.000000,1772011867.886311,0.000000
36.000000,9448.775285,10302.298999,6242.037564,12647.153455,11163.534065,12699.277723,-9951.913053,-17957.905586,11424.960068,10464.259739,9774.529609,6264.858695,9409.458567,16097.011101,9800.211763,7348.963004,0.002500,-0.012500,1.005000,192.000000,0.000000,0.000000,0.000000,0.000000,0.000000,0.000000,0.000000,0.000000,0.000000,1772011867.886323,0.000000
38.000000,9430.290393,10285.222266,6226.279584,12642.951327,11159.466047,12677.216551,-9964.094754,-17973.618862,11434.168987,10474.742708,9792.455708,6281.153116,9429.932765,16110.198630,9805.620886,7352.896911,0.002250,-0.010250,1.003500,192.000000,0.000000,8.000000,127.500000,96.000000,15.500000,40.000000,0.000000,0.000000,0.000000,1772011867.886335,0.000000
40.000000,9430.737428,10282.629464,6223.507967,12637.877481,11166.037460,12690.158211,-9972.141382,-17979.720888,11424.714199,10450.826341,9763.934882,6259.740145,9421.640268,16099.916828,9799.585915,7356.607301,0.002250,-0.010250,1.003500,192.000000,0.000000,0.000000,0.000000,0.000000,0.000000,0.000000,0.000000,0.000000,0.000000,1772011867.886347,0.000000
42.000000,9450.518721,10308.088101,6252.900511,12652.696687,11190.959655,12712.465252,-9949.655527,-17951.378876,11439.578109,10483.750461,9793.081557,6285.824631,9439.678125,16148.733038,9816.193261,7357.367260,0.002250,-0.010250,1.003500,192.000000,0.000000,0.000000,0.000000,0.000000,0.000000,0.000000,0.000000,0.000000,0.000000,1772011867.886358,0.000000
44.000000,9433.285526,10279.857848,6222.256270,12628.355638,11168.317338,12684.547923,-9977.461097,-17979.095039,11440.628641,10474.519190,9789.035891,6277.107451,9437.331192,16125.308409,9811.253525,7355.221493,0.002250,-0.010250,1.003500,192.000000,0.000000,0.000000,0.000000,0.000000,0.000000,0.000000,0.000000,0.000000,0.000000,1772011867.886371,0.000000
46.000000,9445.489579,10296.375787,6238.975375,12644.694763,11188.277446,12701.222325,-9953.790600,-17957.011516,11436.650030,10462.896283,9778.754089,6266.535075,9438.828759,16095.893514,9810.180641,7354.796810,0.002250,-0.010250,1.003500,192.000000,0.000000,0.000000,0.000000,0.000000,0.000000,0.000000,0.000000,0.000000,0.000000,1772011867.886382,0.000000
48.000000,9423.718980,10265.060993,6233.499197,12628.668562,11170.239588,12661.972661,-9965.994652,-17976.613996,11440.181606,10468.215998,9794.959103,6273.888799,9443.232053,16104.990674,9814.293362,7348.739487,0.002250,-0.010250,1.003500,192.000000,0.000000,0.000000,127.500000,88.000000,15.500000,24.000000,0.000000,0.000000,0.000000,1772011867.886395,0.000000
50.000000,9416.097035,10265.798600,6218.791749,12627.282754,11158.594329,12661.726792,-9971.403774,-17983.766554,11412.666608,10431.603841,9762.973757,6246.709078,9408.877421,16067.149170,9798.691845,7341.296356,0.002250,-0.010250,1.003500,192.000000,0.000000,0.000000,0.000000,0.000000,0.000000,0.000000,0.000000,0.000000,0.000000,1772011867.886406,0.000000
52.000000,9429.798654,10290.363168,6235.086171,12644.806522,11169.323167,12685.307882,-9948.604995,-17957.324440,11418.969800,10456.257815,9781.548057,6276.056919,9423.964849,16097.212267,9805.151499,7347.912472,0.002250,-0.010250,1.003500,192.000000,0.000000,0.000000,0.000000,0.000000,0.000000,0.000000,0.000000,0.000000,0.000000,1772011867.886418,0.000000
54.000000,9417.102863,10271.453592,6205.067778,12626.522795,11147.418457,12670.555731,-9974.734184,-17979.363260,11418.008675,10453.665013,9774.820182,6269.083174,9416.678180,16097.324025,9795.540249,7345.610243,0.002250,-0.010250,1.003500,192.000000,0.000000,0.000000,0.000000,0.000000,0.000000,0.000000,0.000000,0.000000,0.000000,1772011867.886430,0.000000
56.000000,9439.946346,10297.962761,6234.192101,12643.063085,11170.597216,12685.777269,-9950.706059,-17950.194234,11425.965896,10462.806876,9771.199199,6270.625445,9423.495462,16111.606790,9796.479022,7351.287586,0.002250,-0.010250,1.003500,192.000000,0.000000,0.000000,0.000000,0.000000,0.000000,0.000000,0.000000,0.000000,0.000000,1772011867.886442,0.000000
58.000000,9434.850149,10287.837420,6235.443799,12636.894004,11156.359155,12676.166019,-9960.496123,-17961.973603,11432.023219,10475.435612,9793.349778,6292.172526,9424.098959,16107.941104,9806.202031,7350.661737,0.002250,-0.010250,1.003500,192.000000,0.000000,0.000000,127.500000,96.000000,15.500000,48.000000,0.000000,0.000000,0.000000,1772011868.366284,0.000000
60.000000,9423.651925,10276.996824,6228.067723,12640.537338,11153.408724,12669.080516,-9966.776963,-17972.121295,11422.903707,10450.580472,9776.898894,6261.707099,9411.872555,16096.429956,9802.715159,7343.732696,0.002250,-0.010250,1.003500,192.000000,0.000000,0.000000,0.000000,0.000000,0.000000,0.000000,0.000000,0.000000,0.000000,1772011868.366356,0.000000
62.000000,9443.455570,10304.467118,6233.923880,12661.927958,11173.905274,12694.516801,-9945.475751,-17946.036809,11431.509129,10475.592074,9790.980493,6288.708006,9432.279698,16099.045110,9808.012522,7354.729754,0.002250,-0.010250,1.003500,192.000000,0.000000,0.000000,0.000000,0.000000,0.000000,0.000000,0.000000,0.000000,0.000000,1772011868.366410,0.000000
64.000000,9419.919183,10275.566313,6222.815063,12628.109768,11150.994736,12653.009612,-9974.935350,-17980.078516,11427.418760,10471.971091,9781.257484,6277.599189,9424.836567,16096.586418,9803.899801,7352.382821,0.002250,-0.010250,1.003500,192.000000,0.000000,0.000000,0.000000,0.000000,0.000000,0.000000,0.000000,0.000000,0.000000,1772011868.366463,0.000000
66.000000,9432.905547,10287.971531,6238.282470,12642.481940,11172.363004,12679.071746,-9953.209454,-17959.626670,11417.315771,10451.452190,9772.182676,6262.444706,9412.878384,16090.931426,9803.385711,7345.967870,0.002250,-0.010250,1.003500,192.000000,0.000000,0.000000,0.000000,0.000000,0.000000,0.000000,0.000000,0.000000,0.000000,1772011868.366516,0.000000
68.000000,9428.792826,10275.231037,6224.513796,12630.970792,11163.981100,12687.341891,-9963.647719,-17971.137818,11429.832748,10466.293748,9789.929961,6277.219209,9431.117407,16103.560162,9807.476080,7351.309937,0.000125,-0.011125,1.005750,192.000000,127.500000,120.000000,127.500000,80.000000,15.500000,64.000000,0.000000,0.000000,0.000000,1772011868.366570,0.000000
70.000000,9424.456587,10278.203819,6217.964735,12643.308955,11162.215312,12687.476002,-9967.223998,-17978.312728,11427.418760,10452.055687,9762.772591,6262.802334,9420.947363,16110.243334,9792.187487,7357.389612,0.000125,-0.011125,1.005750,192.000000,0.000000,0.000000,0.000000,0.000000,0.000000,0.000000,0.000000,0.000000,0.000000,1772011868.366593,0.000000
72.000000,9440.192215,10294.744109,6246.194988,12654.551882,11193.552458,12710.140671,-9948.269719,-17957.167978,11429.720989,10471.412298,9784.744356,6282.583628,9438.180558,16118.982866,9812.661685,7361.144705,0.000125,-0.011125,1.005750,192.000000,0.000000,0.000000,0.000000,0.000000,0.000000,0.000000,0.000000,0.000000,0.000000,1772011868.366617,0.000000
74.000000,9423.808387,10287.412737,6215.774264,12627.595678,11178.353271,12676.389536,-9976.365861,-17984.258292,11423.909536,10470.607635,9773.210856,6273.531172,9436.101846,16116.255953,9812.684037,7363.893970,0.000125,-0.011125,1.005750,192.000000,0.000000,0.000000,0.000000,0.000000,0.000000,0.000000,0.000000,0.000000,0.000000,1772011868.366640,0.000000
76.000000,9445.333117,10311.709084,6247.290224,12643.130141,11192.457222,12702.429319,-9950.437838,-17953.591699,11426.524690,10467.545446,9773.479077,6271.921846,9431.564442,16093.591284,9811.789967,7355.199141,0.000125,-0.011125,1.005750,192.000000,0.000000,0.000000,0.000000,0.000000,0.000000,0.000000,0.000000,0.000000,0.000000,1772011868.366663,0.000000
78.000000,9434.492521,10303.528345,6231.152264,12652.450818,11173.569998,12689.465307,-9958.909149,-17963.247652,11431.062094,10491.528868,9795.540249,6299.593306,9437.018268,16122.670904,9816.081502,7357.188446,0.000125,-0.011125,1.005750,192.000000,0.000000,0.000000,127.500000,56.000000,15.500000,64.000000,0.000000,0.000000,0.000000,1772011868.366687,0.000000
80.000000,9443.321460,10306.612886,6227.441874,12640.671449,11167.132696,12678.714118,-9967.827495,-17971.473094,11426.390580,10485.091565,9767.935844,6270.714852,9420.097997,16105.772985,9801.754034,7354.819161,0.000125,-0.011125,1.005750,192.000000,0.000000,0.000000,0.000000,0.000000,0.000000,0.000000,0.000000,0.000000,0.000000,1772011868.366710,0.000000
82.000000,9463.862713,10309.898592,6243.937462,12655.200083,11181.862495,12703.502202,-9945.162826,-17948.607260,11442.327373,10495.708644,9795.160269,6303.303695,9433.196119,16130.650476,9814.136900,7351.421696,0.000125,-0.011125,1.005750,192.000000,0.000000,0.000000,0.000000,0.000000,0.000000,0.000000,0.000000,0.000000,0.000000,1772011868.366732,0.000000
84.000000,9424.635401,10276.527438,6222.658601,12626.500443,11152.738172,12665.727754,-9974.018928,-17983.252464,11425.004771,10473.111030,9781.413946,6274.760517,9427.675239,16119.474604,9803.899801,7357.233150,0.000125,-0.011125,1.005750,192.000000,0.000000,0.000000,0.000000,0.000000,0.000000,0.000000,0.000000,0.000000,0.000000,1772011868.366755,0.000000
86.000000,9442.203872,10296.040511,6242.059915,12651.802618,11177.973292,12679.071746,-9949.029678,-17954.016382,11426.256469,10462.829228,9775.289568,6274.112317,9424.277773,16097.994578,9802.469290,7349.946481,0.000125,-0.011125,1.005750,192.000000,0.000000,0.000000,0.000000,0.000000,0.000000,0.000000,0.000000,0.000000,0.000000,1772011868.366779,0.000000
88.000000,9428.301087,10298.320389,6225.765494,12655.758876,11157.968480,12688.839458,-9959.602053,-17964.186426,11430.413894,10485.650359,9794.802641,6301.470852,9433.397285,16112.031473,9805.598534,7358.149571,0.000125,-0.011125,1.005750,192.000000,0.000000,0.000000,0.000000,0.000000,0.000000,0.000000,0.000000,0.000000,0.000000,1772011868.366802,0.000000
90.000000,9426.512948,10294.274723,6214.701380,12644.001859,11160.404820,12683.899723,-9970.532056,-17974.065897,11416.600515,10477.156696,9765.052469,6273.128840,9411.112596,16110.220982,9796.613133,7362.709327,0.002000,-0.016000,1.012000,192.000000,0.000000,8.000000,127.500000,64.000000,15.500000,80.000000,0.000000,0.000000,0.000000,1772011868.366834,0.000000
92.000000,9448.417657,10320.940354,6239.668279,12659.670432,11181.348405,12711.995865,-9949.454361,-17953.859920,11434.168987,10497.183859,9786.599551,6299.101567,9433.374933,16129.130558,9810.672380,7367.939635,0.002000,-0.016000,1.012000,192.000000,0.000000,0.000000,0.000000,0.000000,0.000000,0.000000,0.000000,0.000000,0.000000,1772011868.366857,0.000000
94.000000,9420.746198,10284.797583,6214.366104,12628.132120,11161.298890,12685.799621,-9976.678786,-17984.571217,11422.702542,10485.091565,9776.876542,6281.220172,9419.069817,16118.267610,9806.090272,7367.604359,0.002000,-0.016000,1.012000,192.000000,0.000000,0.000000,0.000000,0.000000,0.000000,0.000000,0.000000,0.000000,0.000000,1772011868.366894,0.000000
96.000000,9443.097942,10298.655665,6234.840302,12648.852187,11194.155955,12701.915229,-9951.376611,-17952.921147,11422.166100,10467.836019,9771.601531,6267.160924,9426.714114,16105.527116,9808.571316,7361.591740,0.002000,-0.016000,1.012000,192.000000,0.000000,0.000000,0.000000,0.000000,0.000000,0.000000,0.000000,0.000000,0.000000,1772011868.366917,0.000000
98.000000,9444.662564,10303.595400,6234.214453,12643.599527,11181.683681,12699.456537,-9959.266777,-17956.720943,11448.787027,10503.174127,9800.100005,6298.140442,9469.227132,16139.457064,9812.348761,7361.904664,0.002000,-0.016000,1.012000,192.000000,0.000000,0.000000,0.000000,0.000000,0.000000,0.000000,0.000000,0.000000,0.000000,1772011868.366940,0.000000
100.000000,9430.625669,10299.840307,6236.494331,12636.871652,11172.899446,12678.714118,-9967.827495,-17965.304013,11425.317696,10483.504591,9775.848362,6280.728433,9419.159224,16117.887630,9806.939638,7357.367260,0.002000,-0.016000,1.012000,192.000000,0.000000,0.000000,127.500000,88.000000,15.500000,80.000000,0.000000,0.000000,0.000000,1772011868.366957,0.000000
102.000000,9451.658660,10319.442787,6248.117238,12664.476057,11196.033501,12702.831650,-9945.833379,-17943.019324,11442.729705,10498.033225,9796.233153,6305.605925,9440.549843,16119.340494,9816.103854,7356.339080,0.002000,-0.016000,1.012000,192.000000,0.000000,0.000000,0.000000,0.000000,0.000000,0.000000,0.000000,0.000000,0.000000,1772011868.366968,0.000000
104.000000,9441.913300,10295.280551,6224.379685,12628.422693,11169.166704,12684.190295,-9972.074327,-17973.261234,11437.879376,10489.830135,9788.901781,6287.299846,9436.995916,16110.869182,9809.308923,7358.238978,0.002000,-0.016000,1.012000,192.000000,0.000000,0.000000,0.000000,0.000000,0.000000,0.000000,0.000000,0.000000,0.000000,1772011868.366980,0.000000
106.000000,9452.060992,10309.943296,6242.305785,12644.024210,11180.499039,12693.242752,-9950.236672,-17955.223376,11440.449827,10485.292731,9781.615112,6278.403852,9436.571233,16127.923563,9807.565487,7351.354641,0.002000,-0.016000,1.012000,192.000000,0.000000,0.000000,0.000000,0.000000,0.000000,0.000000,0.000000,0.000000,0.000000,1772011868.366991,0.000000
108.000000,9433.598451,10301.069653,6241.299956,12641.923146,11172.050079,12673.528513,-9960.898454,-17970.355507,11444.540196,10502.525926,9799.250638,6292.574858,9448.462361,16120.525136,9814.852156,7353.254539,0.002000,-0.016000,1.012000,192.000000,0.000000,0.000000,0.000000,0.000000,0.000000,0.000000,0.000000,0.000000,0.000000,1772011868.367003,0.000000
110.000000,9431.519739,10299.080348,6224.849072,12641.364353,11172.877094,12681.753955,-9971.895513,-17979.296205,11419.997981,10474.653301,9763.554903,6270.021948,9425.373009,16096.921694,9804.704464,7354.014498,0.004000,-0.010000,1.010000,192.000000,0.000000,16.000000,127.500000,88.000000,15.500000,72.000000,0.000000,0.000000,0.000000,1772011868.367014,0.000000
112.000000,9449.490541,10311.753787,6243.155151,12657.859940,11199.140394,12731.196014,-9950.124913,-17956.363315,11436.717085,10499.888420,9785.280798,6292.954837,9443.522625,16141.021686,9816.819110,7361.167057,0.004000,-0.010000,1.010000,192.000000,0.000000,0.000000,0.000000,0.000000,0.000000,0.000000,0.000000,0.000000,0.000000,1772011868.367026,0.000000
114.000000,9424.545994,10290.765499,6203.614915,12630.210832,11170.507809,12687.252484,-9978.019891,-17984.727679,11433.051399,10491.037129,9777.412984,6281.130765,9440.929823,16129.287020,9812.684037,7364.989205,0.004000,-0.010000,1.010000,192.000000,0.000000,0.000000,0.000000,0.000000,0.000000,0.000000,0.000000,0.000000,0.000000,1772011868.367038,0.000000
116.000000,9442.315631,10309.138633,6239.668279,12656.496484,11180.744908,12701.557601,-9951.354259,-17960.140760,11430.168024,10484.376309,9766.997071,6277.174506,9428.770474,16110.466851,9804.302133,7359.781249,0.004000,-0.010000,1.010000,192.000000,0.000000,0.000000,0.000000,0.000000,0.000000,0.000000,0.000000,0.000000,0.000000,1772011868.367050,0.000000
118.000000,9440.661602,10306.724645,6230.213491,12649.925071,11174.128792,12690.202915,-9954.975242,-17961.615975,11430.145673,10500.603676,9792.723929,6299.123919,9434.336058,16119.295790,9810.851194,7355.869693,0.004000,-0.010000,1.010000,192.000000,0.000000,0.000000,0.000000,0.000000,0.000000,0.000000,0.000000,0.000000,0.000000,1772011868.367061,0.000000
120.000000,9436.906509,10302.902496,6230.995802,12646.505254,11168.540855,12696.282589,-9964.497085,-17965.214606,11427.530518,10486.656187,9772.093269,6285.467003,9424.657753,16106.845868,9798.267162,7360.362394,-0.002000,-0.014000,1.008000,192.000000,127.500000,120.000000,127.500000,72.000000,15.500000,64.000000,0.000000,0.000000,0.000000,1772011868.367072,0.000000
122.000000,9456.911320,10323.331991,6259.047241,12659.178693,11202.850783,12705.737377,-9944.045239,-17939.264231,11441.142731,10503.844679,9799.429452,6307.125843,9442.561500,16136.260764,9817.377903,7366.911455,-0.002000,-0.014000,1.008000,192.000000,0.000000,0.000000,0.000000,0.000000,0.000000,0.000000,0.000000,0.000000,0.000000,1772011868.367092,0.000000
124.000000,9430.983297,10302.991903,6237.701325,12638.503330,11173.033556,12691.789888,-9971.537885,-17969.997879,11442.528539,10499.061406,9795.741415,6294.586515,9443.947309,16130.605773,9816.640296,7364.966853,-0.002000,-0.014000,1.008000,192.000000,0.000000,0.000000,0.000000,0.000000,0.000000,0.000000,0.000000,0.000000,0.000000,1772011868.367104,0.000000
126.000000,9449.892873,10307.261086,6248.206645,12643.867748,11190.825545,12706.229115,-9950.147265,-17951.401228,11445.031934,10490.232466,9785.101984,6279.901419,9439.722829,16132.192747,9812.549926,7360.898836,-0.002000,-0.014000,1.008000,192.000000,0.000000,0.000000,0.000000,0.000000,0.000000,0.000000,0.000000,0.000000,0.000000,1772011868.367115,0.000000
128.000000,9437.107675,10290.564333,6232.314555,12644.113617,11173.771164,12675.607225,-9956.875140,-17963.135894,11440.695696,10494.211077,9795.629656,6296.128785,9446.182483,16121.463909,9814.718046,7351.108772,-0.002000,-0.014000,1.008000,192.000000,0.000000,0.000000,0.000000,0.000000,0.000000,0.000000,0.000000,0.000000,0.000000,1772011868.367126,0.000000
130.000000,9434.872500,10298.253333,6217.271831,12638.883309,11165.903350,12676.434240,-9967.000481,-17968.366202,11415.952315,10468.126591,9765.343042,6273.799392,9420.030942,16100.833249,9801.329351,7348.873597,-0.002000,-0.012000,1.004000,192.000000,127.500000,120.000000,127.500000,80.000000,15.500000,48.000000,0.000000,0.000000,0.000000,1772011868.367138,0.000000
132.000000,9461.962815,10329.098741,6258.108468,12659.536321,11192.189001,12706.922019,-9943.531149,-17938.370161,11451.446885,10502.660036,9799.742377,6305.270649,9443.880253,16122.559145,9816.148557,7357.791943,-0.002000,-0.012000,1.004000,192.000000,0.000000,0.000000,0.000000,0.000000,0.000000,0.000000,0.000000,0.000000,0.000000,1772011868.367149,0.000000
134.000000,9439.611070,10301.583743,6227.531281,12636.469321,11169.211408,12685.553752,-9973.549542,-17969.148513,11439.734571,10498.055577,9792.992150,6294.362997,9435.923032,16126.135424,9813.645162,7360.898836,-0.002000,-0.012000,1.004000,192.000000,0.000000,0.000000,0.000000,0.000000,0.000000,0.000000,0.000000,0.000000,0.000000,1772011868.367161,0.000000
136.000000,9455.905492,10322.996714,6245.770305,12658.150513,11181.549571,12690.113508,-9950.370783,-17949.635440,11439.309888,10494.546353,9781.346891,6281.443689,9430.737428,16108.656360,9809.867717,7360.250635,-0.002000,-0.012000,1.004000,192.000000,0.000000,0.000000,0.000000,0.000000,0.000000,0.000000,0.000000,0.000000,0.000000,1772011868.367172,0.000000
138.000000,9443.097942,10305.584706,6227.553633,12640.492635,11173.726460,12684.056185,-9958.707983,-17959.850187,11448.407048,10505.498708,9803.922153,6305.784739,9455.145533,16121.821537,9814.293362,7357.434315,-0.002000,-0.012000,1.004000,192.000000,0.000000,0.000000,0.000000,0.000000,0.000000,0.000000,0.000000,0.000000,0.000000,1772011868.367183,0.000000
140.000000,9437.465303,10296.107566,6223.105636,12644.448894,11154.414553,12696.550810,-9969.392117,-17974.803504,11423.440149,10484.085737,9765.298339,6280.929599,9408.966828,16121.173337,9795.853173,7359.691842,-0.002000,-0.012000,1.004000,192.000000,0.000000,0.000000,127.500000,80.000000,15.500000,48.000000,0.000000,0.000000,0.000000,1772011868.367195,0.000000
142.000000,9455.592567,10327.757636,6235.376744,12669.996938,11186.556362,12722.344723,-9945.252233,-17944.360428,11439.868681,10512.807728,9782.576237,6306.075311,9440.326326,16152.085799,9806.626714,7368.140801,-0.002000,-0.012000,1.004000,192.000000,0.000000,0.000000,0.000000,0.000000,0.000000,0.000000,0.000000,0.000000,0.000000,1772011868.367206,0.000000
144.000000,9439.946346,10310.926772,6223.753837,12645.834702,11170.105478,12689.577066,-9972.275492,-17971.473094,11426.748207,10507.175089,9780.430470,6304.018951,9431.497387,16134.606735,9808.884240,7368.341967,-0.002000,-0.012000,1.004000,192.000000,0.000000,0.000000,0.000000,0.000000,0.000000,0.000000,0.000000,0.000000,0.000000,1772011868.367218,0.000000
146.000000,9450.295204,10317.676999,6244.898587,12658.999879,11191.138469,12707.033778,-9951.153094,-17955.066914,11433.967821,10502.056539,9775.043699,6290.987884,9432.056180,16122.290924,9810.493566,7367.134972,-0.002000,-0.012000,1.004000,192.000000,0.000000,0.000000,0.000000,0.000000,0.000000,0.000000,0.000000,0.000000,0.000000,1772011868.367230,0.000000
148.000000,9438.694649,10314.547755,6230.526415,12647.756952,11178.085050,12710.632409,-9956.830437,-17961.280699,11444.920176,10511.712493,9795.540249,6299.190974,9453.603262,16139.434712,9815.410950,7364.564522,-0.002000,-0.012000,1.004000,192.000000,0.000000,0.000000,0.000000,0.000000,0.000000,0.000000,0.000000,0.000000,0.000000,1772011868.367242,0.000000
150.000000,9425.171843,10294.073557,6229.252366,12633.585946,11161.656518,12676.411888,-9966.017004,-17975.071725,11416.958143,10482.051728,9769.008728,6276.459250,9414.867689,16107.851697,9797.753072,7354.550940,-0.002000,-0.012000,1.004000,192.000000,0.000000,0.000000,127.500000,72.000000,15.500000,56.000000,0.000000,0.000000,0.000000,1772011868.367253,0.000000
152.000000,9440.683954,10309.630371,6239.444761,12653.747219,11188.344501,12707.346702,-9944.805198,-17954.753990,11433.677248,10482.342301,9785.683130,6289.713834,9433.687858,16121.687427,9803.296304,7355.512065,-0.002000,-0.012000,1.004000,192.000000,0.000000,0.000000,0.000000,0.000000,0.000000,0.000000,0.000000,0.000000,0.000000,1772011868.367265,0.000000
154.000000,9423.026076,10282.830630,6216.556575,12625.807539,11171.133658,12681.083403,-9976.790545,-17987.298129,11425.965896,10487.393795,9769.701632,6288.529192,9425.596526,16114.892496,9800.457633,7360.451801,-0.002000,-0.012000,1.004000,192.000000,0.000000,0.000000,0.000000,0.000000,0.000000,0.000000,0.000000,0.000000,0.000000,1772011868.367276,0.000000
156.000000,9445.400172,10314.503052,6234.259156,12645.722943,11190.758489,12697.355473,-9955.936367,-17963.001783,11422.054341,10482.856391,9766.170057,6262.154134,9425.775340,16120.614543,9806.872583,7359.513028,-0.002000,-0.012000,1.004000,192.000000,0.000000,0.000000,0.000000,0.000000,0.000000,0.000000,0.000000,0.000000,0.000000,1772011868.367288,0.000000
158.000000,9442.986184,10306.054092,6236.829607,12647.824007,11175.492248,12697.422528,-9958.462114,-17961.928900,11436.694734,10504.425824,9788.432394,6297.425186,9441.868596,16126.046017,9809.443034,7362.105830,-0.002000,-0.012000,1.004000,192.000000,0.000000,0.000000,0.000000,0.000000,0.000000,0.000000,0.000000,0.000000,0.000000,1772011868.367299,0.000000
160.000000,9429.373971,10301.784909,6229.498235,12638.391571,11171.200713,12692.996883,-9965.525265,-17967.226263,11427.821091,10482.610522,9773.344967,6275.475773,9424.098959,16106.599999,9803.408063,7354.595644,-0.002000,-0.012000,1.004000,192.000000,0.000000,0.000000,127.500000,72.000000,15.500000,56.000000,0.000000,0.000000,0.000000,1772011868.367311,0.000000
162.000000,9447.814160,10313.318409,6243.512779,12659.737487,11190.691434,12712.599362,-9944.201701,-17947.601431,11439.667516,10506.035150,9791.114603,6304.845965,9442.360335,16138.786511,9815.612115,7354.148609,-0.002000,-0.012000,1.004000,192.000000,0.000000,0.000000,0.000000,0.000000,0.000000,0.000000,0.000000,0.000000,0.000000,1772011868.367322,0.000000
164.000000,9428.614012,10294.811165,6208.845223,12635.239975,11168.943187,12674.310824,-9974.935350,-17979.609129,11421.786120,10489.360748,9772.339138,6290.451442,9443.120294,16120.681598,9803.586877,7367.380842,-0.002000,-0.012000,1.004000,192.000000,0.000000,0.000000,0.000000,0.000000,0.000000,0.000000,0.000000,0.000000,0.000000,1772011868.367334,0.000000
166.000000,9446.875387,10313.072540,6229.878215,12662.218530,11177.325091,12704.418624,-9954.684669,-17957.771475,11427.061132,10491.975903,9762.347908,6281.220172,9417.795768,16121.352151,9799.630618,7360.675318,-0.002000,-0.012000,1.004000,192.000000,0.000000,0.000000,0.000000,0.000000,0.000000,0.000000,0.000000,0.000000,0.000000,1772011868.367346,0.000000
168.000000,9427.250555,10291.525458,6234.840302,12644.828873,11163.846989,12689.197086,-9963.759478,-17976.725754,11427.374056,10510.952534,9783.425603,6294.251239,9428.770474,16149.560052,9804.302133,7363.469286,-0.002000,-0.012000,1.004000,192.000000,0.000000,0.000000,0.000000,0.000000,0.000000,0.000000,0.000000,0.000000,0.000000,1772011868.367357,0.000000
170.000000,9404.272962,10270.045432,6216.489520,12630.523757,11155.733306,12665.861865,-9975.449440,-17994.249522,11408.687998,10470.406469,9750.188559,6259.091945,9409.749140,16093.881857,9795.070862,7354.394478,0.000000,-0.015000,1.004000,192.000000,0.000000,8.000000,127.500000,56.000000,15.500000,48.000000,0.000000,0.000000,0.000000,1772011868.367368,0.000000
172.000000,9430.111579,10300.086176,6250.128895,12652.942556,11182.644806,12711.012389,-9946.191006,-17954.686934,11411.973704,10490.165411,9769.589874,6285.668169,9419.919183,16123.587325,9808.034874,7357.143743,0.000000,-0.015000,1.004000,192.000000,0.000000,0.000000,0.000000,0.000000,0.000000,0.000000,0.000000,0.000000,0.000000,1772011868.367380,0.000000
174.000000,9426.289430,10292.821859,6233.141569,12627.729789,11169.122001,12688.437127,-9969.995614,-17969.394382,11420.780292,10491.327702,9781.302188,6290.294980,9429.351619,16129.957572,9807.789005,7356.719060,0.000000,-0.015000,1.004000,192.000000,0.000000,0.000000,0.000000,0.000000,0.000000,0.000000,0.000000,0.000000,0.000000,1772011868.367392,0.000000
176.000000,9449.132913,10315.665342,6247.871369,12658.709307,11189.640902,12701.423490,-9948.180312,-17946.059161,11425.116530,10488.846658,9776.630673,6285.087023,9428.010515,16111.897363,9811.611153,7358.373089,0.000000,-0.015000,1.004000,192.000000,0.000000,0.000000,0.000000,0.000000,0.000000,0.000000,0.000000,0.000000,0.000000,1772011868.367404,0.000000
178.000000,9445.981317,10319.621601,6234.728543,12649.053353,11167.669137,12689.264141,-9955.288166,-17955.603356,11439.689867,10518.440368,9800.077653,6307.282306,9442.628556,16138.138311,9813.600458,7357.188446,0.000000,-0.015000,1.004000,192.000000,0.000000,0.000000,0.000000,0.000000,0.000000,0.000000,0.000000,0.000000,0.000000,1772011868.846626,0.000000
180.000000,9433.553747,10306.858755,6220.602241,12643.577176,11155.174512,12668.588778,-9968.453344,-17970.847246,11419.036856,10505.275191,9769.545170,6285.981093,9414.577116,16125.084892,9793.170964,7353.098077,0.000000,-0.015000,1.004000,192.000000,0.000000,0.000000,127.500000,48.000000,15.500000,32.000000,0.000000,0.000000,0.000000,1772011868.846685,0.000000
182.000000,9456.397230,10327.578822,6239.444761,12662.732621,11189.417385,12707.927848,-9944.581681,-17945.545071,11437.767617,10522.866013,9791.092252,6301.649666,9444.908434,16140.149968,9801.418758,7355.690879,0.000000,-0.015000,1.004000,192.000000,0.000000,0.000000,0.000000,0.000000,0.000000,0.000000,0.000000,0.000000,0.000000,1772011868.846731,0.000000
184.000000,9435.565404,10301.360226,6227.196005,12639.486806,11160.047193,12680.658720,-9971.224960,-17974.892911,11447.267109,10514.439406,9789.661740,6296.285247,9440.080457,16140.664058,9798.580086,7354.394478,0.000000,-0.015000,1.004000,192.000000,0.000000,0.000000,0.000000,0.000000,0.000000,0.000000,0.000000,0.000000,0.000000,1772011868.846772,0.000000
186.000000,9449.691707,10314.994790,6232.314555,12657.681126,11177.883885,12705.156232,-9953.477675,-17956.184501,11424.378923,10504.314065,9770.148667,6280.884895,9413.772454,16123.944953,9796.054339,7356.227321,0.000000,-0.015000,1.004000,192.000000,0.000000,0.000000,0.000000,0.000000,0.000000,0.000000,0.000000,0.000000,0.000000,1772011868.846814,0.000000
188.000000,9433.106712,10305.361188,6244.026869,12637.877481,11175.067565,12692.259275,-9962.753649,-17969.774362,11429.676286,10524.832967,9794.020330,6300.934410,9431.117407,16148.755389,9809.711255,7353.902740,0.000000,-0.015000,1.004000,192.000000,0.000000,0.000000,0.000000,0.000000,0.000000,0.000000,0.000000,0.000000,0.000000,1772011868.846860,0.000000
190.000000,9425.484768,10286.853944,6222.703305,12639.196234,11167.758544,12682.022176,-9977.483449,-17987.655757,11417.941620,10492.512344,9760.068030,6268.054994,9417.147567,16121.642723,9800.010598,7359.021289,-0.002000,-0.016500,1.003000,192.000000,127.500000,112.000000,127.500000,56.000000,15.500000,40.000000,0.000000,0.000000,0.000000,1772011868.846901,0.000000
192.000000,9442.650907,10332.272688,6252.118200,12654.909510,11199.028635,12715.572144,-9952.024812,-17960.766609,11436.471216,10509.007932,9779.245827,6284.997616,9442.427390,16136.752503,9817.087330,7359.848304,-0.002000,-0.016500,1.003000,192.000000,0.000000,0.000000,0.000000,0.000000,0.000000,0.000000,0.000000,0.000000,0.000000,1772011868.846914,0.000000
194.000000,9422.623744,10289.960836,6224.133816,12635.687010,11170.910140,12678.155324,-9976.790545,-17984.392403,11426.278821,10502.749443,9773.099097,6278.895590,9433.062009,16126.783625,9813.533403,7362.709327,-0.002000,-0.016500,1.003000,192.000000,0.000000,0.000000,0.000000,0.000000,0.000000,0.000000,0.000000,0.000000,0.000000,1772011868.846925,0.000000
196.000000,9436.414771,10303.282476,6241.188197,12651.534397,11187.383376,12700.663531,-9955.444629,-17960.878368,11419.863870,10492.668807,9760.895045,6269.060823,9420.075645,16109.505726,9807.543136,7358.842475,-0.002000,-0.016500,1.003000,192.000000,0.000000,0.000000,0.000000,0.000000,0.000000,0.000000,0.000000,0.000000,0.000000,1772011868.846937,0.000000
198.000000,9440.460436,10306.858755,6231.085209,12643.174844,11184.969388,12709.671284,-9960.116143,-17962.465341,11429.050437,10513.768853,9788.231228,6301.828480,9436.548881,16151.057619,9810.672380,7366.911455,-0.002000,-0.016500,1.003000,192.000000,0.000000,0.000000,0.000000,0.000000,0.000000,0.000000,0.000000,0.000000,0.000000,1772011868.846949,0.000000
200.000000,9427.898756,10302.634275,6195.657694,12649.276870,11173.547646,12710.207726,-9973.415431,-17976.904568,11416.019370,10513.835909,9754.703612,6277.286265,9426.736465,16130.002276,9797.238981,7368.945464,0.000000,-0.014250,1.007500,192.000000,0.000000,8.000000,127.500000,80.000000,15.500000,80.000000,0.000000,0.000000,0.000000,1772011868.846960,0.000000
202.000000,9440.125160,10322.147348,6256.521494,12672.098001,11188.858591,12710.900630,-9947.375649,-17956.676240,11431.553832,10520.116749,9778.016481,6303.974247,9439.141683,16138.697104,9802.513993,7371.270045,0.000000,-0.014250,1.007500,192.000000,0.000000,0.000000,0.000000,0.000000,0.000000,0.000000,0.000000,0.000000,0.000000,1772011868.846972,0.000000
204.000000,9421.170881,10292.307769,6224.111465,12644.560652,11165.925701,12692.616903,-9975.807068,-17988.281606,11422.836652,10512.092473,9774.127278,6286.226962,9418.823948,16137.356000,9804.033912,7366.017385,0.000000,-0.014250,1.007500,192.000000,0.000000,0.000000,0.000000,0.000000,0.000000,0.000000,0.000000,0.000000,0.000000,1772011868.846983,0.000000
206.000000,9432.413808,10308.915115,6242.663412,12655.803580,11189.976178,12705.759729,-9956.964547,-17970.668432,11416.868736,10501.028359,9756.089420,6273.933503,9415.225317,16134.405569,9801.731682,7361.882313,0.000000,-0.014250,1.007500,192.000000,0.000000,0.000000,0.000000,0.000000,0.000000,0.000000,0.000000,0.000000,0.000000,1772011868.846995,0.000000
208.000000,9428.211680,10309.920944,6239.020078,12646.438199,11187.741004,12688.906513,-9962.686594,-17975.116429,11426.859966,10510.214926,9776.273045,6293.647742,9438.024096,16141.893404,9814.427473,7359.423621,0.000000,-0.014250,1.007500,192.000000,0.000000,0.000000,0.000000,0.000000,0.000000,0.000000,0.000000,0.000000,0.000000,1772011868.847006,0.000000
210.000000,9418.332209,10285.244618,6227.888909,12627.215699,11184.924684,12675.987205,-9976.947007,-17988.661586,11414.566507,10491.193591,9757.877559,6267.943235,9424.076608,16100.229752,9810.158290,7355.333251,-0.001000,-0.013125,1.005750,192.000000,127.500000,120.000000,127.500000,80.000000,15.500000,48.000000,0.000000,0.000000,0.000000,1772011868.847018,0.000000
212.000000,9445.534282,10312.960781,6246.597319,12654.484827,11200.883830,12710.990037,-9950.460190,-17954.508120,11423.976591,10515.825214,9777.234170,6291.300808,9439.789884,16151.392895,9819.478967,7355.445010,-0.001000,-0.013125,1.005750,192.000000,0.000000,0.000000,0.000000,0.000000,0.000000,0.000000,0.000000,0.000000,0.000000,1772011868.847029,0.000000
214.000000,9422.288468,10299.750900,6205.581868,12642.504292,11160.516579,12666.241844,-9976.209399,-17981.956063,11421.652010,10506.504536,9770.416888,6292.463099,9430.558614,16116.457119,9802.290476,7357.993109,-0.001000,-0.013125,1.005750,192.000000,0.000000,0.000000,0.000000,0.000000,0.000000,0.000000,0.000000,0.000000,0.000000,1772011868.847041,0.000000
216.000000,9437.554710,10314.234831,6228.581813,12658.530493,11171.603044,12701.825822,-9953.142399,-17956.676240,11409.492661,10494.881629,9754.860074,6286.383425,9415.068855,16106.555296,9789.773499,7356.652004,-0.001000,-0.013125,1.005750,192.000000,0.000000,0.000000,0.000000,0.000000,0.000000,0.000000,0.000000,0.000000,0.000000,1772011868.847052,0.000000
218.000000,9434.067837,10319.711008,6237.209587,12651.757914,11163.712879,12695.813202,-9958.350355,-17964.253481,11421.629658,10515.713455,9783.693824,6310.232736,9416.298201,16146.855491,9795.897877,7358.708365,-0.001000,-0.013125,1.005750,192.000000,0.000000,0.000000,0.000000,0.000000,0.000000,0.000000,0.000000,0.000000,0.000000,1772011868.847064,0.000000
220.000000,9422.511986,10291.279589,6221.362200,12640.693801,11159.220178,12679.965816,-9975.091812,-17980.950234,11407.056321,10497.675597,9757.475228,6284.796451,9402.395416,16114.132537,9789.728795,7355.109734,-0.001000,-0.013125,1.005750,192.000000,0.000000,0.000000,0.000000,0.000000,0.000000,0.000000,0.000000,0.000000,0.000000,1772011868.847075,0.000000
222.000000,9443.321460,10321.052113,6243.781000,12653.255481,11187.606893,12707.458461,-9953.164751,-17957.704420,11419.506242,10521.882537,9775.356624,6298.363960,9423.160186,16143.100398,9807.789005,7361.457629,0.008000,-0.016000,1.006000,192.000000,0.000000,32.000000,127.500000,64.000000,15.500000,56.000000,0.000000,0.000000,0.000000,1772011868.847087,0.000000
224.000000,9414.599468,10297.359264,6210.275735,12637.497501,11162.461181,12681.463382,-9980.679748,-17990.628539,11410.900821,10511.846603,9764.963062,6281.019006,9427.317611,16126.180127,9803.698636,7358.529551,0.008000,-0.016000,1.006000,192.000000,0.000000,0.000000,0.000000,0.000000,0.000000,0.000000,0.000000,0.000000,0.000000,1772011868.847098,0.000000
226.000000,9425.618878,10299.348569,6238.573043,12645.968812,11177.012167,12695.612037,-9961.703117,-17975.854036,11407.883335,10493.361711,9747.573405,6264.188142,9406.977523,16111.785604,9797.127223,7355.959100,0.008000,-0.016000,1.006000,192.000000,0.000000,0.000000,0.000000,0.000000,0.000000,0.000000,0.000000,0.000000,0.000000,1772011868.847110,0.000000
228.000000,9418.578079,10290.094947,6228.023020,12649.388629,11178.800306,12692.594551,-9965.167637,-17977.664528,11412.443091,10521.077874,9767.712327,6290.429090,9425.283602,16138.898270,9808.906592,7362.508161,0.008000,-0.016000,1.006000,192.000000,0.000000,0.000000,0.000000,0.000000,0.000000,0.000000,0.000000,0.000000,0.000000,1772011868.847122,0.000000
230.000000,9409.257401,10305.495299,6212.287392,12644.962984,11169.792553,12681.061051,-9977.170524,-17983.319519,11400.507259,10486.410318,9745.449989,6278.537962,9409.167994,16099.805069,9793.193316,7360.563560,0.008000,-0.016000,1.006000,192.000000,0.000000,0.000000,0.000000,0.000000,0.000000,0.000000,0.000000,0.000000,0.000000,1772011868.847133,0.000000
232.000000,9442.829721,10318.839290,6240.562348,12669.035813,11192.099594,12711.213554,-9947.956794,-17945.254498,11420.847347,10523.760083,9773.032042,6304.376579,9430.446855,16139.211194,9803.631580,7358.820124,0.004000,-0.010000,1.006000,192.000000,0.000000,16.000000,127.500000,88.000000,15.500000,56.000000,0.000000,0.000000,0.000000,1772011868.847144,0.000000
234.000000,9426.557651,10304.221249,6224.089113,12645.253556,11163.310547,12692.035758,-9972.141382,-17965.996917,11412.756015,10515.556993,9771.959158,6300.688541,9421.975544,16141.155796,9795.629656,7365.972682,0.004000,-0.010000,1.006000,192.000000,0.000000,0.000000,0.000000,0.000000,0.000000,0.000000,0.000000,0.000000,0.000000,1772011868.847156,0.000000
236.000000,9448.730582,10336.541872,6244.272738,12655.758876,11178.666196,12701.512897,-9952.650661,-17943.689876,11413.717140,10522.016647,9770.729812,6297.916925,9409.905602,16149.492997,9795.830821,7357.546074,0.004000,-0.010000,1.006000,192.000000,0.000000,0.000000,0.000000,0.000000,0.000000,0.000000,0.000000,0.000000,0.000000,1772011868.847167,0.000000
238.000000,9440.572195,10321.275630,6237.746029,12652.093190,11176.587483,12687.096022,-9958.886797,-17956.139798,11420.735588,10534.444217,9791.494583,6312.803187,9426.892928,16134.293811,9804.972685,7358.663661,0.004000,-0.010000,1.006000,192.000000,0.000000,0.000000,0.000000,0.000000,0.000000,0.000000,0.000000,0.000000,0.000000,1772011868.847178,0.000000
