Sample_index,EXG Channel 0,EXG Channel 1,EXG Channel 2,EXG Channel 3,EXG Channel 4,EXG Channel 5,EXG Channel 6,EXG Channel 7,EXG Channel 8,EXG Channel 9,EXG Channel 10,EXG Channel 11,EXG Channel 12,EXG Channel 13,EXG Channel 14,EXG Channel 15,Accel Channel 0,Accel Channel 1,Accel Channel 2,Not Used,Digital Channel 0 (D11),Digital Channel 1 (D12),Digital Channel 2 (D13),Digital Channel 3 (D17),Not Used,Digital Channel 4 (D18),Analog Channel 0,Analog Channel 1,Analog Channel 2,Timestamp,Marker Channel
90.000000,8841.053705,12308.591581,7111.252202,12336.128931,5443.812066,14484.645663,-9741.806655,-16728.067902,12091.489088,11082.732509,11760.593863,5690.396510,8834.057609,15617.476775,11245.319098,8065.872856,0.002000,-0.004000,1.008000,192.000000,0.000000,0.000000,0.000000,0.000000,0.000000,0.000000,0.000000,0.000000,0.000000,1772010854.092157,101.000000
92.000000,8820.065417,12291.246628,7103.585554,12327.456454,5433.932595,14454.515511,-9761.096211,-16752.721876,12083.151887,11048.646098,11743.248909,5672.179839,8829.989592,15595.907342,11244.268566,8058.563835,0.002000,-0.004000,1.008000,192.000000,0.000000,0.000000,0.000000,0.000000,0.000000,0.000000,0.000000,0.000000,0.000000,1772010854.092231,0.000000
94.000000,8833.476464,12299.360311,7122.629240,12335.190157,5454.585606,14471.569892,-9738.230376,-16730.303077,12078.547427,11052.602357,11747.071057,5670.391699,8830.458978,15589.827667,11252.717525,8057.178027,0.004000,-0.004000,1.010000,192.000000,0.000000,16.000000,127.500000,112.000000,15.500000,72.000000,0.000000,0.000000,0.000000,1772010854.092294,0.000000
96.000000,8815.729179,12280.428383,7104.725493,12325.288335,5431.339792,14452.570910,-9753.809542,-16747.826844,12076.714584,11044.689839,11752.793104,5671.084603,8829.184929,15589.224170,11247.196644,8055.568702,0.004000,-0.004000,1.010000,192.000000,0.000000,0.000000,0.000000,0.000000,0.000000,0.000000,0.000000,0.000000,0.000000,1772010854.092348,0.000000
98.000000,8820.691266,12274.706337,7107.966496,12338.475864,5437.173597,14463.657375,-9747.372240,-16739.556699,12071.797201,11043.616956,11736.431627,5662.412126,8821.652391,15583.747993,11243.106275,8051.254815,0.004000,-0.004000,1.010000,192.000000,0.000000,0.000000,0.000000,0.000000,0.000000,0.000000,0.000000,0.000000,0.000000,1772010854.092434,0.000000
100.000000,8825.318077,12286.731575,7110.961629,12338.766436,5446.181350,14467.278357,-9742.723077,-16733.409969,12077.765116,11060.112543,11755.207092,5685.836755,8832.023601,15591.526400,11244.447380,8054.898149,0.004000,-0.004000,1.010000,192.000000,0.000000,0.000000,0.000000,0.000000,0.000000,0.000000,0.000000,0.000000,0.000000,1772010854.092497,0.000000
102.000000,8812.152900,12289.793764,7094.488394,12329.848090,5432.993821,14470.497009,-9763.309033,-16754.800588,12074.591169,11048.891967,11736.409275,5667.933007,8829.408446,15591.325234,11241.720467,8061.044879,0.004000,-0.004000,1.010000,192.000000,0.000000,0.000000,0.000000,0.000000,0.000000,0.000000,0.000000,0.000000,0.000000,1772010854.092542,0.000000
104.000000,8827.620307,12305.060006,7121.556356,12341.828625,5449.444705,14492.580532,-9736.531643,-16727.240888,12070.970186,11053.898758,11739.762037,5671.643397,8814.097502,15611.665322,11247.487217,8061.134286,0.004000,-0.008000,1.014000,192.000000,0.000000,16.000000,127.500000,96.000000,15.500000,88.000000,0.000000,0.000000,0.000000,1772010854.092597,0.000000
106.000000,8816.019752,12290.397261,7105.753673,12326.897660,5436.994784,14464.819666,-9752.691955,-16745.725780,12074.769983,11056.424505,11749.574453,5681.366406,8825.161615,15595.862638,11244.246214,8061.111934,0.004000,-0.008000,1.014000,192.000000,0.000000,0.000000,0.000000,0.000000,0.000000,0.000000,0.000000,0.000000,0.000000,1772010854.092672,0.000000
108.000000,8824.066380,12302.444852,7095.784795,12345.874291,5441.800409,14478.007195,-9750.121504,-16741.635411,12069.092640,11038.833682,11729.480234,5663.440307,8818.009057,15583.993862,11243.083923,8057.155676,0.004000,-0.008000,1.014000,192.000000,0.000000,0.000000,0.000000,0.000000,0.000000,0.000000,0.000000,0.000000,0.000000,1772010854.092739,0.000000
110.000000,8826.569775,12310.782052,7114.068522,12343.259137,5438.984089,14480.421183,-9743.550091,-16733.365266,12076.938102,11063.018270,11749.753267,5689.904772,8821.361818,15607.597304,11241.742819,8062.810667,0.004000,-0.008000,1.014000,192.000000,0.000000,0.000000,0.000000,0.000000,0.000000,0.000000,0.000000,0.000000,0.000000,1772010854.092753,0.000000
112.000000,8810.588278,12296.923971,7098.601115,12325.690666,5436.078362,14448.905223,-9764.583083,-16757.058115,12059.302576,11041.024153,11734.911708,5669.095298,8813.695170,15583.747993,11241.027563,8058.541484,0.004000,-0.008000,1.014000,192.000000,0.000000,0.000000,0.000000,0.000000,0.000000,0.000000,0.000000,0.000000,0.000000,1772010854.092765,0.000000
114.000000,8835.175197,12315.587677,7114.716722,12339.258175,5458.027775,14487.774907,-9740.398495,-16727.822033,12071.707794,11049.204892,11740.544348,5671.263417,8824.245194,15606.211496,11249.990612,8061.290748,0.004000,-0.008000,1.014000,192.000000,0.000000,0.000000,127.500000,80.000000,15.500000,56.000000,0.000000,0.000000,0.000000,1772010854.092783,0.000000
116.000000,8811.638810,12296.454584,7109.061731,12331.837396,5430.333964,14466.428991,-9756.379993,-16751.872510,12075.932273,11055.619842,11750.066191,5678.304217,8825.273374,15605.675054,11242.726295,8059.390850,0.004000,-0.008000,1.014000,192.000000,0.000000,0.000000,0.000000,0.000000,0.000000,0.000000,0.000000,0.000000,0.000000,1772010854.092796,0.000000
118.000000,8806.520260,12287.245665,7102.736187,12331.703285,5433.262042,14464.842017,-9750.702649,-16755.135865,12056.463904,11026.517871,11722.037103,5654.141981,8812.979914,15568.459400,11240.647583,8052.059478,0.004000,-0.008000,1.014000,192.000000,0.000000,0.000000,0.000000,0.000000,0.000000,0.000000,0.000000,0.000000,0.000000,1772010854.092808,0.000000
120.000000,8813.494004,12296.164011,7111.341609,12331.971506,5434.670202,14464.685555,-9742.231338,-16742.730646,12071.014890,11045.136874,11739.426761,5673.677406,8827.933231,15578.294167,11237.585394,8054.696984,0.004000,-0.008000,1.014000,192.000000,0.000000,0.000000,0.000000,0.000000,0.000000,0.000000,0.000000,0.000000,0.000000,1772010854.092822,0.000000
122.000000,8806.922592,12290.821945,7099.673998,12318.962791,5432.926766,14448.547596,-9763.331385,-16759.628565,12048.998421,11028.954211,11727.200356,5656.310100,8805.805004,15578.808257,11238.077132,8050.338393,0.004000,-0.008000,1.014000,192.000000,0.000000,0.000000,0.000000,0.000000,0.000000,0.000000,0.000000,0.000000,0.000000,1772010854.092834,0.000000
124.000000,8834.795217,12316.839375,7114.292039,12338.095884,5449.355298,14467.501875,-9738.230376,-16726.436225,12073.183009,11044.175749,11739.560871,5667.128344,8824.289897,15574.516723,11244.179159,8054.004080,0.004000,-0.008000,1.014000,192.000000,0.000000,0.000000,127.500000,104.000000,15.500000,72.000000,0.000000,0.000000,0.000000,1772010854.092847,0.000000
126.000000,8822.188833,12305.998779,7110.045208,12325.087169,5427.361182,14453.040296,-9754.301280,-16742.685943,12072.557160,11045.785075,11755.542368,5674.750289,8817.159691,15580.618749,11240.535824,8051.903016,0.004000,-0.008000,1.014000,192.000000,0.000000,0.000000,0.000000,0.000000,0.000000,0.000000,0.000000,0.000000,0.000000,1772010854.092860,0.000000
128.000000,8820.691266,12308.837451,7101.462138,12331.256250,5436.368935,14466.987785,-9750.121504,-16740.607231,12058.721430,11033.648078,11732.475368,5662.926216,8811.303533,15567.475923,11238.747685,8051.053649,0.004000,-0.008000,1.014000,192.000000,0.000000,0.000000,0.000000,0.000000,0.000000,0.000000,0.000000,0.000000,0.000000,1772010854.092873,0.000000
130.000000,8828.201452,12312.771358,7112.593307,12324.461320,5443.208568,14461.936290,-9742.097228,-16732.247678,12069.517323,11045.405095,11748.970955,5681.612275,8824.491063,15578.696499,11242.100446,8053.445286,0.004000,-0.008000,1.014000,192.000000,0.000000,0.000000,0.000000,0.000000,0.000000,0.000000,0.000000,0.000000,0.000000,1772010854.092885,0.000000
132.000000,8825.541595,12307.094015,7096.142423,12319.029846,5425.774208,14455.834264,-9761.923225,-16749.570280,12066.231616,11040.331249,11735.336391,5664.066155,8822.188833,15583.680938,11242.547481,8049.444324,0.004000,-0.008000,1.014000,192.000000,0.000000,0.000000,0.000000,0.000000,0.000000,0.000000,0.000000,0.000000,0.000000,1772010854.092898,0.000000
134.000000,8848.340374,12329.870442,7115.677847,12338.542919,5446.449571,14479.996500,-9739.571481,-16716.422643,12074.926445,11047.394401,11744.947641,5680.472336,8820.691266,15595.214438,11244.626194,8056.261606,0.004000,-0.008000,1.014000,192.000000,0.000000,0.000000,127.500000,104.000000,15.500000,64.000000,0.000000,0.000000,0.000000,1772010854.092911,0.000000
136.000000,8836.113970,12320.348599,7103.518498,12325.847128,5430.691592,14456.147189,-9758.235187,-16730.951277,12076.580474,11053.362316,11757.844598,5689.994179,8823.932269,15581.713984,11242.770999,8054.048783,0.004000,-0.008000,1.014000,192.000000,0.000000,0.000000,0.000000,0.000000,0.000000,0.000000,0.000000,0.000000,0.000000,1772010854.092923,0.000000
138.000000,8830.078999,12314.380683,7102.624429,12321.667352,5434.290222,14448.391133,-9754.524798,-16734.974591,12074.993500,11035.749142,11740.544348,5670.346996,8820.490100,15558.646984,11241.541653,8048.170274,0.004000,-0.008000,1.014000,192.000000,0.000000,0.000000,0.000000,0.000000,0.000000,0.000000,0.000000,0.000000,0.000000,1772010854.092935,0.000000
140.000000,8826.167444,12309.575058,7092.633199,12326.920012,5440.571063,14470.318195,-9745.226472,-16733.588783,12080.670843,11046.545034,11745.349973,5679.868839,8837.946813,15586.676071,11240.155845,8054.585225,0.004000,-0.008000,1.014000,192.000000,0.000000,0.000000,0.000000,0.000000,0.000000,0.000000,0.000000,0.000000,0.000000,1772010854.092948,0.000000
142.000000,8808.487214,12291.403090,7098.869336,12329.512814,5414.888908,14452.123875,-9762.973757,-16757.281632,12048.864311,11026.003781,11726.060417,5658.187647,8797.713673,15577.355394,11233.651487,8050.986594,0.004000,-0.008000,1.014000,192.000000,0.000000,0.000000,0.000000,0.000000,0.000000,0.000000,0.000000,0.000000,0.000000,1772010854.092960,0.000000
144.000000,8832.716505,12319.298067,7119.388237,12340.196948,5434.312574,14470.295843,-9738.163321,-16723.530498,12065.583416,11039.995973,11735.604612,5670.369347,8809.448339,15574.784943,11239.664106,8051.657146,0.000000,-0.008000,1.011000,192.000000,127.500000,112.000000,127.500000,96.000000,15.500000,64.000000,0.000000,0.000000,0.000000,1772010854.092972,0.000000
146.000000,8819.908955,12305.082358,7102.244449,12323.991933,5425.260118,14456.661279,-9755.508274,-16745.345801,12068.980881,11048.087305,11746.534615,5678.907714,8815.706827,15587.301920,11239.418237,8050.204283,0.000000,-0.008000,1.011000,192.000000,0.000000,0.000000,0.000000,0.000000,0.000000,0.000000,0.000000,0.000000,0.000000,1772010854.092984,0.000000
148.000000,8822.837034,12305.864669,7099.830461,12332.597355,5436.078362,14474.855599,-9752.468437,-16742.484777,12055.905110,11037.783150,11719.377246,5661.093373,8807.637847,15580.328176,11238.881795,8052.819437,0.000000,-0.008000,1.011000,192.000000,0.000000,0.000000,0.000000,0.000000,0.000000,0.000000,0.000000,0.000000,0.000000,1772010854.092996,0.000000
150.000000,8833.208243,12315.788843,7114.828481,12330.518643,5445.108467,14479.348299,-9744.466513,-16729.833690,12073.674747,11050.210720,11748.479217,5680.494688,8824.066380,15605.116261,11247.911900,8056.395716,0.000000,-0.008000,1.011000,192.000000,0.000000,0.000000,0.000000,0.000000,0.000000,0.000000,0.000000,0.000000,0.000000,1772010854.093009,0.000000
152.000000,8816.131510,12299.695587,7097.505879,12321.756759,5430.915109,14454.224939,-9764.650138,-16753.906519,12071.014890,11040.755932,11738.487987,5667.351862,8821.942964,15588.687728,11246.168464,8054.339356,0.000000,-0.008000,1.011000,192.000000,0.000000,0.000000,0.000000,0.000000,0.000000,0.000000,0.000000,0.000000,0.000000,1772010854.093021,0.000000
154.000000,8834.012906,12319.633343,7114.828481,12340.219300,5447.343641,14476.062593,-9739.750295,-16727.151481,12075.105259,11055.128104,11738.644450,5675.957283,8820.981839,15578.517685,11248.828322,8056.552178,0.000000,-0.008000,1.011000,192.000000,0.000000,0.000000,127.500000,96.000000,15.500000,64.000000,0.000000,0.000000,0.000000,1772010854.093034,0.000000
156.000000,8826.413313,12309.195079,7100.121033,12322.226146,5433.709077,14469.379421,-9759.285719,-16747.178644,12075.596997,11060.917206,11745.595842,5682.327531,8824.982801,15591.973435,11244.916766,8056.529827,0.000000,-0.008000,1.011000,192.000000,0.000000,0.000000,0.000000,0.000000,0.000000,0.000000,0.000000,0.000000,0.000000,1772010854.093047,0.000000
158.000000,8835.041086,12321.667352,7099.316370,12337.917070,5433.284394,14468.083020,-9754.971833,-16739.534347,12073.719451,11050.680107,11726.596859,5671.531638,8821.607688,15579.568217,11242.122798,8055.032260,0.000000,-0.008000,1.011000,192.000000,0.000000,0.000000,0.000000,0.000000,0.000000,0.000000,0.000000,0.000000,0.000000,1772010854.093060,0.000000
160.000000,8835.957508,12323.075512,7109.486414,12334.273736,5445.667260,14466.294881,-9746.679335,-16731.666533,12087.912808,11069.433221,11749.172121,5695.000970,8838.840883,15617.253258,11244.760304,8057.133324,0.000000,-0.008000,1.011000,192.000000,0.000000,0.000000,0.000000,0.000000,0.000000,0.000000,0.000000,0.000000,0.000000,1772010854.093072,0.000000
162.000000,8825.586298,12312.838413,7094.376635,12331.435064,5430.199853,14471.167561,-9764.806600,-16746.955126,12075.217018,11059.911377,11735.828130,5681.187592,8821.987667,15584.083269,11242.391019,8056.440420,0.000000,-0.008000,1.011000,192.000000,0.000000,0.000000,0.000000,0.000000,0.000000,0.000000,0.000000,0.000000,0.000000,1772010854.093084,0.000000
164.000000,8835.018734,12323.589602,7122.204557,12342.990916,5448.908263,14487.037300,-9738.923280,-16721.004751,12072.043070,11065.812238,11742.980688,5683.445118,8819.260754,15609.452499,11248.783618,8059.390850,-0.001000,-0.007000,1.010500,192.000000,127.500000,120.000000,127.500000,104.000000,15.500000,72.000000,0.000000,0.000000,0.000000,1772010854.093097,0.000000
166.000000,8822.904089,12311.229087,7100.322199,12334.497253,5424.500158,14451.140398,-9751.730830,-16738.148539,12071.327814,11064.381726,11749.328583,5691.782319,8817.718484,15580.238769,11240.491121,8051.143056,-0.001000,-0.007000,1.010500,192.000000,0.000000,0.000000,0.000000,0.000000,0.000000,0.000000,0.000000,0.000000,0.000000,1772010854.093109,0.000000
168.000000,8829.564909,12315.833547,7103.540850,12333.647887,5433.440856,14455.700154,-9749.875635,-16740.160196,12064.957567,11049.271947,11729.323772,5671.196362,8810.923554,15573.197970,11239.909976,8046.248024,-0.001000,-0.007000,1.010500,192.000000,0.000000,0.000000,0.000000,0.000000,0.000000,0.000000,0.000000,0.000000,0.000000,1772010854.093121,0.000000
170.000000,8832.291822,12319.946268,7109.799339,12342.700343,5432.949118,14484.332738,-9741.583138,-16730.973629,12077.586302,11066.348680,11749.730915,5688.451909,8835.689287,15610.525383,11240.759342,8058.116801,-0.001000,-0.007000,1.010500,192.000000,0.000000,0.000000,0.000000,0.000000,0.000000,0.000000,0.000000,0.000000,0.000000,1772010854.093134,0.000000
172.000000,8817.673781,12305.931724,7098.645818,12328.842262,5428.568176,14457.242424,-9762.079687,-16751.805455,12062.320061,11050.054258,11732.073037,5672.313949,8804.307437,15588.441859,11240.804045,8055.680460,-0.001000,-0.007000,1.010500,192.000000,0.000000,0.000000,0.000000,0.000000,0.000000,0.000000,0.000000,0.000000,0.000000,1772010854.093146,0.000000
174.000000,8837.879758,12327.143529,7113.621487,12338.811140,5450.629348,14484.399794,-9740.845530,-16725.206879,12074.792334,11062.727697,11734.576432,5680.405281,8823.641696,15605.339778,11249.655336,8059.770830,-0.001000,-0.007000,1.010500,192.000000,0.000000,0.000000,0.000000,0.000000,0.000000,0.000000,0.000000,0.000000,0.000000,1772010854.093158,0.000000
176.000000,8830.414275,12320.102730,7103.406740,12313.777186,5442.135685,14467.054840,-9759.464533,-16743.736475,12066.097506,11059.441991,11744.008868,5681.880496,8824.781635,15596.376729,11249.543577,8057.714469,0.004000,-0.012000,1.006000,192.000000,0.000000,16.000000,127.500000,80.000000,15.500000,56.000000,0.000000,0.000000,0.000000,1772010854.093171,0.000000
178.000000,8831.576566,12315.811195,7115.364923,12336.687724,5447.209531,14451.766247,-9753.809542,-16738.215594,12078.882704,11057.922072,11732.855348,5666.636606,8829.073170,15577.780077,11253.253967,8052.104181,0.004000,-0.012000,1.006000,192.000000,0.000000,0.000000,0.000000,0.000000,0.000000,0.000000,0.000000,0.000000,0.000000,1772010854.093183,0.000000
180.000000,8842.975955,12326.025942,7120.349362,12343.549710,5449.556464,14488.557218,-9743.706553,-16723.396388,12078.078041,11064.962872,11753.441304,5688.943647,8824.133435,15597.673130,11253.343374,8056.686289,0.004000,-0.012000,1.006000,192.000000,0.000000,0.000000,0.000000,0.000000,0.000000,0.000000,0.000000,0.000000,0.000000,1772010854.093196,0.000000
182.000000,8835.041086,12320.460358,7102.356208,12332.530300,5439.542882,14461.735125,-9762.169094,-16741.188376,12079.821477,11060.559578,11743.897109,5681.344054,8829.721371,15588.888894,11246.436685,8058.474428,0.004000,-0.012000,1.006000,192.000000,0.000000,0.000000,0.000000,0.000000,0.000000,0.000000,0.000000,0.000000,0.000000,1772010854.093208,0.000000
184.000000,8842.439513,12338.229995,7118.181243,12343.728524,5456.753726,14484.466849,-9740.599661,-16721.742358,12084.358881,11070.573160,11743.070095,5690.105938,8835.823397,15600.735319,11251.219958,8057.870931,0.004000,-0.012000,1.006000,192.000000,0.000000,0.000000,0.000000,0.000000,0.000000,0.000000,0.000000,0.000000,0.000000,1772010854.093221,0.000000
186.000000,8820.735970,12312.369026,7104.636086,12328.127006,5443.052106,14462.539788,-9757.229359,-16743.848234,12076.826343,11061.923034,11743.137150,5690.463566,8835.510473,15606.859697,11246.213167,8057.982690,0.002000,-0.008000,0.998000,192.000000,0.000000,8.000000,127.500000,96.000000,15.500000,24.000000,0.000000,0.000000,0.000000,1772010854.093233,0.000000
188.000000,8823.507586,12311.027922,7108.704103,12337.984125,5441.129856,14474.766192,-9749.629766,-16736.315696,12066.924520,11047.260290,11730.798987,5670.190533,8818.031409,15570.471057,11247.777790,8052.260644,0.002000,-0.008000,0.998000,192.000000,0.000000,0.000000,0.000000,0.000000,0.000000,0.000000,0.000000,0.000000,0.000000,1772010854.093263,0.000000
190.000000,8830.034295,12317.576983,7116.124882,12339.928727,5444.214397,14480.577645,-9739.169149,-16722.614076,12077.631006,11073.747107,11753.150732,5692.475223,8834.795217,15612.067653,11244.559138,8058.541484,0.002000,-0.008000,0.998000,192.000000,0.000000,0.000000,0.000000,0.000000,0.000000,0.000000,0.000000,0.000000,0.000000,1772010854.093276,0.000000
192.000000,8817.696132,12302.623666,7096.991789,12329.356352,5425.327173,14460.930462,-9757.765801,-16740.808396,12062.163599,11049.160188,11738.532691,5675.219676,8815.662124,15592.308711,11242.279260,8051.791257,0.002000,-0.008000,0.998000,192.000000,0.000000,0.000000,0.000000,0.000000,0.000000,0.000000,0.000000,0.000000,0.000000,1772010854.093288,0.000000
194.000000,8837.902109,12326.137701,7108.167661,12336.441855,5440.325193,14482.455192,-9734.207062,-16716.355588,12078.569779,11057.072706,11738.935022,5683.221600,8830.078999,15595.102679,11242.323964,8052.394754,0.002000,-0.008000,0.998000,192.000000,0.000000,0.000000,0.000000,0.000000,0.000000,0.000000,0.000000,0.000000,0.000000,1772010854.093301,0.000000
196.000000,8821.719446,12312.838413,7101.573897,12325.713018,5439.006441,14460.595186,-9751.753181,-16738.215594,12061.694212,11061.341889,11744.433551,5687.893115,8820.311286,15600.869429,11240.848749,8047.812646,0.004000,-0.010000,1.008000,192.000000,0.000000,16.000000,127.500000,88.000000,15.500000,64.000000,0.000000,0.000000,0.000000,1772010854.093313,0.000000
198.000000,8832.358877,12315.744140,7115.342571,12328.842262,5442.426257,14462.584491,-9749.070972,-16732.359437,12070.523151,11042.141741,11733.704714,5665.966054,8813.672818,15596.779060,11248.783618,8051.254815,0.004000,-0.010000,1.008000,192.000000,0.000000,0.000000,0.000000,0.000000,0.000000,0.000000,0.000000,0.000000,0.000000,1772010854.093326,0.000000
200.000000,8841.120761,12323.522547,7122.361019,12341.180425,5448.193007,14469.535884,-9738.923280,-16716.422643,12082.414279,11061.788924,11759.386868,5697.034979,8826.502720,15585.223208,11249.878854,8056.485123,0.004000,-0.010000,1.008000,192.000000,0.000000,0.000000,0.000000,0.000000,0.000000,0.000000,0.000000,0.000000,0.000000,1772010854.093338,0.000000
202.000000,8831.263641,12312.950172,7103.876126,12329.110483,5432.367972,14458.225901,-9758.682222,-16738.707332,12080.670843,11042.655831,11748.725086,5681.366406,8828.223804,15588.240694,11248.291880,8053.802914,0.004000,-0.010000,1.008000,192.000000,0.000000,0.000000,0.000000,0.000000,0.000000,0.000000,0.000000,0.000000,0.000000,1772010854.093350,0.000000
204.000000,8843.713563,12334.921936,7115.186109,12345.024925,5451.456362,14483.617483,-9735.011725,-16715.059187,12080.156753,11056.558616,11745.864063,5687.356673,8825.474539,15586.229037,11247.531920,8052.573568,0.004000,-0.010000,1.008000,192.000000,0.000000,0.000000,0.000000,0.000000,0.000000,0.000000,0.000000,0.000000,0.000000,1772010854.093363,0.000000
206.000000,8826.659182,12317.107596,7103.183222,12332.127968,5441.196911,14467.613634,-9753.138990,-16740.249603,12078.525076,11065.454610,11749.283880,5696.722054,8833.297650,15604.892743,11243.039220,8058.362670,0.002000,-0.012000,1.002000,192.000000,0.000000,8.000000,127.500000,80.000000,15.500000,40.000000,0.000000,0.000000,0.000000,1772010854.093375,0.000000
208.000000,8834.169368,12322.650829,7104.479623,12333.334963,5451.992804,14476.107296,-9750.546187,-16736.248641,12072.221884,11043.907528,11732.564775,5670.123478,8818.321981,15601.562333,11251.376420,8053.110010,0.002000,-0.012000,1.002000,192.000000,0.000000,0.000000,0.000000,0.000000,0.000000,0.000000,0.000000,0.000000,0.000000,1772010854.093387,0.000000
210.000000,8836.985688,12325.198928,7125.467911,12340.532224,5449.623519,14482.499895,-9738.945632,-16725.139824,12080.201457,11069.612035,11753.597767,5693.413996,8834.169368,15628.742055,11253.790409,8062.609501,0.002000,-0.012000,1.002000,192.000000,0.000000,0.000000,0.000000,0.000000,0.000000,0.000000,0.000000,0.000000,0.000000,1772010854.572368,0.000000
212.000000,8819.059589,12310.022093,7106.066597,12329.334000,5433.329097,14465.870198,-9757.005841,-16750.464350,12066.633948,11053.474075,11738.689153,5674.236199,8822.859385,15589.693557,11248.805970,8054.719335,0.002000,-0.012000,1.002000,192.000000,0.000000,0.000000,0.000000,0.000000,0.000000,0.000000,0.000000,0.000000,0.000000,1772010854.572461,0.000000
214.000000,8828.782598,12318.336942,7121.422246,12346.388381,5449.847037,14480.242369,-9730.496672,-16722.099986,12068.198570,11046.880310,11739.605575,5677.119574,8827.866176,15589.335929,11252.784580,8054.562873,0.002000,-0.012000,1.002000,192.000000,0.000000,0.000000,0.000000,0.000000,0.000000,0.000000,0.000000,0.000000,0.000000,1772010854.572508,0.000000
216.000000,8812.443472,12306.848145,7101.059806,12335.480730,5431.205682,14456.638927,-9750.434429,-16744.474083,12061.247177,11045.852130,11744.880586,5684.875630,8821.920612,15582.786868,11246.056705,8052.193588,0.002000,-0.012000,1.002000,192.000000,0.000000,0.000000,127.500000,80.000000,15.500000,64.000000,0.000000,0.000000,0.000000,1772010854.572559,0.000000
218.000000,8818.545499,12308.859802,7105.463100,12333.871404,5440.615766,14464.238520,-9751.216740,-16745.032876,12054.876930,11037.604336,11722.394731,5666.122516,8813.337542,15587.100755,11245.386153,8052.953548,0.002000,-0.012000,1.002000,192.000000,0.000000,0.000000,0.000000,0.000000,0.000000,0.000000,0.000000,0.000000,0.000000,1772010854.572648,0.000000
220.000000,8817.137339,12306.244648,7112.481548,12334.899585,5450.651699,14467.434820,-9742.834835,-16737.723856,12067.863294,11045.226281,11740.544348,5680.941723,8825.385132,15593.850981,11252.404601,8056.283958,0.002000,-0.012000,1.002000,192.000000,0.000000,0.000000,0.000000,0.000000,0.000000,0.000000,0.000000,0.000000,0.000000,1772010854.572699,0.000000
222.000000,8810.342408,12301.908410,7097.327065,12332.932631,5435.541920,14463.053878,-9759.442182,-16752.990097,12058.252044,11041.046505,11726.105121,5669.765850,8818.858423,15590.744089,11248.761266,8053.311176,0.002000,-0.012000,1.002000,192.000000,0.000000,0.000000,0.000000,0.000000,0.000000,0.000000,0.000000,0.000000,0.000000,1772010854.572747,0.000000
224.000000,8832.984726,12321.890869,7120.952859,12347.170692,5458.206589,14483.729241,-9735.212891,-16720.021274,12077.698061,11055.083401,11736.230461,5680.941723,8839.980822,15601.495278,11254.639775,8061.916597,0.002000,-0.012000,1.002000,192.000000,0.000000,0.000000,0.000000,0.000000,0.000000,0.000000,0.000000,0.000000,0.000000,1772010854.572793,0.000000
226.000000,8833.141188,12317.755797,7112.570955,12332.932631,5440.906339,14469.759401,-9751.484960,-16731.599478,12077.340433,11053.496427,11755.452961,5688.921295,8836.136322,15617.901458,11253.678650,8055.926330,0.002000,-0.012000,1.002000,192.000000,0.000000,0.000000,127.500000,120.000000,15.500000,48.000000,0.000000,0.000000,0.000000,1772010854.572838,0.000000
228.000000,8834.325830,12323.343733,7103.943182,12340.934556,5448.081249,14476.889608,-9748.914510,-16731.443016,12078.592131,11048.690802,11737.705676,5675.733766,8831.464807,15595.192086,11249.387115,8056.932158,0.002000,-0.012000,1.002000,192.000000,0.000000,0.000000,0.000000,0.000000,0.000000,0.000000,0.000000,0.000000,0.000000,1772010854.572850,0.000000
230.000000,8835.935156,12330.071608,7121.310487,12338.498215,5455.703194,14481.851695,-9739.124446,-16725.095120,12082.995425,11074.931750,11750.245005,5692.251705,8838.282089,15618.281438,11256.293804,8062.877722,0.002000,-0.012000,1.002000,192.000000,0.000000,0.000000,0.000000,0.000000,0.000000,0.000000,0.000000,0.000000,0.000000,1772010854.572862,0.000000
232.000000,8823.708752,12310.469128,7111.632182,12330.965678,5439.297013,14443.138473,-9755.396516,-16745.815187,12073.719451,11045.449799,11738.443284,5678.997121,8818.411388,15595.370900,11251.376420,8050.427800,0.002000,-0.012000,1.002000,192.000000,0.000000,0.000000,0.000000,0.000000,0.000000,0.000000,0.000000,0.000000,0.000000,1772010854.572874,0.000000
234.000000,8832.090656,12321.399131,7121.645763,12340.465169,5451.523417,14478.431878,-9733.760027,-16721.541193,12079.620311,11053.071744,11739.806740,5679.779432,8846.909862,15594.253313,11254.975051,8054.361707,0.002000,-0.012000,1.002000,192.000000,0.000000,0.000000,0.000000,0.000000,0.000000,0.000000,0.000000,0.000000,0.000000,1772010854.572886,0.000000
236.000000,8817.070284,12308.010436,7112.705065,12338.922899,5433.552615,14469.200607,-9750.613242,-16740.160196,12074.613520,11055.239863,11743.494778,5687.244914,8824.267545,15602.031720,11249.655336,8058.049745,0.004000,-0.008000,1.002000,192.000000,0.000000,16.000000,127.500000,96.000000,15.500000,40.000000,0.000000,0.000000,0.000000,1772010854.572898,0.000000
238.000000,8822.971144,12315.006532,7112.638010,12338.565271,5441.711002,14472.687480,-9747.483998,-16738.305001,12065.672823,11046.008592,11725.523976,5669.765850,8816.757359,15604.780984,11251.108199,8056.909806,0.004000,-0.008000,1.002000,192.000000,0.000000,0.000000,0.000000,0.000000,0.000000,0.000000,0.000000,0.000000,0.000000,1772010854.572909,0.000000
240.000000,8825.049856,12316.012361,7110.268725,12345.784884,5447.880083,14490.658282,-9739.213853,-16729.319600,12076.602826,11065.231093,11743.181854,5691.961133,8829.900185,15606.837345,11250.147074,8059.949644,0.004000,-0.008000,1.002000,192.000000,0.000000,0.000000,0.000000,0.000000,0.000000,0.000000,0.000000,0.000000,0.000000,1772010854.572921,0.000000
242.000000,8822.993496,12305.417634,7107.653571,12329.937497,5435.743086,14455.521340,-9758.838684,-16750.509054,12074.211189,11045.427447,11734.710543,5673.744461,8824.781635,15592.979263,11248.560101,8054.741687,0.004000,-0.008000,1.002000,192.000000,0.000000,0.000000,0.000000,0.000000,0.000000,0.000000,0.000000,0.000000,0.000000,1772010854.572933,0.000000
244.000000,8836.270432,12325.355390,7119.455292,12343.147378,5455.256159,14483.528076,-9735.302298,-16721.250620,12072.177180,11054.166979,11736.521034,5678.237161,8819.864252,15606.591476,11254.639775,8054.987556,0.004000,-0.008000,1.002000,192.000000,0.000000,0.000000,0.000000,0.000000,0.000000,0.000000,0.000000,0.000000,0.000000,1772010854.572945,0.000000
246.000000,8827.642659,12314.403035,7102.959705,12337.760608,5441.979223,14471.569892,-9750.590891,-16733.298210,12080.313215,11066.572197,11747.316926,5691.156470,8834.236423,15603.864563,11250.080019,8056.730992,0.004000,-0.009000,1.007000,192.000000,0.000000,16.000000,127.500000,88.000000,15.500000,80.000000,0.000000,0.000000,0.000000,1772010854.572957,0.000000
248.000000,8823.261717,12313.464262,7111.028685,12339.347582,5450.405830,14472.910997,-9749.249786,-16736.762731,12061.515398,11039.258366,11726.395694,5668.134173,8811.661161,15582.719813,11251.823455,8057.781524,0.004000,-0.009000,1.007000,192.000000,0.000000,0.000000,0.000000,0.000000,0.000000,0.000000,0.000000,0.000000,0.000000,1772010854.572968,0.000000
250.000000,8835.644583,12327.747026,7120.036438,12345.471960,5456.373746,14486.031471,-9738.453893,-16724.625733,12075.462887,11067.466267,11745.148807,5694.442176,8827.530900,15601.160002,11254.170388,8061.715431,0.004000,-0.009000,1.007000,192.000000,0.000000,0.000000,0.000000,0.000000,0.000000,0.000000,0.000000,0.000000,0.000000,1772010854.572982,0.000000
252.000000,8828.201452,12318.895736,7104.434920,12333.938460,5447.835380,14471.256968,-9758.548112,-16746.262222,12078.122744,11054.904587,11736.945717,5679.399452,8834.281127,15605.406833,11255.109162,8060.709603,0.004000,-0.009000,1.007000,192.000000,0.000000,0.000000,0.000000,0.000000,0.000000,0.000000,0.000000,0.000000,0.000000,1772010854.572994,0.000000
254.000000,8840.047877,12330.719808,7126.518443,12346.634250,5465.470906,14493.139326,-9735.034077,-16722.211745,12082.280169,11065.231093,11739.493816,5683.266304,8836.002211,15635.134653,11258.372516,8065.068193,0.004000,-0.009000,1.007000,192.000000,0.000000,0.000000,0.000000,0.000000,0.000000,0.000000,0.000000,0.000000,0.000000,1772010854.573006,0.000000
0.000000,8827.195624,12312.838413,7108.882917,12336.039524,5451.813990,14468.239482,-9751.753181,-16741.635411,12083.330701,11066.482790,11747.473389,5686.283789,8839.109104,15613.520517,11256.383211,8061.938949,0.003000,-0.009500,1.008500,192.000000,0.000000,8.000000,127.500000,88.000000,15.500000,72.000000,0.000000,0.000000,0.000000,1772010854.573018,0.000000
2.000000,8831.889490,12315.542974,7110.648705,12341.180425,5448.505932,14480.220017,-9747.461646,-16739.109664,12082.168410,11054.859883,11727.669743,5672.313949,8829.386095,15600.578857,11253.052801,8059.435553,0.003000,-0.009500,1.008500,192.000000,0.000000,0.000000,0.000000,0.000000,0.000000,0.000000,0.000000,0.000000,0.000000,1772010854.573029,0.000000
4.000000,8834.750513,12321.242669,7120.058789,12343.460303,5448.975319,14486.992596,-9738.923280,-16729.811338,12075.306425,11074.283549,11746.065229,5690.441214,8835.912804,15616.917982,11258.104296,8062.564798,0.003000,-0.009500,1.008500,192.000000,0.000000,0.000000,0.000000,0.000000,0.000000,0.000000,0.000000,0.000000,0.000000,1772010854.573041,0.000000
6.000000,8821.451225,12308.815099,7100.903344,12326.092997,5439.073496,14464.663203,-9759.129257,-16750.576109,12070.187875,11063.375898,11730.843691,5677.790127,8825.653353,15602.501107,11253.253967,8057.848580,0.003000,-0.009500,1.008500,192.000000,0.000000,0.000000,0.000000,0.000000,0.000000,0.000000,0.000000,0.000000,0.000000,1772010854.573053,0.000000
8.000000,8836.583356,12320.460358,7121.265783,12352.289242,5451.232845,14483.013986,-9733.178882,-16723.865774,12081.900189,11059.710212,11735.828130,5684.562705,8838.527958,15602.389348,11254.930348,8059.636719,0.003000,-0.009500,1.008500,192.000000,0.000000,0.000000,0.000000,0.000000,0.000000,0.000000,0.000000,0.000000,0.000000,1772010854.573064,0.000000
10.000000,8820.445397,12305.551744,7114.962592,12337.045352,5436.503045,14456.549520,-9749.450952,-16741.836577,12064.443477,11053.719944,11745.461732,5685.903810,8820.691266,15607.127918,11251.577586,8053.802914,0.003000,-0.009500,1.008500,192.000000,0.000000,0.000000,127.500000,80.000000,15.500000,80.000000,0.000000,0.000000,0.000000,1772010854.573076,0.000000
12.000000,8838.595013,12317.398169,7114.381446,12338.967602,5442.761534,14475.526151,-9745.986431,-16731.599478,12069.092640,11050.098962,11730.106083,5673.744461,8817.897298,15606.636179,11251.823455,8054.205245,0.003000,-0.009500,1.008500,192.000000,0.000000,0.000000,0.000000,0.000000,0.000000,0.000000,0.000000,0.000000,0.000000,1772010854.573088,0.000000
14.000000,8845.948737,12325.802425,7113.867356,12347.438913,5455.882008,14490.546523,-9736.241071,-16716.154422,12088.225733,11064.426430,11754.514188,5695.135080,8846.462827,15622.930601,11255.958528,8063.816495,0.003000,-0.009500,1.008500,192.000000,0.000000,0.000000,0.000000,0.000000,0.000000,0.000000,0.000000,0.000000,0.000000,1772010854.573099,0.000000
16.000000,8824.781635,12313.777186,7101.998580,12338.341753,5439.989917,14455.387229,-9756.514103,-16738.349705,12072.065422,11058.458514,11738.175063,5688.608371,8832.247118,15587.905417,11251.510531,8058.563835,0.003000,-0.009500,1.008500,192.000000,0.000000,0.000000,0.000000,0.000000,0.000000,0.000000,0.000000,0.000000,0.000000,1772010854.573111,0.000000
18.000000,8845.389944,12329.870442,7132.218138,12344.264966,5455.904359,14483.505724,-9734.274117,-16714.254524,12076.222846,11067.555674,11739.940851,5692.586981,8826.547423,15604.378653,11256.047935,8056.574530,0.003000,-0.009500,1.008500,192.000000,0.000000,0.000000,0.000000,0.000000,0.000000,0.000000,0.000000,0.000000,0.000000,1772010854.573123,0.000000
20.000000,8824.155787,12310.469128,7112.593307,12334.631364,5447.790676,14468.440648,-9751.820237,-16737.366228,12075.775811,11065.409907,11748.970955,5688.764833,8828.603784,15611.821784,11255.891473,8056.574530,0.000500,-0.010750,1.007250,192.000000,127.500000,120.000000,127.500000,80.000000,15.500000,56.000000,0.000000,0.000000,0.000000,1772010854.573135,0.000000
22.000000,8830.078999,12317.241707,7115.990772,12341.828625,5454.719717,14477.582512,-9747.908681,-16735.488681,12074.255893,11045.427447,11728.563813,5672.872743,8824.111083,15591.682862,11258.148999,8056.261606,0.000500,-0.010750,1.007250,192.000000,0.000000,0.000000,0.000000,0.000000,0.000000,0.000000,0.000000,0.000000,0.000000,1772010854.573146,0.000000
24.000000,8836.717467,12318.269887,7112.973286,12352.177483,5465.426202,14493.899285,-9738.342135,-16727.710274,12081.699023,11064.359375,11747.004002,5693.883383,8842.014830,15608.513726,11261.837037,8062.162466,0.000500,-0.010750,1.007250,192.000000,0.000000,0.000000,0.000000,0.000000,0.000000,0.000000,0.000000,0.000000,0.000000,1772010854.573158,0.000000
26.000000,8817.070284,12301.528430,7105.776025,12336.084227,5442.046278,14471.614596,-9758.011670,-16750.173777,12077.474544,11053.518779,11730.888394,5678.572438,8828.290859,15603.708101,11254.416258,8062.363632,0.000500,-0.010750,1.007250,192.000000,0.000000,0.000000,0.000000,0.000000,0.000000,0.000000,0.000000,0.000000,0.000000,1772010854.573172,0.000000
28.000000,8836.337487,12322.404959,7124.171510,12342.298012,5464.621540,14494.458079,-9734.654097,-16724.268106,12074.077079,11055.821008,11734.017638,5677.812478,8824.803987,15620.762482,11259.892435,8061.871894,0.000500,-0.010750,1.007250,192.000000,0.000000,0.000000,0.000000,0.000000,0.000000,0.000000,0.000000,0.000000,0.000000,1772010854.573183,0.000000
30.000000,8830.593089,12311.340846,7108.704103,12332.172672,5449.981147,14475.235578,-9751.015574,-16741.814225,12077.228675,11054.882235,11742.444246,5682.372234,8833.431760,15619.600191,11258.774848,8057.714469,0.000500,-0.010750,1.007250,192.000000,0.000000,0.000000,127.500000,56.000000,15.500000,48.000000,0.000000,0.000000,0.000000,1772010854.573195,0.000000
32.000000,8833.811740,12314.626552,7113.733246,12329.468111,5452.439839,14477.738974,-9748.132199,-16737.232117,12076.491067,11041.560595,11725.211051,5668.357690,8828.626135,15600.087118,11257.098467,8054.406411,0.000500,-0.010750,1.007250,192.000000,0.000000,0.000000,0.000000,0.000000,0.000000,0.000000,0.000000,0.000000,0.000000,1772010854.573207,0.000000
34.000000,8837.320964,12321.868518,7112.995638,12350.344640,5450.428182,14489.518343,-9737.984507,-16727.464405,12085.923503,11070.036718,11746.154636,5693.704569,8842.640679,15611.441804,11256.517322,8060.843713,0.000500,-0.010750,1.007250,192.000000,0.000000,0.000000,0.000000,0.000000,0.000000,0.000000,0.000000,0.000000,0.000000,1772010854.573218,0.000000
36.000000,8827.530900,12317.286410,7103.764368,12342.566233,5424.880138,14469.066497,-9756.067068,-16746.061056,12068.220922,11060.492523,11729.100255,5681.254647,8820.780673,15612.805261,11247.822493,8057.692117,0.000500,-0.010750,1.007250,192.000000,0.000000,0.000000,0.000000,0.000000,0.000000,0.000000,0.000000,0.000000,0.000000,1772010854.573231,0.000000
38.000000,8839.779656,12329.959849,7121.154025,12351.708096,5443.655603,14491.619407,-9732.195405,-16719.507184,12080.626140,11077.278683,11734.934060,5690.955304,8826.927403,15618.750825,11248.805970,8058.787353,0.000500,-0.010750,1.007250,192.000000,0.000000,0.000000,0.000000,0.000000,0.000000,0.000000,0.000000,0.000000,0.000000,1772010854.573242,0.000000
40.000000,8826.815644,12309.083320,7107.631219,12336.061875,5439.028792,14450.268680,-9748.221606,-16735.511033,12074.993500,11067.555674,11741.326659,5694.486880,8831.107179,15611.508860,11246.123760,8053.467638,-0.000750,-0.013375,1.004625,192.000000,127.500000,120.000000,127.500000,64.000000,15.500000,40.000000,0.000000,0.000000,0.000000,1772010854.573253,0.000000
42.000000,8845.121723,12333.424370,7109.933449,12340.331059,5447.835380,14464.260872,-9743.460684,-16722.837594,12075.954625,11052.378840,11730.731932,5674.392661,8840.159636,15622.774139,11247.218996,8048.997289,-0.000750,-0.013375,1.004625,192.000000,0.000000,0.000000,0.000000,0.000000,0.000000,0.000000,0.000000,0.000000,0.000000,1772010854.573265,0.000000
44.000000,8846.552234,12334.005515,7121.109321,12345.918995,5458.184237,14491.753518,-9735.101132,-16715.014483,12089.700948,11082.285474,11758.470447,5698.666656,8841.634851,15621.120110,11255.690307,8052.282995,-0.000750,-0.013375,1.004625,192.000000,0.000000,0.000000,0.000000,0.000000,0.000000,0.000000,0.000000,0.000000,0.000000,1772010854.573306,0.000000
46.000000,8826.972106,12308.256305,7107.385350,12340.353410,5439.118199,14474.654433,-9756.916434,-16744.764655,12078.748593,11064.113505,11736.208109,5688.206039,8828.268508,15605.585647,11248.157769,8057.423896,-0.000750,-0.013375,1.004625,192.000000,0.000000,0.000000,0.000000,0.000000,0.000000,0.000000,0.000000,0.000000,0.000000,1772010854.573318,0.000000
48.000000,8836.940984,12320.482709,7121.265783,12352.848035,5452.439839,14484.824477,-9734.005896,-16719.216611,12080.492029,11054.681069,11738.599746,5681.656978,8826.390961,15608.111394,11252.628118,8054.808742,-0.000750,-0.013375,1.004625,192.000000,0.000000,0.000000,0.000000,0.000000,0.000000,0.000000,0.000000,0.000000,0.000000,1772010854.573330,0.000000
50.000000,8818.366685,12317.532279,7095.628333,12341.180425,5438.648813,14477.180180,-9751.373202,-16738.684981,12061.470695,11067.980357,11737.549214,5693.123423,8823.954621,15621.857717,11244.134455,8057.669766,-0.000750,-0.013375,1.004625,192.000000,0.000000,0.000000,127.500000,88.000000,15.500000,64.000000,0.000000,0.000000,0.000000,1772010854.573341,0.000000
52.000000,8830.257813,12317.934611,7110.358132,12340.688686,5451.970452,14476.599035,-9747.059315,-16731.398312,12064.398773,11059.553750,11725.322810,5674.683234,8809.962429,15599.751842,11245.810836,8056.082792,-0.000750,-0.013375,1.004625,192.000000,0.000000,0.000000,0.000000,0.000000,0.000000,0.000000,0.000000,0.000000,0.000000,1772010854.573353,0.000000
54.000000,8844.495874,12316.794672,7122.316315,12340.085189,5459.055955,14481.516419,-9737.269251,-16718.926039,12088.493954,11063.107677,11755.475313,5691.916429,8840.003173,15604.110432,11255.489141,8058.183856,-0.000750,-0.013375,1.004625,192.000000,0.000000,0.000000,0.000000,0.000000,0.000000,0.000000,0.000000,0.000000,0.000000,1772010854.573364,0.000000
56.000000,8828.402618,12307.473994,7102.892650,12331.300954,5444.504970,14473.805067,-9759.665699,-16746.128112,12081.251989,11051.887101,11739.873795,5671.397528,8838.125627,15614.928676,11252.717525,8056.753344,-0.000750,-0.013375,1.004625,192.000000,0.000000,0.000000,0.000000,0.000000,0.000000,0.000000,0.000000,0.000000,0.000000,1772010854.573376,0.000000
58.000000,8838.527958,12317.867555,7116.326048,12348.355335,5462.609883,14497.363805,-9736.419885,-16727.352646,12081.810782,11060.917206,11734.285859,5679.287693,8839.086752,15615.018083,11255.824418,8062.184818,-0.000750,-0.013375,1.004625,192.000000,0.000000,0.000000,0.000000,0.000000,0.000000,0.000000,0.000000,0.000000,0.000000,1772010854.573390,0.000000
60.000000,8823.596993,12304.814137,7101.819766,12338.051181,5447.611862,14469.267663,-9751.037926,-16742.462426,12075.887570,11060.269005,11739.449112,5685.523830,8835.242252,15598.880124,11249.856502,8059.614367,-0.000750,-0.013375,1.004625,192.000000,0.000000,0.000000,0.000000,0.000000,0.000000,0.000000,0.000000,0.000000,0.000000,1772010854.573402,0.000000
62.000000,8827.955583,12314.403035,7094.130766,12343.639117,5445.711964,14485.427974,-9749.741524,-16737.030952,12067.997404,11046.813255,11719.578412,5670.995196,8831.062476,15599.640083,11248.157769,8057.245083,-0.000750,-0.013375,1.004625,192.000000,0.000000,0.000000,127.500000,80.000000,15.500000,32.000000,0.000000,0.000000,0.000000,1772010854.573413,0.000000
64.000000,8834.214072,12316.079416,7115.789606,12328.618744,5450.763458,14494.592189,-9740.443199,-16730.280725,12078.323910,11069.612035,11738.018601,5690.262400,8824.088731,15629.502014,11246.302574,8062.117763,-0.000750,-0.013375,1.004625,192.000000,0.000000,0.000000,0.000000,0.000000,0.000000,0.000000,0.000000,0.000000,0.000000,1772010854.573425,0.000000
66.000000,8819.998362,12297.393357,7099.182260,12333.469073,5441.554539,14454.180235,-9758.883388,-16748.989135,12074.591169,11046.880310,11729.860214,5666.278978,8833.118836,15602.791679,11249.387115,8054.853446,-0.000750,-0.013375,1.004625,192.000000,0.000000,0.000000,0.000000,0.000000,0.000000,0.000000,0.000000,0.000000,0.000000,1772010854.573437,0.000000
68.000000,8836.896281,12319.633343,7120.841100,12344.220262,5456.731374,14479.616520,-9734.318821,-16718.836632,12078.167448,11050.031906,11736.588089,5678.728900,8836.963336,15591.280531,11252.382249,8052.506513,-0.000750,-0.013375,1.004625,192.000000,0.000000,0.000000,0.000000,0.000000,0.000000,0.000000,0.000000,0.000000,0.000000,1772010854.573448,0.000000
70.000000,8820.423045,12305.976427,7109.866394,12333.357314,5443.812066,14469.938215,-9750.948519,-16738.036780,12071.931311,11060.626633,11742.868929,5683.780394,8821.026542,15614.705159,11251.331717,8051.143056,-0.000750,-0.013375,1.004625,192.000000,0.000000,0.000000,0.000000,0.000000,0.000000,0.000000,0.000000,0.000000,0.000000,1772010854.573460,0.000000
72.000000,8827.463845,12311.921991,7110.805167,12336.620669,5456.843133,14475.168523,-9748.690992,-16732.918231,12067.483314,11043.169921,11722.774711,5668.894132,8820.601859,15596.376729,11251.801104,8050.651318,0.002000,-0.010000,1.006000,192.000000,0.000000,8.000000,127.500000,88.000000,15.500000,56.000000,0.000000,0.000000,0.000000,1772010854.573472,0.000000
74.000000,8838.192682,12316.392340,7119.455292,12339.861672,5455.613787,14479.683576,-9738.722114,-16722.547021,12087.711643,11062.235959,11749.350935,5689.144813,8835.242252,15625.255182,11254.818589,8053.422934,0.002000,-0.010000,1.006000,192.000000,0.000000,0.000000,0.000000,0.000000,0.000000,0.000000,0.000000,0.000000,0.000000,1772010855.053131,0.000000
76.000000,8827.888528,12308.882154,7103.786719,12334.787826,5434.111408,14475.682613,-9757.519931,-16741.523652,12078.569779,11049.607223,11735.649316,5675.711414,8825.049856,15603.797508,11246.906072,8052.618271,0.002000,-0.010000,1.006000,192.000000,0.000000,0.000000,0.000000,0.000000,0.000000,0.000000,0.000000,0.000000,0.000000,1772010855.053204,0.000000
78.000000,8848.474485,12323.343733,7120.841100,12336.821835,5462.788697,14499.777794,-9736.531643,-16718.255486,12090.527963,11059.441991,11740.253775,5678.684196,8834.638755,15627.691523,11251.555234,8055.680460,0.002000,-0.010000,1.006000,192.000000,0.000000,0.000000,0.000000,0.000000,0.000000,0.000000,0.000000,0.000000,0.000000,1772010855.053248,0.000000
80.000000,8832.045952,12316.504099,7089.973341,12346.701306,5442.292147,14476.509628,-9749.294490,-16730.660704,12091.399681,11063.577064,11744.768828,5691.625856,8847.692173,15630.753712,11248.224824,8056.887455,0.002000,-0.010000,1.006000,192.000000,0.000000,0.000000,0.000000,0.000000,0.000000,0.000000,0.000000,0.000000,0.000000,1772010855.053295,0.000000
82.000000,8827.955583,12312.905468,7116.080179,12345.449608,5442.515664,14478.588340,-9747.215777,-16734.482853,12072.512456,11053.809351,11723.132339,5680.539391,8820.400693,15603.149307,11244.223862,8052.484161,0.002000,-0.010000,1.006000,192.000000,0.000000,0.000000,127.500000,104.000000,15.500000,56.000000,0.000000,0.000000,0.000000,1772010855.053342,0.000000
84.000000,8830.794255,12309.999741,7119.276478,12346.321326,5453.132743,14485.562084,-9740.063219,-16729.967800,12082.481335,11065.946348,11743.405371,5691.178821,8830.257813,15615.353360,11247.330755,8054.160542,0.002000,-0.010000,1.006000,192.000000,0.000000,0.000000,0.000000,0.000000,0.000000,0.000000,0.000000,0.000000,0.000000,1772010855.053389,0.000000
86.000000,8831.174234,12306.758738,7103.809071,12331.524471,5451.523417,14464.059706,-9758.391650,-16744.719952,12078.726241,11048.042601,11731.022505,5672.202190,8830.458978,15605.563296,11247.375458,8052.417106,0.002000,-0.010000,1.006000,192.000000,0.000000,0.000000,0.000000,0.000000,0.000000,0.000000,0.000000,0.000000,0.000000,1772010855.053415,0.000000
88.000000,8844.317060,12323.768416,7120.796397,12346.343678,5461.402888,14500.336587,-9735.369353,-16717.786100,12090.326797,11067.488619,11738.040952,5682.729862,8833.588223,15616.403892,11252.494008,8051.970071,0.002000,-0.010000,1.006000,192.000000,0.000000,0.000000,0.000000,0.000000,0.000000,0.000000,0.000000,0.000000,0.000000,1772010855.053427,0.000000
90.000000,8836.717467,12309.664465,7107.385350,12337.604146,5446.114295,14473.603901,-9750.725001,-16734.415798,12082.034300,11063.755877,11742.600708,5687.468432,8828.782598,15635.246412,11246.704906,8053.244120,0.002000,-0.010000,1.006000,192.000000,0.000000,0.000000,0.000000,0.000000,0.000000,0.000000,0.000000,0.000000,0.000000,1772010855.053449,0.000000
92.000000,8832.448284,12313.374855,7106.893612,12341.694515,5442.046278,14477.023718,-9750.188559,-16735.242812,12080.044994,11047.819084,11722.618249,5672.090432,8842.372458,15607.083214,11244.022696,8047.656184,0.002000,-0.010000,1.006000,192.000000,0.000000,0.000000,127.500000,88.000000,15.500000,72.000000,0.000000,0.000000,0.000000,1772010855.053462,0.000000
94.000000,8840.830188,12320.236840,7120.215251,12339.593451,5447.768324,14487.350224,-9741.136103,-16727.084425,12086.549352,11072.383651,11743.964165,5690.396510,8829.006115,15651.317316,11248.582452,8053.758210,0.002000,-0.010000,1.006000,192.000000,0.000000,0.000000,0.000000,0.000000,0.000000,0.000000,0.000000,0.000000,0.000000,1772010855.053475,0.000000
96.000000,8826.949755,12300.723767,7097.774100,12330.719808,5441.599243,14466.138418,-9761.073859,-16749.682039,12080.290864,11057.475037,11726.753321,5670.659920,8828.402618,15620.270743,11246.749609,8052.595920,0.002000,-0.010000,1.006000,192.000000,0.000000,0.000000,0.000000,0.000000,0.000000,0.000000,0.000000,0.000000,0.000000,1772010855.053487,0.000000
98.000000,8846.328717,12320.750930,7124.640897,12348.198873,5453.356260,14479.795334,-9735.235242,-16720.736530,12087.957512,11054.524607,11733.458845,5679.555914,8832.582394,15590.833496,11252.449304,8048.125571,0.002000,-0.010000,1.006000,192.000000,0.000000,0.000000,0.000000,0.000000,0.000000,0.000000,0.000000,0.000000,0.000000,1772010855.053500,0.000000
100.000000,8831.420103,12311.698474,7111.587478,12333.424370,5443.007403,14456.549520,-9750.367373,-16735.309867,12077.407489,11062.951215,11745.752304,5689.636551,8821.227708,15602.948141,11249.007136,8045.421010,0.002000,-0.010000,1.006000,192.000000,0.000000,0.000000,0.000000,0.000000,0.000000,0.000000,0.000000,0.000000,0.000000,1772010855.053513,0.000000
102.000000,8838.036220,12318.158128,7114.806129,12332.530300,5450.495237,14475.056764,-9747.595757,-16727.822033,12076.155791,11052.758819,11727.356819,5674.705586,8819.238403,15608.357264,11249.342412,8043.588167,0.002000,-0.014000,1.010000,192.000000,0.000000,8.000000,127.500000,72.000000,15.500000,72.000000,0.000000,0.000000,0.000000,1772010855.053526,0.000000
104.000000,8843.601804,12322.762587,7119.745865,12346.298974,5449.064726,14497.766137,-9736.084609,-16715.014483,12092.226695,11072.696575,11750.848502,5693.570458,8838.796179,15641.773122,11252.114028,8054.048783,0.002000,-0.014000,1.010000,192.000000,0.000000,0.000000,0.000000,0.000000,0.000000,0.000000,0.000000,0.000000,0.000000,1772010855.053541,0.000000
106.000000,8820.981839,12306.065834,7099.584591,12330.719808,5429.238728,14466.160770,-9757.184655,-16743.580013,12078.279207,11055.508084,11734.598784,5681.880496,8821.160653,15623.712912,11243.285089,8051.500684,0.002000,-0.014000,1.010000,192.000000,0.000000,0.000000,0.000000,0.000000,0.000000,0.000000,0.000000,0.000000,0.000000,1772010855.053555,0.000000
108.000000,8824.267545,12309.396244,7111.296905,12355.329079,5439.632289,14481.516419,-9734.743504,-16724.223402,12069.629081,11048.869616,11726.529804,5679.645321,8817.629077,15603.484583,11242.167502,8050.271338,0.002000,-0.014000,1.010000,192.000000,0.000000,0.000000,0.000000,0.000000,0.000000,0.000000,0.000000,0.000000,0.000000,1772010855.053570,0.000000
110.000000,8817.293801,12299.963808,7096.075367,12337.134759,5441.174560,14469.535884,-9752.177865,-16738.997905,12069.405564,11045.047467,11733.145920,5684.205077,8825.809816,15612.872316,11241.899281,8049.399620,0.002000,-0.014000,1.010000,192.000000,0.000000,0.000000,0.000000,0.000000,0.000000,0.000000,0.000000,0.000000,0.000000,1772010855.053582,0.000000
112.000000,8821.540632,12305.395282,7106.893612,12338.229995,5448.170656,14475.347337,-9749.294490,-16734.907536,12069.316157,11036.978488,11718.259659,5667.016586,8817.271449,15612.604095,11248.984784,8052.081830,0.002000,-0.012000,1.012000,192.000000,0.000000,8.000000,127.500000,80.000000,15.500000,80.000000,0.000000,0.000000,0.000000,1772010855.053595,0.000000
114.000000,8834.504644,12315.922954,7110.715760,12344.980221,5452.864522,14491.753518,-9736.196367,-16717.137899,12085.476468,11059.218473,11745.126455,5689.591848,8849.301499,15626.417473,11247.666031,8056.216902,0.002000,-0.012000,1.012000,192.000000,0.000000,0.000000,0.000000,0.000000,0.000000,0.000000,0.000000,0.000000,0.000000,1772010855.053608,0.000000
116.000000,8826.167444,12310.357369,7110.782815,12330.429236,5438.961737,14474.676785,-9755.441219,-16735.421626,12076.468715,11054.926938,11733.481197,5681.589923,8825.452188,15608.156098,11246.704906,8052.551216,0.002000,-0.012000,1.012000,192.000000,0.000000,0.000000,0.000000,0.000000,0.000000,0.000000,0.000000,0.000000,0.000000,1772010855.053620,0.000000
118.000000,8844.764095,12330.116311,7129.938260,12349.584681,5459.391231,14494.189858,-9732.105998,-16711.572315,12083.800087,11063.577064,11740.566700,5685.255609,8822.971144,15629.904345,11253.097505,8051.500684,0.002000,-0.012000,1.012000,192.000000,0.000000,0.000000,0.000000,0.000000,0.000000,0.000000,0.000000,0.000000,0.000000,1772010855.053633,0.000000
120.000000,8832.560042,12316.258230,7113.621487,12341.359239,5452.328080,14476.822552,-9748.556882,-16731.510071,12085.230599,11063.822933,11749.708563,5691.961133,8835.421066,15611.665322,11250.862330,8051.679498,0.002000,-0.012000,1.012000,192.000000,0.000000,0.000000,0.000000,0.000000,0.000000,0.000000,0.000000,0.000000,0.000000,1772010855.053645,0.000000
122.000000,8837.522130,12319.968619,7116.415455,12339.280527,5452.708060,14465.669032,-9746.254652,-16728.693751,12082.324872,11055.597491,11731.156615,5676.873705,8831.755380,15604.490412,11252.739877,8050.070173,-0.006000,-0.018000,1.010000,192.000000,127.500000,104.000000,127.500000,56.000000,15.500000,72.000000,0.000000,0.000000,0.000000,1772010855.053659,0.000000
124.000000,8843.132418,12322.002628,7126.630202,12344.376724,5456.552560,14491.217076,-9734.140007,-16716.400291,12096.629989,11066.236921,11756.816418,5691.916429,8844.629984,15623.310581,11253.633947,8048.885530,-0.006000,-0.018000,1.010000,192.000000,0.000000,0.000000,0.000000,0.000000,0.000000,0.000000,0.000000,0.000000,0.000000,1772010855.053672,0.000000
126.000000,8826.815644,12308.278657,7101.886821,12336.531262,5449.511760,14470.631119,-9757.385821,-16740.763693,12088.940989,11052.691764,11739.896147,5680.584095,8842.059534,15619.242563,11245.810836,8050.137228,-0.006000,-0.018000,1.010000,192.000000,0.000000,0.000000,0.000000,0.000000,0.000000,0.000000,0.000000,0.000000,0.000000,1772010855.053684,0.000000
128.000000,8845.546406,12326.562384,7132.106380,12341.649811,5468.980130,14495.665073,-9733.983545,-16717.294361,12095.668864,11063.465305,11743.137150,5681.075833,8841.992479,15632.988886,11256.874950,8049.556082,-0.006000,-0.018000,1.010000,192.000000,0.000000,0.000000,0.000000,0.000000,0.000000,0.000000,0.000000,0.000000,0.000000,1772010855.053697,0.000000
130.000000,8820.646563,12299.963808,7107.228888,12349.025887,5445.354336,14475.190875,-9749.942690,-16742.931812,12086.348186,11059.710212,11744.746476,5690.597676,8844.250005,15628.742055,11247.822493,8055.076963,-0.006000,-0.018000,1.010000,192.000000,0.000000,0.000000,0.000000,0.000000,0.000000,0.000000,0.000000,0.000000,0.000000,1772010855.053709,0.000000
132.000000,8813.494004,12295.940494,7104.859603,12346.053105,5450.875217,14472.083982,-9748.221606,-16745.904594,12073.317119,11042.812293,11715.108063,5670.525810,8832.202415,15613.676979,11243.687420,8054.026431,-0.004000,-0.015000,1.007000,192.000000,127.500000,120.000000,127.500000,80.000000,15.500000,48.000000,0.000000,0.000000,0.000000,1772010855.053722,0.000000
134.000000,8819.193699,12298.578000,7120.885804,12348.914128,5457.580740,14480.622349,-9735.659925,-16732.225327,12076.044032,11049.406058,11739.605575,5682.573400,8828.357914,15611.732377,11250.974089,8054.473466,-0.004000,-0.015000,1.007000,192.000000,0.000000,0.000000,0.000000,0.000000,0.000000,0.000000,0.000000,0.000000,0.000000,1772010855.053735,0.000000
136.000000,8811.862327,12291.827773,7105.150176,12335.637192,5449.064726,14465.356107,-9758.369298,-16751.112551,12073.026547,11036.084418,11729.480234,5669.832906,8819.573679,15598.544848,11248.940080,8053.020603,-0.004000,-0.015000,1.007000,192.000000,0.000000,0.000000,0.000000,0.000000,0.000000,0.000000,0.000000,0.000000,0.000000,1772010855.053748,0.000000
138.000000,8833.252947,12312.994875,7124.216214,12348.601204,5467.728432,14493.318140,-9737.470417,-16723.195222,12082.056651,11044.846302,11732.922403,5674.727938,8835.242252,15607.440842,11254.349202,8057.625062,-0.004000,-0.015000,1.007000,192.000000,0.000000,0.000000,0.000000,0.000000,0.000000,0.000000,0.000000,0.000000,0.000000,1772010855.053760,0.000000
140.000000,8827.106217,12314.134814,7102.177394,12336.575965,5453.982109,14480.398831,-9752.155513,-16739.199071,12083.777736,11055.373973,11741.259604,5683.758042,8847.133380,15628.853813,11253.253967,8059.882588,-0.004000,-0.015000,1.007000,192.000000,0.000000,0.000000,0.000000,0.000000,0.000000,0.000000,0.000000,0.000000,0.000000,1772010855.053773,0.000000
142.000000,8823.887566,12310.871459,7108.882917,12345.471960,5444.192045,14487.551390,-9747.305184,-16735.488681,12069.383212,11043.907528,11720.628944,5671.285769,8822.233537,15625.456348,11247.911900,8058.072097,-0.003000,-0.013500,1.005500,192.000000,127.500000,120.000000,127.500000,80.000000,15.500000,48.000000,0.000000,0.000000,0.000000,1772010855.053786,0.000000
144.000000,8832.850615,12322.069683,7113.196804,12351.842207,5458.161886,14496.469736,-9736.375181,-16721.295324,12076.155791,11064.962872,11740.834921,5692.944609,8827.642659,15643.471854,11248.962432,8063.905902,-0.003000,-0.013500,1.005500,192.000000,0.000000,0.000000,0.000000,0.000000,0.000000,0.000000,0.000000,0.000000,0.000000,1772010855.053799,0.000000
146.000000,8823.239365,12312.972523,7110.671057,12339.772265,5453.445667,14466.876026,-9757.743449,-16740.249603,12071.618387,11050.724810,11731.514243,5678.103051,8824.558118,15606.367958,11253.298670,8056.798048,-0.003000,-0.013500,1.005500,192.000000,0.000000,0.000000,0.000000,0.000000,0.000000,0.000000,0.000000,0.000000,0.000000,1772010855.053811,0.000000
148.000000,8847.491008,12336.754779,7118.538871,12358.480675,5473.517534,14511.244239,-9733.603565,-16714.299228,12092.561971,11066.169866,11739.538519,5688.898944,8846.641641,15631.603078,11258.439572,8058.496780,-0.003000,-0.013500,1.005500,192.000000,0.000000,0.000000,0.000000,0.000000,0.000000,0.000000,0.000000,0.000000,0.000000,1772010855.053824,0.000000
150.000000,8825.765112,12315.386512,7112.235679,12339.816968,5454.473848,14483.326910,-9748.668641,-16736.472158,12084.872971,11072.830686,11742.176025,5696.364426,8838.639717,15648.590404,11252.494008,8060.128458,-0.003000,-0.013500,1.005500,192.000000,0.000000,0.000000,0.000000,0.000000,0.000000,0.000000,0.000000,0.000000,0.000000,1772010855.053837,0.000000
152.000000,8824.424007,12312.257268,7108.324123,12344.890814,5457.938368,14478.364823,-9746.724039,-16737.053303,12073.361823,11046.925014,11720.271316,5670.749327,8813.046970,15618.281438,11250.124723,8052.618271,-0.003500,-0.012750,1.004750,192.000000,127.500000,112.000000,127.500000,80.000000,15.500000,48.000000,0.000000,0.000000,0.000000,1772010855.053849,0.000000
154.000000,8829.743723,12319.678047,7120.014086,12352.892739,5456.396098,14483.215151,-9735.078780,-16723.374036,12082.347224,11070.796677,11739.069133,5693.056368,8838.170330,15624.249354,11252.002269,8054.831094,-0.003500,-0.012750,1.004750,192.000000,0.000000,0.000000,0.000000,0.000000,0.000000,0.000000,0.000000,0.000000,0.000000,1772010855.053863,0.000000
156.000000,8819.685438,12304.456509,7103.742016,12334.430198,5441.599243,14474.900302,-9756.536455,-16742.484777,12074.993500,11057.206816,11728.653220,5681.344054,8826.100388,15623.556450,11246.034353,8055.255777,-0.003500,-0.012750,1.004750,192.000000,0.000000,0.000000,0.000000,0.000000,0.000000,0.000000,0.000000,0.000000,0.000000,1772010855.053876,0.000000
158.000000,8837.209205,12328.037599,7125.177339,12355.373783,5463.436897,14497.788489,-9732.374219,-16714.567448,12089.388024,11061.274834,11737.236290,5683.333359,8833.610574,15636.431055,11252.784580,8057.535655,-0.003500,-0.012750,1.004750,192.000000,0.000000,0.000000,0.000000,0.000000,0.000000,0.000000,0.000000,0.000000,0.000000,1772010855.053888,0.000000
160.000000,8822.188833,12311.273791,7106.603039,12334.072570,5460.397060,14478.364823,-9749.406248,-16735.846309,12085.565875,11064.672299,11743.807703,5687.401377,8835.465769,15617.744996,11252.248138,8056.462771,-0.003500,-0.012750,1.004750,192.000000,0.000000,0.000000,0.000000,0.000000,0.000000,0.000000,0.000000,0.000000,0.000000,1772010855.053901,0.000000
162.000000,8827.463845,12313.665427,7112.682714,12346.991878,5455.144400,14477.448401,-9746.478170,-16733.454673,12072.780677,11048.444933,11720.003095,5672.313949,8826.502720,15617.163851,11250.683516,8054.518170,-0.003500,-0.012750,1.004750,192.000000,0.000000,0.000000,127.500000,88.000000,15.500000,56.000000,0.000000,0.000000,0.000000,1772010855.053913,0.000000
164.000000,8844.406467,12329.579869,7123.903289,12344.890814,5459.368880,14496.581494,-9735.615222,-16717.272010,12095.735919,11070.193180,11752.457828,5696.073854,8838.349144,15626.596287,11253.365726,8055.591053,-0.003500,-0.012750,1.004750,192.000000,0.000000,0.000000,0.000000,0.000000,0.000000,0.000000,0.000000,0.000000,0.000000,1772010855.053926,0.000000
166.000000,8826.681534,12311.698474,7095.941257,12341.783922,5451.501066,14481.695233,-9759.933920,-16745.926946,12082.101355,11063.554712,11737.325697,5681.232295,8837.455074,15635.291116,11251.443476,8059.748478,-0.003500,-0.012750,1.004750,192.000000,0.000000,0.000000,0.000000,0.000000,0.000000,0.000000,0.000000,0.000000,0.000000,1772010855.053938,0.000000
168.000000,8840.204339,12334.497253,7123.836234,12352.110428,5470.768269,14497.028529,-9736.688106,-16722.479966,12085.096489,11063.912340,11732.832996,5682.081661,8836.851577,15630.261973,11255.444438,8065.090545,-0.003500,-0.012750,1.004750,192.000000,0.000000,0.000000,0.000000,0.000000,0.000000,0.000000,0.000000,0.000000,0.000000,1772010855.053950,0.000000
170.000000,8827.553252,12311.609067,7111.766292,12338.699381,5453.691537,14479.571817,-9752.110809,-16741.210728,12085.275303,11067.265101,11745.305269,5690.038882,8847.021621,15628.384427,11252.315194,8062.609501,-0.003500,-0.012750,1.004750,192.000000,0.000000,0.000000,0.000000,0.000000,0.000000,0.000000,0.000000,0.000000,0.000000,1772010855.053963,0.000000
172.000000,8828.134397,12312.972523,7115.744903,12338.766436,5458.117182,14484.936236,-9749.674469,-16740.920155,12077.653358,11044.488674,11723.445263,5663.887341,8823.239365,15620.181336,11255.086810,8057.222731,-0.004750,-0.011375,1.005375,192.000000,127.500000,104.000000,127.500000,88.000000,15.500000,56.000000,0.000000,0.000000,0.000000,1772010855.053976,0.000000
174.000000,8843.355935,12331.435064,7119.857624,12347.438913,5464.398022,14505.209268,-9737.872748,-16721.183565,12087.711643,11072.942444,11745.841711,5692.318760,8837.365668,15644.790607,11254.528016,8060.709603,-0.004750,-0.011375,1.005375,192.000000,0.000000,0.000000,0.000000,0.000000,0.000000,0.000000,0.000000,0.000000,0.000000,1772010855.053988,0.000000
176.000000,8831.353048,12321.689704,7104.881955,12342.946213,5452.484542,14483.349262,-9759.196312,-16743.088274,12086.527000,11069.232055,11732.721237,5689.055406,8835.376362,15625.478700,11248.336583,8060.687251,-0.004750,-0.011375,1.005375,192.000000,0.000000,0.000000,0.000000,0.000000,0.000000,0.000000,0.000000,0.000000,0.000000,1772010855.054000,0.000000
178.000000,8845.725220,12331.949154,7129.804150,12347.461265,5472.534057,14491.820573,-9736.017553,-16721.340027,12086.795221,11067.242750,11738.197415,5685.479127,8837.767999,15633.771197,11257.925482,8057.535655,-0.004750,-0.011375,1.005375,192.000000,0.000000,0.000000,0.000000,0.000000,0.000000,0.000000,0.000000,0.000000,0.000000,1772010855.054013,0.000000
180.000000,8819.752493,12309.932686,7109.195841,12334.072570,5451.724583,14479.750631,-9750.479132,-16742.149501,12087.733994,11065.007575,11746.512264,5687.401377,8837.522130,15633.882956,11249.253005,8052.148885,-0.004750,-0.011375,1.005375,192.000000,0.000000,0.000000,0.000000,0.000000,0.000000,0.000000,0.000000,0.000000,0.000000,1772010855.054026,0.000000
182.000000,8819.081941,12310.513831,7107.765330,12338.811140,5451.948101,14468.060668,-9747.081667,-16739.377885,12066.522189,11049.361354,11720.651295,5664.468487,8822.658220,15611.106528,11248.850673,8053.311176,-0.004375,-0.013688,1.007687,192.000000,127.500000,112.000000,127.500000,64.000000,15.500000,72.000000,0.000000,0.000000,0.000000,1772010855.054039,0.000000
184.000000,8831.040124,12318.381645,7108.011199,12348.221224,5460.687633,14487.238465,-9735.436408,-16724.022236,12081.944893,11065.901645,11739.449112,5688.586019,8837.969165,15620.583668,11246.123760,8054.518170,-0.004375,-0.013688,1.007687,192.000000,0.000000,0.000000,0.000000,0.000000,0.000000,0.000000,0.000000,0.000000,0.000000,1772010855.054052,0.000000
186.000000,8816.042103,12303.987122,7108.167661,12333.983163,5447.947138,14472.910997,-9757.184655,-16748.475045,12079.463849,11052.267081,11728.384999,5677.365443,8830.950717,15611.933543,11247.017830,8054.272301,-0.004375,-0.013688,1.007687,192.000000,0.000000,0.000000,0.000000,0.000000,0.000000,0.000000,0.000000,0.000000,0.000000,1772010855.054066,0.000000
188.000000,8835.979859,12323.343733,7126.518443,12345.963698,5463.950987,14488.244294,-9733.245937,-16721.362379,12081.341396,11056.424505,11735.939888,5678.371272,8829.475502,15612.939371,11251.823455,8053.668803,-0.004375,-0.013688,1.007687,192.000000,0.000000,0.000000,0.000000,0.000000,0.000000,0.000000,0.000000,0.000000,0.000000,1772010855.054088,0.000000
190.000000,8823.507586,12308.122195,7098.399949,12331.904451,5453.244502,14464.998479,-9748.534530,-16739.601402,12084.627102,11055.351622,11746.802836,5681.165240,8837.544481,15615.778043,11247.755438,8052.595920,-0.004375,-0.013688,1.007687,192.000000,0.000000,0.000000,0.000000,0.000000,0.000000,0.000000,0.000000,0.000000,0.000000,1772010855.054101,0.000000
192.000000,8822.769978,12307.921029,7115.856661,12336.464207,5449.958795,14482.902227,-9743.103056,-16735.533385,12080.044994,11043.862825,11722.819414,5663.440307,8825.116912,15614.772214,11244.313269,8054.384059,-0.003188,-0.013844,1.006844,192.000000,127.500000,120.000000,127.500000,72.000000,15.500000,56.000000,0.000000,0.000000,0.000000,1772010855.054116,0.000000
194.000000,8835.823397,12325.891832,7121.019914,12340.062838,5457.893665,14496.156811,-9731.636611,-16713.762786,12082.503686,11061.543055,11745.417028,5690.620028,8830.570737,15630.150214,11249.834150,8056.753344,-0.003188,-0.013844,1.006844,192.000000,0.000000,0.000000,0.000000,0.000000,0.000000,0.000000,0.000000,0.000000,0.000000,1772010855.535144,0.000000
196.000000,8822.278240,12312.480785,7103.071463,12342.074495,5447.142476,14482.052861,-9754.949481,-16737.567393,12074.501762,11055.128104,11732.989458,5685.747348,8828.559080,15622.327104,11244.827359,8059.077926,-0.003188,-0.013844,1.006844,192.000000,0.000000,0.000000,0.000000,0.000000,0.000000,0.000000,0.000000,0.000000,0.000000,1772010855.535218,0.000000
198.000000,8835.957508,12328.797558,7125.557318,12352.043373,5465.247389,14499.844849,-9734.072952,-16718.434300,12082.771907,11059.240825,11734.822301,5681.947551,8836.158673,15632.966534,11251.734048,8061.626024,-0.003188,-0.013844,1.006844,192.000000,0.000000,0.000000,0.000000,0.000000,0.000000,0.000000,0.000000,0.000000,0.000000,1772010855.535271,0.000000
200.000000,8821.205356,12305.775262,7114.716722,12337.313573,5456.597263,14480.622349,-9749.674469,-16737.299173,12084.850619,11063.353546,11747.004002,5682.014606,8837.097447,15631.468967,11252.538711,8060.575492,-0.003188,-0.013844,1.006844,192.000000,0.000000,0.000000,0.000000,0.000000,0.000000,0.000000,0.000000,0.000000,0.000000,1772010855.535325,0.000000
202.000000,8831.978897,12318.314590,7116.415455,12342.968564,5457.379574,14482.745765,-9743.684202,-16727.084425,12081.944893,11052.200026,11732.385961,5672.291597,8833.543519,15614.235772,11248.716563,8054.585225,-0.003188,-0.013844,1.006844,192.000000,0.000000,0.000000,0.000000,0.000000,0.000000,0.000000,0.000000,0.000000,0.000000,1772010855.535378,0.000000
204.000000,8844.071191,12338.945250,7116.884842,12349.942309,5465.470906,14492.088794,-9730.429617,-16708.308960,12097.993445,11076.362261,11755.765886,5695.135080,8850.642604,15645.595270,11252.650470,8056.976862,0.004000,-0.016000,1.008000,192.000000,0.000000,16.000000,127.500000,64.000000,15.500000,64.000000,0.000000,0.000000,0.000000,1772010855.535402,0.000000
206.000000,8826.055685,12314.045407,7110.313429,12332.038561,5448.885912,14479.169485,-9753.809542,-16737.902670,12088.136326,11061.476000,11736.073999,5692.117595,8840.003173,15623.288229,11245.140284,8056.239254,0.004000,-0.016000,1.008000,192.000000,0.000000,0.000000,0.000000,0.000000,0.000000,0.000000,0.000000,0.000000,0.000000,1772010855.535427,0.000000
208.000000,8841.187816,12328.752855,7122.696295,12356.044335,5465.225037,14496.022701,-9731.167225,-16718.747225,12086.057614,11063.510008,11738.420932,5676.896057,8830.123702,15625.948086,11253.388077,8059.279091,0.004000,-0.016000,1.008000,192.000000,0.000000,0.000000,0.000000,0.000000,0.000000,0.000000,0.000000,0.000000,0.000000,1772010855.535451,0.000000
210.000000,8819.819548,12303.070701,7116.393103,12339.682858,5448.997670,14461.355145,-9749.003917,-16745.681077,12088.806878,11060.157247,11745.506435,5687.848412,8829.654316,15624.763444,11245.833188,8057.647414,0.004000,-0.016000,1.008000,192.000000,0.000000,0.000000,0.000000,0.000000,0.000000,0.000000,0.000000,0.000000,0.000000,1772010855.535472,0.000000
212.000000,8818.098464,12303.696549,7110.983981,12339.638154,5452.238673,14476.219055,-9748.422772,-16748.720914,12074.971148,11036.419694,11722.104159,5659.439344,8823.507586,15595.907342,11248.694211,8050.338393,0.004000,-0.016000,1.008000,192.000000,0.000000,0.000000,0.000000,0.000000,0.000000,0.000000,0.000000,0.000000,0.000000,1772010855.535484,0.000000
214.000000,8820.713618,12315.900602,7119.455292,12342.745047,5455.725545,14475.481448,-9733.268289,-16731.890050,12078.770945,11057.452686,11738.242118,5683.825098,8827.620307,15622.282400,11248.001307,8052.908844,0.006000,-0.014000,1.014000,192.000000,0.000000,24.000000,127.500000,72.000000,15.500000,88.000000,0.000000,0.000000,0.000000,1772010855.535497,0.000000
216.000000,8804.463900,12295.448756,7094.644856,12332.776169,5442.895644,14466.876026,-9754.703612,-16759.025068,12061.582453,11040.130084,11720.248964,5666.614254,8826.323906,15598.410737,11244.715601,8051.008946,0.006000,-0.014000,1.014000,192.000000,0.000000,0.000000,0.000000,0.000000,0.000000,0.000000,0.000000,0.000000,0.000000,1772010855.535509,0.000000
218.000000,8832.113008,12317.822852,7128.753618,12347.930652,5462.364013,14504.605771,-9732.843606,-16731.621829,12076.692233,11048.824912,11724.473444,5670.391699,8835.801045,15616.113319,11248.157769,8058.519132,0.006000,-0.014000,1.014000,192.000000,0.000000,0.000000,0.000000,0.000000,0.000000,0.000000,0.000000,0.000000,0.000000,1772010855.535530,0.000000
220.000000,8823.909917,12308.904506,7115.476682,12329.155186,5454.339737,14483.818648,-9750.210911,-16746.217519,12082.995425,11051.417715,11739.896147,5678.617141,8836.717467,15628.160909,11250.191778,8058.653242,0.006000,-0.014000,1.014000,192.000000,0.000000,0.000000,0.000000,0.000000,0.000000,0.000000,0.000000,0.000000,0.000000,1772010855.535542,0.000000
222.000000,8828.626135,12317.666390,7115.074350,12337.939422,5463.503952,14478.387174,-9746.522873,-16736.449806,12090.237390,11050.523645,11725.725141,5666.793068,8841.567795,15603.082252,11251.264662,8055.859274,0.006000,-0.014000,1.014000,192.000000,0.000000,0.000000,0.000000,0.000000,0.000000,0.000000,0.000000,0.000000,0.000000,1772010855.535554,0.000000
224.000000,8831.867138,12326.472977,7122.428074,12340.800445,5464.040394,14483.863352,-9734.296469,-16719.685998,12081.006119,11066.683956,11747.473389,5695.984447,8831.107179,15617.432072,11252.873987,8055.971033,0.004000,-0.010000,1.016000,192.000000,0.000000,16.000000,127.500000,88.000000,15.500000,96.000000,0.000000,0.000000,0.000000,1772010855.535567,0.000000
226.000000,8814.343371,12305.529392,7111.833347,12335.905413,5447.231882,14472.016927,-9753.898949,-16743.267088,12070.970186,11047.394401,11732.028333,5679.801784,8824.647525,15612.693502,11246.503740,8053.847617,0.004000,-0.010000,1.016000,192.000000,0.000000,0.000000,0.000000,0.000000,0.000000,0.000000,0.000000,0.000000,0.000000,1772010855.535579,0.000000
228.000000,8834.012906,12319.610991,7124.417379,12348.131817,5461.984034,14493.876933,-9729.356733,-16720.021274,12074.747631,11049.786037,11732.631830,5679.354749,8823.887566,15628.987924,11248.940080,8052.886492,0.004000,-0.010000,1.016000,192.000000,0.000000,0.000000,0.000000,0.000000,0.000000,0.000000,0.000000,0.000000,0.000000,1772010855.535592,0.000000
230.000000,8819.908955,12312.391378,7110.514594,12327.299992,5456.552560,14481.024680,-9748.087495,-16739.959030,12073.160657,11058.905549,11738.465636,5687.468432,8830.056647,15630.664305,11244.156807,8054.696984,0.004000,-0.010000,1.016000,192.000000,0.000000,0.000000,0.000000,0.000000,0.000000,0.000000,0.000000,0.000000,0.000000,1772010855.535604,0.000000
232.000000,8825.653353,12318.403997,7110.469891,12344.823759,5460.240598,14483.371613,-9749.272138,-16741.255431,12068.444439,11047.640270,11716.784443,5669.363519,8829.319040,15614.548697,11245.699077,8054.741687,0.004000,-0.010000,1.016000,192.000000,0.000000,0.000000,0.000000,0.000000,0.000000,0.000000,0.000000,0.000000,0.000000,1772010855.535616,0.000000
234.000000,8835.488121,12334.944288,7123.590365,12345.561367,5473.763403,14488.758384,-9737.179844,-16725.720969,12090.147983,11068.829723,11740.633755,5691.536449,8844.853502,15622.662380,11252.672822,8060.195513,-0.002000,-0.008000,1.006000,192.000000,127.500000,120.000000,127.500000,96.000000,15.500000,56.000000,0.000000,0.000000,0.000000,1772010855.535628,0.000000
236.000000,8829.900185,12325.444797,7107.228888,12340.532224,5450.517589,14480.175314,-9754.882426,-16741.210728,12081.140230,11058.078534,11733.011810,5683.668635,8840.740781,15609.161926,11250.124723,8055.076963,-0.002000,-0.008000,1.006000,192.000000,0.000000,0.000000,0.000000,0.000000,0.000000,0.000000,0.000000,0.000000,0.000000,1772010855.535641,0.000000
238.000000,8844.182950,12337.626497,7122.159853,12352.780980,5458.385403,14497.944951,-9729.535547,-16717.786100,12090.125631,11067.645081,11736.096351,5690.217696,8839.936118,15633.704142,11246.928423,8059.234388,-0.002000,-0.008000,1.006000,192.000000,0.000000,0.000000,0.000000,0.000000,0.000000,0.000000,0.000000,0.000000,0.000000,1772010855.535653,0.000000
240.000000,8822.814682,12316.459395,7099.718702,12341.046314,5445.041412,14478.633044,-9747.148722,-16742.417722,12084.358881,11061.699517,11736.990420,5689.524792,8841.947775,15628.071502,11242.234557,8058.340318,-0.002000,-0.008000,1.006000,192.000000,0.000000,0.000000,0.000000,0.000000,0.000000,0.000000,0.000000,0.000000,0.000000,1772010855.535665,0.000000
242.000000,8823.641696,12320.482709,7101.350379,12341.649811,5445.331984,14477.515456,-9746.701687,-16741.993039,12066.544541,11047.014421,11710.570659,5667.888304,8819.260754,15616.046264,11240.200548,8054.518170,-0.002000,-0.008000,1.006000,192.000000,0.000000,0.000000,0.000000,0.000000,0.000000,0.000000,0.000000,0.000000,0.000000,1772010855.535678,0.000000
244.000000,8833.923499,12327.568212,7125.266746,12342.923861,5452.573949,14475.682613,-9735.481111,-16728.045550,12076.312253,11070.036718,11738.219766,5692.877554,8828.335563,15627.870337,11245.766133,8055.322833,-0.002000,-0.008000,1.006000,192.000000,0.000000,0.000000,127.500000,80.000000,15.500000,48.000000,0.000000,0.000000,0.000000,1772010855.535690,0.000000
246.000000,8832.649449,12322.449663,7107.675923,12336.777131,5446.673089,14468.619462,-9754.457743,-16743.043571,12078.614483,11061.900683,11734.867005,5682.394586,8841.947775,15618.616714,11244.246214,8054.629928,-0.002000,-0.008000,1.006000,192.000000,0.000000,0.000000,0.000000,0.000000,0.000000,0.000000,0.000000,0.000000,0.000000,1772010855.535703,0.000000
248.000000,8842.215996,12331.300954,7131.368772,12345.851939,5460.128839,14494.994521,-9732.620088,-16724.424568,12093.187820,11070.394346,11740.544348,5688.250743,8836.940984,15615.509822,11248.560101,8051.768905,-0.002000,-0.008000,1.006000,192.000000,0.000000,0.000000,0.000000,0.000000,0.000000,0.000000,0.000000,0.000000,0.000000,1772010855.535715,0.000000
250.000000,8824.803987,12316.302933,7115.364923,12334.318439,5452.529246,14478.409526,-9747.796923,-16747.223347,12087.085794,11071.020194,11744.232386,5683.512173,8841.880720,15631.692485,11248.738915,8055.814571,-0.002000,-0.008000,1.006000,192.000000,0.000000,0.000000,0.000000,0.000000,0.000000,0.000000,0.000000,0.000000,0.000000,1772010855.535730,0.000000
252.000000,8831.822435,12320.236840,7110.447539,12344.309669,5455.323214,14482.119916,-9747.595757,-16744.205862,12076.424012,11049.853092,11719.913688,5671.822211,8828.670839,15617.409720,11244.961470,8052.215940,-0.002000,-0.008000,1.006000,192.000000,0.000000,0.000000,0.000000,0.000000,0.000000,0.000000,0.000000,0.000000,0.000000,1772010855.535742,0.000000
254.000000,8840.204339,12335.056047,7122.428074,12349.070591,5462.945159,14503.063500,-9737.716286,-16728.961972,12089.879762,11079.223285,11741.885452,5699.448967,8838.595013,15639.850872,11247.956604,8058.295615,0.002000,-0.010000,1.004000,192.000000,0.000000,8.000000,127.500000,88.000000,15.500000,48.000000,0.000000,0.000000,0.000000,1772010855.535755,0.000000
0.000000,8826.972106,12319.700398,7108.033551,12332.172672,5454.697365,14479.214189,-9758.190484,-16750.486702,12081.989596,11068.606206,11732.453016,5685.456775,8838.550310,15630.686656,11245.810836,8056.172199,0.002000,-0.010000,1.004000,192.000000,0.000000,0.000000,0.000000,0.000000,0.000000,0.000000,0.000000,0.000000,0.000000,1772010855.535767,0.000000
2.000000,8842.506569,12331.256250,7113.777949,12347.416562,5471.371766,14499.934256,-9734.184710,-16725.452748,12102.687311,11069.455572,11733.950583,5683.869801,8856.789333,15636.475758,11249.431819,8058.966167,0.002000,-0.010000,1.004000,192.000000,0.000000,0.000000,0.000000,0.000000,0.000000,0.000000,0.000000,0.000000,0.000000,1772010855.535779,0.000000
4.000000,8822.859385,12312.816061,7113.643839,12335.547785,5453.155095,14476.733145,-9748.556882,-16745.859891,12080.581436,11058.056183,11740.253775,5686.663769,8833.029429,15622.595325,11247.353106,8054.048783,0.002000,-0.010000,1.004000,192.000000,0.000000,0.000000,0.000000,0.000000,0.000000,0.000000,0.000000,0.000000,0.000000,1772010855.535792,0.000000
6.000000,8824.245194,12314.537145,7114.537908,12335.033695,5453.937406,14469.290014,-9746.500521,-16743.781178,12071.506628,11044.779246,11719.421949,5671.017548,8822.233537,15607.664360,11242.838054,8052.126533,0.002000,-0.010000,1.004000,192.000000,0.000000,0.000000,0.000000,0.000000,0.000000,0.000000,0.000000,0.000000,0.000000,1772010855.535804,0.000000
8.000000,8834.079961,12315.207698,7124.551490,12340.621631,5464.599188,14485.070346,-9733.827082,-16728.693751,12082.213114,11053.630537,11741.594880,5684.316836,8831.554214,15612.581743,11248.180121,8051.031298,0.006000,-0.016000,1.004000,192.000000,0.000000,24.000000,127.500000,64.000000,15.500000,48.000000,0.000000,0.000000,0.000000,1772010855.535817,0.000000
10.000000,8817.986705,12307.004608,7106.245411,12326.987067,5450.986976,14480.577645,-9757.721097,-16752.185434,12073.764154,11044.555729,11729.815510,5672.962150,8833.230595,15623.042360,11242.435723,8053.266472,0.006000,-0.016000,1.004000,192.000000,0.000000,0.000000,0.000000,0.000000,0.000000,0.000000,0.000000,0.000000,0.000000,1772010855.535830,0.000000
12.000000,8845.278185,12328.372875,7126.384333,12337.023000,5473.294017,14506.103338,-9734.519986,-16721.854117,12088.337492,11054.748124,11733.838824,5676.471374,8840.070229,15631.446616,11252.181083,8057.535655,0.006000,-0.016000,1.004000,192.000000,0.000000,0.000000,0.000000,0.000000,0.000000,0.000000,0.000000,0.000000,0.000000,1772010855.535842,0.000000
14.000000,8835.175197,12315.185346,7107.944144,12342.454474,5458.966548,14483.997462,-9748.087495,-16738.148539,12085.945855,11059.933729,11744.969993,5689.681255,8849.569720,15621.254220,11248.984784,8056.686289,0.006000,-0.016000,1.004000,192.000000,0.000000,0.000000,0.000000,0.000000,0.000000,0.000000,0.000000,0.000000,0.000000,1772010855.535854,0.000000
16.000000,8830.995420,12315.051236,7117.957725,12337.179463,5449.556464,14474.408564,-9747.036963,-16741.143673,12083.263646,11043.594604,11726.686266,5671.621045,8828.335563,15604.356301,11244.179159,8048.706716,0.006000,-0.016000,1.004000,192.000000,0.000000,0.000000,0.000000,0.000000,0.000000,0.000000,0.000000,0.000000,0.000000,1772010855.535866,0.000000
18.000000,8837.030391,12320.885041,7120.796397,12334.832529,5458.295996,14468.284186,-9735.950498,-16726.726797,12089.969169,11053.719944,11744.746476,5685.769699,8836.002211,15614.615752,11248.828322,8048.013812,0.006000,-0.016000,1.004000,192.000000,0.000000,0.000000,127.500000,72.000000,15.500000,88.000000,0.000000,0.000000,0.000000,1772010855.535879,0.000000
20.000000,8824.625173,12308.010436,7104.703141,12322.114387,5442.426257,14449.843997,-9758.145780,-16746.753960,12081.810782,11038.386648,11733.034162,5673.297426,8834.370534,15610.592438,11246.324926,8044.996327,0.006000,-0.016000,1.004000,192.000000,0.000000,0.000000,0.000000,0.000000,0.000000,0.000000,0.000000,0.000000,0.000000,1772010855.535891,0.000000
22.000000,8845.680516,12335.726599,7127.256051,12343.192082,5457.267816,14507.153870,-9733.983545,-16717.853155,12085.051785,11055.508084,11731.514243,5685.367368,8835.979859,15624.271706,11247.129589,8053.489989,0.006000,-0.016000,1.004000,192.000000,0.000000,0.000000,0.000000,0.000000,0.000000,0.000000,0.000000,0.000000,0.000000,1772010855.535904,0.000000
24.000000,8831.733028,12320.527413,7111.810996,12342.275660,5442.873292,14485.718547,-9748.847455,-16737.835614,12079.933236,11062.973566,11745.439380,5696.252667,8827.955583,15624.472871,11243.665069,8052.215940,0.006000,-0.016000,1.004000,192.000000,0.000000,0.000000,0.000000,0.000000,0.000000,0.000000,0.000000,0.000000,0.000000,1772010855.535917,0.000000
26.000000,8829.721371,12314.961829,7112.414493,12341.716867,5454.406792,14482.030509,-9748.601585,-16744.496434,12074.702927,11044.846302,11720.830109,5676.471374,8819.059589,15602.232886,11243.083923,8053.467638,0.006000,-0.016000,1.004000,192.000000,0.000000,0.000000,0.000000,0.000000,0.000000,0.000000,0.000000,0.000000,0.000000,1772010855.535930,0.000000
28.000000,8835.711638,12322.360256,7122.472778,12339.369934,5461.268778,14490.680634,-9738.699763,-16732.582954,12083.151887,11053.742296,11741.192548,5686.708473,8838.773827,15638.800340,11248.425990,8055.702812,0.001000,-0.015000,1.004000,192.000000,127.500000,112.000000,127.500000,72.000000,15.500000,48.000000,0.000000,0.000000,0.000000,1772010855.535943,0.000000
30.000000,8826.994458,12316.213526,7107.832385,12324.193099,5452.819819,14462.070401,-9758.659870,-16749.167949,12076.379308,11043.929880,11728.317944,5674.191496,8831.487159,15603.328121,11245.833188,8046.628004,0.001000,-0.015000,1.004000,192.000000,0.000000,0.000000,0.000000,0.000000,0.000000,0.000000,0.000000,0.000000,0.000000,1772010855.535956,0.000000
32.000000,8844.853502,12333.402018,7128.194824,12336.017172,5462.811048,14491.418241,-9733.022420,-16718.210783,12085.856448,11048.042601,11733.280031,5679.131231,8828.402618,15617.856755,11248.805970,8046.046859,0.001000,-0.015000,1.004000,192.000000,0.000000,0.000000,0.000000,0.000000,0.000000,0.000000,0.000000,0.000000,0.000000,1772010855.535968,0.000000
34.000000,8837.097447,12319.990971,7111.721589,12334.653715,5449.064726,14476.554331,-9746.567577,-16732.314734,12082.481335,11052.870578,11745.238214,5690.240048,8840.673726,15617.588534,11246.749609,8045.935100,0.001000,-0.015000,1.004000,192.000000,0.000000,0.000000,0.000000,0.000000,0.000000,0.000000,0.000000,0.000000,0.000000,1772010855.535980,0.000000
36.000000,8837.052743,12316.638209,7107.362998,12332.865576,5458.228941,14482.075212,-9747.819274,-16736.963896,12083.621273,11050.098962,11727.289763,5678.371272,8841.321926,15604.915095,11243.106275,8047.834998,0.001000,-0.015000,1.004000,192.000000,0.000000,0.000000,0.000000,0.000000,0.000000,0.000000,0.000000,0.000000,0.000000,1772010855.535993,0.000000
38.000000,8834.437589,12316.392340,7124.327972,12348.712963,5463.883932,14488.154887,-9738.498597,-16734.304039,12088.605712,11049.741334,11742.935984,5686.507307,8842.573624,15622.215345,11247.129589,8054.317004,-0.000500,-0.011500,1.002000,192.000000,127.500000,120.000000,127.500000,96.000000,15.500000,32.000000,0.000000,0.000000,0.000000,1772010855.536034,0.000000
40.000000,8820.177176,12306.512869,7103.227926,12331.256250,5449.467057,14468.820628,-9763.778420,-16758.712144,12070.433744,11039.906566,11723.266449,5667.821249,8820.311286,15607.172621,11244.179159,8054.764039,-0.000500,-0.011500,1.002000,192.000000,0.000000,0.000000,0.000000,0.000000,0.000000,0.000000,0.000000,0.000000,0.000000,1772010855.536047,0.000000
42.000000,8840.964298,12322.963753,7126.920775,12342.365067,5460.955854,14493.787526,-9737.872748,-16726.927963,12080.939064,11050.166017,11727.222708,5674.102089,8828.603784,15618.192031,11248.873025,8054.317004,-0.000500,-0.011500,1.002000,192.000000,0.000000,0.000000,0.000000,0.000000,0.000000,0.000000,0.000000,0.000000,0.000000,1772010855.536059,0.000000
44.000000,8831.800083,12310.759701,7113.353266,12332.217375,5445.801371,14470.049974,-9749.249786,-16738.863795,12084.671805,11055.664546,11743.025391,5685.434423,8835.242252,15615.755691,11241.496949,8047.276204,-0.000500,-0.011500,1.002000,192.000000,0.000000,0.000000,0.000000,0.000000,0.000000,0.000000,0.000000,0.000000,0.000000,1772010855.536071,0.000000
46.000000,8832.671801,12316.459395,7105.999542,12331.122140,5451.657528,14478.476581,-9750.188559,-16739.355533,12079.195628,11043.102866,11723.512319,5671.308121,8842.685383,15612.492336,11239.082961,8045.465713,-0.000500,-0.011500,1.002000,192.000000,0.000000,0.000000,0.000000,0.000000,0.000000,0.000000,0.000000,0.000000,0.000000,1772010855.536083,0.000000
48.000000,8842.685383,12326.674143,7128.239528,12341.761570,5455.636138,14477.247235,-9736.106960,-16726.033893,12096.272361,11066.862770,11747.585147,5686.686121,8832.381228,15628.742055,11245.050877,8049.891359,-0.001250,-0.010750,1.007000,192.000000,127.500000,120.000000,127.500000,88.000000,15.500000,80.000000,0.000000,0.000000,0.000000,1772010855.536095,0.000000
50.000000,8830.056647,12307.563401,7106.133652,12334.407846,5435.519568,14469.692346,-9759.576292,-16752.520711,12082.883666,11048.377877,11728.742627,5678.259513,8827.329734,15613.073482,11236.423103,8044.146960,-0.001250,-0.010750,1.007000,192.000000,0.000000,0.000000,0.000000,0.000000,0.000000,0.000000,0.000000,0.000000,0.000000,1772010855.536108,0.000000
52.000000,8848.250967,12330.920974,7125.691429,12345.829588,5454.272682,14500.873029,-9736.263423,-16726.212707,12092.204343,11059.598453,11729.681400,5676.873705,8831.420103,15624.808148,11239.328830,8047.052687,-0.001250,-0.010750,1.007000,192.000000,0.000000,0.000000,0.000000,0.000000,0.000000,0.000000,0.000000,0.000000,0.000000,1772010855.536120,0.000000
54.000000,8837.477426,12322.024980,7111.788644,12335.391323,5444.035583,14474.386212,-9747.774571,-16734.281687,12090.639721,11063.197084,11742.712467,5690.530621,8834.482292,15620.248392,11238.144188,8047.231501,-0.001250,-0.010750,1.007000,192.000000,0.000000,0.000000,0.000000,0.000000,0.000000,0.000000,0.000000,0.000000,0.000000,1772010855.536133,0.000000
56.000000,8840.025525,12325.467148,7112.012161,12328.596393,5445.913130,14468.083020,-9746.411115,-16727.352646,12086.214076,11044.287508,11729.815510,5675.912580,8829.408446,15618.527307,11235.394923,8039.810722,-0.001250,-0.010750,1.007000,192.000000,0.000000,0.000000,0.000000,0.000000,0.000000,0.000000,0.000000,0.000000,0.000000,1772010855.536144,0.000000
58.000000,8842.104237,12326.450625,7121.042266,12342.052143,5452.976281,14482.097564,-9733.849434,-16719.060149,12095.914733,11063.621767,11752.346069,5690.731787,8839.556138,15636.743979,11237.227766,8045.800989,0.000375,-0.010375,1.007500,192.000000,0.000000,8.000000,127.500000,88.000000,15.500000,64.000000,0.000000,0.000000,0.000000,1772010856.015254,0.000000
60.000000,8820.244231,12301.394320,7104.904307,12337.470035,5434.290222,14458.650584,-9757.475228,-16752.699524,12071.841904,11043.169921,11729.793159,5681.500516,8814.008095,15603.037548,11230.075208,8043.476408,0.000375,-0.010375,1.007500,192.000000,0.000000,0.000000,0.000000,0.000000,0.000000,0.000000,0.000000,0.000000,0.000000,1772010856.015320,0.000000
62.000000,8834.929327,12318.381645,7127.591327,12343.281489,5455.256159,14484.913884,-9737.179844,-16733.365266,12077.161619,11042.432313,11724.026409,5672.224542,8826.189795,15594.119202,11238.457112,8045.711582,0.000375,-0.010375,1.007500,192.000000,0.000000,0.000000,0.000000,0.000000,0.000000,0.000000,0.000000,0.000000,0.000000,1772010856.015366,0.000000
64.000000,8822.993496,12307.071663,7116.750731,12332.172672,5450.763458,14477.537808,-9750.412077,-16747.558623,12084.515343,11053.876406,11738.219766,5681.656978,8836.985688,15610.860659,11240.848749,8048.572606,0.000375,-0.010375,1.007500,192.000000,0.000000,0.000000,0.000000,0.000000,0.000000,0.000000,0.000000,0.000000,0.000000,1772010856.015412,0.000000
66.000000,8827.888528,12309.060968,7117.443635,12330.272774,5457.513685,14476.442573,-9749.227434,-16741.523652,12076.960454,11035.167996,11721.768882,5664.267321,8829.184929,15608.379615,11242.122798,8045.331603,0.000375,-0.010375,1.007500,192.000000,0.000000,0.000000,0.000000,0.000000,0.000000,0.000000,0.000000,0.000000,0.000000,1772010856.015468,0.000000
68.000000,8847.692173,12322.628477,7128.194824,12340.733390,5454.093868,14490.434765,-9734.274117,-16721.205917,12094.774794,11052.222377,11752.658993,5687.624894,8845.524054,15624.338761,11243.173330,8048.885530,-0.000813,-0.011187,1.007750,192.000000,127.500000,120.000000,127.500000,80.000000,15.500000,64.000000,0.000000,0.000000,0.000000,1772010856.015510,0.000000
70.000000,8833.163540,12311.273791,7101.238620,12329.177538,5439.788752,14464.752610,-9759.308071,-16749.346763,12088.404547,11045.718020,11737.325697,5677.656016,8838.036220,15613.587572,11237.071304,8047.030335,-0.000813,-0.011187,1.007750,192.000000,0.000000,0.000000,0.000000,0.000000,0.000000,0.000000,0.000000,0.000000,0.000000,1772010856.015559,0.000000
72.000000,8836.739819,12318.538108,7128.418342,12338.319402,5454.920883,14488.311349,-9736.531643,-16734.214632,12091.712605,11052.602357,11730.217842,5671.039900,8837.209205,15625.433996,11240.334659,8047.656184,-0.000813,-0.011187,1.007750,192.000000,0.000000,0.000000,0.000000,0.000000,0.000000,0.000000,0.000000,0.000000,0.000000,1772010856.015574,0.000000
74.000000,8829.028467,12310.737349,7106.871260,12338.520567,5449.958795,14476.554331,-9749.473303,-16746.753960,12083.822439,11055.575139,11733.637659,5683.713339,8836.449246,15624.182299,11237.250118,8050.025469,-0.000813,-0.011187,1.007750,192.000000,0.000000,0.000000,0.000000,0.000000,0.000000,0.000000,0.000000,0.000000,0.000000,1772010856.015586,0.000000
76.000000,8836.851577,12318.046369,7114.113225,12347.237748,5455.256159,14473.693308,-9748.109847,-16739.757864,12077.809820,11042.477017,11718.907859,5671.084603,8836.493949,15593.895685,11238.814740,8044.526940,-0.000813,-0.011187,1.007750,192.000000,0.000000,0.000000,0.000000,0.000000,0.000000,0.000000,0.000000,0.000000,0.000000,1772010856.015598,0.000000
78.000000,8840.137284,12318.515756,7134.319202,12336.039524,5460.777040,14476.911959,-9735.548167,-16725.050417,12092.114936,11056.849188,11748.747438,5689.815365,8843.981784,15612.469985,11242.972165,8047.455018,-0.000813,-0.011187,1.007750,192.000000,0.000000,0.000000,0.000000,0.000000,0.000000,0.000000,0.000000,0.000000,0.000000,1772010856.015610,0.000000
80.000000,8828.268508,12301.819003,7116.571917,12323.902526,5443.879121,14468.395945,-9754.323632,-16742.618888,12075.485238,11037.336116,11734.107045,5669.609388,8824.915746,15626.685694,11243.508606,8041.554158,-0.000813,-0.011187,1.007750,192.000000,0.000000,0.000000,127.500000,72.000000,15.500000,56.000000,0.000000,0.000000,0.000000,1772010856.015621,0.000000
82.000000,8841.187816,12321.577945,7129.133598,12343.639117,5454.786772,14488.445459,-9731.413094,-16719.529536,12090.639721,11049.070781,11739.359705,5679.153583,8833.431760,15604.736281,11243.173330,8038.983707,-0.000813,-0.011187,1.007750,192.000000,0.000000,0.000000,0.000000,0.000000,0.000000,0.000000,0.000000,0.000000,0.000000,1772010856.015633,0.000000
84.000000,8831.174234,12307.764567,7112.258030,12328.663448,5448.193007,14471.122857,-9748.601585,-16740.361362,12083.017776,11058.704383,11739.449112,5691.424691,8832.940022,15609.608961,11238.121836,8046.896225,-0.000813,-0.011187,1.007750,192.000000,0.000000,0.000000,0.000000,0.000000,0.000000,0.000000,0.000000,0.000000,0.000000,1772010856.015645,0.000000
86.000000,8829.833130,12307.071663,7109.531118,12329.848090,5450.830513,14462.651546,-9749.540359,-16746.597498,12074.367651,11033.826892,11720.316019,5662.702699,8827.039162,15604.602171,11242.413371,8041.710620,-0.000813,-0.011187,1.007750,192.000000,0.000000,0.000000,0.000000,0.000000,0.000000,0.000000,0.000000,0.000000,0.000000,1772010856.015657,0.000000
88.000000,8835.063438,12315.990009,7116.661324,12342.521529,5460.151191,14491.105317,-9736.062257,-16732.873527,12083.710680,11052.892930,11738.175063,5683.735691,8838.505606,15605.920923,11241.966336,8045.644527,-0.000813,-0.011187,1.007750,192.000000,0.000000,0.000000,0.000000,0.000000,0.000000,0.000000,0.000000,0.000000,0.000000,1772010856.015668,0.000000
90.000000,8815.840938,12304.232991,7099.830461,12329.870442,5452.864522,14488.758384,-9757.698745,-16757.125170,12075.664052,11043.214624,11724.406388,5669.430574,8832.492987,15617.543831,11239.686458,8052.752382,0.002000,-0.010000,1.010000,192.000000,0.000000,8.000000,127.500000,88.000000,15.500000,72.000000,0.000000,0.000000,0.000000,1772010856.015688,0.000000
92.000000,8839.131455,12322.784939,7121.086970,12343.057971,5478.904304,14500.671864,-9735.168187,-16732.001809,12083.442460,11048.266119,11725.568679,5669.162353,8842.819493,15620.471909,11249.677688,8056.440420,0.002000,-0.010000,1.010000,192.000000,0.000000,0.000000,0.000000,0.000000,0.000000,0.000000,0.000000,0.000000,0.000000,1772010856.015699,0.000000
94.000000,8824.736932,12300.701416,7116.773083,12336.263041,5456.820781,14485.159753,-9749.495655,-16749.011487,12085.252951,11054.099924,11737.437455,5681.813441,8843.758266,15627.222136,11247.308403,8049.779600,0.002000,-0.010000,1.010000,192.000000,0.000000,0.000000,0.000000,0.000000,0.000000,0.000000,0.000000,0.000000,0.000000,1772010856.015711,0.000000
96.000000,8833.409409,12313.374855,7108.122958,12344.175559,5449.668223,14485.718547,-9747.752219,-16743.378847,12074.367651,11043.214624,11713.208164,5671.531638,8823.731103,15614.481642,11238.814740,8047.075039,0.002000,-0.010000,1.010000,192.000000,0.000000,0.000000,0.000000,0.000000,0.000000,0.000000,0.000000,0.000000,0.000000,1772010856.015723,0.000000
98.000000,8842.819493,12324.796596,7121.757522,12350.545806,5459.726508,14493.899285,-9733.558861,-16723.217574,12090.080928,11068.002709,11740.812569,5698.018455,8842.975955,15634.218232,11238.881795,8052.260644,0.002000,-0.010000,1.010000,192.000000,0.000000,0.000000,0.000000,0.000000,0.000000,0.000000,0.000000,0.000000,0.000000,1772010856.015735,0.000000
100.000000,8829.006115,12315.207698,7104.747844,12334.407846,5451.210493,14460.505779,-9753.675431,-16742.395370,12085.588227,11052.311784,11735.202281,5685.032092,8837.656240,15621.410682,11241.608708,8046.136266,0.002000,-0.008000,1.006000,192.000000,0.000000,8.000000,127.500000,96.000000,15.500000,56.000000,0.000000,0.000000,0.000000,1772010856.015746,0.000000
102.000000,8838.505606,12322.650829,7134.475664,12342.521529,5462.498124,14489.518343,-9730.094341,-16722.681132,12092.539620,11053.518779,11736.185758,5682.081661,8841.478388,15615.621581,11247.263699,8044.593995,0.002000,-0.008000,1.006000,192.000000,0.000000,0.000000,0.000000,0.000000,0.000000,0.000000,0.000000,0.000000,0.000000,1772010856.015758,0.000000
104.000000,8825.385132,12306.401110,7112.794472,12333.089093,5458.027775,14479.661224,-9746.902853,-16745.211690,12080.916712,11057.095058,11740.231423,5688.831888,8835.264604,15616.716816,11243.665069,8043.498760,0.002000,-0.008000,1.006000,192.000000,0.000000,0.000000,0.000000,0.000000,0.000000,0.000000,0.000000,0.000000,0.000000,1772010856.015769,0.000000
106.000000,8820.646563,12303.405977,7109.486414,12335.659544,5464.465077,14483.237503,-9748.780399,-16751.559586,12070.232579,11035.391514,11710.749472,5666.770717,8828.201452,15610.480679,11245.654374,8045.778638,0.002000,-0.008000,1.006000,192.000000,0.000000,0.000000,0.000000,0.000000,0.000000,0.000000,0.000000,0.000000,0.000000,1772010856.015781,0.000000
108.000000,8830.414275,12319.208660,7115.588440,12343.482655,5475.037453,14502.214134,-9736.621050,-16735.131053,12087.823401,11057.653851,11734.129397,5688.250743,8846.194607,15639.046209,11250.035316,8052.260644,0.002000,-0.008000,1.006000,192.000000,0.000000,0.000000,0.000000,0.000000,0.000000,0.000000,0.000000,0.000000,0.000000,1772010856.015792,0.000000
110.000000,8830.123702,12309.038616,7097.774100,12321.645000,5453.155095,14482.812820,-9756.469400,-16753.750056,12078.815648,11056.826837,11720.114853,5678.728900,8849.837941,15628.429130,11240.178196,8056.105144,0.002000,-0.010000,1.006000,192.000000,0.000000,8.000000,127.500000,88.000000,15.500000,56.000000,0.000000,0.000000,0.000000,1772010856.015804,0.000000
112.000000,8838.974993,12316.079416,7137.247281,12343.884986,5460.374708,14491.328834,-9729.535547,-16730.593649,12086.057614,11054.435200,11733.704714,5670.816382,8832.224766,15630.843119,11247.308403,8047.589129,0.002000,-0.010000,1.006000,192.000000,0.000000,0.000000,0.000000,0.000000,0.000000,0.000000,0.000000,0.000000,0.000000,1772010856.015815,0.000000
114.000000,8819.484272,12301.081395,7114.068522,12337.402980,5449.712926,14477.694270,-9743.795960,-16749.235004,12081.073175,11051.507122,11736.275165,5682.439289,8830.101351,15611.799432,11240.871101,8044.214016,0.002000,-0.010000,1.006000,192.000000,0.000000,0.000000,0.000000,0.000000,0.000000,0.000000,0.000000,0.000000,0.000000,1772010856.015827,0.000000
116.000000,8831.867138,12315.431215,7104.904307,12346.991878,5461.045261,14483.237503,-9743.393629,-16742.909460,12071.216055,11041.448836,11709.587182,5670.302292,8824.871042,15605.965627,11238.546519,8045.979803,0.002000,-0.010000,1.006000,192.000000,0.000000,0.000000,0.000000,0.000000,0.000000,0.000000,0.000000,0.000000,0.000000,1772010856.015839,0.000000
118.000000,8844.987612,12331.256250,7126.943127,12350.635213,5469.069537,14494.011044,-9728.999106,-16722.859946,12093.210172,11078.753898,11739.180891,5703.293467,8847.938043,15630.910174,11244.693249,8052.215940,0.002000,-0.010000,1.006000,192.000000,0.000000,0.000000,0.000000,0.000000,0.000000,0.000000,0.000000,0.000000,0.000000,1772010856.015851,0.000000
120.000000,8835.801045,12313.620724,7109.486414,12331.882099,5452.931577,14464.842017,-9750.590891,-16746.642202,12082.861314,11063.420601,11735.783426,5686.753176,8834.661106,15619.130804,11242.838054,8049.690193,-0.002000,-0.018000,1.010000,192.000000,127.500000,120.000000,127.500000,56.000000,15.500000,72.000000,0.000000,0.000000,0.000000,1772010856.015862,0.000000
122.000000,8843.802970,12319.231012,7127.703086,12336.151282,5473.785755,14474.229750,-9730.742542,-16729.252545,12089.522134,11057.542093,11732.609479,5676.426670,8838.684420,15611.933543,11247.040182,8046.717411,-0.002000,-0.018000,1.010000,192.000000,0.000000,0.000000,0.000000,0.000000,0.000000,0.000000,0.000000,0.000000,0.000000,1772010856.015875,0.000000
124.000000,8829.542557,12307.094015,7112.190975,12328.797558,5450.361127,14479.057727,-9747.260481,-16749.726742,12088.203381,11052.959985,11738.398580,5680.405281,8841.232519,15633.704142,11243.530958,8045.130437,-0.002000,-0.018000,1.010000,192.000000,0.000000,0.000000,0.000000,0.000000,0.000000,0.000000,0.000000,0.000000,0.000000,1772010856.015887,0.000000
126.000000,8827.843824,12310.670294,7102.110338,12336.643021,5453.669185,14478.409526,-9747.327536,-16751.492530,12075.775811,11039.213662,11713.297571,5665.943702,8826.905051,15612.581743,11239.418237,8039.542501,-0.002000,-0.018000,1.010000,192.000000,0.000000,0.000000,0.000000,0.000000,0.000000,0.000000,0.000000,0.000000,0.000000,1772010856.015899,0.000000
128.000000,8834.236423,12312.726654,7117.778911,12338.207643,5468.264874,14491.038262,-9738.878577,-16745.055228,12088.091622,11057.720906,11727.133301,5685.948513,8839.891415,15620.270743,11244.156807,8049.131399,-0.002000,-0.018000,1.010000,192.000000,0.000000,0.000000,0.000000,0.000000,0.000000,0.000000,0.000000,0.000000,0.000000,1772010856.015910,0.000000
130.000000,8832.001249,12309.239782,7106.915964,12328.395227,5458.586569,14473.916826,-9759.732754,-16763.204844,12074.792334,11042.767589,11721.612420,5663.887341,8825.183967,15611.128880,11245.095580,8047.924405,-0.004000,-0.014000,1.008000,192.000000,127.500000,112.000000,127.500000,72.000000,15.500000,64.000000,0.000000,0.000000,0.000000,1772010856.015922,0.000000
132.000000,8848.787409,12322.919050,7127.121941,12341.113370,5474.053976,14500.381291,-9736.017553,-16734.415798,12096.875858,11054.993994,11730.351952,5671.598693,8844.250005,15602.702272,11250.728220,8048.416143,-0.004000,-0.014000,1.008000,192.000000,0.000000,0.000000,0.000000,0.000000,0.000000,0.000000,0.000000,0.000000,0.000000,1772010856.015934,0.000000
134.000000,8829.386095,12318.158128,7102.713836,12332.731465,5455.233807,14478.498933,-9746.902853,-16744.809359,12090.997349,11059.196122,11735.783426,5684.294484,8850.150865,15628.831462,11245.363801,8045.733934,-0.004000,-0.014000,1.008000,192.000000,0.000000,0.000000,0.000000,0.000000,0.000000,0.000000,0.000000,0.000000,0.000000,1772010856.015945,0.000000
136.000000,8833.767037,12318.962791,7118.069484,12339.012306,5450.763458,14479.057727,-9742.834835,-16736.874489,12076.066384,11052.043563,11717.410292,5676.247856,8833.096484,15618.147328,11239.082961,8039.631908,-0.004000,-0.014000,1.008000,192.000000,0.000000,0.000000,0.000000,0.000000,0.000000,0.000000,0.000000,0.000000,0.000000,1772010856.015957,0.000000
138.000000,8851.089639,12333.111445,7125.534967,12357.340736,5459.525342,14498.950779,-9728.462664,-16719.596591,12092.763137,11077.301035,11743.964165,5705.059255,8830.973069,15633.994714,11241.385191,8049.019641,-0.004000,-0.014000,1.008000,192.000000,0.000000,0.000000,0.000000,0.000000,0.000000,0.000000,0.000000,0.000000,0.000000,1772010856.015968,0.000000
140.000000,8836.762170,12314.917125,7112.302734,12328.372875,5455.390269,14461.623366,-9751.686126,-16746.351629,12088.695119,11062.615938,11737.504511,5683.109842,8836.739819,15623.802319,11240.804045,8047.834998,-0.006000,-0.014000,1.010000,192.000000,127.500000,104.000000,127.500000,72.000000,15.500000,72.000000,0.000000,0.000000,0.000000,1772010856.015980,0.000000
142.000000,8846.306365,12325.914183,7130.854682,12342.029791,5471.639987,14479.214189,-9729.759065,-16724.715140,12091.265570,11056.916244,11737.280993,5675.510249,8842.595976,15620.293095,11248.269528,8043.945795,-0.006000,-0.014000,1.010000,192.000000,0.000000,0.000000,0.000000,0.000000,0.000000,0.000000,0.000000,0.000000,0.000000,1772010856.015992,0.000000
144.000000,8831.129531,12310.670294,7113.263859,12327.121178,5452.104563,14475.235578,-9744.868844,-16746.239870,12086.929332,11059.285529,11743.561833,5685.322664,8834.415237,15627.646819,11244.425028,8041.017716,-0.006000,-0.014000,1.010000,192.000000,0.000000,0.000000,0.000000,0.000000,0.000000,0.000000,0.000000,0.000000,0.000000,1772010856.016004,0.000000
146.000000,8822.792330,12300.433195,7096.947085,12327.143529,5449.534112,14466.026660,-9748.579234,-16752.498359,12067.125686,11037.380819,11708.156670,5663.239141,8819.596031,15593.649816,11238.323002,8031.764094,-0.006000,-0.014000,1.010000,192.000000,0.000000,0.000000,0.000000,0.000000,0.000000,0.000000,0.000000,0.000000,0.000000,1772010856.016015,0.000000
148.000000,8826.837996,12308.926858,7119.298830,12333.424370,5456.843133,14483.885704,-9733.134178,-16737.835614,12074.367651,11049.562520,11724.741664,5681.679330,8832.872967,15611.933543,11236.668973,8038.469617,-0.006000,-0.014000,1.010000,192.000000,0.000000,0.000000,0.000000,0.000000,0.000000,0.000000,0.000000,0.000000,0.000000,1772010856.016027,0.000000
150.000000,8826.994458,12302.646017,7093.169641,12332.217375,5447.745973,14477.269587,-9753.697783,-16755.001754,12065.337547,11045.494502,11716.024484,5672.358653,8821.719446,15598.097813,11235.216109,8043.029373,-0.006000,-0.014000,1.010000,192.000000,0.000000,0.000000,127.500000,88.000000,15.500000,48.000000,0.000000,0.000000,0.000000,1772010856.016039,0.000000
152.000000,8843.467694,12314.917125,7122.048095,12339.660506,5464.778002,14503.488183,-9733.558861,-16732.806472,12087.041090,11065.007575,11723.713484,5676.270208,8830.011944,15624.182299,11242.413371,8053.199417,-0.006000,-0.014000,1.010000,192.000000,0.000000,0.000000,0.000000,0.000000,0.000000,0.000000,0.000000,0.000000,0.000000,1772010856.016050,0.000000
154.000000,8831.285993,12303.361273,7111.498071,12333.022038,5455.256159,14478.923616,-9747.774571,-16746.977478,12083.107183,11061.476000,11738.465636,5676.940760,8829.833130,15627.244488,11244.156807,8048.907882,-0.006000,-0.014000,1.010000,192.000000,0.000000,0.000000,0.000000,0.000000,0.000000,0.000000,0.000000,0.000000,0.000000,1772010856.016063,0.000000
156.000000,8837.656240,12314.626552,7112.928583,12341.023963,5457.424278,14484.399794,-9744.757085,-16738.752036,12077.049861,11049.473113,11718.706693,5668.156525,8826.837996,15615.420415,11243.195682,8042.336469,-0.006000,-0.014000,1.010000,192.000000,0.000000,0.000000,0.000000,0.000000,0.000000,0.000000,0.000000,0.000000,0.000000,1772010856.016075,0.000000
158.000000,8854.330642,12330.876271,7122.584536,12350.478751,5460.464115,14501.118899,-9727.680353,-16716.869678,12091.444384,11078.418622,11744.813531,5704.008723,8838.796179,15645.952898,11240.178196,8046.605652,-0.006000,-0.014000,1.010000,192.000000,0.000000,0.000000,0.000000,0.000000,0.000000,0.000000,0.000000,0.000000,0.000000,1772010856.016087,0.000000
160.000000,8846.194607,12313.665427,7109.419359,12330.026904,5457.580740,14477.135477,-9751.619071,-16743.378847,12086.191724,11070.439049,11734.598784,5689.413034,8840.517263,15624.651685,11235.998420,8046.516245,-0.006000,-0.014000,1.010000,192.000000,0.000000,0.000000,127.500000,88.000000,15.500000,40.000000,0.000000,0.000000,0.000000,1772010856.016098,0.000000
162.000000,8864.612444,12327.344695,7132.173435,12347.125989,5476.691482,14498.391986,-9729.580251,-16716.109719,12109.661056,11066.706308,11744.612365,5675.979635,8852.140171,15613.319351,11249.722391,8044.750457,-0.006000,-0.014000,1.010000,192.000000,0.000000,0.000000,0.000000,0.000000,0.000000,0.000000,0.000000,0.000000,0.000000,1772010856.016110,0.000000
164.000000,8846.105200,12314.537145,7110.179318,12336.575965,5466.253217,14470.139381,-9744.757085,-16736.002771,12103.983713,11068.852075,11755.251796,5689.234220,8858.085735,15614.302828,11246.995479,8046.158617,-0.006000,-0.014000,1.010000,192.000000,0.000000,0.000000,0.000000,0.000000,0.000000,0.000000,0.000000,0.000000,0.000000,1772010856.016122,0.000000
166.000000,8822.389999,12293.817078,7110.112263,12324.930707,5461.805220,14465.624328,-9752.110809,-16756.655783,12083.621273,11043.348735,11720.047798,5663.261493,8837.991516,15603.864563,11245.184987,8037.262623,-0.006000,-0.014000,1.010000,192.000000,0.000000,0.000000,0.000000,0.000000,0.000000,0.000000,0.000000,0.000000,0.000000,1772010856.016134,0.000000
168.000000,8820.825377,12298.108613,7109.419359,12336.620669,5462.811048,14485.137401,-9740.733771,-16753.481836,12081.609616,11051.797694,11720.271316,5675.487897,8838.349144,15621.611848,11243.575662,8037.553196,-0.006000,-0.014000,1.010000,192.000000,0.000000,0.000000,0.000000,0.000000,0.000000,0.000000,0.000000,0.000000,0.000000,1772010856.016146,0.000000
170.000000,8803.346312,12283.892904,7094.846022,12324.975410,5447.902435,14458.024735,-9759.844513,-16773.173722,12056.620366,11035.838549,11699.886525,5661.719222,8829.900185,15611.531211,11233.070342,8037.732010,0.000000,-0.010000,1.005000,192.000000,0.000000,24.000000,127.500000,104.000000,15.500000,32.000000,0.000000,0.000000,0.000000,1772010856.016157,0.000000
172.000000,8841.992479,12312.905468,7123.076275,12343.303841,5467.974301,14488.333701,-9732.195405,-16733.611135,12077.452192,11041.381781,11715.689208,5664.423783,8821.384170,15617.610886,11242.391019,8040.481274,0.000000,-0.010000,1.005000,192.000000,0.000000,0.000000,0.000000,0.000000,0.000000,0.000000,0.000000,0.000000,0.000000,1772010856.016169,0.000000
174.000000,8851.894301,12317.018189,7118.695333,12343.974393,5454.071516,14481.583474,-9740.331440,-16729.185489,12094.148945,11064.381726,11748.166293,5688.742481,8838.684420,15609.027816,11240.893452,8043.789332,0.000000,-0.010000,1.005000,192.000000,0.000000,0.000000,0.000000,0.000000,0.000000,0.000000,0.000000,0.000000,0.000000,1772010856.016181,0.000000
176.000000,8859.471543,12326.830605,7121.489301,12348.400038,5463.906284,14486.679672,-9739.303260,-16720.267143,12103.603733,11063.130029,11745.640546,5686.216734,8840.025525,15615.554525,11239.462941,8039.833074,0.000000,-0.010000,1.005000,192.000000,0.000000,0.000000,0.000000,0.000000,0.000000,0.000000,0.000000,0.000000,0.000000,1772010856.016192,0.000000
178.000000,8854.956490,12331.904451,7126.697257,12346.678954,5476.266799,14497.721433,-9730.228452,-16717.249658,12105.280114,11086.979340,11757.442267,5708.032037,8846.686345,15637.727456,11247.375458,8044.526940,0.000000,-0.010000,1.005000,192.000000,0.000000,0.000000,0.000000,0.000000,0.000000,0.000000,0.000000,0.000000,0.000000,1772010856.495552,0.000000
180.000000,8818.925478,12299.405014,7101.395083,12338.967602,5454.429144,14472.553369,-9754.658908,-16756.879301,12079.374442,11071.757802,11724.629906,5684.093318,8837.052743,15622.461214,11244.134455,8041.107123,0.001000,-0.010000,1.004500,192.000000,0.000000,8.000000,127.500000,88.000000,15.500000,48.000000,0.000000,0.000000,0.000000,1772010856.495618,0.000000
182.000000,8830.883662,12306.423462,7117.667153,12337.201814,5470.589455,14483.192799,-9735.972850,-16741.434245,12076.289901,11054.792828,11713.364627,5668.447097,8837.879758,15621.790662,11245.184987,8039.900129,0.001000,-0.010000,1.004500,192.000000,0.000000,0.000000,0.000000,0.000000,0.000000,0.000000,0.000000,0.000000,0.000000,1772010856.495669,0.000000
184.000000,8839.556138,12305.439985,7093.303751,12330.697457,5468.063708,14472.039279,-9747.059315,-16745.032876,12089.119803,11058.257348,11731.380133,5673.342129,8850.329679,15611.508860,11243.218034,8041.352992,0.001000,-0.010000,1.004500,192.000000,0.000000,0.000000,0.000000,0.000000,0.000000,0.000000,0.000000,0.000000,0.000000,1772010856.495717,0.000000
186.000000,8838.170330,12305.976427,7112.034513,12326.920012,5468.555447,14479.795334,-9747.193426,-16740.897803,12089.723300,11047.059124,11724.205223,5660.646339,8836.449246,15605.987979,11242.569833,8038.514321,0.001000,-0.010000,1.004500,192.000000,0.000000,0.000000,0.000000,0.000000,0.000000,0.000000,0.000000,0.000000,0.000000,1772010856.495773,0.000000
188.000000,8849.212092,12319.007494,7119.835272,12343.281489,5473.003444,14487.909018,-9732.105998,-16720.445957,12089.678596,11067.935654,11743.561833,5686.082624,8837.097447,15643.337744,11246.637851,8043.543463,0.001000,-0.010000,1.004500,192.000000,0.000000,0.000000,0.000000,0.000000,0.000000,0.000000,0.000000,0.000000,0.000000,1772010856.495828,0.000000
190.000000,8830.928365,12309.418596,7105.060769,12332.396189,5458.228941,14479.750631,-9753.228397,-16744.608193,12083.867143,11061.766572,11726.730970,5687.826060,8831.196586,15627.423302,11241.005211,8043.431704,0.001500,-0.009000,1.004250,192.000000,0.000000,8.000000,127.500000,96.000000,15.500000,48.000000,0.000000,0.000000,0.000000,1772010856.495858,0.000000
192.000000,8847.111028,12330.093960,7120.192900,12362.369879,5464.912112,14508.383215,-9727.658001,-16718.948390,12087.398718,11077.882180,11723.199394,5693.212830,8841.701906,15631.781892,11242.994516,8049.064344,0.001500,-0.009000,1.004250,192.000000,0.000000,0.000000,0.000000,0.000000,0.000000,0.000000,0.000000,0.000000,0.000000,1772010856.495871,0.000000
194.000000,8841.299575,12309.977390,7111.989810,12349.070591,5445.846074,14481.695233,-9740.130274,-16733.767597,12091.556143,11080.542038,11739.940851,5700.968886,8841.232519,15623.645857,11234.210281,8045.488065,0.001500,-0.009000,1.004250,192.000000,0.000000,0.000000,0.000000,0.000000,0.000000,0.000000,0.000000,0.000000,0.000000,1772010856.495883,0.000000
196.000000,8851.559025,12317.107596,7115.521385,12333.558480,5444.437914,14464.596148,-9741.918414,-16730.392484,12091.198515,11062.861808,11727.893260,5675.286731,8830.749551,15621.768310,11232.600955,8035.452132,0.001500,-0.009000,1.004250,192.000000,0.000000,0.000000,0.000000,0.000000,0.000000,0.000000,0.000000,0.000000,0.000000,1772010856.495895,0.000000
198.000000,8854.107124,12330.563346,7109.285248,12347.215396,5455.166752,14470.519360,-9731.234280,-16717.495527,12109.303428,11083.693634,11749.373287,5694.822156,8858.219845,15625.568107,11238.278298,8032.144074,0.001500,-0.009000,1.004250,192.000000,0.000000,0.000000,0.000000,0.000000,0.000000,0.000000,0.000000,0.000000,0.000000,1772010856.495917,0.000000
200.000000,8835.152845,12307.071663,7110.246373,12326.584736,5452.372784,14451.363915,-9755.105943,-16748.452693,12089.410375,11065.923997,11733.481197,5681.656978,8834.750513,15620.181336,11237.741856,8028.679553,0.001750,-0.008500,1.005125,192.000000,0.000000,8.000000,127.500000,96.000000,15.500000,56.000000,0.000000,0.000000,0.000000,1772010856.495930,0.000000
202.000000,8846.328717,12319.722750,7128.373638,12342.186253,5470.611807,14481.069384,-9732.374219,-16728.179661,12098.149907,11065.186389,11730.530766,5678.751252,8847.960394,15621.298924,11242.994516,8032.859329,0.001750,-0.008500,1.005125,192.000000,0.000000,0.000000,0.000000,0.000000,0.000000,0.000000,0.000000,0.000000,0.000000,1772010856.495942,0.000000
204.000000,8842.171293,12315.118291,7123.031571,12334.787826,5461.492295,14476.375517,-9742.343097,-16738.193242,12092.539620,11068.695613,11741.885452,5688.429557,8834.750513,15620.963647,11242.100446,8037.620251,0.001750,-0.008500,1.005125,192.000000,0.000000,0.000000,0.000000,0.000000,0.000000,0.000000,0.000000,0.000000,0.000000,1772010856.495955,0.000000
206.000000,8840.003173,12316.794672,7115.856661,12344.734352,5462.498124,14477.358994,-9741.426675,-16737.030952,12092.897247,11061.207779,11729.055551,5678.259513,8841.053705,15622.461214,11238.501816,8037.843768,0.001750,-0.008500,1.005125,192.000000,0.000000,0.000000,0.000000,0.000000,0.000000,0.000000,0.000000,0.000000,0.000000,1772010856.495968,0.000000
208.000000,8846.663993,12321.913221,7120.125844,12350.836378,5474.433955,14498.034358,-9729.334382,-16724.245754,12096.004140,11070.751973,11744.768828,5696.677351,8843.624156,15623.265877,11239.060609,8046.024507,0.001750,-0.008500,1.005125,192.000000,0.000000,0.000000,0.000000,0.000000,0.000000,0.000000,0.000000,0.000000,0.000000,1772010856.495981,0.000000
210.000000,8841.836016,12314.425387,7106.692446,12337.067704,5464.979168,14481.695233,-9754.748315,-16748.363286,12090.729128,11065.052279,11732.609479,5683.825098,8841.947775,15641.571956,11239.261775,8049.556082,0.001750,-0.008500,1.005125,192.000000,0.000000,0.000000,127.500000,88.000000,15.500000,56.000000,0.000000,0.000000,0.000000,1772010856.495993,0.000000
212.000000,8855.180008,12333.670239,7129.290060,12350.836378,5481.161831,14507.042111,-9730.943707,-16723.463443,12096.629989,11074.596474,11733.123569,5684.495650,8840.517263,15645.014125,11243.977993,8049.936062,0.001750,-0.008500,1.005125,192.000000,0.000000,0.000000,0.000000,0.000000,0.000000,0.000000,0.000000,0.000000,0.000000,1772010856.496005,0.000000
214.000000,8842.886548,12314.850070,7111.520423,12337.850015,5462.565179,14480.175314,-9743.728905,-16740.182548,12100.206268,11076.272854,11744.902938,5694.486880,8851.134342,15634.039418,11241.519301,8044.392829,0.001750,-0.008500,1.005125,192.000000,0.000000,0.000000,0.000000,0.000000,0.000000,0.000000,0.000000,0.000000,0.000000,1772010856.496018,0.000000
216.000000,8835.354011,12308.278657,7112.794472,12338.587622,5462.542827,14479.415355,-9744.198292,-16745.234042,12086.325835,11054.993994,11717.790272,5670.458754,8839.310269,15622.841194,11234.657316,8036.189739,0.001750,-0.008500,1.005125,192.000000,0.000000,0.000000,0.000000,0.000000,0.000000,0.000000,0.000000,0.000000,0.000000,1772010856.496030,0.000000
218.000000,8838.997345,12307.652808,7128.910080,12344.130855,5474.746880,14491.954683,-9732.798902,-16735.131053,12097.457003,11072.830686,11739.985554,5688.273095,8849.703830,15625.188127,11242.234557,8040.593033,0.001750,-0.008500,1.005125,192.000000,0.000000,0.000000,0.000000,0.000000,0.000000,0.000000,0.000000,0.000000,0.000000,1772010856.496045,0.000000
220.000000,8832.403580,12296.096956,7110.961629,12339.816968,5458.295996,14471.100506,-9752.311975,-16752.386600,12083.062480,11053.339965,11730.888394,5673.073908,8829.184929,15621.768310,11242.368667,8039.654260,0.001750,-0.008500,1.005125,192.000000,0.000000,0.000000,0.000000,0.000000,0.000000,0.000000,0.000000,0.000000,0.000000,1772010856.496058,0.000000
222.000000,8855.314118,12322.069683,7133.760409,12344.019096,5476.780889,14494.994521,-9729.021457,-16720.468309,12098.529887,11065.789886,11736.878662,5677.678368,8846.731048,15625.344589,11243.821531,8043.051725,0.001750,-0.008500,1.005125,192.000000,0.000000,0.000000,127.500000,80.000000,15.500000,80.000000,0.000000,0.000000,0.000000,1772010856.496070,0.000000
224.000000,8853.302461,12316.593506,7120.528176,12343.057971,5466.119107,14472.285148,-9739.862053,-16727.553812,12106.420053,11076.831648,11756.928177,5694.241010,8854.710621,15629.122034,11244.134455,8041.129475,0.001750,-0.008500,1.005125,192.000000,0.000000,0.000000,0.000000,0.000000,0.000000,0.000000,0.000000,0.000000,0.000000,1772010856.496082,0.000000
226.000000,8855.336470,12322.628477,7116.258993,12338.855843,5462.028737,14482.857523,-9742.588966,-16728.514937,12101.100338,11066.326328,11739.225595,5677.812478,8844.540577,15634.195880,11240.602880,8037.463789,0.001750,-0.008500,1.005125,192.000000,0.000000,0.000000,0.000000,0.000000,0.000000,0.000000,0.000000,0.000000,0.000000,1772010856.496094,0.000000
228.000000,8857.750458,12322.092035,7127.144292,12346.813064,5477.742014,14490.837096,-9730.876652,-16719.306018,12107.112957,11085.973511,11753.418953,5704.299295,8849.100333,15644.969421,11246.637851,8038.380210,0.001750,-0.008500,1.005125,192.000000,0.000000,0.000000,0.000000,0.000000,0.000000,0.000000,0.000000,0.000000,0.000000,1772010856.496107,0.000000
230.000000,8837.924461,12300.612009,7103.764368,12331.591526,5463.973339,14469.312366,-9756.044716,-16751.179606,12096.182954,11058.547921,11735.269336,5681.701682,8840.830188,15613.185240,11244.559138,8034.222786,0.001750,-0.008500,1.005125,192.000000,0.000000,0.000000,0.000000,0.000000,0.000000,0.000000,0.000000,0.000000,0.000000,1772010856.496119,0.000000
232.000000,8852.475447,12317.353465,7121.511653,12350.724620,5476.870296,14497.453212,-9733.312992,-16725.519803,12095.691215,11067.376860,11728.966144,5677.320740,8855.805857,15640.633183,11243.709772,8040.481274,-0.002000,-0.016000,1.010000,192.000000,127.500000,120.000000,127.500000,64.000000,15.500000,72.000000,0.000000,0.000000,0.000000,1772010856.496131,0.000000
234.000000,8840.070229,12301.662541,7111.453368,12344.846111,5461.626406,14488.937198,-9746.500521,-16740.406065,12091.153811,11069.612035,11746.847540,5688.027225,8832.671801,15615.643932,11240.379362,8040.637736,-0.002000,-0.016000,1.010000,192.000000,0.000000,0.000000,0.000000,0.000000,0.000000,0.000000,0.000000,0.000000,0.000000,1772010856.496143,0.000000
