Sample_index,EXG Channel 0,EXG Channel 1,EXG Channel 2,EXG Channel 3,EXG Channel 4,EXG Channel 5,EXG Channel 6,EXG Channel 7,EXG Channel 8,EXG Channel 9,EXG Channel 10,EXG Channel 11,EXG Channel 12,EXG Channel 13,EXG Channel 14,EXG Channel 15,Accel Channel 0,Accel Channel 1,Accel Channel 2,Not Used,Digital Channel 0 (D11),Digital Channel 1 (D12),Digital Channel 2 (D13),Digital Channel 3 (D17),Not Used,Digital Channel 4 (D18),Analog Channel 0,Analog Channel 1,Analog Channel 2,Timestamp,Marker Channel
90.000000,-28409.983624,3731.131998,-15203.768337,2523.310783,5626.179949,8535.214786,-897.109615,-8938.708477,9385.385738,8063.682385,4160.553713,-21135.384874,11389.979588,4084.691892,2588.957857,-1309.387542,0.006000,-0.020000,1.002000,192.000000,0.000000,0.000000,0.000000,0.000000,0.000000,0.000000,0.000000,0.000000,0.000000,1773751116.237248,0.000000
92.000000,-28359.468682,3773.153278,-15147.956031,2562.649854,5683.489821,8583.069871,-851.221484,-8897.961247,9385.363386,8081.228504,4175.752899,-21109.345092,11397.802698,4157.625634,2593.159985,-1313.880243,0.006000,-0.020000,1.002000,192.000000,0.000000,0.000000,0.000000,0.000000,0.000000,0.000000,0.000000,0.000000,0.000000,1773751116.237314,0.000000
94.000000,-28409.246017,3730.595557,-15192.793631,2523.556652,5626.314059,8545.675402,-895.120310,-8937.993221,9365.582092,8072.466621,4177.406928,-21114.709510,11337.363581,4077.986369,2603.777063,-1304.470158,0.012000,-0.018000,1.008000,192.000000,0.000000,48.000000,127.500000,56.000000,15.500000,64.000000,0.000000,0.000000,0.000000,1773751116.237365,0.000000
96.000000,-28367.828234,3766.268941,-15156.047363,2556.614883,5664.177914,8575.872609,-862.397356,-8897.402453,9399.176764,8060.955472,4166.588684,-21134.490804,11313.603677,4055.455810,2591.975342,-1310.438074,0.012000,-0.018000,1.008000,192.000000,0.000000,0.000000,0.000000,0.000000,0.000000,0.000000,0.000000,0.000000,0.000000,1773751116.237424,0.000000
98.000000,-28367.828234,3770.783993,-15157.410819,2560.705252,5665.362557,8573.123345,-858.351691,-8888.439404,9382.211790,8096.718263,4210.688676,-21075.839827,11375.674471,4145.667451,2599.753749,-1308.068789,0.012000,-0.018000,1.008000,192.000000,0.000000,0.000000,0.000000,0.000000,0.000000,0.000000,0.000000,0.000000,0.000000,1773751116.237489,0.000000
100.000000,-28399.746525,3743.291347,-15193.128907,2530.999783,5625.732914,8525.380018,-887.028979,-8915.820291,9392.091261,8065.626987,4178.770385,-21122.286752,11377.887294,4093.386721,2597.250354,-1308.582879,0.012000,-0.018000,1.008000,192.000000,0.000000,0.000000,0.000000,0.000000,0.000000,0.000000,0.000000,0.000000,0.000000,1773751116.237532,0.000000
102.000000,-28348.918658,3783.278618,-15136.489586,2575.747976,5661.562760,8558.594711,-837.184589,-8869.596883,9390.079604,8082.323740,4197.769367,-21094.391774,11374.668643,4097.857070,2584.576915,-1327.335993,0.012000,-0.018000,1.008000,192.000000,0.000000,0.000000,0.000000,0.000000,0.000000,0.000000,0.000000,0.000000,0.000000,1773751116.237605,0.000000
104.000000,-28402.495790,3736.496417,-15187.339805,2527.870539,5599.760187,8510.270239,-884.078548,-8917.720189,9376.914427,8078.881571,4199.959838,-21094.548237,11315.838851,4091.978561,2589.717816,-1322.038629,0.016000,-0.014000,1.004000,192.000000,0.000000,64.000000,127.500000,72.000000,15.500000,48.000000,0.000000,0.000000,0.000000,1773751116.237669,0.000000
106.000000,-28377.774760,3749.527484,-15165.122171,2547.584778,5621.977821,8529.269222,-859.782202,-8898.855317,9391.376006,8044.035202,4170.947274,-21140.101092,11356.764896,4090.123366,2570.070633,-1326.687792,0.016000,-0.014000,1.004000,192.000000,0.000000,0.000000,0.000000,0.000000,0.000000,0.000000,0.000000,0.000000,0.000000,1773751116.237720,0.000000
108.000000,-28380.859301,3748.834580,-15166.262110,2551.563388,5630.113856,8523.010733,-861.391528,-8898.944723,9367.481991,8073.561856,4207.827652,-21089.429687,11353.389782,4090.279828,2585.336874,-1330.308775,0.016000,-0.014000,1.004000,192.000000,0.000000,0.000000,0.000000,0.000000,0.000000,0.000000,0.000000,0.000000,0.000000,1773751116.237782,0.000000
110.000000,-28414.319863,3720.336106,-15198.180401,2521.924975,5600.073111,8503.497661,-891.499328,-8927.554956,9376.445040,8041.956489,4170.790812,-21139.072912,11336.760084,4040.524845,2585.292171,-1316.741266,0.016000,-0.014000,1.004000,192.000000,0.000000,0.000000,0.000000,0.000000,0.000000,0.000000,0.000000,0.000000,0.000000,1773751116.237819,0.000000
112.000000,-28359.535737,3767.364176,-15144.916194,2566.248484,5663.529714,8562.282748,-843.733650,-8881.488011,9378.523753,8063.995309,4190.482699,-21107.825173,11328.981677,4112.788035,2583.056996,-1319.624641,0.016000,-0.014000,1.004000,192.000000,0.000000,0.000000,0.000000,0.000000,0.000000,0.000000,0.000000,0.000000,0.000000,1773751116.237829,0.000000
114.000000,-28408.374299,3733.300118,-15197.152221,2527.356449,5626.001135,8530.498568,-889.197098,-8926.459721,9363.369270,8067.772754,4186.794661,-21107.624007,11409.090329,4122.086361,2604.268802,-1308.627583,0.014000,-0.010000,1.000000,192.000000,0.000000,56.000000,127.500000,88.000000,15.500000,32.000000,0.000000,0.000000,0.000000,1773751116.237839,0.000000
116.000000,-28372.231528,3758.736403,-15158.416648,2554.692633,5652.599711,8559.734650,-860.989196,-8898.587096,9390.660750,8053.065306,4164.219399,-21137.262420,11283.942912,4044.995194,2587.080310,-1309.566356,0.014000,-0.010000,1.000000,192.000000,0.000000,0.000000,0.000000,0.000000,0.000000,0.000000,0.000000,0.000000,0.000000,1773751116.237850,0.000000
118.000000,-28368.364676,3760.591598,-15157.142598,2554.111487,5665.206094,8566.618987,-858.865781,-8892.663883,9378.479049,8084.648321,4209.392275,-21083.215902,11364.297433,4105.791939,2602.458310,-1315.958955,0.014000,-0.010000,1.000000,192.000000,0.000000,0.000000,0.000000,0.000000,0.000000,0.000000,0.000000,0.000000,0.000000,1773751116.237859,0.000000
120.000000,-28396.840798,3737.748115,-15192.301892,2524.651888,5623.631850,8538.276975,-886.917220,-8916.177918,9393.544125,8055.546350,4179.642103,-21129.193441,11424.758902,4090.279828,2599.574935,-1309.655763,0.014000,-0.010000,1.000000,192.000000,0.000000,0.000000,0.000000,0.000000,0.000000,0.000000,0.000000,0.000000,0.000000,1773751116.237874,0.000000
122.000000,-28345.454138,3774.360272,-15131.751017,2569.333025,5667.485972,8569.144734,-838.928025,-8869.462773,9400.651980,8073.897132,4207.984115,-21098.325681,11328.735808,4141.822951,2585.292171,-1324.318507,0.014000,-0.010000,1.000000,192.000000,0.000000,0.000000,0.000000,0.000000,0.000000,0.000000,0.000000,0.000000,0.000000,1773751116.237884,0.000000
124.000000,-28405.870903,3723.979440,-15188.815020,2523.958984,5618.446245,8516.327562,-886.984275,-8918.949535,9381.787107,8065.448173,4206.285382,-21102.460754,11370.399460,4094.526660,2593.942296,-1317.970612,0.012000,-0.009000,1.002000,192.000000,0.000000,40.000000,127.500000,96.000000,15.500000,48.000000,0.000000,0.000000,0.000000,1773751116.237894,0.000000
126.000000,-28383.116827,3744.721859,-15159.064848,2551.183409,5640.797989,8539.126341,-860.095127,-8895.435500,9387.397395,8041.241233,4169.539114,-21140.391665,11328.132311,4060.686119,2583.481679,-1316.048362,0.012000,-0.009000,1.002000,192.000000,0.000000,0.000000,0.000000,0.000000,0.000000,0.000000,0.000000,0.000000,0.000000,1773751116.237904,0.000000
128.000000,-28380.054638,3750.935644,-15162.350555,2554.424412,5645.290690,8545.340126,-857.927007,-8891.143965,9367.437287,8074.992368,4206.263030,-21087.306271,11362.956329,4118.264212,2594.456386,-1321.748057,0.012000,-0.009000,1.002000,192.000000,0.000000,0.000000,0.000000,0.000000,0.000000,0.000000,0.000000,0.000000,0.000000,1773751116.237914,0.000000
130.000000,-28413.515200,3721.699562,-15198.538029,2526.931766,5615.294649,8521.043780,-888.124214,-8921.654096,9379.775450,8047.410315,4171.863696,-21133.037941,11353.233320,4100.181651,2592.087101,-1309.789873,0.012000,-0.009000,1.002000,192.000000,0.000000,0.000000,0.000000,0.000000,0.000000,0.000000,0.000000,0.000000,0.000000,1773751116.237925,0.000000
132.000000,-28359.222813,3762.983234,-15144.245642,2570.160040,5669.631740,8558.728821,-843.957167,-8876.391813,9385.318683,8066.006966,4191.332065,-21105.545295,11359.201236,4060.797877,2586.297999,-1320.339897,0.012000,-0.009000,1.002000,192.000000,0.000000,0.000000,0.000000,0.000000,0.000000,0.000000,0.000000,0.000000,0.000000,1773751116.237935,0.000000
134.000000,-28404.239226,3723.398295,-15190.446698,2521.813216,5630.851463,8526.765827,-889.331208,-8918.681314,9377.875552,8063.302405,4195.891821,-21106.461716,11364.789172,4089.005779,2596.892726,-1316.607155,0.014000,-0.008500,1.001000,192.000000,0.000000,64.000000,127.500000,96.000000,15.500000,32.000000,0.000000,0.000000,0.000000,1773751116.237944,0.000000
136.000000,-28367.247089,3752.567321,-15153.029877,2548.724717,5670.928141,8565.434344,-861.212714,-8889.869915,9404.317666,8047.745591,4173.562428,-21139.698760,11373.327538,4085.518907,2591.908287,-1314.908423,0.014000,-0.008500,1.001000,192.000000,0.000000,0.000000,0.000000,0.000000,0.000000,0.000000,0.000000,0.000000,0.000000,1773751116.237954,0.000000
138.000000,-28368.431731,3755.584807,-15155.846197,2549.685842,5675.040862,8570.910522,-860.072775,-8887.455927,9387.777375,8086.168240,4217.371847,-21083.908806,11421.517899,4147.701460,2601.854813,-1312.852062,0.014000,-0.008500,1.001000,192.000000,0.000000,0.000000,0.000000,0.000000,0.000000,0.000000,0.000000,0.000000,0.000000,1773751116.237964,0.000000
140.000000,-28399.411249,3730.953184,-15186.043404,2526.104751,5645.402449,8543.149655,-887.520717,-8912.311067,9400.182593,8056.753344,4182.212553,-21128.567592,11347.086590,4086.703549,2603.218270,-1308.806397,0.014000,-0.008500,1.001000,192.000000,0.000000,0.000000,0.000000,0.000000,0.000000,0.000000,0.000000,0.000000,0.000000,1773751116.237974,0.000000
142.000000,-28345.700007,3778.249476,-15135.014371,2575.502107,5684.518002,8585.416804,-837.497513,-8864.992424,9408.363331,8082.077871,4204.050208,-21093.453001,11382.000015,4124.746218,2590.768348,-1318.864682,0.014000,-0.008500,1.001000,192.000000,0.000000,0.000000,0.000000,0.000000,0.000000,0.000000,0.000000,0.000000,0.000000,1773751116.237984,0.000000
144.000000,-28399.947691,3731.020240,-15189.127945,2528.161112,5630.069152,8535.550062,-883.944438,-8912.467529,9392.471241,8079.909751,4203.513766,-21093.318891,11388.012634,4108.965887,2596.490395,-1310.371019,0.014000,-0.010250,1.000500,192.000000,0.000000,56.000000,127.500000,80.000000,15.500000,32.000000,0.000000,0.000000,0.000000,1773751116.237993,0.000000
146.000000,-28371.784493,3752.030880,-15158.886034,2550.982243,5656.958301,8550.905711,-859.245760,-8892.418014,9408.475090,8049.466675,4173.853001,-21137.798862,11338.145892,4103.668523,2590.366017,-1315.623679,0.014000,-0.010250,1.000500,192.000000,0.000000,0.000000,0.000000,0.000000,0.000000,0.000000,0.000000,0.000000,0.000000,1773751116.238003,0.000000
148.000000,-28380.389915,3740.877359,-15159.668345,2554.804391,5646.162408,8553.699679,-863.716109,-8900.710511,9382.770584,8082.301388,4207.917059,-21088.312100,11357.815428,4116.967811,2597.965610,-1317.657687,0.014000,-0.010250,1.000500,192.000000,0.000000,0.000000,0.000000,0.000000,0.000000,0.000000,0.000000,0.000000,0.000000,1773751116.238013,0.000000
150.000000,-28412.263502,3713.809396,-15195.699357,2521.053257,5615.093483,8523.547175,-897.199022,-8933.411113,9389.364349,8042.492931,4168.019196,-21144.526737,11333.027343,4062.295444,2589.986037,-1307.264126,0.014000,-0.010250,1.000500,192.000000,0.000000,0.000000,0.000000,0.000000,0.000000,0.000000,0.000000,0.000000,0.000000,1773751116.238022,0.000000
152.000000,-28358.127577,3758.915217,-15145.497339,2564.192124,5679.332397,8563.020356,-846.259397,-8883.879648,9397.768604,8063.458867,4191.376769,-21113.971903,11440.874510,4113.659753,2593.182336,-1319.892862,0.014000,-0.010250,1.000500,192.000000,0.000000,0.000000,0.000000,0.000000,0.000000,0.000000,0.000000,0.000000,0.000000,1773751116.238032,0.000000
154.000000,-28410.967101,3719.240870,-15190.200828,2522.819045,5626.157597,8528.442207,-888.146566,-8923.241070,9375.394508,8060.776658,4187.666379,-21113.301350,11381.798849,4128.970698,2607.018066,-1312.405027,0.017000,-0.014125,1.002250,192.000000,0.000000,80.000000,127.500000,56.000000,15.500000,48.000000,0.000000,0.000000,0.000000,1773751116.238042,0.000000
156.000000,-28379.451141,3745.682984,-15157.991965,2555.899627,5654.052574,8561.411030,-860.005720,-8894.116747,9400.294352,8050.137228,4168.801507,-21139.877574,11309.178032,4078.098128,2590.947162,-1308.247603,0.017000,-0.014125,1.002250,192.000000,0.000000,0.000000,0.000000,0.000000,0.000000,0.000000,0.000000,0.000000,0.000000,1773751116.238052,0.000000
158.000000,-28367.582365,3755.808324,-15152.024049,2561.576970,5668.201228,8573.682138,-857.077641,-8888.841735,9386.436270,8089.230429,4213.035609,-21082.634757,11366.420849,4123.114541,2601.519537,-1307.778216,0.017000,-0.014125,1.002250,192.000000,0.000000,0.000000,0.000000,0.000000,0.000000,0.000000,0.000000,0.000000,0.000000,1773751116.238062,0.000000
160.000000,-28389.218854,3737.077562,-15183.875285,2532.474999,5644.798952,8547.642356,-889.152394,-8917.206099,9410.419692,8063.123591,4185.140632,-21129.461662,11367.247864,4077.852258,2603.978229,-1300.335085,0.017000,-0.014125,1.002250,192.000000,0.000000,0.000000,0.000000,0.000000,0.000000,0.000000,0.000000,0.000000,0.000000,1773751116.238072,0.000000
162.000000,-28335.217039,3781.423423,-15136.310772,2580.866525,5690.418862,8589.574228,-839.084487,-8868.501648,9425.216547,8087.129365,4208.229984,-21096.448135,11460.208769,4116.923108,2593.763482,-1311.734475,0.017000,-0.014125,1.002250,192.000000,0.000000,0.000000,0.000000,0.000000,0.000000,0.000000,0.000000,0.000000,0.000000,1773751116.238082,0.000000
164.000000,-28392.035173,3734.440057,-15189.105593,2531.089190,5628.549234,8531.616155,-884.771453,-8911.461700,9401.523698,8078.456888,4206.218327,-21095.352899,11392.527687,4152.037698,2595.551621,-1310.080446,0.013500,-0.015063,1.001125,192.000000,0.000000,40.000000,127.500000,64.000000,15.500000,32.000000,0.000000,0.000000,0.000000,1773751116.238091,0.000000
166.000000,-28369.728132,3751.807362,-15161.054154,2554.826743,5659.081716,8538.925176,-859.290464,-8888.551162,9412.744273,8050.897187,4174.680015,-21130.646304,11349.008840,4092.537355,2585.806261,-1313.209690,0.013500,-0.015063,1.001125,192.000000,0.000000,0.000000,0.000000,0.000000,0.000000,0.000000,0.000000,0.000000,0.000000,1773751116.238101,0.000000
168.000000,-28378.869996,3747.068792,-15162.551720,2554.424412,5640.328603,8537.114684,-855.960054,-8891.926276,9386.704491,8073.897132,4207.604135,-21082.858274,11378.222570,4112.050427,2594.925773,-1322.664478,0.013500,-0.015063,1.001125,192.000000,0.000000,0.000000,0.000000,0.000000,0.000000,0.000000,0.000000,0.000000,0.000000,1773751116.238111,0.000000
170.000000,-28418.879619,3715.843405,-15198.761546,2521.522644,5600.006056,8510.918440,-888.906525,-8929.164282,9380.513058,8043.029373,4163.012405,-21138.759987,11320.979753,4066.698738,2589.762520,-1315.891900,0.013500,-0.015063,1.001125,192.000000,0.000000,0.000000,0.000000,0.000000,0.000000,0.000000,0.000000,0.000000,0.000000,1773751116.238121,0.000000
172.000000,-28368.610545,3754.310757,-15145.944374,2565.644987,5666.144868,8558.661766,-844.024222,-8890.182840,9387.196229,8056.842751,4180.580876,-21117.548182,11383.162306,4105.501366,2590.500127,-1320.518711,0.013500,-0.015063,1.001125,192.000000,0.000000,0.000000,0.000000,0.000000,0.000000,0.000000,0.000000,0.000000,0.000000,1773751116.238131,0.000000
174.000000,-28409.871865,3720.805492,-15186.401032,2525.054219,5617.038085,8525.268260,-888.414787,-8927.599660,9378.479049,8057.602710,4186.593495,-21114.262475,11405.804623,4087.552916,2606.995715,-1317.121246,0.013750,-0.013531,1.003563,192.000000,0.000000,56.000000,127.500000,80.000000,15.500000,56.000000,0.000000,0.000000,0.000000,1773751116.238141,0.000000
176.000000,-28370.443388,3751.136810,-15149.900633,2554.200894,5652.487952,8559.846408,-857.636435,-8891.523944,9408.519794,8039.922481,4170.835515,-21141.710417,11317.291715,4073.739537,2590.276610,-1316.048362,0.013750,-0.013531,1.003563,192.000000,0.000000,0.000000,0.000000,0.000000,0.000000,0.000000,0.000000,0.000000,0.000000,1773751116.238151,0.000000
178.000000,-28367.090627,3753.371984,-15152.001697,2554.558522,5657.047708,8561.612196,-855.244798,-8886.584209,9396.136927,8076.668748,4217.550661,-21082.254777,11349.388820,4127.607242,2602.614773,-1317.277708,0.013750,-0.013531,1.003563,192.000000,0.000000,0.000000,0.000000,0.000000,0.000000,0.000000,0.000000,0.000000,0.000000,1773751116.238161,0.000000
180.000000,-28397.891330,3727.958051,-15192.547762,2528.451685,5636.864082,8539.618080,-886.045502,-8914.814462,9408.698608,8046.270376,4185.095928,-21129.171089,11395.031082,4112.497462,2604.581726,-1304.581917,0.013750,-0.013531,1.003563,192.000000,0.000000,0.000000,0.000000,0.000000,0.000000,0.000000,0.000000,0.000000,0.000000,1773751116.238170,0.000000
182.000000,-28340.804975,3776.707205,-15133.092121,2579.100737,5694.352769,8586.176763,-836.849312,-8867.853447,9416.409959,8074.813554,4206.665362,-21096.336376,11424.937716,4107.803596,2595.037531,-1315.891900,0.013750,-0.013531,1.003563,192.000000,0.000000,0.000000,0.000000,0.000000,0.000000,0.000000,0.000000,0.000000,0.000000,1773751116.238180,0.000000
184.000000,-28394.471514,3733.769504,-15176.163933,2532.564406,5634.360687,8535.550062,-880.748139,-8913.629820,9400.182593,8077.004025,4209.325219,-21094.861161,11394.472288,4096.135985,2607.375694,-1309.812225,0.013875,-0.016766,1.006781,192.000000,0.000000,56.000000,127.500000,48.000000,15.500000,72.000000,0.000000,0.000000,0.000000,1773751116.238190,0.000000
186.000000,-28366.420074,3755.227179,-15147.620755,2556.748993,5653.046745,8547.061211,-853.993100,-8889.601694,9415.761759,8052.260644,4181.564353,-21132.479147,11352.316898,4074.767718,2585.225115,-1316.629507,0.013875,-0.016766,1.006781,192.000000,0.000000,0.000000,0.000000,0.000000,0.000000,0.000000,0.000000,0.000000,0.000000,1773751116.238201,0.000000
188.000000,-28369.996353,3752.164990,-15150.861758,2557.106621,5647.794085,8544.513112,-853.568417,-8890.428709,9392.538296,8077.227542,4214.086141,-21083.126495,11397.310960,4158.452649,2594.098758,-1325.391391,0.013875,-0.016766,1.006781,192.000000,0.000000,0.000000,0.000000,0.000000,0.000000,0.000000,0.000000,0.000000,0.000000,1773751116.238211,0.000000
190.000000,-28410.967101,3719.620850,-15187.719785,2531.111542,5615.339353,8516.059341,-887.744235,-8925.744465,9396.136927,8044.281071,4174.478850,-21131.875650,11318.655171,4075.281808,2591.975342,-1317.523577,0.013875,-0.016766,1.006781,192.000000,0.000000,0.000000,0.000000,0.000000,0.000000,0.000000,0.000000,0.000000,0.000000,1773751116.238223,0.000000
192.000000,-28363.782568,3755.830676,-15142.189281,2573.244580,5674.705586,8552.649147,-844.627719,-8885.891305,9395.891058,8058.809705,4187.621675,-21109.635664,11373.819277,4070.789107,2594.299924,-1322.575071,0.013875,-0.016766,1.006781,192.000000,0.000000,0.000000,0.000000,0.000000,0.000000,0.000000,0.000000,0.000000,0.000000,1773751116.238232,0.000000
194.000000,-28412.352909,3716.983344,-15189.642035,2528.988126,5623.833015,8519.479158,-888.548897,-8929.253689,9377.182648,8057.289786,4187.509917,-21110.842658,11441.813283,4117.839529,2614.662363,-1314.081408,0.013875,-0.016766,1.006781,192.000000,0.000000,0.000000,0.000000,0.000000,0.000000,0.000000,0.000000,0.000000,0.000000,1773751116.238242,0.000000
196.000000,-28387.430714,3735.110609,-15163.065811,2552.926845,5645.693021,8556.918330,-864.923103,-8908.175994,9400.651980,8032.769922,4159.905512,-21148.415941,11356.474323,4090.302180,2602.748883,-1309.812225,0.014000,-0.020000,1.014000,192.000000,0.000000,56.000000,127.500000,48.000000,15.500000,88.000000,0.000000,0.000000,0.000000,1773751116.238252,0.000000
198.000000,-28385.910795,3739.022164,-15162.484665,2562.046356,5642.384963,8558.304138,-859.871609,-8902.051616,9370.968863,8065.470524,4192.069673,-21093.430649,11365.705593,4103.288544,2603.240621,-1308.694638,0.014000,-0.020000,1.014000,192.000000,0.000000,0.000000,0.000000,0.000000,0.000000,0.000000,0.000000,0.000000,0.000000,1773751116.238262,0.000000
200.000000,-28417.113831,3713.317658,-15193.218314,2529.837493,5616.054608,8541.048591,-890.292333,-8931.757084,9382.524715,8036.547367,4159.883161,-21139.139967,11318.051674,4087.172936,2595.328104,-1297.898745,0.014000,-0.020000,1.014000,192.000000,0.000000,0.000000,0.000000,0.000000,0.000000,0.000000,0.000000,0.000000,0.000000,1773751116.238272,0.000000
202.000000,-28353.299600,3766.827734,-15133.986191,2585.403929,5683.489821,8590.892981,-836.491684,-8874.849543,9395.399320,8063.034184,4187.554620,-21105.969978,11344.560843,4106.931878,2591.975342,-1298.345780,0.014000,-0.020000,1.014000,192.000000,0.000000,0.000000,0.000000,0.000000,0.000000,0.000000,0.000000,0.000000,0.000000,1773751116.238281,0.000000
204.000000,-28396.304357,3736.474065,-15186.579846,2540.432220,5631.767885,8548.692888,-880.256400,-8911.081721,9392.448889,8073.226580,4201.546812,-21090.636681,11404.664684,4120.968773,2604.715837,-1301.519728,0.014000,-0.020000,1.014000,192.000000,0.000000,0.000000,0.000000,0.000000,0.000000,0.000000,0.000000,0.000000,0.000000,1773751116.238291,0.000000
206.000000,-28368.677600,3762.066813,-15163.803418,2562.828668,5654.834885,8560.584016,-855.423612,-8886.852430,9414.510061,8059.547312,4175.842306,-21120.386853,11434.727780,4113.100959,2582.408796,-1303.799606,0.012000,-0.016000,1.010000,192.000000,0.000000,48.000000,127.500000,64.000000,15.500000,72.000000,0.000000,0.000000,0.000000,1773751116.238301,0.000000
208.000000,-28368.387028,3755.160124,-15149.185377,2563.879199,5649.425763,8539.349859,-851.914388,-8884.907828,9386.749194,8086.279999,4211.806263,-21070.386001,11401.401329,4109.122349,2601.094854,-1318.015315,0.012000,-0.016000,1.010000,192.000000,0.000000,0.000000,0.000000,0.000000,0.000000,0.000000,0.000000,0.000000,0.000000,1773751116.238311,0.000000
210.000000,-28407.726098,3717.050399,-15182.869456,2526.909414,5596.765053,8498.692036,-885.710226,-8919.821253,9397.500384,8040.436571,4182.525478,-21125.415996,11289.664959,4082.166145,2593.964648,-1319.334068,0.012000,-0.016000,1.010000,192.000000,0.000000,0.000000,0.000000,0.000000,0.000000,0.000000,0.000000,0.000000,0.000000,1773751116.718087,101.000000
212.000000,-28357.345266,3759.026976,-15129.649953,2575.524458,5646.788257,8540.176873,-837.162237,-8873.664901,9400.607276,8052.752382,4199.848080,-21102.930141,11342.280965,4111.402227,2585.023950,-1329.057077,0.012000,-0.016000,1.010000,192.000000,0.000000,0.000000,0.000000,0.000000,0.000000,0.000000,0.000000,0.000000,0.000000,1773751116.718180,0.000000
214.000000,-28411.704709,3718.592670,-15188.502096,2536.543016,5610.801948,8514.002980,-884.413825,-8918.144872,9376.713261,8051.411277,4197.299981,-21099.175048,11400.730777,4074.097165,2599.418473,-1319.825807,0.012000,-0.016000,1.010000,192.000000,0.000000,0.000000,0.000000,0.000000,0.000000,0.000000,0.000000,0.000000,0.000000,1773751116.718226,0.000000
216.000000,-28381.976888,3739.670365,-15163.155218,2557.084269,5649.805742,8543.954318,-862.039728,-8897.760081,9395.689892,8032.591108,4165.269931,-21135.586039,11379.071936,4082.769642,2593.249392,-1311.510958,0.010000,-0.012000,1.004000,192.000000,0.000000,40.000000,127.500000,80.000000,15.500000,48.000000,0.000000,0.000000,0.000000,1773751116.718273,0.000000
218.000000,-28376.433656,3743.112533,-15159.511883,2561.308749,5656.913597,8555.666632,-860.005720,-8895.815479,9381.205962,8068.912693,4206.128920,-21082.858274,11407.078672,4118.934765,2611.399008,-1311.957993,0.010000,-0.012000,1.004000,192.000000,0.000000,0.000000,0.000000,0.000000,0.000000,0.000000,0.000000,0.000000,0.000000,1773751116.718327,0.000000
220.000000,-28412.621130,3714.591708,-15194.000625,2527.267042,5623.922422,8540.690963,-892.393397,-8927.242032,9390.593695,8035.541539,4171.617826,-21135.071949,11356.317861,4107.200099,2606.079293,-1298.189318,0.010000,-0.012000,1.004000,192.000000,0.000000,0.000000,0.000000,0.000000,0.000000,0.000000,0.000000,0.000000,0.000000,1773751116.718366,0.000000
222.000000,-28354.663057,3764.257284,-15139.238851,2579.994807,5668.737670,8588.858973,-843.130153,-8879.409299,9400.473166,8058.027394,4194.416606,-21105.813516,11326.880613,4102.528584,2593.651723,-1305.833615,0.010000,-0.012000,1.004000,192.000000,0.000000,0.000000,0.000000,0.000000,0.000000,0.000000,0.000000,0.000000,0.000000,1773751116.718378,0.000000
224.000000,-28404.395688,3724.113551,-15194.492363,2540.499275,5625.531748,8563.467391,-889.934705,-8925.744465,9382.725880,8058.206208,4191.689693,-21104.897094,11367.918416,4101.321590,2603.620601,-1289.516841,0.010000,-0.012000,1.004000,192.000000,0.000000,0.000000,0.000000,0.000000,0.000000,0.000000,0.000000,0.000000,0.000000,1773751116.718390,0.000000
226.000000,-28367.738827,3752.388507,-15159.198959,2560.772307,5669.184705,8581.840525,-862.844391,-8898.967075,9411.023189,8039.631908,4166.029890,-21138.335304,11375.383899,4087.307046,2594.389331,-1286.544059,0.008000,-0.016000,1.008000,192.000000,0.000000,32.000000,127.500000,64.000000,15.500000,64.000000,0.000000,0.000000,0.000000,1773751116.718403,0.000000
228.000000,-28354.707760,3762.983234,-15146.190244,2562.806316,5679.779432,8567.691871,-856.071813,-8892.418014,9407.469262,8082.569609,4213.370885,-21081.606577,11462.935682,4172.333082,2608.180357,-1304.760731,0.008000,-0.016000,1.008000,192.000000,0.000000,0.000000,0.000000,0.000000,0.000000,0.000000,0.000000,0.000000,0.000000,1773751116.718414,0.000000
230.000000,-28398.718345,3727.533368,-15184.098802,2523.668411,5630.627946,8519.076826,-891.029941,-8930.795959,9417.236974,8051.187760,4179.642103,-21133.641438,11384.793983,4098.773491,2598.390293,-1310.907461,0.008000,-0.016000,1.008000,192.000000,0.000000,0.000000,0.000000,0.000000,0.000000,0.000000,0.000000,0.000000,0.000000,1773751116.718426,0.000000
232.000000,-28350.304467,3765.933665,-15133.650915,2572.216400,5674.191496,8552.872664,-841.789048,-8890.562819,9411.917259,8062.184818,4188.649856,-21113.815440,11377.775535,4088.603448,2589.494299,-1325.994888,0.008000,-0.016000,1.008000,192.000000,0.000000,0.000000,0.000000,0.000000,0.000000,0.000000,0.000000,0.000000,0.000000,1773751116.718438,0.000000
234.000000,-28404.440392,3722.526577,-15193.061852,2526.462379,5624.794140,8513.891222,-890.873479,-8940.943651,9388.693796,8056.574530,4182.570181,-21115.000083,11447.825902,4104.383779,2602.458310,-1317.009487,0.008000,-0.016000,1.008000,192.000000,0.000000,0.000000,0.000000,0.000000,0.000000,0.000000,0.000000,0.000000,0.000000,1773751116.718450,0.000000
236.000000,-28378.512368,3740.810304,-15156.784970,2541.862731,5646.877664,8535.214786,-869.058176,-8923.129311,9406.843413,8034.915690,4151.165980,-21155.635554,11336.760084,4075.840601,2597.987962,-1312.963821,0.010000,-0.014000,1.004000,192.000000,0.000000,40.000000,127.500000,72.000000,15.500000,48.000000,0.000000,0.000000,0.000000,1773751116.718461,0.000000
238.000000,-28375.539586,3743.134885,-15151.241738,2545.662528,5660.445173,8541.383867,-866.331263,-8920.201232,9388.693796,8059.971995,4192.717873,-21108.763946,11358.106000,4146.829742,2613.947107,-1316.294231,0.010000,-0.014000,1.004000,192.000000,0.000000,0.000000,0.000000,0.000000,0.000000,0.000000,0.000000,0.000000,0.000000,1773751116.718473,0.000000
240.000000,-28408.866037,3717.206862,-15199.812078,2519.533338,5630.605594,8524.485949,-902.071703,-8950.174922,9396.382796,8031.339411,4157.156248,-21154.428560,11413.113643,4067.972787,2614.349438,-1303.151405,0.010000,-0.014000,1.004000,192.000000,0.000000,0.000000,0.000000,0.000000,0.000000,0.000000,0.000000,0.000000,0.000000,1773751116.718485,0.000000
242.000000,-28348.203403,3771.186324,-15143.038648,2572.484621,5686.306141,8577.124307,-850.506228,-8896.195459,9402.618933,8059.033222,4175.551733,-21118.755176,11416.220536,4083.820174,2602.547717,-1303.397274,0.010000,-0.014000,1.004000,192.000000,0.000000,0.000000,0.000000,0.000000,0.000000,0.000000,0.000000,0.000000,0.000000,1773751116.718496,0.000000
244.000000,-28400.819409,3729.053286,-15193.352424,2528.742257,5647.481161,8552.693850,-893.801557,-8937.926166,9386.369215,8061.894245,4182.659588,-21110.462679,11365.012689,4113.570346,2621.300831,-1297.339952,0.010000,-0.014000,1.004000,192.000000,0.000000,0.000000,0.000000,0.000000,0.000000,0.000000,0.000000,0.000000,0.000000,1773751116.718508,0.000000
246.000000,-28364.766045,3758.937569,-15160.160084,2554.335005,5682.975731,8597.285580,-865.057214,-8907.237221,9409.346808,8043.498760,4155.055184,-21145.510214,11382.379995,4164.018233,2605.229927,-1288.399254,0.006000,-0.016000,1.002000,192.000000,0.000000,24.000000,127.500000,64.000000,15.500000,40.000000,0.000000,0.000000,0.000000,1773751116.718520,0.000000
248.000000,-28347.577554,3776.617798,-15142.949241,2574.429223,5693.123423,8607.857955,-852.048499,-8888.662921,9406.374026,8092.940818,4207.537080,-21078.142056,11413.694789,4121.415808,2611.957802,-1296.602344,0.006000,-0.016000,1.002000,192.000000,0.000000,0.000000,0.000000,0.000000,0.000000,0.000000,0.000000,0.000000,0.000000,1773751116.718532,0.000000
250.000000,-28385.709630,3742.911368,-15180.656633,2536.610071,5647.548216,8558.058269,-885.307894,-8922.034076,9422.780207,8067.996272,4182.056091,-21121.839717,11376.792059,4099.891078,2603.598249,-1293.182527,0.006000,-0.016000,1.002000,192.000000,0.000000,0.000000,0.000000,0.000000,0.000000,0.000000,0.000000,0.000000,0.000000,1773751116.718545,0.000000
252.000000,-28335.440556,3781.088147,-15128.688828,2577.402005,5691.558801,8575.470278,-837.430458,-8876.972959,9421.573212,8079.127440,4198.059940,-21100.717318,11406.072844,4129.529492,2592.936467,-1318.417647,0.006000,-0.016000,1.002000,192.000000,0.000000,0.000000,0.000000,0.000000,0.000000,0.000000,0.000000,0.000000,0.000000,1773751116.718556,0.000000
254.000000,-28391.476380,3734.440057,-15184.702299,2530.843321,5633.667783,8516.953411,-884.369121,-8923.464587,9396.360445,8064.397641,4197.143519,-21106.305254,11427.307001,4117.012515,2607.867433,-1312.405027,0.006000,-0.016000,1.002000,192.000000,0.000000,0.000000,0.000000,0.000000,0.000000,0.000000,0.000000,0.000000,0.000000,1773751116.718568,0.000000
0.000000,-28362.732036,3755.920083,-15151.979345,2552.233941,5646.430629,8534.633641,-857.144696,-8898.877668,9415.493538,8037.754361,4165.068765,-21144.660848,11398.048568,4110.374047,2593.852889,-1313.813187,0.006000,-0.018000,1.006000,192.000000,0.000000,24.000000,127.500000,56.000000,15.500000,56.000000,0.000000,0.000000,0.000000,1773751116.718580,0.000000
2.000000,-28362.530871,3753.863723,-15149.922985,2552.591569,5655.505437,8530.923251,-855.758888,-8898.251819,9398.617971,8068.599769,4209.369923,-21090.904902,11423.060170,4106.306029,2601.184261,-1319.691696,0.006000,-0.018000,1.006000,192.000000,0.000000,0.000000,0.000000,0.000000,0.000000,0.000000,0.000000,0.000000,0.000000,1773751116.718592,0.000000
4.000000,-28408.039022,3713.407065,-15193.888866,2514.235975,5622.648373,8507.431568,-895.008551,-8941.256576,9395.645189,8026.802007,4165.426393,-21151.031095,11363.828047,4063.211866,2608.828558,-1310.952164,0.006000,-0.018000,1.006000,192.000000,0.000000,0.000000,0.000000,0.000000,0.000000,0.000000,0.000000,0.000000,0.000000,1773751116.718603,0.000000
6.000000,-28347.465795,3762.804420,-15137.584822,2566.874333,5675.756118,8563.065060,-843.890112,-8889.534639,9399.288523,8046.046859,4181.542001,-21124.968961,11370.846495,4089.676331,2601.854813,-1311.332144,0.006000,-0.018000,1.006000,192.000000,0.000000,0.000000,0.000000,0.000000,0.000000,0.000000,0.000000,0.000000,0.000000,1773751116.718614,0.000000
8.000000,-28395.902025,3722.638336,-15191.497230,2527.021173,5627.386943,8533.627812,-887.833642,-8930.795959,9383.865819,8047.253853,4187.375806,-21119.045749,11374.020442,4138.716059,2610.594345,-1303.285516,0.006000,-0.018000,1.006000,192.000000,0.000000,0.000000,0.000000,0.000000,0.000000,0.000000,0.000000,0.000000,0.000000,1773751116.718631,0.000000
10.000000,-28373.930260,3741.346746,-15165.882130,2553.843266,5659.171123,8572.944531,-864.945455,-8911.037017,9404.898811,8027.696076,4157.715041,-21153.109807,11374.512181,4041.061287,2599.977267,-1300.312734,0.010000,-0.019000,1.008000,192.000000,0.000000,56.000000,127.500000,48.000000,15.500000,72.000000,0.000000,0.000000,0.000000,1773751116.718642,0.000000
12.000000,-28363.000257,3752.142638,-15153.521616,2563.655682,5675.733766,8596.704435,-855.311853,-8901.716340,9387.620913,8063.414164,4197.814071,-21096.559894,11383.475230,4123.226300,2612.471892,-1293.406045,0.010000,-0.019000,1.008000,192.000000,0.000000,0.000000,0.000000,0.000000,0.000000,0.000000,0.000000,0.000000,0.000000,1773751116.718655,0.000000
14.000000,-28393.711554,3728.516844,-15188.703261,2531.983260,5643.770771,8559.935815,-888.079511,-8929.879538,9405.994046,8042.336469,4172.020158,-21136.211888,11378.937826,4101.366294,2607.554508,-1294.076597,0.010000,-0.019000,1.008000,192.000000,0.000000,0.000000,0.000000,0.000000,0.000000,0.000000,0.000000,0.000000,0.000000,1773751116.718680,0.000000
16.000000,-28332.512478,3780.127022,-15129.940525,2581.559429,5699.493670,8587.942551,-833.094219,-8873.173162,9419.606259,8069.762059,4197.679960,-21102.572513,11421.629658,4149.646062,2593.383502,-1312.449731,0.010000,-0.019000,1.008000,192.000000,0.000000,0.000000,0.000000,0.000000,0.000000,0.000000,0.000000,0.000000,0.000000,1773751116.718706,0.000000
18.000000,-28386.447237,3735.758810,-15181.036613,2540.387516,5633.600728,8531.392638,-877.753005,-8916.133215,9402.753044,8072.332510,4206.151272,-21092.983615,11413.940658,4121.102884,2603.486491,-1313.544966,0.010000,-0.019000,1.008000,192.000000,0.000000,0.000000,0.000000,0.000000,0.000000,0.000000,0.000000,0.000000,0.000000,1773751116.718732,0.000000
20.000000,-28366.777702,3753.930778,-15163.155218,2558.805353,5641.267376,8539.036934,-857.882304,-8898.922372,9412.856032,8043.766981,4170.656701,-21133.015589,11398.607361,4103.824985,2584.107528,-1311.466254,0.012000,-0.016500,1.006000,192.000000,0.000000,56.000000,127.500000,72.000000,15.500000,48.000000,0.000000,0.000000,0.000000,1773751116.718757,0.000000
22.000000,-28369.370505,3752.589673,-15151.666421,2565.443822,5638.898091,8534.298364,-853.479010,-8895.122575,9390.727805,8070.678481,4206.799472,-21083.327661,11380.055413,4128.344849,2592.936467,-1324.631432,0.012000,-0.016500,1.006000,192.000000,0.000000,0.000000,0.000000,0.000000,0.000000,0.000000,0.000000,0.000000,0.000000,1773751116.718782,0.000000
24.000000,-28418.611398,3714.412894,-15196.347558,2527.691725,5592.562925,8504.212916,-892.058121,-8936.048619,9383.865819,8039.721315,4166.901608,-21133.596734,11304.417110,4067.458697,2593.271743,-1315.668382,0.012000,-0.016500,1.006000,192.000000,0.000000,0.000000,0.000000,0.000000,0.000000,0.000000,0.000000,0.000000,0.000000,1773751116.718807,0.000000
26.000000,-28361.770911,3758.892865,-15150.638241,2571.501144,5656.891245,8554.146714,-843.554836,-8889.825212,9385.765718,8055.792219,4177.026949,-21114.664807,11395.522820,4111.983372,2584.867488,-1318.708219,0.012000,-0.016500,1.006000,192.000000,0.000000,0.000000,0.000000,0.000000,0.000000,0.000000,0.000000,0.000000,0.000000,1773751116.718836,0.000000
28.000000,-28413.671662,3717.810359,-15201.331997,2530.038658,5616.658105,8528.241042,-889.822947,-8934.327535,9368.867799,8052.193588,4179.239771,-21110.417975,11451.424533,4109.658791,2603.061808,-1304.045475,0.012000,-0.016500,1.006000,192.000000,0.000000,0.000000,0.000000,0.000000,0.000000,0.000000,0.000000,0.000000,0.000000,1773751116.718862,0.000000
30.000000,-28385.307298,3742.240815,-15169.480761,2557.106621,5646.229463,8561.388679,-866.867705,-8910.589982,9388.537334,8034.893338,4150.160152,-21144.079702,11342.124503,4059.434421,2592.623543,-1299.999809,0.015000,-0.017250,1.007000,192.000000,0.000000,72.000000,127.500000,56.000000,15.500000,64.000000,0.000000,0.000000,0.000000,1773751116.718887,0.000000
32.000000,-28376.791284,3752.790839,-15158.886034,2567.768403,5654.656071,8581.125269,-856.921179,-8898.855317,9372.622892,8073.539504,4193.231963,-21084.601710,11357.390744,4137.710230,2598.233831,-1304.738379,0.015000,-0.017250,1.007000,192.000000,0.000000,0.000000,0.000000,0.000000,0.000000,0.000000,0.000000,0.000000,0.000000,1773751116.718913,0.000000
34.000000,-28415.057470,3718.793835,-15196.995759,2531.111542,5626.291707,8557.767696,-892.929839,-8934.595756,9381.071851,8043.275242,4160.218437,-21132.814423,11322.767892,4109.859956,2597.205650,-1282.788966,0.015000,-0.017250,1.007000,192.000000,0.000000,0.000000,0.000000,0.000000,0.000000,0.000000,0.000000,0.000000,0.000000,1773751116.718938,0.000000
36.000000,-28341.989618,3780.618761,-15139.730589,2583.302865,5681.232295,8604.795766,-840.157371,-8875.967130,9395.600485,8062.318929,4182.950161,-21107.780469,11431.687943,4167.885085,2597.764444,-1293.137824,0.015000,-0.017250,1.007000,192.000000,0.000000,0.000000,0.000000,0.000000,0.000000,0.000000,0.000000,0.000000,0.000000,1773751116.718963,0.000000
38.000000,-28386.961327,3745.101839,-15185.082279,2543.784981,5638.853388,8552.783257,-883.206830,-8914.210965,9390.593695,8079.306254,4199.043417,-21087.999176,11478.581903,4115.112616,2605.900479,-1293.361341,0.015000,-0.017250,1.007000,192.000000,0.000000,0.000000,0.000000,0.000000,0.000000,0.000000,0.000000,0.000000,0.000000,1773751116.718989,0.000000
40.000000,-28361.145063,3763.989063,-15149.498302,2565.913208,5657.293577,8556.851275,-856.407089,-8889.847563,9413.437177,8056.373364,4175.305864,-21124.924257,11332.602660,4084.513078,2594.881069,-1301.922059,0.014500,-0.018625,1.004500,192.000000,0.000000,56.000000,127.500000,48.000000,15.500000,40.000000,0.000000,0.000000,0.000000,1773751116.719014,0.000000
42.000000,-28360.206289,3766.470106,-15149.319488,2574.071595,5656.287748,8550.749248,-850.550932,-8883.946703,9395.421671,8090.549182,4215.986039,-21067.972013,11356.496675,4126.914338,2592.981171,-1320.608118,0.014500,-0.018625,1.004500,192.000000,0.000000,0.000000,0.000000,0.000000,0.000000,0.000000,0.000000,0.000000,0.000000,1773751116.719040,0.000000
44.000000,-28414.610435,3718.123283,-15202.650750,2526.618841,5611.405446,8513.488890,-893.399226,-8932.427637,9389.498459,8047.700888,4168.779155,-21125.974789,11371.338233,4132.524625,2589.740168,-1312.650897,0.014500,-0.018625,1.004500,192.000000,0.000000,0.000000,0.000000,0.000000,0.000000,0.000000,0.000000,0.000000,0.000000,1773751116.719066,0.000000
46.000000,-28362.843795,3760.658653,-15148.492473,2573.825726,5656.757135,8548.514074,-845.342975,-8891.613351,9384.983407,8054.339356,4174.747071,-21113.368406,11463.650938,4105.724884,2585.940371,-1319.222309,0.014500,-0.018625,1.004500,192.000000,0.000000,0.000000,0.000000,0.000000,0.000000,0.000000,0.000000,0.000000,0.000000,1773751116.719091,0.000000
48.000000,-28408.709575,3722.236004,-15184.612892,2531.871501,5612.187757,8517.020466,-886.827813,-8931.175939,9372.399375,8057.110972,4186.749957,-21108.831001,11345.745486,4103.780282,2602.078331,-1312.270917,0.014500,-0.018625,1.004500,192.000000,0.000000,0.000000,0.000000,0.000000,0.000000,0.000000,0.000000,0.000000,0.000000,1773751116.719116,0.000000
50.000000,-28383.809731,3741.279690,-15162.015279,2550.311691,5642.228501,8541.808551,-865.146621,-8910.075892,9400.383759,8036.234443,4164.085289,-21146.873670,11318.811633,4073.650130,2590.164851,-1307.577051,0.013250,-0.017313,1.005250,192.000000,0.000000,48.000000,127.500000,64.000000,15.500000,56.000000,0.000000,0.000000,0.000000,1773751116.719141,0.000000
52.000000,-28377.171263,3749.840409,-15165.189226,2558.693595,5652.286786,8560.025222,-859.916313,-8903.348017,9378.926084,8071.147868,4201.971495,-21092.134248,11451.379830,4156.843323,2602.123034,-1310.035743,0.013250,-0.017313,1.005250,192.000000,0.000000,0.000000,0.000000,0.000000,0.000000,0.000000,0.000000,0.000000,0.000000,1773751116.719167,0.000000
54.000000,-28413.604607,3721.788969,-15201.242590,2530.061010,5621.195510,8548.312908,-895.835566,-8936.786227,9384.961055,8042.224710,4164.308806,-21140.101092,11362.643404,4091.129195,2602.368903,-1293.294286,0.013250,-0.017313,1.005250,192.000000,0.000000,0.000000,0.000000,0.000000,0.000000,0.000000,0.000000,0.000000,0.000000,1773751116.719193,0.000000
56.000000,-28350.952667,3774.606141,-15138.925927,2580.553601,5684.294484,8597.017359,-842.861932,-8883.901999,9395.824003,8067.079850,4186.347626,-21110.507382,11371.114715,4102.685047,2596.535098,-1293.674266,0.013250,-0.017313,1.005250,192.000000,0.000000,0.000000,0.000000,0.000000,0.000000,0.000000,0.000000,0.000000,0.000000,1773751116.719218,0.000000
58.000000,-28395.946729,3737.792818,-15180.164895,2540.007536,5641.088562,8557.745344,-883.273886,-8921.609392,9381.273017,8074.455926,4196.875298,-21098.951530,11361.816390,4124.723867,2610.616697,-1292.489623,0.013250,-0.017313,1.005250,192.000000,0.000000,0.000000,0.000000,0.000000,0.000000,0.000000,0.000000,0.000000,0.000000,1773751116.719246,0.000000
60.000000,-28369.683429,3757.976444,-15158.506055,2558.224208,5656.667728,8574.419746,-863.045557,-8900.598753,9407.335151,8051.724202,4170.120260,-21134.960191,11329.763988,4132.234053,2589.963685,-1293.450748,0.011625,-0.018656,1.006625,192.000000,0.000000,40.000000,127.500000,48.000000,15.500000,64.000000,0.000000,0.000000,0.000000,1773751116.719271,0.000000
62.000000,-28361.390932,3767.610045,-15160.696526,2570.204743,5654.365498,8572.922179,-854.127211,-8891.859220,9390.861915,8087.643455,4209.571089,-21079.192588,11467.204865,4161.358376,2590.857755,-1300.916231,0.011625,-0.018656,1.006625,192.000000,0.000000,0.000000,0.000000,0.000000,0.000000,0.000000,0.000000,0.000000,0.000000,1773751116.719296,0.000000
64.000000,-28405.066240,3729.701487,-15197.085166,2533.816103,5612.835957,8530.252699,-888.660656,-8927.622012,9395.041692,8059.860237,4172.288379,-21122.823193,11428.134016,4092.023264,2588.801395,-1297.094082,0.011625,-0.018656,1.006625,192.000000,0.000000,0.000000,0.000000,0.000000,0.000000,0.000000,0.000000,0.000000,0.000000,1773751116.719321,0.000000
66.000000,-28357.322914,3768.302949,-15142.658668,2578.474889,5659.931083,8562.416859,-841.051440,-8885.846601,9392.493593,8064.107068,4184.000693,-21108.853353,11353.099209,4143.097000,2584.062825,-1311.063923,0.011625,-0.018656,1.006625,192.000000,0.000000,0.000000,0.000000,0.000000,0.000000,0.000000,0.000000,0.000000,0.000000,1773751116.719362,0.000000
68.000000,-28410.207142,3727.667478,-15193.039500,2534.687821,5614.199414,8514.405312,-884.614990,-8930.460683,9370.074793,8065.515228,4186.615847,-21105.120612,11373.126372,4108.071817,2600.647819,-1311.533309,0.011625,-0.018656,1.006625,192.000000,0.000000,0.000000,0.000000,0.000000,0.000000,0.000000,0.000000,0.000000,0.000000,1773751116.719387,0.000000
70.000000,-28384.234415,3748.342842,-15163.736363,2550.915188,5640.663879,8537.517016,-862.307949,-8910.142947,9391.487764,8042.068248,4158.005614,-21142.783301,11351.646346,4086.435328,2589.315485,-1315.020182,0.011813,-0.020328,1.007313,192.000000,0.000000,48.000000,127.500000,40.000000,15.500000,64.000000,0.000000,0.000000,0.000000,1773751116.719413,0.000000
72.000000,-28379.607604,3750.890941,-15158.483703,2556.860752,5651.616234,8546.457713,-857.859952,-8906.946648,9374.567494,8070.522019,4198.976362,-21093.676519,11393.175887,4133.999840,2600.513709,-1317.456522,0.011813,-0.020328,1.007313,192.000000,0.000000,0.000000,0.000000,0.000000,0.000000,0.000000,0.000000,0.000000,0.000000,1773751116.719438,0.000000
74.000000,-28419.639578,3717.251565,-15205.243552,2521.366182,5627.297536,8531.012658,-897.087264,-8945.458704,9376.266226,8038.313155,4158.206780,-21143.632667,11398.607361,4103.735579,2605.498148,-1303.218460,0.011813,-0.020328,1.007313,192.000000,0.000000,0.000000,0.000000,0.000000,0.000000,0.000000,0.000000,0.000000,0.000000,1773751117.199163,0.000000
76.000000,-28356.406493,3773.175630,-15143.664496,2575.658569,5678.348920,8587.629627,-845.745307,-8892.619180,9384.312854,8058.206208,4174.903533,-21117.011740,11401.244867,4113.145663,2595.886898,-1300.804472,0.011813,-0.020328,1.007313,192.000000,0.000000,0.000000,0.000000,0.000000,0.000000,0.000000,0.000000,0.000000,0.000000,1773751117.199224,0.000000
78.000000,-28409.268368,3729.969708,-15186.199866,2532.966737,5627.811626,8547.932929,-889.174746,-8936.450951,9373.248741,8067.616292,4185.207687,-21102.460754,11336.827139,4122.846320,2602.972401,-1299.441016,0.011813,-0.020328,1.007313,192.000000,0.000000,0.000000,0.000000,0.000000,0.000000,0.000000,0.000000,0.000000,0.000000,1773751117.199272,0.000000
80.000000,-28384.055601,3747.761696,-15167.200883,2551.518685,5653.583187,8561.925121,-867.605313,-8916.580250,9390.392529,8035.474483,4150.741297,-21149.824101,11336.916546,4089.586924,2587.326179,-1296.021199,0.011813,-0.020328,1.007313,192.000000,0.000000,0.000000,0.000000,0.000000,0.000000,0.000000,0.000000,0.000000,0.000000,1773751117.199317,0.000000
82.000000,-28376.835987,3755.964787,-15161.814113,2556.681938,5651.906806,8559.198208,-860.788031,-8909.025360,9376.266226,8074.500629,4193.902516,-21094.548237,11421.339085,4156.820972,2591.729473,-1304.224289,0.010000,-0.018000,0.998000,192.000000,0.000000,40.000000,127.500000,56.000000,15.500000,24.000000,0.000000,0.000000,0.000000,1773751117.199366,0.000000
84.000000,-28418.521991,3722.079542,-15207.076395,2523.266080,5622.223690,8515.254678,-896.930802,-8942.731791,9378.635511,8039.788370,4157.044489,-21143.632667,11405.134071,4093.543183,2589.159022,-1297.764635,0.010000,-0.018000,0.998000,192.000000,0.000000,0.000000,0.000000,0.000000,0.000000,0.000000,0.000000,0.000000,0.000000,1773751117.199411,0.000000
86.000000,-28352.316124,3776.595447,-15143.105703,2575.032720,5674.884400,8563.422687,-842.906635,-8888.059424,9386.972712,8057.982690,4176.356396,-21115.603580,11435.443036,4112.430407,2584.219287,-1310.460426,0.010000,-0.018000,0.998000,192.000000,0.000000,0.000000,0.000000,0.000000,0.000000,0.000000,0.000000,0.000000,0.000000,1773751117.199462,0.000000
88.000000,-28399.075973,3737.412839,-15188.904427,2535.760705,5621.933117,8534.611289,-884.123252,-8925.230375,9374.098107,8065.962263,4190.572106,-21102.438402,11333.004991,4134.648041,2595.551621,-1300.290382,0.010000,-0.018000,0.998000,192.000000,0.000000,0.000000,0.000000,0.000000,0.000000,0.000000,0.000000,0.000000,0.000000,1773751117.199476,0.000000
90.000000,-28379.339383,3749.795705,-15167.491456,2549.529380,5653.940815,8543.037897,-863.023205,-8905.963171,9394.840526,8040.883606,4166.342815,-21140.123444,11341.521006,4103.690875,2587.125014,-1305.967725,0.010000,-0.018000,0.998000,192.000000,0.000000,0.000000,0.000000,0.000000,0.000000,0.000000,0.000000,0.000000,0.000000,1773751117.199497,0.000000
92.000000,-28377.193615,3751.092106,-15163.512845,2550.334042,5654.946644,8539.282803,-857.032938,-8901.716340,9374.053404,8065.694042,4201.345647,-21092.916559,11495.502173,4166.968664,2600.066674,-1318.037667,0.010000,-0.016000,1.002000,192.000000,0.000000,40.000000,127.500000,64.000000,15.500000,40.000000,0.000000,0.000000,0.000000,1773751117.199510,0.000000
94.000000,-28423.662892,3710.791911,-15197.800421,2517.275812,5614.691152,8509.577335,-894.650924,-8942.642384,9373.002872,8026.824358,4160.643120,-21146.650153,11318.163433,4030.511264,2601.050151,-1307.755865,0.010000,-0.016000,1.002000,192.000000,0.000000,0.000000,0.000000,0.000000,0.000000,0.000000,0.000000,0.000000,0.000000,1773751117.199522,0.000000
96.000000,-28370.488092,3755.674214,-15143.642145,2566.382595,5676.784298,8567.490705,-845.655900,-8896.441328,9380.289540,8044.236367,4175.596437,-21126.175955,11340.716343,4106.820119,2595.529270,-1312.181510,0.010000,-0.016000,1.002000,192.000000,0.000000,0.000000,0.000000,0.000000,0.000000,0.000000,0.000000,0.000000,0.000000,1773751117.199534,0.000000
98.000000,-28411.816467,3725.074676,-15190.401994,2530.642155,5634.070114,8536.533539,-886.604296,-8933.120541,9365.716203,8054.495818,4183.486603,-21112.429632,11397.065091,4125.550881,2607.263935,-1299.776292,0.010000,-0.016000,1.002000,192.000000,0.000000,0.000000,0.000000,0.000000,0.000000,0.000000,0.000000,0.000000,0.000000,1773751117.199546,0.000000
100.000000,-28380.568729,3751.449734,-15162.059982,2552.010423,5655.863065,8556.024260,-864.431365,-8908.399511,9391.778337,8038.201396,4159.056146,-21144.303220,11313.715436,4092.604410,2591.125976,-1297.719931,0.010000,-0.016000,1.002000,192.000000,0.000000,0.000000,0.000000,0.000000,0.000000,0.000000,0.000000,0.000000,0.000000,1773751117.199559,0.000000
102.000000,-28367.492958,3760.681005,-15155.622680,2564.549752,5664.915522,8558.304138,-855.892999,-8896.642494,9379.350767,8072.757193,4203.044379,-21086.121629,11482.716976,4145.108657,2604.335857,-1305.364228,0.014000,-0.014000,0.998000,192.000000,0.000000,56.000000,127.500000,72.000000,15.500000,24.000000,0.000000,0.000000,0.000000,1773751117.199571,0.000000
104.000000,-28403.389860,3730.528501,-15188.837372,2531.849150,5621.284917,8523.591879,-889.219450,-8925.409189,9394.415843,8046.292728,4176.177582,-21127.360598,11364.073916,4094.459605,2605.006409,-1299.664533,0.014000,-0.014000,0.998000,192.000000,0.000000,0.000000,0.000000,0.000000,0.000000,0.000000,0.000000,0.000000,0.000000,1773751117.199583,0.000000
106.000000,-28350.460929,3773.689720,-15140.065866,2579.793642,5675.778470,8565.769621,-840.135019,-8879.029319,9404.451776,8065.738745,4197.367036,-21103.444231,11423.395446,4138.447838,2593.271743,-1312.136807,0.014000,-0.014000,0.998000,192.000000,0.000000,0.000000,0.000000,0.000000,0.000000,0.000000,0.000000,0.000000,0.000000,1773751117.199596,0.000000
108.000000,-28402.696956,3729.947356,-15186.378680,2540.096943,5622.938946,8526.005867,-883.497403,-8920.782378,9378.210828,8065.895208,4199.244583,-21099.443269,11353.210968,4130.289451,2603.218270,-1302.525556,0.014000,-0.014000,0.998000,192.000000,0.000000,0.000000,0.000000,0.000000,0.000000,0.000000,0.000000,0.000000,0.000000,1773751117.199608,0.000000
110.000000,-28378.780589,3746.755868,-15166.440924,2556.369013,5646.698850,8543.931966,-863.246723,-8902.386892,9401.210773,8036.547367,4167.996844,-21142.157452,11415.415873,4076.444099,2595.641028,-1303.352571,0.014000,-0.014000,0.998000,192.000000,0.000000,0.000000,0.000000,0.000000,0.000000,0.000000,0.000000,0.000000,0.000000,1773751117.199622,0.000000
112.000000,-28366.263612,3757.931740,-15150.012392,2564.125069,5660.154600,8552.112705,-852.987272,-8892.373311,9390.772508,8069.203266,4213.102664,-21087.015699,11421.719065,4167.728623,2601.027799,-1309.231080,0.016000,-0.014000,0.998000,192.000000,0.000000,64.000000,127.500000,72.000000,15.500000,24.000000,0.000000,0.000000,0.000000,1773751117.199635,0.000000
114.000000,-28408.731927,3727.443961,-15191.184305,2534.710173,5624.972954,8525.312963,-889.241801,-8926.303259,9392.650055,8045.577472,4179.418585,-21130.065159,11350.729925,4085.250686,2604.559374,-1298.926926,0.016000,-0.014000,0.998000,192.000000,0.000000,0.000000,0.000000,0.000000,0.000000,0.000000,0.000000,0.000000,0.000000,1773751117.199648,0.000000
116.000000,-28359.423978,3768.995854,-15140.468197,2579.994807,5672.716281,8570.195266,-841.073792,-8880.146906,9396.539259,8060.597844,4193.008446,-21105.768812,11397.489774,4125.841454,2595.998656,-1306.548870,0.016000,-0.014000,0.998000,192.000000,0.000000,0.000000,0.000000,0.000000,0.000000,0.000000,0.000000,0.000000,0.000000,1773751117.199660,0.000000
118.000000,-28410.296549,3728.449789,-15187.988006,2537.481789,5622.961297,8531.079713,-885.576115,-8923.643401,9370.320662,8064.040013,4194.885992,-21101.253760,11390.493678,4120.521739,2609.990848,-1299.686885,0.016000,-0.014000,0.998000,192.000000,0.000000,0.000000,0.000000,0.000000,0.000000,0.000000,0.000000,0.000000,0.000000,1773751117.199672,0.000000
120.000000,-28389.397668,3743.760734,-15167.692622,2554.960853,5646.922367,8554.325527,-865.995987,-8907.572497,9389.945494,8033.798103,4162.967701,-21145.420807,11361.034079,4071.504363,2597.853851,-1299.351609,0.016000,-0.014000,0.998000,192.000000,0.000000,0.000000,0.000000,0.000000,0.000000,0.000000,0.000000,0.000000,0.000000,1773751117.199684,0.000000
122.000000,-28377.975926,3755.473048,-15157.567281,2560.526438,5660.556932,8558.013565,-856.898827,-8897.849488,9370.454773,8075.819382,4204.474891,-21088.669728,11484.527467,4168.689748,2602.950049,-1306.437112,0.014000,-0.018000,0.998000,192.000000,0.000000,56.000000,127.500000,56.000000,15.500000,24.000000,0.000000,0.000000,0.000000,1773751117.199698,0.000000
124.000000,-28422.634712,3720.425513,-15195.453488,2527.110580,5624.168292,8517.914536,-893.890964,-8935.623936,9376.221523,8042.381172,4171.349605,-21136.524813,11341.096323,4121.527567,2606.548680,-1304.157234,0.014000,-0.018000,0.998000,192.000000,0.000000,0.000000,0.000000,0.000000,0.000000,0.000000,0.000000,0.000000,0.000000,1773751117.199711,0.000000
126.000000,-28362.061484,3769.688758,-15135.863738,2576.776156,5667.485972,8556.627757,-840.291481,-8883.790241,9385.586904,8062.251873,4189.566277,-21112.049653,11345.030230,4104.897869,2597.205650,-1312.852062,0.014000,-0.018000,0.998000,192.000000,0.000000,0.000000,0.000000,0.000000,0.000000,0.000000,0.000000,0.000000,0.000000,1773751117.199723,0.000000
128.000000,-28410.095383,3730.215577,-15188.524448,2538.666432,5619.943812,8514.829995,-881.865726,-8923.397532,9370.030090,8063.280054,4201.055074,-21101.633740,11428.536347,4114.352657,2609.499110,-1309.164024,0.014000,-0.018000,0.998000,192.000000,0.000000,0.000000,0.000000,0.000000,0.000000,0.000000,0.000000,0.000000,0.000000,1773751117.199735,0.000000
130.000000,-28389.710592,3747.180551,-15164.541026,2558.783002,5638.875739,8539.528673,-861.659749,-8905.180860,9389.833735,8036.994402,4171.483716,-21144.571441,11401.848364,4102.439177,2589.986037,-1308.404065,0.014000,-0.018000,0.998000,192.000000,0.000000,0.000000,0.000000,0.000000,0.000000,0.000000,0.000000,0.000000,0.000000,1773751117.199748,0.000000
132.000000,-28381.529854,3755.495400,-15155.913252,2565.466173,5640.641527,8548.402315,-854.104859,-8897.648322,9375.170991,8070.924350,4214.354362,-21089.429687,11385.397480,4127.249614,2593.852889,-1311.890937,0.016000,-0.014000,1.004000,192.000000,0.000000,64.000000,127.500000,72.000000,15.500000,48.000000,0.000000,0.000000,0.000000,1773751117.199759,0.000000
134.000000,-28422.880581,3722.995963,-15202.784860,2529.815141,5598.843765,8509.823204,-891.208755,-8935.311012,9374.746308,8041.576510,4176.311693,-21136.971848,11330.032209,4112.184538,2595.797491,-1302.257335,0.016000,-0.014000,1.004000,192.000000,0.000000,0.000000,0.000000,0.000000,0.000000,0.000000,0.000000,0.000000,0.000000,1773751117.199774,0.000000
136.000000,-28369.616374,3765.285464,-15146.950203,2578.966627,5652.510304,8557.901807,-842.437249,-8888.953494,9379.551933,8059.994347,4186.392330,-21111.177935,11326.612392,4106.529547,2581.425319,-1307.420588,0.016000,-0.014000,1.004000,192.000000,0.000000,0.000000,0.000000,0.000000,0.000000,0.000000,0.000000,0.000000,0.000000,1773751117.199786,0.000000
138.000000,-28417.426755,3726.102856,-15201.779032,2537.034754,5617.038085,8528.486911,-887.945400,-8932.092361,9361.268206,8060.955472,4191.197955,-21104.204190,11391.298341,4106.663657,2597.965610,-1306.727684,0.016000,-0.014000,1.004000,192.000000,0.000000,0.000000,0.000000,0.000000,0.000000,0.000000,0.000000,0.000000,0.000000,1773751117.199798,0.000000
140.000000,-28393.331575,3744.453638,-15176.968596,2555.676109,5643.681364,8560.829885,-867.828830,-8912.065197,9380.043671,8036.525015,4157.893855,-21145.867842,11452.609176,4112.139834,2585.001598,-1293.249582,0.016000,-0.014000,1.004000,192.000000,0.000000,0.000000,0.000000,0.000000,0.000000,0.000000,0.000000,0.000000,0.000000,1773751117.199811,0.000000
142.000000,-28379.361734,3757.551760,-15156.561453,2567.477830,5662.903865,8566.104897,-857.390566,-8901.381064,9369.895979,8070.991405,4201.926792,-21091.374289,11416.242888,4169.762632,2601.117206,-1296.311771,0.012000,-0.018000,1.008000,192.000000,0.000000,48.000000,127.500000,56.000000,15.500000,64.000000,0.000000,0.000000,0.000000,1773751117.199823,0.000000
144.000000,-28412.442316,3730.997888,-15191.519581,2531.022135,5620.659068,8527.861062,-893.287467,-8933.522872,9383.530543,8047.678536,4175.104699,-21135.653095,11292.928313,4096.024227,2604.134691,-1295.976495,0.012000,-0.018000,1.008000,192.000000,0.000000,0.000000,0.000000,0.000000,0.000000,0.000000,0.000000,0.000000,0.000000,1773751117.199835,0.000000
146.000000,-28359.938068,3771.298083,-15141.250508,2578.743110,5665.206094,8562.394507,-843.174856,-8887.746500,9392.180668,8067.191609,4193.343722,-21109.456850,11363.760992,4092.447948,2594.814014,-1308.828748,0.012000,-0.018000,1.008000,192.000000,0.000000,0.000000,0.000000,0.000000,0.000000,0.000000,0.000000,0.000000,0.000000,1773751117.199847,0.000000
148.000000,-28407.614339,3732.115475,-15190.200828,2537.302975,5616.121664,8520.350876,-883.273886,-8924.492767,9369.359537,8066.275187,4201.435054,-21104.606522,11447.177702,4126.981393,2599.753749,-1309.476949,0.012000,-0.018000,1.008000,192.000000,0.000000,0.000000,0.000000,0.000000,0.000000,0.000000,0.000000,0.000000,0.000000,1773751117.199859,0.000000
150.000000,-28393.018650,3742.956071,-15164.630433,2549.216455,5645.223635,8528.866891,-865.616008,-8909.226526,9384.938703,8038.849597,4170.947274,-21146.873670,11348.830026,4108.384741,2590.678941,-1309.029914,0.012000,-0.018000,1.008000,192.000000,0.000000,0.000000,0.000000,0.000000,0.000000,0.000000,0.000000,0.000000,0.000000,1773751117.199871,0.000000
152.000000,-28383.832083,3754.623682,-15156.025011,2564.683862,5641.960280,8537.338202,-854.484839,-8899.078834,9366.498514,8067.817458,4209.280516,-21095.330548,11396.998036,4143.789905,2596.780967,-1313.924946,0.010000,-0.017000,1.008000,192.000000,0.000000,32.000000,127.500000,64.000000,15.500000,64.000000,0.000000,0.000000,0.000000,1773751117.199883,0.000000
154.000000,-28425.071052,3723.219481,-15203.522468,2530.284528,5604.610515,8512.259544,-894.628572,-8936.093323,9371.862933,8042.492931,4172.824821,-21137.396531,11330.501596,4094.571363,2591.975342,-1304.604269,0.010000,-0.017000,1.008000,192.000000,0.000000,0.000000,0.000000,0.000000,0.000000,0.000000,0.000000,0.000000,0.000000,1773751117.199897,0.000000
156.000000,-28366.397723,3772.035691,-15153.767485,2585.515688,5670.861086,8563.467391,-841.654937,-8885.421918,9380.513058,8061.827190,4184.961818,-21112.675501,11455.403144,4114.442064,2585.828613,-1312.136807,0.010000,-0.017000,1.008000,192.000000,0.000000,0.000000,0.000000,0.000000,0.000000,0.000000,0.000000,0.000000,0.000000,1773751117.199909,0.000000
158.000000,-28413.783421,3731.511978,-15187.384509,2544.030850,5616.702809,8530.342106,-882.111595,-8923.062256,9367.481991,8071.885475,4196.383559,-21096.090507,11359.357698,4136.480884,2599.865508,-1300.066864,0.010000,-0.017000,1.008000,192.000000,0.000000,0.000000,0.000000,0.000000,0.000000,0.000000,0.000000,0.000000,0.000000,1773751117.199922,0.000000
160.000000,-28392.996298,3745.861798,-15164.116343,2558.291263,5639.792161,8543.842559,-863.246723,-8906.052578,9388.090299,8044.258719,4167.147478,-21139.609353,11296.146965,4102.170956,2587.125014,-1302.458501,0.010000,-0.017000,1.008000,192.000000,0.000000,0.000000,0.000000,0.000000,0.000000,0.000000,0.000000,0.000000,0.000000,1773751117.199934,0.000000
162.000000,-28382.938013,3755.629510,-15156.382639,2569.265970,5656.555969,8562.819190,-853.903693,-8897.044825,9369.538351,8072.757193,4206.464196,-21089.317928,11433.498434,4141.152399,2598.814976,-1300.692713,0.008000,-0.015500,1.009000,192.000000,0.000000,24.000000,127.500000,72.000000,15.500000,72.000000,0.000000,0.000000,0.000000,1773751117.199946,0.000000
164.000000,-28426.881543,3722.280708,-15197.107517,2534.866635,5615.540518,8535.997097,-891.052293,-8934.148721,9376.914427,8047.745591,4172.914228,-21134.848432,11338.257651,4092.872631,2598.457348,-1290.187393,0.008000,-0.015500,1.009000,192.000000,0.000000,0.000000,0.000000,0.000000,0.000000,0.000000,0.000000,0.000000,0.000000,1773751117.199959,0.000000
166.000000,-28374.131426,3763.318510,-15145.385581,2581.626485,5672.604522,8578.040728,-841.856103,-8890.741633,9382.994101,8063.905902,4184.425376,-21112.921371,11440.293365,4126.176730,2589.382540,-1296.468234,0.008000,-0.015500,1.009000,192.000000,0.000000,0.000000,0.000000,0.000000,0.000000,0.000000,0.000000,0.000000,0.000000,1773751117.199971,0.000000
168.000000,-28417.091479,3727.041629,-15185.171686,2540.096943,5629.152731,8536.488835,-884.547935,-8931.511215,9367.996081,8068.420955,4192.427301,-21106.729937,11417.092254,4185.051225,2605.855776,-1294.166004,0.008000,-0.015500,1.009000,192.000000,0.000000,0.000000,0.000000,0.000000,0.000000,0.000000,0.000000,0.000000,0.000000,1773751117.199984,0.000000
170.000000,-28393.912720,3742.911368,-15166.440924,2560.794659,5654.298443,8544.982498,-867.180630,-8912.020494,9389.140831,8045.644527,4163.370033,-21145.577269,11336.156587,4075.304160,2594.054055,-1298.345780,0.008000,-0.015500,1.009000,192.000000,0.000000,0.000000,0.000000,0.000000,0.000000,0.000000,0.000000,0.000000,0.000000,1773751117.199996,0.000000
172.000000,-28377.573595,3759.384603,-15152.336973,2574.384519,5659.886379,8548.894054,-852.674347,-8893.312084,9373.919293,8083.664844,4206.866527,-21085.294614,11390.694844,4130.401210,2601.608944,-1310.236908,0.009000,-0.015750,1.006500,192.000000,0.000000,40.000000,127.500000,64.000000,15.500000,48.000000,0.000000,0.000000,0.000000,1773751117.200008,0.000000
174.000000,-28422.344139,3722.906556,-15199.521506,2533.592586,5613.975896,8517.847481,-891.141700,-8931.131235,9379.998968,8055.568702,4176.311693,-21126.399473,11393.511163,4117.973640,2592.623543,-1304.537213,0.009000,-0.015750,1.006500,192.000000,0.000000,0.000000,0.000000,0.000000,0.000000,0.000000,0.000000,0.000000,0.000000,1773751117.200020,0.000000
176.000000,-28370.353981,3763.452621,-15137.115435,2579.190144,5674.370310,8565.590807,-841.096144,-8885.667787,9387.777375,8065.247007,4188.314580,-21108.361615,11368.410154,4172.869524,2588.734339,-1310.728647,0.009000,-0.015750,1.006500,192.000000,0.000000,0.000000,0.000000,0.000000,0.000000,0.000000,0.000000,0.000000,0.000000,1773751117.200033,0.000000
178.000000,-28418.074956,3723.845330,-15186.892770,2545.707231,5630.471484,8529.671553,-885.196136,-8927.443198,9368.621930,8069.806763,4196.338856,-21098.660958,11352.540416,4115.179672,2606.973363,-1304.827786,0.009000,-0.015750,1.006500,192.000000,0.000000,0.000000,0.000000,0.000000,0.000000,0.000000,0.000000,0.000000,0.000000,1773751117.200045,0.000000
180.000000,-28396.036136,3740.095048,-15173.749944,2563.879199,5649.135190,8552.649147,-867.493554,-8910.947610,9387.933837,8046.851521,4162.855943,-21138.737635,11370.153590,4097.968828,2593.562316,-1300.022161,0.009000,-0.015750,1.006500,192.000000,0.000000,0.000000,0.000000,0.000000,0.000000,0.000000,0.000000,0.000000,0.000000,1773751117.200058,0.000000
182.000000,-28380.904005,3756.702394,-15157.164950,2576.530287,5650.677461,8564.517923,-855.401260,-8894.832003,9370.722994,8083.128403,4203.200841,-21081.874798,11431.553832,4164.889951,2598.993790,-1305.028952,0.010500,-0.016875,1.006250,192.000000,0.000000,48.000000,127.500000,56.000000,15.500000,56.000000,0.000000,0.000000,0.000000,1773751117.200070,0.000000
184.000000,-28422.612360,3724.292365,-15201.846087,2539.895778,5604.945791,8530.029181,-892.818081,-8929.097227,9381.384776,8062.296577,4174.925885,-21121.482089,11364.386840,4108.675314,2588.957857,-1299.664533,0.010500,-0.016875,1.006250,192.000000,0.000000,0.000000,0.000000,0.000000,0.000000,0.000000,0.000000,0.000000,0.000000,1773751117.200082,0.000000
186.000000,-28365.458949,3768.012377,-15143.083351,2585.985075,5663.976748,8570.038804,-842.817228,-8879.029319,9388.045596,8077.763984,4187.733434,-21101.991368,11411.414911,4148.997861,2582.677017,-1301.497376,0.010500,-0.016875,1.006250,192.000000,0.000000,0.000000,0.000000,0.000000,0.000000,0.000000,0.000000,0.000000,0.000000,1773751117.200095,0.000000
188.000000,-28405.826200,3733.836560,-15187.965654,2546.176618,5618.289783,8530.230347,-883.095072,-8913.875689,9375.528619,8079.797993,4201.010370,-21093.095373,11407.525707,4132.099942,2597.920906,-1296.490585,0.010500,-0.016875,1.006250,192.000000,0.000000,0.000000,0.000000,0.000000,0.000000,0.000000,0.000000,0.000000,0.000000,1773751117.200108,0.000000
190.000000,-28388.078915,3753.483743,-15163.423438,2565.354415,5643.033164,8546.189492,-864.811345,-8895.323741,9392.605352,8056.373364,4173.450669,-21131.808595,11330.166320,4115.514948,2583.436976,-1299.373960,0.010500,-0.016875,1.006250,192.000000,0.000000,0.000000,0.000000,0.000000,0.000000,0.000000,0.000000,0.000000,0.000000,1773751117.200128,0.000000
192.000000,-28372.119769,3772.013339,-15150.817055,2580.687711,5657.181818,8560.002871,-851.288539,-8880.929217,9367.057308,8098.908734,4211.627449,-21069.424876,11405.961085,4137.330250,2593.338799,-1306.124187,0.013250,-0.018438,1.005125,192.000000,0.000000,64.000000,127.500000,48.000000,15.500000,48.000000,0.000000,0.000000,0.000000,1773751117.200140,0.000000
194.000000,-28425.406328,3721.341934,-15202.047253,2538.711135,5607.896222,8522.228422,-891.029941,-8923.889270,9376.288578,8063.414164,4178.435108,-21116.587057,11351.735753,4155.122239,2594.054055,-1294.098949,0.013250,-0.018438,1.005125,192.000000,0.000000,0.000000,0.000000,0.000000,0.000000,0.000000,0.000000,0.000000,0.000000,1773751117.680178,0.000000
196.000000,-28364.274307,3774.673197,-15145.184415,2594.277572,5663.440307,8562.238045,-837.810437,-8871.586188,9373.136982,8074.053594,4188.068710,-21099.532676,11441.098027,4139.096038,2582.095871,-1306.906498,0.013250,-0.018438,1.005125,192.000000,0.000000,0.000000,0.000000,0.000000,0.000000,0.000000,0.000000,0.000000,0.000000,1773751117.680256,0.000000
198.000000,-28415.169229,3728.896824,-15185.395203,2550.669319,5612.478329,8528.285745,-881.575153,-8917.004933,9362.519903,8084.849487,4203.223193,-21088.088583,11357.234282,4128.009573,2593.003523,-1308.627583,0.013250,-0.018438,1.005125,192.000000,0.000000,0.000000,0.000000,0.000000,0.000000,0.000000,0.000000,0.000000,0.000000,1773751117.680317,0.000000
200.000000,-28392.459857,3747.359365,-15166.284462,2565.600284,5635.657088,8543.820208,-867.247685,-8905.225564,9378.300235,8055.635757,4167.169829,-21137.620048,11306.920505,4116.230204,2586.521517,-1300.268030,0.013250,-0.018438,1.005125,192.000000,0.000000,0.000000,0.000000,0.000000,0.000000,0.000000,0.000000,0.000000,0.000000,1773751117.680377,0.000000
202.000000,-28382.110999,3759.205789,-15161.858816,2576.552639,5653.046745,8550.883359,-857.770545,-8897.603619,9359.055383,8093.320798,4204.899574,-21081.785391,11403.457690,4132.748143,2595.238697,-1310.013391,0.011625,-0.017219,1.006563,192.000000,0.000000,40.000000,127.500000,64.000000,15.500000,64.000000,0.000000,0.000000,0.000000,1773751117.680438,0.000000
204.000000,-28427.194467,3725.186434,-15206.227029,2536.252443,5606.219841,8516.975762,-896.751988,-8936.205081,9360.687060,8061.670728,4163.235922,-21125.483051,11450.284594,4118.487730,2593.629371,-1302.614963,0.011625,-0.017219,1.006563,192.000000,0.000000,0.000000,0.000000,0.000000,0.000000,0.000000,0.000000,0.000000,0.000000,1773751117.680474,0.000000
206.000000,-28373.147949,3768.437060,-15141.854005,2581.358264,5660.534580,8567.870685,-845.790010,-8887.858258,9368.398412,8075.327644,4175.104699,-21106.864048,11319.035151,4142.717021,2580.486546,-1307.822920,0.011625,-0.017219,1.006563,192.000000,0.000000,0.000000,0.000000,0.000000,0.000000,0.000000,0.000000,0.000000,0.000000,1773751117.680501,0.000000
208.000000,-28418.589046,3728.785065,-15185.886942,2542.667394,5625.911728,8528.911594,-886.917220,-8927.085570,9357.200188,8080.401490,4190.929734,-21097.252798,11395.925152,4137.620823,2598.703217,-1303.620792,0.011625,-0.017219,1.006563,192.000000,0.000000,0.000000,0.000000,0.000000,0.000000,0.000000,0.000000,0.000000,0.000000,1773751117.680528,0.000000
210.000000,-28392.772781,3747.158199,-15168.564340,2557.799525,5662.367423,8550.592786,-870.131060,-8908.555974,9379.618988,8052.662975,4163.213571,-21141.710417,11403.055358,4124.813274,2588.756691,-1301.229155,0.011625,-0.017219,1.006563,192.000000,0.000000,0.000000,0.000000,0.000000,0.000000,0.000000,0.000000,0.000000,0.000000,1773751117.680547,0.000000
212.000000,-28380.300508,3759.228141,-15152.940470,2570.897647,5656.354804,8557.544179,-858.552856,-8896.061348,9365.827962,8092.538487,4201.770330,-21083.752344,11449.748152,4130.311803,2598.457348,-1306.928850,0.012813,-0.015609,1.006281,192.000000,0.000000,56.000000,127.500000,72.000000,15.500000,56.000000,0.000000,0.000000,0.000000,1773751117.680558,0.000000
214.000000,-28418.812563,3729.701487,-15193.732404,2534.844283,5604.454053,8519.501510,-894.002723,-8928.851358,9371.415898,8062.922426,4172.690710,-21127.829984,11298.002159,4110.910488,2591.125976,-1297.250545,0.012813,-0.015609,1.006281,192.000000,0.000000,0.000000,0.000000,0.000000,0.000000,0.000000,0.000000,0.000000,0.000000,1773751117.680571,0.000000
216.000000,-28358.507557,3780.283484,-15138.568299,2584.331046,5665.563722,8557.924158,-841.766696,-8877.978787,9378.836677,8080.177972,4190.147423,-21104.092432,11353.233320,4118.465378,2577.893743,-1305.163062,0.012813,-0.015609,1.006281,192.000000,0.000000,0.000000,0.000000,0.000000,0.000000,0.000000,0.000000,0.000000,0.000000,1773751117.680583,0.000000
218.000000,-28404.909778,3740.855007,-15187.138639,2543.762629,5620.435550,8519.412103,-881.150470,-8914.322724,9361.894055,8086.861144,4203.804338,-21089.519094,11379.787192,4146.114486,2597.652685,-1304.604269,0.012813,-0.015609,1.006281,192.000000,0.000000,0.000000,0.000000,0.000000,0.000000,0.000000,0.000000,0.000000,0.000000,1773751117.680603,0.000000
220.000000,-28382.759199,3758.222313,-15173.593482,2562.783964,5645.156580,8540.802722,-861.682100,-8894.653189,9381.138907,8059.256740,4178.412757,-21130.445138,11388.996111,4100.628686,2581.604133,-1306.235946,0.012813,-0.015609,1.006281,192.000000,0.000000,0.000000,0.000000,0.000000,0.000000,0.000000,0.000000,0.000000,0.000000,1773751117.680614,0.000000
222.000000,-28371.046885,3769.688758,-15163.423438,2573.423394,5655.796010,8548.916405,-853.255493,-8882.963226,9366.163238,8095.265400,4216.366019,-21071.369478,11469.954129,4153.445858,2591.394197,-1313.075580,0.012813,-0.015609,1.006281,192.000000,0.000000,0.000000,0.000000,0.000000,0.000000,0.000000,0.000000,0.000000,0.000000,1773751117.680627,0.000000
224.000000,-28411.168267,3737.099914,-15197.353387,2535.090153,5615.942850,8520.507338,-889.085339,-8918.122520,9372.220561,8066.632815,4184.425376,-21117.436423,11400.954294,4157.379765,2591.729473,-1305.967725,0.012000,-0.018000,1.004000,192.000000,0.000000,48.000000,127.500000,56.000000,15.500000,48.000000,0.000000,0.000000,0.000000,1773751117.680639,0.000000
226.000000,-28357.479376,3782.071624,-15137.361304,2592.020046,5664.379080,8564.137943,-837.609272,-8870.401546,9384.514020,8083.262513,4202.038551,-21095.911693,11329.920450,4130.155340,2582.565258,-1308.560527,0.012000,-0.018000,1.004000,192.000000,0.000000,0.000000,0.000000,0.000000,0.000000,0.000000,0.000000,0.000000,0.000000,1773751117.680651,0.000000
228.000000,-28404.865075,3744.766563,-15189.574979,2551.608092,5615.205242,8529.984478,-878.959999,-8912.735750,9363.302215,8092.113804,4208.565260,-21084.177027,11358.463628,4131.116465,2592.243563,-1303.866661,0.012000,-0.018000,1.004000,192.000000,0.000000,0.000000,0.000000,0.000000,0.000000,0.000000,0.000000,0.000000,0.000000,1773751117.680663,0.000000
230.000000,-28384.502636,3758.021147,-15167.938491,2564.147420,5638.965146,8546.077734,-861.480935,-8895.659017,9383.888171,8067.996272,4175.775251,-21127.092377,11373.104021,4097.298276,2579.190144,-1303.263164,0.012000,-0.018000,1.004000,192.000000,0.000000,0.000000,0.000000,0.000000,0.000000,0.000000,0.000000,0.000000,0.000000,1773751117.680675,0.000000
232.000000,-28374.421999,3768.146487,-15152.046401,2574.697444,5646.631795,8553.520865,-850.349766,-8886.539505,9369.538351,8101.769757,4217.885937,-21074.901053,11427.888146,4159.704347,2590.947162,-1312.002696,0.012000,-0.018000,1.004000,192.000000,0.000000,0.000000,0.000000,0.000000,0.000000,0.000000,0.000000,0.000000,0.000000,1773751117.680687,0.000000
234.000000,-28416.644444,3734.104780,-15197.487497,2537.235920,5608.544422,8525.357667,-889.644133,-8927.532605,9370.879456,8069.806763,4180.804393,-21125.036016,11387.766765,4106.753064,2592.444729,-1298.949277,0.014000,-0.018000,0.998000,192.000000,0.000000,56.000000,127.500000,56.000000,15.500000,24.000000,0.000000,0.000000,0.000000,1773751117.680699,0.000000
236.000000,-28359.334571,3781.266961,-15136.444883,2586.476813,5670.190533,8570.195266,-840.000908,-8879.543409,9383.239971,8086.302350,4196.875298,-21105.142964,11364.118619,4160.799582,2582.252333,-1302.480853,0.014000,-0.018000,0.998000,192.000000,0.000000,0.000000,0.000000,0.000000,0.000000,0.000000,0.000000,0.000000,0.000000,1773751117.680711,0.000000
238.000000,-28405.356813,3742.441981,-15187.831543,2546.735411,5627.141074,8525.938812,-884.279714,-8922.481110,9365.827962,8088.470470,4204.519594,-21093.050670,11355.312032,4124.589756,2605.364037,-1299.150443,0.014000,-0.018000,0.998000,192.000000,0.000000,0.000000,0.000000,0.000000,0.000000,0.000000,0.000000,0.000000,0.000000,1773751117.680723,0.000000
240.000000,-28380.836949,3759.921045,-15173.034689,2563.186295,5651.750344,8542.054420,-864.811345,-8902.319837,9390.928971,8066.454001,4171.886047,-21132.479147,11407.190431,4101.925087,2586.968552,-1296.088254,0.014000,-0.018000,0.998000,192.000000,0.000000,0.000000,0.000000,0.000000,0.000000,0.000000,0.000000,0.000000,0.000000,1773751117.680735,0.000000
242.000000,-28371.695086,3771.320435,-15154.460389,2575.502107,5656.690080,8553.833789,-849.366289,-8888.707625,9372.108802,8102.641476,4212.230946,-21076.800952,11454.665536,4189.521574,2594.612848,-1305.319524,0.014000,-0.018000,0.998000,192.000000,0.000000,0.000000,0.000000,0.000000,0.000000,0.000000,0.000000,0.000000,0.000000,1773751117.680747,0.000000
244.000000,-28422.880581,3727.131036,-15195.632302,2537.325327,5613.953544,8514.941754,-888.951229,-8930.348924,9371.259436,8069.158562,4178.300998,-21123.896077,11362.844570,4097.812366,2594.501089,-1299.373960,0.018000,-0.014000,0.998000,192.000000,0.000000,72.000000,127.500000,72.000000,15.500000,24.000000,0.000000,0.000000,0.000000,1773751117.680759,0.000000
246.000000,-28360.206289,3779.188249,-15131.348685,2581.939409,5668.849429,8562.640376,-839.173894,-8881.845639,9370.678290,8078.948626,4189.856850,-21109.456850,11350.774628,4133.329288,2585.538040,-1310.818054,0.018000,-0.014000,0.998000,192.000000,0.000000,0.000000,0.000000,0.000000,0.000000,0.000000,0.000000,0.000000,0.000000,1773751117.680770,0.000000
248.000000,-28408.821334,3740.609138,-15183.048270,2542.957967,5627.588108,8528.643373,-881.396339,-8924.224546,9359.927101,8092.225563,4204.631353,-21094.615292,11373.126372,4141.197102,2602.748883,-1310.706295,0.018000,-0.014000,0.998000,192.000000,0.000000,0.000000,0.000000,0.000000,0.000000,0.000000,0.000000,0.000000,0.000000,1773751117.680782,0.000000
250.000000,-28388.950633,3758.803458,-15165.971537,2562.739261,5650.006908,8549.475199,-865.951284,-8908.511270,9372.175857,8070.812591,4163.280626,-21135.742502,11433.632545,4115.604355,2587.102662,-1305.923022,0.018000,-0.014000,0.998000,192.000000,0.000000,0.000000,0.000000,0.000000,0.000000,0.000000,0.000000,0.000000,0.000000,1773751117.680795,0.000000
252.000000,-28375.874862,3771.454545,-15153.834540,2577.446708,5663.887341,8559.555836,-853.076679,-8894.206154,9362.609310,8110.330476,4208.744074,-21076.800952,11397.981512,4178.032777,2599.306714,-1312.986173,0.018000,-0.014000,0.998000,192.000000,0.000000,0.000000,0.000000,0.000000,0.000000,0.000000,0.000000,0.000000,0.000000,1773751117.680807,0.000000
254.000000,-28415.415098,3739.066868,-15198.046291,2539.359336,5612.478329,8526.274088,-890.851127,-8927.219680,9362.832828,8084.938894,4177.161059,-21118.263438,11333.429674,4115.358486,2590.209554,-1300.111568,0.014000,-0.016000,1.002000,192.000000,0.000000,56.000000,127.500000,64.000000,15.500000,40.000000,0.000000,0.000000,0.000000,1773751117.680819,0.000000
0.000000,-28365.056618,3778.137717,-15143.619793,2585.314522,5664.088507,8565.255531,-838.749211,-8878.626988,9373.092279,8091.197382,4195.467138,-21099.957359,11361.369355,4117.191329,2577.469060,-1311.667420,0.014000,-0.016000,1.002000,192.000000,0.000000,0.000000,0.000000,0.000000,0.000000,0.000000,0.000000,0.000000,0.000000,1773751117.680831,0.000000
2.000000,-28410.363604,3741.972594,-15196.012282,2545.439010,5621.843710,8535.013620,-878.423557,-8917.139043,9344.705563,8087.576400,4201.993847,-21091.307234,11425.407103,4173.093042,2589.159022,-1297.094082,0.014000,-0.016000,1.002000,192.000000,0.000000,0.000000,0.000000,0.000000,0.000000,0.000000,0.000000,0.000000,0.000000,1773751117.680844,0.000000
4.000000,-28391.856359,3755.316586,-15171.470066,2561.644025,5641.692059,8545.898920,-863.447888,-8905.762006,9373.092279,8066.275187,4173.048338,-21132.367388,11360.318823,4106.909526,2572.506973,-1297.518766,0.014000,-0.016000,1.002000,192.000000,0.000000,0.000000,0.000000,0.000000,0.000000,0.000000,0.000000,0.000000,0.000000,1773751117.680856,0.000000
6.000000,-28382.245109,3760.926874,-15155.421514,2571.367034,5650.878626,8550.458676,-853.590769,-8896.977770,9353.936834,8094.997179,4210.487510,-21084.534655,11380.234227,4143.074649,2579.972455,-1308.292306,0.014000,-0.016000,1.002000,192.000000,0.000000,0.000000,0.000000,0.000000,0.000000,0.000000,0.000000,0.000000,0.000000,1773751117.680867,0.000000
8.000000,-28428.066185,3721.677211,-15201.600218,2530.955080,5609.796120,8511.119605,-892.639267,-8938.037925,9359.278901,8062.564798,4176.378748,-21130.288676,11377.797887,4132.435218,2585.985075,-1301.743245,0.012000,-0.020000,1.000000,192.000000,0.000000,48.000000,127.500000,48.000000,15.500000,32.000000,0.000000,0.000000,0.000000,1773751117.680880,0.000000
10.000000,-28367.537661,3772.259208,-15141.786950,2584.062825,5663.373251,8559.980519,-839.598577,-8883.767889,9359.591825,8074.724147,4181.787870,-21114.038958,11434.683077,4130.088285,2580.419490,-1306.079484,0.012000,-0.020000,1.000000,192.000000,0.000000,0.000000,0.000000,0.000000,0.000000,0.000000,0.000000,0.000000,0.000000,1773751117.680892,0.000000
12.000000,-28408.843685,3742.598443,-15184.948168,2547.405964,5617.418065,8523.301306,-879.138813,-8915.954401,9351.768714,8088.246952,4204.631353,-21089.966129,11351.244015,4128.858939,2589.404892,-1304.604269,0.012000,-0.020000,1.000000,192.000000,0.000000,0.000000,0.000000,0.000000,0.000000,0.000000,0.000000,0.000000,0.000000,1773751117.680904,0.000000
14.000000,-28385.955499,3760.122211,-15162.886997,2565.577932,5646.564740,8541.763847,-859.446926,-8895.323741,9375.953302,8062.833019,4178.658626,-21128.969923,11300.393796,4078.947494,2574.786851,-1303.844309,0.012000,-0.020000,1.000000,192.000000,0.000000,0.000000,0.000000,0.000000,0.000000,0.000000,0.000000,0.000000,0.000000,1773751117.680916,0.000000
16.000000,-28376.098380,3768.235894,-15150.705296,2575.189182,5668.782374,8550.950414,-846.237045,-8883.834944,9361.983462,8099.489880,4223.183301,-21072.867045,11392.348873,4156.865675,2583.816956,-1312.270917,0.012000,-0.020000,1.000000,192.000000,0.000000,0.000000,0.000000,0.000000,0.000000,0.000000,0.000000,0.000000,0.000000,1773751117.680928,0.000000
18.000000,-28423.394671,3728.293327,-15198.068642,2533.860807,5624.101236,8519.523861,-887.297200,-8926.638535,9356.596691,8062.229522,4184.425376,-21124.521926,11424.401274,4124.321535,2591.036569,-1307.375885,0.018000,-0.022000,1.006000,192.000000,0.000000,72.000000,127.500000,40.000000,15.500000,56.000000,0.000000,0.000000,0.000000,1773751117.680939,0.000000
20.000000,-28367.291792,3774.673197,-15143.306868,2580.397139,5666.144868,8567.513057,-839.442115,-8880.549238,9365.649148,8076.646397,4195.042455,-21106.573475,11417.852213,4149.690765,2577.223191,-1307.174719,0.018000,-0.022000,1.006000,192.000000,0.000000,0.000000,0.000000,0.000000,0.000000,0.000000,0.000000,0.000000,0.000000,1773751117.680951,0.000000
22.000000,-28406.474400,3745.213597,-15184.232913,2549.104696,5617.015733,8527.324620,-878.825888,-8914.121558,9346.627813,8084.424804,4207.179452,-21090.815495,11380.770669,4127.897814,2584.442804,-1302.860833,0.018000,-0.022000,1.006000,192.000000,0.000000,0.000000,0.000000,0.000000,0.000000,0.000000,0.000000,0.000000,0.000000,1773751117.680963,0.000000
24.000000,-28387.006031,3760.748060,-15162.998755,2563.387461,5637.914614,8546.770638,-862.978502,-8897.782433,9372.824058,8066.856333,4180.804393,-21125.795975,11336.156587,4104.942573,2570.182391,-1299.284553,0.018000,-0.022000,1.006000,192.000000,0.000000,0.000000,0.000000,0.000000,0.000000,0.000000,0.000000,0.000000,0.000000,1773751117.680975,0.000000
26.000000,-28376.232490,3771.834525,-15154.370982,2576.887915,5653.918463,8548.715240,-848.740440,-8885.041938,9355.881435,8095.779490,4219.338801,-21073.314079,11378.781364,4155.569274,2575.993845,-1302.391446,0.018000,-0.022000,1.006000,192.000000,0.000000,0.000000,0.000000,0.000000,0.000000,0.000000,0.000000,0.000000,0.000000,1773751117.680988,0.000000
28.000000,-28426.345101,3729.589728,-15200.750852,2537.414734,5609.885527,8508.616210,-888.928877,-8929.186634,9353.445095,8063.101240,4181.229077,-21119.917467,11390.113698,4095.130157,2579.793642,-1296.982324,0.016000,-0.016000,1.008000,192.000000,0.000000,64.000000,127.500000,64.000000,15.500000,64.000000,0.000000,0.000000,0.000000,1773751117.681001,0.000000
30.000000,-28371.672734,3774.047348,-15142.770427,2581.112394,5661.115725,8553.096182,-840.783219,-8884.661959,9358.787162,8072.824248,4188.761614,-21107.646359,11358.418925,4131.898777,2567.321368,-1305.878318,0.016000,-0.016000,1.008000,192.000000,0.000000,0.000000,0.000000,0.000000,0.000000,0.000000,0.000000,0.000000,0.000000,1773751117.681012,0.000000
32.000000,-28415.057470,3740.832656,-15194.112384,2547.473019,5615.495815,8521.781388,-879.742310,-8922.838738,9338.335316,8079.909751,4197.344684,-21094.838809,11422.657838,4135.519759,2582.252333,-1301.810301,0.016000,-0.016000,1.008000,192.000000,0.000000,0.000000,0.000000,0.000000,0.000000,0.000000,0.000000,0.000000,0.000000,1773751117.681024,0.000000
34.000000,-28397.556054,3754.400164,-15171.604177,2561.062880,5632.796065,8530.520920,-861.793859,-8908.287753,9359.837694,8063.257702,4166.074594,-21131.182746,11329.227546,4115.067913,2563.879199,-1303.218460,0.016000,-0.016000,1.008000,192.000000,0.000000,0.000000,0.000000,0.000000,0.000000,0.000000,0.000000,0.000000,0.000000,1773751117.681036,0.000000
36.000000,-28392.549264,3758.758755,-15163.781066,2573.289284,5643.390792,8541.987365,-851.892036,-8899.861145,9337.195377,8092.762004,4200.116301,-21082.143019,11423.216632,4133.418695,2571.814069,-1310.326315,0.016000,-0.016000,1.008000,192.000000,0.000000,0.000000,0.000000,0.000000,0.000000,0.000000,0.000000,0.000000,0.000000,1773751117.681048,0.000000
38.000000,-28429.094366,3729.567376,-15195.520544,2539.582853,5598.195565,8513.757111,-887.900697,-8930.639497,9343.565624,8062.475391,4173.964760,-21124.119595,11307.859279,4113.995029,2572.819897,-1306.370056,0.018000,-0.014000,1.008000,192.000000,0.000000,80.000000,127.500000,80.000000,15.500000,64.000000,0.000000,0.000000,0.000000,1773751117.681060,0.000000
40.000000,-28369.035228,3779.054139,-15137.651877,2591.103624,5658.522923,8567.937740,-835.977594,-8879.364595,9357.736630,8079.775641,4193.611943,-21104.271246,11335.173110,4127.562538,2564.907380,-1306.593574,0.018000,-0.014000,1.008000,192.000000,0.000000,0.000000,0.000000,0.000000,0.000000,0.000000,0.000000,0.000000,0.000000,1773751117.681072,0.000000
42.000000,-28418.589046,3736.563472,-15189.306759,2547.763592,5627.275184,8534.477178,-880.591676,-8925.185671,9342.671554,8089.118670,4204.094911,-21090.994309,11413.672437,4143.253463,2582.140575,-1302.100873,0.018000,-0.014000,1.008000,192.000000,0.000000,0.000000,0.000000,0.000000,0.000000,0.000000,0.000000,0.000000,0.000000,1773751117.681084,0.000000
44.000000,-28399.232435,3751.762659,-15172.811171,2560.615845,5642.988460,8553.297347,-866.264208,-8915.462663,9359.994156,8059.167333,4165.158172,-21143.029170,11381.307111,4128.076628,2569.824764,-1293.271934,0.018000,-0.014000,1.008000,192.000000,0.000000,0.000000,0.000000,0.000000,0.000000,0.000000,0.000000,0.000000,0.000000,1773751117.681103,0.000000
46.000000,-28381.283984,3769.800516,-15156.293232,2580.732415,5649.470466,8559.645243,-849.589807,-8896.374273,9352.103991,8102.239144,4208.274687,-21083.774696,11422.031989,4143.074649,2572.685787,-1301.027990,0.018000,-0.014000,1.008000,192.000000,0.000000,0.000000,0.000000,0.000000,0.000000,0.000000,0.000000,0.000000,0.000000,1773751117.681115,0.000000
48.000000,-28426.680377,3729.343859,-15196.794593,2538.264100,5600.766015,8516.864004,-887.967752,-8932.695858,9358.004851,8070.142039,4180.111489,-21125.371292,11341.543358,4103.310895,2569.020101,-1297.250545,0.017000,-0.014000,1.006000,192.000000,0.000000,64.000000,127.500000,72.000000,15.500000,48.000000,0.000000,0.000000,0.000000,1773751117.681127,0.000000
50.000000,-28370.935127,3773.108575,-15147.240775,2583.571086,5656.153638,8550.346917,-837.139885,-8882.627950,9361.581130,8070.946702,4189.387463,-21114.016606,11364.409192,4134.670393,2566.382595,-1305.096007,0.017000,-0.014000,1.006000,192.000000,0.000000,0.000000,0.000000,0.000000,0.000000,0.000000,0.000000,0.000000,0.000000,1773751117.681139,0.000000
52.000000,-28409.424831,3743.760734,-15192.726575,2545.304900,5614.132358,8515.299382,-877.641246,-8916.557898,9345.309060,8083.441327,4203.044379,-21093.073022,11467.830714,4157.357413,2576.440880,-1303.866661,0.017000,-0.014000,1.006000,192.000000,0.000000,0.000000,0.000000,0.000000,0.000000,0.000000,0.000000,0.000000,0.000000,1773751117.681151,0.000000
54.000000,-28389.375316,3760.256321,-15164.049287,2565.600284,5636.349992,8529.582146,-860.743327,-8902.386892,9369.247779,8058.854408,4175.596437,-21136.591868,11266.150924,4090.011607,2565.779098,-1303.263164,0.017000,-0.014000,1.006000,192.000000,0.000000,0.000000,0.000000,0.000000,0.000000,0.000000,0.000000,0.000000,0.000000,1773751117.681162,0.000000
56.000000,-28374.801978,3774.650845,-15150.727648,2580.017159,5647.324699,8542.702620,-847.265225,-8889.869915,9353.668613,8098.439348,4217.014219,-21079.393754,11360.810561,4141.845303,2575.055072,-1308.560527,0.017000,-0.014000,1.006000,192.000000,0.000000,0.000000,0.000000,0.000000,0.000000,0.000000,0.000000,0.000000,0.000000,1773751117.681175,0.000000
58.000000,-28415.951540,3741.503208,-15197.822773,2541.460400,5611.248983,8514.315905,-885.263191,-8921.721151,9360.150619,8072.108993,4186.392330,-21119.515135,11388.727890,4123.405114,2575.479755,-1300.044513,0.014500,-0.012000,1.006000,192.000000,0.000000,48.000000,127.500000,88.000000,15.500000,56.000000,0.000000,0.000000,0.000000,1773751118.160113,0.000000
60.000000,-28359.982772,3785.223220,-15140.177624,2589.986037,5666.658958,8560.963996,-835.061173,-8870.446249,9371.170029,8079.373310,4200.585687,-21101.231408,11410.431434,4130.378858,2564.236827,-1306.235946,0.014500,-0.012000,1.006000,192.000000,0.000000,0.000000,0.000000,0.000000,0.000000,0.000000,0.000000,0.000000,0.000000,1773751118.160201,0.000000
62.000000,-28400.350022,3751.606196,-15184.277616,2555.430240,5625.062361,8527.726952,-872.366234,-8905.359674,9357.289595,8088.626932,4215.583708,-21083.640585,11461.862798,4149.824876,2581.693540,-1303.419626,0.014500,-0.012000,1.006000,192.000000,0.000000,0.000000,0.000000,0.000000,0.000000,0.000000,0.000000,0.000000,0.000000,1773751118.160271,0.000000
64.000000,-28387.386011,3763.653787,-15158.707220,2567.120202,5634.427742,8545.071905,-857.032938,-8893.312084,9373.025223,8065.381118,4182.458422,-21127.561763,11305.221773,4124.567404,2566.673168,-1299.217498,0.014500,-0.012000,1.006000,192.000000,0.000000,0.000000,0.000000,0.000000,0.000000,0.000000,0.000000,0.000000,0.000000,1773751118.160350,0.000000
66.000000,-28373.639688,3778.741214,-15148.693639,2581.067691,5650.252777,8560.673423,-847.734612,-8885.198401,9359.390659,8105.703665,4226.938394,-21074.118742,11390.091347,4147.500294,2574.943313,-1307.532347,0.014500,-0.012000,1.006000,192.000000,0.000000,0.000000,0.000000,0.000000,0.000000,0.000000,0.000000,0.000000,0.000000,1773751118.160420,0.000000
68.000000,-28427.373281,3732.137827,-15199.074471,2534.084324,5617.641582,8533.985440,-894.136833,-8936.093323,9352.931005,8071.013757,4181.206725,-21128.411130,11385.084556,4139.230149,2578.787813,-1295.574164,0.012250,-0.013000,1.006000,192.000000,0.000000,40.000000,127.500000,72.000000,15.500000,56.000000,0.000000,0.000000,0.000000,1773751118.160491,0.000000
70.000000,-28373.125598,3773.823830,-15143.195110,2582.520554,5681.187592,8572.586903,-844.493609,-8890.428709,9362.341090,8074.411222,4189.208649,-21121.347978,11381.575332,4146.785038,2576.753804,-1299.083388,0.012250,-0.013000,1.006000,192.000000,0.000000,0.000000,0.000000,0.000000,0.000000,0.000000,0.000000,0.000000,0.000000,1773751118.160539,0.000000
72.000000,-28414.386918,3742.017298,-15190.424346,2547.227150,5633.220748,8526.676420,-880.278752,-8924.917451,9345.420819,8090.593885,4200.965667,-21100.382042,11437.231176,4127.562538,2586.230944,-1301.251507,0.012250,-0.013000,1.006000,192.000000,0.000000,0.000000,0.000000,0.000000,0.000000,0.000000,0.000000,0.000000,0.000000,1773751118.160588,0.000000
74.000000,-28401.892293,3747.828752,-15166.552683,2553.373880,5643.368440,8529.202167,-866.353615,-8914.658000,9367.839619,8061.849542,4170.835515,-21144.727903,11349.880558,4111.737503,2571.568200,-1302.614963,0.012250,-0.013000,1.006000,192.000000,0.000000,0.000000,0.000000,0.000000,0.000000,0.000000,0.000000,0.000000,0.000000,1773751118.160613,0.000000
76.000000,-28382.446275,3764.123173,-15152.851063,2569.578894,5650.856274,8536.600594,-849.813324,-8897.760081,9347.611290,8088.045786,4212.566222,-21096.135211,11426.681152,4144.639271,2576.396176,-1315.668382,0.012250,-0.013000,1.006000,192.000000,0.000000,0.000000,0.000000,0.000000,0.000000,0.000000,0.000000,0.000000,0.000000,1773751118.160626,0.000000
78.000000,-28422.925284,3733.411876,-15195.364081,2530.262176,5609.282030,8502.469480,-887.744235,-8935.087494,9356.551988,8064.755269,4184.738300,-21136.301295,11390.851306,4114.777340,2573.803374,-1310.214556,0.015125,-0.014500,1.007000,192.000000,0.000000,72.000000,127.500000,64.000000,15.500000,64.000000,0.000000,0.000000,0.000000,1773751118.160639,0.000000
80.000000,-28366.755350,3781.468127,-15136.981325,2584.554563,5671.241065,8557.722993,-835.262339,-8884.594904,9366.990252,8079.730937,4197.434091,-21117.794051,11401.647198,4160.710175,2563.387461,-1313.589670,0.015125,-0.014500,1.007000,192.000000,0.000000,0.000000,0.000000,0.000000,0.000000,0.000000,0.000000,0.000000,0.000000,1773751118.160651,0.000000
82.000000,-28408.821334,3748.096972,-15172.610005,2551.094002,5630.650297,8525.201204,-875.070795,-8919.351866,9350.919348,8093.298446,4214.130844,-21097.141039,11382.245884,4131.921128,2580.531249,-1311.399199,0.015125,-0.014500,1.007000,192.000000,0.000000,0.000000,0.000000,0.000000,0.000000,0.000000,0.000000,0.000000,0.000000,1773751118.160664,0.000000
84.000000,-28387.654232,3764.749022,-15155.890901,2564.683862,5646.631795,8545.116609,-859.648092,-8904.510308,9375.796840,8069.493838,4186.146460,-21138.871746,11336.514215,4117.079570,2568.416604,-1307.331181,0.015125,-0.014500,1.007000,192.000000,0.000000,0.000000,0.000000,0.000000,0.000000,0.000000,0.000000,0.000000,0.000000,1773751118.160676,0.000000
86.000000,-28370.085760,3780.730519,-15144.156235,2582.364092,5667.485972,8557.253606,-843.487781,-8887.500630,9362.385793,8108.184708,4227.407781,-21082.143019,11450.016373,4171.595475,2579.011330,-1312.092103,0.015125,-0.014500,1.007000,192.000000,0.000000,0.000000,0.000000,0.000000,0.000000,0.000000,0.000000,0.000000,0.000000,1773751118.160689,0.000000
88.000000,-28418.477287,3740.139751,-15193.039500,2544.276720,5609.639658,8520.507338,-887.140737,-8929.767779,9364.106877,8083.575437,4194.617771,-21121.839717,11379.071936,4125.997916,2579.413662,-1302.413798,0.015562,-0.016250,1.006500,192.000000,0.000000,64.000000,127.500000,56.000000,15.500000,56.000000,0.000000,0.000000,0.000000,1773751118.160701,0.000000
90.000000,-28363.559051,3782.719825,-15136.333124,2591.707121,5668.849429,8565.479048,-838.816266,-8882.046805,9373.807534,8092.113804,4200.429225,-21108.562780,11457.973594,4149.064916,2566.539057,-1305.766559,0.015562,-0.016250,1.006500,192.000000,0.000000,0.000000,0.000000,0.000000,0.000000,0.000000,0.000000,0.000000,0.000000,1773751118.160726,0.000000
92.000000,-28415.035118,3739.424496,-15176.879189,2548.031813,5628.191606,8524.530652,-881.508098,-8923.866919,9351.656956,8092.180859,4211.202766,-21094.727051,11336.268346,4135.296242,2587.750863,-1298.211670,0.015562,-0.016250,1.006500,192.000000,0.000000,0.000000,0.000000,0.000000,0.000000,0.000000,0.000000,0.000000,0.000000,1773751118.160740,0.000000
94.000000,-28401.936996,3747.448772,-15162.462313,2556.883103,5647.771734,8534.700696,-871.136888,-8914.412131,9369.001909,8056.954510,4174.948236,-21145.912545,11335.575442,4113.033904,2579.145441,-1298.949277,0.015562,-0.016250,1.006500,192.000000,0.000000,0.000000,0.000000,0.000000,0.000000,0.000000,0.000000,0.000000,0.000000,1773751118.160766,0.000000
96.000000,-28377.953574,3772.862705,-15144.536214,2574.876258,5673.744461,8547.642356,-852.182609,-8892.395662,9354.294462,8097.947609,4215.986039,-21087.842713,11446.976536,4181.609056,2587.683807,-1308.605231,0.015562,-0.016250,1.006500,192.000000,0.000000,0.000000,0.000000,0.000000,0.000000,0.000000,0.000000,0.000000,0.000000,1773751118.160779,0.000000
98.000000,-28417.516162,3738.396315,-15190.960788,2539.001708,5616.836919,8515.031161,-892.192232,-8927.063218,9370.566531,8075.729975,4189.789795,-21122.823193,11417.606344,4130.177692,2583.951066,-1301.810301,0.013781,-0.017125,1.007250,192.000000,0.000000,48.000000,127.500000,56.000000,15.500000,64.000000,0.000000,0.000000,0.000000,1773751118.160791,0.000000
100.000000,-28358.418150,3793.158089,-15129.784063,2593.338799,5671.174010,8556.426591,-837.028126,-8872.502610,9380.021319,8094.550144,4204.117263,-21101.901961,11397.288608,4139.788942,2566.181429,-1308.940507,0.013781,-0.017125,1.007250,192.000000,0.000000,0.000000,0.000000,0.000000,0.000000,0.000000,0.000000,0.000000,0.000000,1773751118.160804,0.000000
102.000000,-28399.768877,3758.736403,-15178.868494,2556.592531,5632.729010,8526.564661,-874.355540,-8906.611372,9359.725935,8099.221659,4220.344629,-21084.042917,11470.311757,4163.034757,2578.698406,-1308.649934,0.013781,-0.017125,1.007250,192.000000,0.000000,0.000000,0.000000,0.000000,0.000000,0.000000,0.000000,0.000000,0.000000,1773751118.160816,0.000000
104.000000,-28386.380182,3763.698490,-15154.616851,2571.679958,5647.414106,8546.882397,-859.893961,-8896.240162,9384.536372,8072.287807,4187.845193,-21128.813461,11328.467587,4130.222396,2564.080365,-1306.660629,0.013781,-0.017125,1.007250,192.000000,0.000000,0.000000,0.000000,0.000000,0.000000,0.000000,0.000000,0.000000,0.000000,1773751118.160828,0.000000
106.000000,-28373.483226,3774.740252,-15143.552738,2587.773214,5667.553028,8558.214731,-847.555798,-8886.740671,9366.900845,8105.703665,4229.195920,-21076.063344,11390.650140,4138.961928,2575.569162,-1311.287440,0.013781,-0.017125,1.007250,192.000000,0.000000,0.000000,0.000000,0.000000,0.000000,0.000000,0.000000,0.000000,0.000000,1773751118.160841,0.000000
108.000000,-28421.271255,3734.864740,-15194.559419,2543.382650,5621.731951,8522.720161,-891.812252,-8932.047657,9364.978595,8075.461754,4190.840327,-21124.298409,11366.823181,4118.510082,2578.027854,-1302.726722,0.013781,-0.017125,1.007250,192.000000,0.000000,0.000000,0.000000,0.000000,0.000000,0.000000,0.000000,0.000000,0.000000,1773751118.160854,0.000000
110.000000,-28359.289868,3785.066758,-15139.261203,2587.862621,5675.979635,8573.279807,-840.894978,-8882.136212,9376.512096,8083.396624,4197.903478,-21112.630798,11465.148504,4191.019141,2566.807278,-1304.783083,0.012000,-0.020000,1.004000,192.000000,0.000000,48.000000,127.500000,48.000000,15.500000,48.000000,0.000000,0.000000,0.000000,1773751118.160866,0.000000
112.000000,-28411.369432,3746.130019,-15190.826677,2553.150362,5631.074981,8539.215748,-882.201002,-8923.889270,9356.641395,8095.220696,4209.772254,-21095.978748,11454.106743,4170.142611,2576.932618,-1297.652876,0.012000,-0.020000,1.004000,192.000000,0.000000,0.000000,0.000000,0.000000,0.000000,0.000000,0.000000,0.000000,0.000000,1773751118.160878,0.000000
114.000000,-28394.873845,3754.601330,-15168.474933,2561.308749,5653.024394,8552.872664,-869.102880,-8912.154604,9370.678290,8063.034184,4172.355434,-21141.643362,11312.463738,4087.016474,2568.729528,-1288.756882,0.012000,-0.020000,1.004000,192.000000,0.000000,0.000000,0.000000,0.000000,0.000000,0.000000,0.000000,0.000000,0.000000,1773751118.160891,0.000000
116.000000,-28380.971060,3768.191191,-15152.314621,2577.558467,5663.239141,8559.466429,-852.741403,-8896.754253,9359.971805,8093.812536,4215.091969,-21087.932120,11406.966914,4158.027966,2579.614828,-1299.664533,0.012000,-0.020000,1.004000,192.000000,0.000000,0.000000,0.000000,0.000000,0.000000,0.000000,0.000000,0.000000,0.000000,1773751118.160903,0.000000
118.000000,-28427.440337,3730.282632,-15204.908276,2534.196083,5608.007980,8519.747379,-895.366179,-8936.696820,9358.384831,8064.442344,4182.950161,-21130.333380,11389.264332,4119.024172,2574.764499,-1293.853080,0.012000,-0.020000,1.004000,192.000000,0.000000,0.000000,0.000000,0.000000,0.000000,0.000000,0.000000,0.000000,0.000000,1773751118.160915,0.000000
120.000000,-28369.728132,3778.897676,-15146.480816,2583.436976,5652.666766,8553.297347,-842.124324,-8886.539505,9367.616101,8077.004025,4192.762577,-21116.520001,11405.469347,4130.624727,2556.212551,-1304.850138,0.010000,-0.022000,1.006000,192.000000,0.000000,40.000000,127.500000,40.000000,15.500000,56.000000,0.000000,0.000000,0.000000,1773751118.160928,0.000000
122.000000,-28418.946674,3738.999812,-15189.016186,2543.539112,5608.119739,8503.140033,-881.195173,-8925.610355,9348.438304,8083.575437,4206.263030,-21100.337338,11354.954404,4150.093097,2568.640121,-1311.153330,0.010000,-0.022000,1.006000,192.000000,0.000000,0.000000,0.000000,0.000000,0.000000,0.000000,0.000000,0.000000,0.000000,1773751118.160941,0.000000
124.000000,-28400.998223,3750.421554,-15178.734383,2555.206723,5624.347106,8521.222594,-867.024167,-8913.920392,9367.750212,8048.706716,4171.774289,-21148.058313,11384.011672,4098.393512,2553.195066,-1309.074618,0.010000,-0.022000,1.006000,192.000000,0.000000,0.000000,0.000000,0.000000,0.000000,0.000000,0.000000,0.000000,0.000000,1773751118.160953,0.000000
126.000000,-28375.673696,3773.153278,-15156.941433,2582.699368,5645.782428,8544.133132,-846.751135,-8890.026377,9358.094258,8085.676501,4216.343667,-21089.541446,11445.546025,4150.137800,2560.615845,-1314.774312,0.010000,-0.022000,1.006000,192.000000,0.000000,0.000000,0.000000,0.000000,0.000000,0.000000,0.000000,0.000000,0.000000,1773751118.160966,0.000000
128.000000,-28414.386918,3745.705336,-15200.080299,2547.718888,5608.007980,8526.564661,-887.565421,-8924.157491,9367.414936,8074.679443,4191.533231,-21120.364502,11378.624902,4137.062029,2562.202819,-1302.749074,0.010000,-0.022000,1.006000,192.000000,0.000000,0.000000,0.000000,0.000000,0.000000,0.000000,0.000000,0.000000,0.000000,1773751118.160978,0.000000
130.000000,-28359.111054,3792.487537,-15141.451674,2599.910212,5671.844563,8587.048481,-838.480990,-8876.838848,9383.821116,8091.912638,4202.753806,-21101.030243,11361.391707,4124.723867,2556.301958,-1305.699504,0.012000,-0.016000,1.002000,192.000000,0.000000,48.000000,127.500000,64.000000,15.500000,40.000000,0.000000,0.000000,0.000000,1773751118.160990,0.000000
132.000000,-28410.609473,3749.035746,-15188.636206,2556.905455,5635.165350,8563.914426,-883.564458,-8922.414055,9363.458677,8097.657037,4211.918022,-21087.261568,11370.198294,4162.364204,2575.591514,-1296.110606,0.012000,-0.016000,1.002000,192.000000,0.000000,0.000000,0.000000,0.000000,0.000000,0.000000,0.000000,0.000000,0.000000,1773751118.161003,0.000000
134.000000,-28399.075973,3754.198999,-15177.058003,2562.873371,5656.801838,8574.330339,-874.601409,-8915.283849,9377.093241,8060.620196,4169.248542,-21142.492729,11406.363416,4142.873483,2572.708139,-1286.409949,0.012000,-0.016000,1.002000,192.000000,0.000000,0.000000,0.000000,0.000000,0.000000,0.000000,0.000000,0.000000,0.000000,1773751118.161016,0.000000
136.000000,-28386.111961,3764.167877,-15160.383601,2574.786851,5672.760984,8580.387662,-858.597560,-8900.330532,9359.860046,8091.711472,4209.682847,-21090.860199,11466.131981,4161.023100,2583.861659,-1290.008579,0.012000,-0.016000,1.002000,192.000000,0.000000,0.000000,0.000000,0.000000,0.000000,0.000000,0.000000,0.000000,0.000000,1773751118.161028,0.000000
138.000000,-28430.100194,3727.823940,-15203.880096,2529.256347,5618.781521,8530.878548,-899.680066,-8938.753180,9362.497552,8056.373364,4180.938504,-21136.994199,11364.364489,4131.988183,2583.727549,-1280.509088,0.012000,-0.016000,1.002000,192.000000,0.000000,0.000000,0.000000,0.000000,0.000000,0.000000,0.000000,0.000000,0.000000,1773751118.161041,0.000000
140.000000,-28370.398685,3772.795650,-15143.731552,2577.558467,5659.171123,8557.767696,-849.098068,-8889.758157,9374.589845,8068.555065,4194.215440,-21121.213868,11345.298451,4145.063954,2568.483659,-1293.271934,0.010000,-0.012000,1.006000,192.000000,0.000000,40.000000,127.500000,80.000000,15.500000,56.000000,0.000000,0.000000,0.000000,1773751118.161054,0.000000
142.000000,-28412.889351,3734.931795,-15190.491401,2541.505103,5614.847614,8505.419911,-885.777281,-8926.035038,9355.300290,8073.941836,4208.967591,-21105.098260,11382.156477,4094.750177,2574.585685,-1301.676190,0.010000,-0.012000,1.006000,192.000000,0.000000,0.000000,0.000000,0.000000,0.000000,0.000000,0.000000,0.000000,0.000000,1773751118.161066,0.000000
144.000000,-28390.247034,3753.282577,-15180.656633,2552.256292,5625.531748,8514.740588,-869.013473,-8906.901945,9377.294407,8048.483199,4179.262123,-21146.761912,11474.737403,4105.993105,2554.916150,-1309.611059,0.010000,-0.012000,1.006000,192.000000,0.000000,0.000000,0.000000,0.000000,0.000000,0.000000,0.000000,0.000000,0.000000,1773751118.161079,0.000000
146.000000,-28371.672734,3772.996816,-15153.141636,2573.535153,5628.750399,8527.548138,-849.723917,-8885.377215,9365.783258,8089.342188,4225.977269,-21084.445248,11414.879431,4141.934710,2549.730545,-1320.250490,0.010000,-0.012000,1.006000,192.000000,0.000000,0.000000,0.000000,0.000000,0.000000,0.000000,0.000000,0.000000,0.000000,1773751118.161092,0.000000
148.000000,-28411.592950,3742.263167,-15194.157087,2535.850112,5594.239306,8502.156556,-888.079511,-8918.591907,9369.806572,8065.269359,4200.406873,-21122.510269,11318.655171,4147.097963,2553.753859,-1313.790836,0.010000,-0.012000,1.006000,192.000000,0.000000,0.000000,0.000000,0.000000,0.000000,0.000000,0.000000,0.000000,0.000000,1773751118.161104,0.000000
150.000000,-28347.845775,3795.817947,-15136.534290,2596.423339,5658.075888,8563.757964,-833.988289,-8865.126534,9382.927046,8085.877667,4214.175548,-21101.656091,11376.322672,4138.112561,2550.646967,-1319.065847,0.008000,-0.014000,1.002000,192.000000,0.000000,32.000000,127.500000,72.000000,15.500000,40.000000,0.000000,0.000000,0.000000,1773751118.161116,0.000000
152.000000,-28387.095438,3764.301987,-15182.198904,2564.661511,5629.197434,8541.093295,-872.232124,-8901.872802,9365.537389,8102.932048,4227.966574,-21078.454981,11410.051454,4154.965777,2572.082290,-1305.967725,0.008000,-0.014000,1.002000,192.000000,0.000000,0.000000,0.000000,0.000000,0.000000,0.000000,0.000000,0.000000,0.000000,1773751118.161130,0.000000
154.000000,-28373.058542,3772.885057,-15168.519636,2577.402005,5665.407260,8564.249702,-860.810382,-8894.027340,9390.258418,8073.360690,4191.890859,-21124.276057,11467.361327,4130.222396,2565.801450,-1295.976495,0.008000,-0.014000,1.002000,192.000000,0.000000,0.000000,0.000000,0.000000,0.000000,0.000000,0.000000,0.000000,0.000000,1773751118.161142,0.000000
156.000000,-28361.770911,3780.954037,-15144.312697,2588.041435,5677.723071,8586.132060,-846.907597,-8884.147869,9372.131154,8103.893173,4226.916042,-21074.833998,11408.062149,4225.552586,2584.152232,-1293.629562,0.008000,-0.014000,1.002000,192.000000,0.000000,0.000000,0.000000,0.000000,0.000000,0.000000,0.000000,0.000000,0.000000,1773751118.161155,0.000000
158.000000,-28414.565732,3735.200016,-15193.866514,2547.428316,5628.504530,8545.876568,-892.594563,-8932.025305,9375.528619,8072.846600,4195.198917,-21122.532621,11352.585119,4103.646172,2585.850964,-1282.319579,0.008000,-0.014000,1.002000,192.000000,0.000000,0.000000,0.000000,0.000000,0.000000,0.000000,0.000000,0.000000,0.000000,1773751118.161167,0.000000
160.000000,-28364.363714,3778.271827,-15143.753903,2589.203726,5686.082624,8591.049444,-844.985347,-8888.059424,9376.467392,8075.975844,4195.623600,-21118.978693,11389.174925,4145.890969,2583.951066,-1285.091196,0.010000,-0.014000,1.006000,192.000000,0.000000,40.000000,127.500000,72.000000,15.500000,56.000000,0.000000,0.000000,0.000000,1773751118.161179,0.000000
162.000000,-28408.217836,3741.950243,-15192.301892,2547.942406,5631.209091,8541.741495,-882.268057,-8926.280907,9356.842560,8085.832964,4206.017161,-21102.460754,11441.545062,4164.912303,2592.221211,-1283.526574,0.010000,-0.014000,1.006000,192.000000,0.000000,0.000000,0.000000,0.000000,0.000000,0.000000,0.000000,0.000000,0.000000,1773751118.161192,0.000000
164.000000,-28392.862188,3748.678118,-15172.051212,2554.379708,5623.296574,8527.771655,-869.236990,-8915.216793,9376.847372,8046.046859,4171.126088,-21153.825063,11361.503465,4101.031017,2562.940426,-1289.583896,0.010000,-0.014000,1.006000,192.000000,0.000000,0.000000,0.000000,0.000000,0.000000,0.000000,0.000000,0.000000,0.000000,1773751118.161204,0.000000
166.000000,-28365.436598,3771.476897,-15149.878281,2572.506973,5634.025411,8520.797911,-846.840542,-8888.774680,9371.929988,8085.140060,4221.328106,-21092.983615,11385.531591,4153.848190,2553.083307,-1313.634373,0.010000,-0.014000,1.006000,192.000000,0.000000,0.000000,0.000000,0.000000,0.000000,0.000000,0.000000,0.000000,0.000000,1773751118.161216,0.000000
168.000000,-28408.687223,3733.277766,-15196.034634,2535.783057,5594.686341,8474.999186,-885.196136,-8925.006858,9378.300235,8051.254815,4197.948181,-21131.026284,11386.336253,4104.249669,2551.094002,-1319.490530,0.010000,-0.014000,1.006000,192.000000,0.000000,0.000000,0.000000,0.000000,0.000000,0.000000,0.000000,0.000000,0.000000,1773751118.161228,0.000000
170.000000,-28351.846737,3777.087185,-15140.311735,2585.269819,5650.230426,8523.658934,-835.150580,-8876.324758,9389.923142,8064.643510,4207.358266,-21114.240124,11424.825957,4099.399340,2544.701403,-1330.375830,0.008000,-0.010000,1.006000,192.000000,0.000000,32.000000,127.500000,88.000000,15.500000,56.000000,0.000000,0.000000,0.000000,1773751118.161241,0.000000
172.000000,-28389.621185,3748.029917,-15177.214465,2545.953100,5619.653239,8506.492794,-872.790917,-8911.618163,9370.454773,8072.332510,4223.675039,-21100.180876,11440.807455,4165.515800,2569.310673,-1329.034725,0.008000,-0.010000,1.006000,192.000000,0.000000,0.000000,0.000000,0.000000,0.000000,0.000000,0.000000,0.000000,0.000000,1773751118.161254,0.000000
174.000000,-28366.308316,3767.073604,-15158.930738,2568.640121,5650.096315,8539.975708,-859.044595,-8895.390796,9401.747215,8056.976862,4196.160042,-21138.156490,11363.872750,4135.229186,2563.387461,-1321.301022,0.008000,-0.010000,1.006000,192.000000,0.000000,0.000000,0.000000,0.000000,0.000000,0.000000,0.000000,0.000000,0.000000,1773751118.161266,0.000000
176.000000,-28350.259763,3783.479784,-15140.311735,2592.087101,5673.051557,8572.095164,-843.711298,-8878.582284,9395.309913,8100.965095,4240.014164,-21075.459847,11414.231231,4141.264157,2576.999673,-1314.751961,0.008000,-0.010000,1.006000,192.000000,0.000000,0.000000,0.000000,0.000000,0.000000,0.000000,0.000000,0.000000,0.000000,1773751118.161278,0.000000
178.000000,-28395.298528,3748.923987,-15196.280503,2549.819952,5634.383039,8551.285690,-886.783110,-8917.206099,9392.761814,8074.545333,4206.173623,-21115.357711,11459.694679,4167.549809,2581.179450,-1295.440053,0.008000,-0.010000,1.006000,192.000000,0.000000,0.000000,0.000000,0.000000,0.000000,0.000000,0.000000,0.000000,0.000000,1773751118.640467,0.000000
180.000000,-28348.806900,3785.334979,-15134.969668,2598.233831,5687.870763,8598.604333,-839.352708,-8874.670729,9398.662674,8081.720243,4211.761559,-21103.801859,11378.781364,4160.866637,2572.663435,-1292.221402,0.014000,-0.014000,1.006000,192.000000,0.000000,56.000000,127.500000,72.000000,15.500000,56.000000,0.000000,0.000000,0.000000,1773751118.640528,0.000000
182.000000,-28399.657118,3742.263167,-15185.439907,2558.581836,5641.692059,8562.059231,-879.742310,-8919.620087,9370.208904,8079.775641,4218.601193,-21096.425783,11378.423736,4139.230149,2586.812089,-1278.184507,0.014000,-0.014000,1.006000,192.000000,0.000000,0.000000,0.000000,0.000000,0.000000,0.000000,0.000000,0.000000,0.000000,1773751118.640576,0.000000
184.000000,-28384.346173,3753.819019,-15173.593482,2561.442859,5644.463676,8562.193342,-868.991121,-8911.059369,9382.435308,8050.517207,4177.295170,-21146.694856,11378.200218,4125.394419,2572.126993,-1277.759824,0.014000,-0.014000,1.006000,192.000000,0.000000,0.000000,0.000000,0.000000,0.000000,0.000000,0.000000,0.000000,0.000000,1773751118.640619,0.000000
186.000000,-28361.502690,3772.326263,-15158.304889,2578.564296,5645.357745,8556.515998,-851.042670,-8891.501593,9366.811438,8080.289731,4218.042400,-21094.637644,11426.882318,4161.537190,2568.595418,-1293.361341,0.014000,-0.014000,1.006000,192.000000,0.000000,0.000000,0.000000,0.000000,0.000000,0.000000,0.000000,0.000000,0.000000,1773751118.640662,0.000000
188.000000,-28404.440392,3739.178626,-15195.364081,2538.353507,5589.076053,8502.871812,-888.593601,-8926.392666,9372.712299,8061.916597,4195.847117,-21126.354769,11395.388710,4125.237957,2555.676109,-1300.513899,0.014000,-0.014000,1.006000,192.000000,0.000000,0.000000,0.000000,0.000000,0.000000,0.000000,0.000000,0.000000,0.000000,1773751118.640704,0.000000
190.000000,-28352.204365,3779.836450,-15138.434188,2584.934543,5643.927234,8524.463597,-837.206940,-8879.275188,9384.558724,8064.576455,4205.972458,-21116.318836,11356.027288,4113.972677,2545.975452,-1319.177606,0.014000,-0.013000,1.005000,192.000000,0.000000,56.000000,127.500000,80.000000,15.500000,48.000000,0.000000,0.000000,0.000000,1773751118.640747,0.000000
192.000000,-28386.916624,3752.433211,-15179.919026,2553.083307,5604.185832,8498.468518,-870.443984,-8907.706607,9368.599578,8076.936969,4226.737228,-21093.832981,11417.807510,4138.358431,2559.431202,-1326.419571,0.014000,-0.013000,1.005000,192.000000,0.000000,0.000000,0.000000,0.000000,0.000000,0.000000,0.000000,0.000000,0.000000,1773751118.640759,0.000000
194.000000,-28367.135330,3768.325301,-15164.585729,2566.561409,5627.945736,8516.998114,-857.502324,-8894.608485,9394.728767,8055.948681,4198.082292,-21136.122481,11391.432451,4097.611201,2548.545903,-1324.094990,0.014000,-0.013000,1.005000,192.000000,0.000000,0.000000,0.000000,0.000000,0.000000,0.000000,0.000000,0.000000,0.000000,1773751118.640771,0.000000
196.000000,-28347.532850,3785.379682,-15140.512900,2583.951066,5654.745478,8540.199225,-841.252606,-8878.515229,9388.604389,8095.354807,4241.802304,-21078.767905,11468.478914,4188.158117,2563.700386,-1328.207711,0.014000,-0.013000,1.005000,192.000000,0.000000,0.000000,0.000000,0.000000,0.000000,0.000000,0.000000,0.000000,0.000000,1773751118.640784,0.000000
198.000000,-28395.477342,3747.962862,-15183.607064,2548.501199,5625.554100,8516.975762,-883.095072,-8919.329514,9390.481936,8065.738745,4211.336876,-21119.381025,11363.269253,4116.677239,2573.401043,-1312.896766,0.014000,-0.013000,1.005000,192.000000,0.000000,0.000000,0.000000,0.000000,0.000000,0.000000,0.000000,0.000000,0.000000,1773751118.640796,0.000000
200.000000,-28343.464833,3788.128947,-15128.666476,2597.205650,5682.573400,8572.944531,-835.687022,-8875.453040,9398.483860,8077.451060,4213.884975,-21105.388833,11354.686183,4137.844341,2571.747014,-1308.158196,0.014000,-0.014500,1.005500,192.000000,0.000000,56.000000,127.500000,64.000000,15.500000,56.000000,0.000000,0.000000,0.000000,1773751118.640808,0.000000
202.000000,-28396.125543,3743.760734,-15181.550703,2559.341795,5661.607464,8547.597652,-877.641246,-8918.390741,9376.445040,8082.033167,4224.524406,-21093.140077,11464.835580,4160.397251,2591.729473,-1298.144614,0.014000,-0.014500,1.005500,192.000000,0.000000,0.000000,0.000000,0.000000,0.000000,0.000000,0.000000,0.000000,0.000000,1773751118.640819,0.000000
204.000000,-28387.833045,3750.265092,-15167.670270,2567.611941,5668.782374,8574.933836,-869.438156,-8911.461700,9385.653959,8048.125571,4180.938504,-21145.979601,11384.637521,4129.708306,2580.866525,-1278.139803,0.014000,-0.014500,1.005500,192.000000,0.000000,0.000000,0.000000,0.000000,0.000000,0.000000,0.000000,0.000000,0.000000,1773751118.640831,0.000000
206.000000,-28370.644554,3764.726670,-15149.297136,2583.079348,5676.404318,8591.384720,-853.657824,-8897.871840,9369.404241,8080.982635,4223.362115,-21094.570588,11401.893068,4138.470189,2589.136671,-1278.631542,0.014000,-0.014500,1.005500,192.000000,0.000000,0.000000,0.000000,0.000000,0.000000,0.000000,0.000000,0.000000,0.000000,1773751118.640843,0.000000
208.000000,-28420.287778,3724.359420,-15200.169706,2535.470132,5621.776655,8539.260452,-896.729636,-8940.049582,9364.218636,8044.549292,4189.141594,-21141.151624,11367.583140,4091.933857,2582.118223,-1275.770518,0.014000,-0.014500,1.005500,192.000000,0.000000,0.000000,0.000000,0.000000,0.000000,0.000000,0.000000,0.000000,0.000000,1773751118.640855,0.000000
210.000000,-28362.553222,3769.822868,-15142.859834,2578.787813,5666.860123,8567.021318,-843.554836,-8887.210058,9376.489744,8051.858312,4198.350513,-21127.315894,11379.161343,4155.368108,2562.314577,-1286.856984,0.012000,-0.012250,1.006750,192.000000,0.000000,40.000000,127.500000,88.000000,15.500000,64.000000,0.000000,0.000000,0.000000,1773751118.640867,0.000000
212.000000,-28402.786363,3737.725763,-15180.187247,2545.036679,5606.465710,8505.084634,-876.389548,-8917.608430,9354.428572,8061.178990,4214.309658,-21106.193496,11434.928946,4147.321480,2570.160040,-1301.720894,0.012000,-0.012250,1.006750,192.000000,0.000000,0.000000,0.000000,0.000000,0.000000,0.000000,0.000000,0.000000,0.000000,1773751118.640879,0.000000
214.000000,-28385.486112,3752.455563,-15166.530331,2556.480772,5614.065303,8503.408254,-862.397356,-8900.531697,9379.596636,8037.888472,4186.906420,-21144.392627,11389.353739,4077.718148,2552.144534,-1317.165949,0.012000,-0.012250,1.006750,192.000000,0.000000,0.000000,0.000000,0.000000,0.000000,0.000000,0.000000,0.000000,0.000000,1773751118.640891,0.000000
216.000000,-28358.351095,3774.069700,-15141.094046,2578.586647,5632.997231,8520.663800,-839.084487,-8876.212999,9372.265264,8078.658054,4234.627394,-21085.004042,11398.920286,4149.735469,2553.552694,-1331.225196,0.012000,-0.012250,1.006750,192.000000,0.000000,0.000000,0.000000,0.000000,0.000000,0.000000,0.000000,0.000000,0.000000,1773751118.640902,0.000000
218.000000,-28399.254787,3741.391449,-15187.093936,2543.941443,5603.068245,8491.293608,-879.429386,-8914.345075,9376.623854,8057.088620,4209.392275,-21122.510269,11362.889274,4097.924125,2556.681938,-1327.537158,0.012000,-0.012250,1.006750,192.000000,0.000000,0.000000,0.000000,0.000000,0.000000,0.000000,0.000000,0.000000,0.000000,1773751118.640914,0.000000
220.000000,-28343.308371,3788.553630,-15134.924964,2591.282438,5672.760984,8548.826998,-833.295385,-8871.474430,9392.404186,8071.259626,4214.354362,-21108.451022,11430.972687,4145.108657,2556.257255,-1328.721801,0.013000,-0.012125,1.005375,192.000000,0.000000,56.000000,127.500000,80.000000,15.500000,48.000000,0.000000,0.000000,0.000000,1773751118.640926,0.000000
222.000000,-28386.402534,3755.540103,-15170.128962,2562.851019,5643.010812,8537.606423,-869.102880,-8908.623029,9369.895979,8082.077871,4223.764446,-21090.860199,11405.022312,4178.457460,2579.346607,-1316.428341,0.013000,-0.012125,1.005375,192.000000,0.000000,0.000000,0.000000,0.000000,0.000000,0.000000,0.000000,0.000000,0.000000,1773751118.640938,0.000000
224.000000,-28381.976888,3757.082374,-15167.379697,2575.703272,5657.941777,8564.182647,-862.665577,-8907.974828,9395.108747,8055.814571,4188.716911,-21135.630743,11343.823235,4128.858939,2566.784926,-1301.877356,0.013000,-0.012125,1.005375,192.000000,0.000000,0.000000,0.000000,0.000000,0.000000,0.000000,0.000000,0.000000,0.000000,1773751118.640950,0.000000
226.000000,-28361.569746,3773.935589,-15153.856892,2597.317409,5686.596714,8600.459528,-845.164161,-8887.612389,9374.299273,8088.202249,4220.769312,-21085.071097,11468.568321,4161.581893,2572.261104,-1286.991094,0.013000,-0.012125,1.005375,192.000000,0.000000,0.000000,0.000000,0.000000,0.000000,0.000000,0.000000,0.000000,0.000000,1773751118.640962,0.000000
228.000000,-28409.380127,3733.456580,-15200.594390,2551.317519,5648.151713,8579.270074,-891.745197,-8930.974773,9378.836677,8063.257702,4194.751882,-21124.052539,11420.847347,4132.412867,2581.425319,-1269.444975,0.013000,-0.012125,1.005375,192.000000,0.000000,0.000000,0.000000,0.000000,0.000000,0.000000,0.000000,0.000000,0.000000,1773751118.640974,0.000000
230.000000,-28358.529908,3770.091089,-15138.523595,2595.551621,5701.125348,8622.006610,-843.487781,-8887.858258,9388.425575,8062.542446,4199.401045,-21120.856240,11381.776498,4157.133896,2580.330083,-1271.903666,0.015500,-0.014063,1.004687,192.000000,0.000000,72.000000,127.500000,64.000000,15.500000,48.000000,0.000000,0.000000,0.000000,1773751118.640985,0.000000
232.000000,-28407.726098,3727.041629,-15185.395203,2556.547827,5647.570568,8574.218580,-879.876420,-8925.610355,9364.419802,8060.687251,4208.833481,-21109.926237,11435.621850,4192.896687,2583.816956,-1269.109698,0.015500,-0.014063,1.004687,192.000000,0.000000,0.000000,0.000000,0.000000,0.000000,0.000000,0.000000,0.000000,0.000000,1773751118.640997,0.000000
234.000000,-28397.511351,3734.395353,-15169.033726,2562.314577,5642.519074,8561.522789,-868.812307,-8916.177918,9380.870686,8031.965260,4175.305864,-21155.814368,11351.623994,4106.395436,2563.476868,-1272.283646,0.015500,-0.014063,1.004687,192.000000,0.000000,0.000000,0.000000,0.000000,0.000000,0.000000,0.000000,0.000000,0.000000,1773751118.641009,0.000000
236.000000,-28374.198481,3755.785973,-15151.822883,2577.044377,5652.778524,8546.994155,-850.014490,-8897.737729,9369.895979,8062.050708,4216.120150,-21103.041900,11446.395391,4134.066896,2563.722737,-1299.999809,0.015500,-0.014063,1.004687,192.000000,0.000000,0.000000,0.000000,0.000000,0.000000,0.000000,0.000000,0.000000,0.000000,1773751118.641020,0.000000
238.000000,-28418.343177,3719.978478,-15189.574979,2533.749048,5607.180966,8493.931114,-889.510022,-8936.070971,9374.656901,8037.866120,4190.773271,-21141.419845,11397.646236,4105.836642,2565.041490,-1307.554699,0.015500,-0.014063,1.004687,192.000000,0.000000,0.000000,0.000000,0.000000,0.000000,0.000000,0.000000,0.000000,0.000000,1773751118.641032,0.000000
240.000000,-28358.284039,3771.119269,-15130.365208,2587.303828,5657.561798,8533.404295,-834.502379,-8878.805802,9394.102918,8051.567739,4206.754769,-21121.459737,11351.199311,4132.681088,2552.144534,-1318.618812,0.014750,-0.015031,1.005344,192.000000,0.000000,56.000000,127.500000,64.000000,15.500000,56.000000,0.000000,0.000000,0.000000,1773751118.641044,0.000000
