Sample_index,EXG Channel 0,EXG Channel 1,EXG Channel 2,EXG Channel 3,EXG Channel 4,EXG Channel 5,EXG Channel 6,EXG Channel 7,EXG Channel 8,EXG Channel 9,EXG Channel 10,EXG Channel 11,EXG Channel 12,EXG Channel 13,EXG Channel 14,EXG Channel 15,Accel Channel 0,Accel Channel 1,Accel Channel 2,Not Used,Digital Channel 0 (D11),Digital Channel 1 (D12),Digital Channel 2 (D13),Digital Channel 3 (D17),Not Used,Digital Channel 4 (D18),Analog Channel 0,Analog Channel 1,Analog Channel 2,Timestamp,Marker Channel
90.000000,-27917.172362,2864.577218,-15575.008461,4213.527347,6305.024779,8525.603536,1652.151543,-10339.022915,11601.382387,9736.799864,2328.962365,-20390.937673,12160.198350,5173.735937,2296.865260,-1298.636353,0.020000,-0.012000,1.004000,192.000000,0.000000,0.000000,0.000000,0.000000,0.000000,0.000000,0.000000,0.000000,0.000000,1773750275.293696,101.000000
92.000000,-27953.404540,2836.615185,-15610.860659,4182.771347,6278.627369,8511.052550,1621.552005,-10373.332843,11611.820652,9724.461701,2301.872051,-20420.844307,12161.070068,5167.030414,2291.903173,-1282.811318,0.020000,-0.012000,1.004000,192.000000,0.000000,0.000000,0.000000,0.000000,0.000000,0.000000,0.000000,0.000000,0.000000,1773750275.293754,0.000000
94.000000,-27922.223857,2857.715232,-15582.742164,4209.325219,6313.674905,8531.482045,1649.983424,-10345.616680,11615.039303,9726.853338,2297.468757,-20418.251505,12138.763027,5143.851655,2287.365769,-1289.650952,0.020000,-0.016000,0.998000,192.000000,0.000000,80.000000,127.500000,64.000000,15.500000,24.000000,0.000000,0.000000,0.000000,1773750275.293794,0.000000
96.000000,-27947.727197,2839.431505,-15602.255237,4185.140632,6290.384387,8518.808606,1626.491741,-10369.331881,11582.092831,9722.830024,2307.348228,-20409.422566,12139.947669,5165.398737,2305.627144,-1290.969705,0.020000,-0.016000,0.998000,192.000000,0.000000,0.000000,0.000000,0.000000,0.000000,0.000000,0.000000,0.000000,0.000000,1773750275.293842,0.000000
98.000000,-27939.837031,2843.611281,-15595.840287,4191.309713,6301.806128,8539.327507,1631.967918,-10364.392145,11618.637934,9716.213908,2290.204440,-20437.339894,12112.902059,5158.134420,2294.540679,-1273.602399,0.020000,-0.016000,0.998000,192.000000,0.000000,0.000000,0.000000,0.000000,0.000000,0.000000,0.000000,0.000000,0.000000,1773750275.293887,0.000000
100.000000,-27931.745700,2850.339156,-15584.284435,4206.061865,6340.541701,8561.545141,1643.300252,-10354.266805,11584.797392,9723.522928,2307.080007,-20405.868638,12149.067181,5172.171315,2311.438598,-1284.085367,0.020000,-0.016000,0.998000,192.000000,0.000000,0.000000,0.000000,0.000000,0.000000,0.000000,0.000000,0.000000,0.000000,1773750275.293927,0.000000
102.000000,-27961.160596,2830.714325,-15610.927714,4183.531306,6321.922698,8557.767696,1615.561737,-10382.206486,11600.264800,9719.253745,2285.868202,-20429.337970,12130.291716,5148.433763,2316.691258,-1262.203009,0.020000,-0.016000,0.998000,192.000000,0.000000,0.000000,0.000000,0.000000,0.000000,0.000000,0.000000,0.000000,0.000000,1773750275.293966,0.000000
104.000000,-27914.713671,2869.047567,-15572.683879,4219.361153,6364.770992,8584.343920,1649.446982,-10342.979174,11614.704027,9731.122521,2290.807937,-20417.223324,12109.169317,5185.448251,2316.646554,-1263.655873,0.014000,-0.010000,1.000000,192.000000,0.000000,56.000000,127.500000,88.000000,15.500000,32.000000,0.000000,0.000000,0.000000,1773750275.293976,0.000000
106.000000,-27932.393900,2860.017462,-15591.548752,4201.971495,6330.192844,8560.271091,1629.844502,-10359.184189,11594.319236,9742.991298,2310.522176,-20396.190333,12129.732922,5205.028380,2327.084819,-1271.300169,0.014000,-0.010000,1.000000,192.000000,0.000000,0.000000,0.000000,0.000000,0.000000,0.000000,0.000000,0.000000,0.000000,1773750275.293987,0.000000
108.000000,-27920.882752,2864.554866,-15579.478810,4205.860699,6330.192844,8549.050516,1640.305119,-10346.175473,11641.861396,9738.990335,2302.699066,-20417.536249,12152.710516,5186.364673,2309.471644,-1266.539248,0.014000,-0.010000,1.000000,192.000000,0.000000,0.000000,0.000000,0.000000,0.000000,0.000000,0.000000,0.000000,0.000000,1773750275.293998,0.000000
110.000000,-27911.942054,2867.974683,-15573.622653,4216.053094,6325.566033,8538.276975,1653.939683,-10333.904366,11606.947971,9741.560786,2326.213101,-20387.182580,12293.459450,5185.694121,2311.751522,-1294.948315,0.014000,-0.010000,1.000000,192.000000,0.000000,0.000000,0.000000,0.000000,0.000000,0.000000,0.000000,0.000000,0.000000,1773750275.294008,0.000000
112.000000,-27941.334598,2848.774534,-15591.995787,4188.694559,6283.343587,8518.585088,1630.895034,-10359.653575,11616.447463,9730.854300,2309.695162,-20411.188353,12067.729183,5150.512475,2295.591211,-1283.392463,0.014000,-0.010000,1.000000,192.000000,0.000000,0.000000,0.000000,0.000000,0.000000,0.000000,0.000000,0.000000,0.000000,1773750275.294019,0.000000
114.000000,-27912.143220,2866.879447,-15570.292243,4213.795568,6308.869279,8529.179815,1660.801668,-10333.904366,11621.521309,9734.296469,2313.204385,-20407.969702,12090.058576,5154.513437,2283.901248,-1296.736455,0.016000,-0.012000,1.004000,192.000000,0.000000,64.000000,127.500000,80.000000,15.500000,48.000000,0.000000,0.000000,0.000000,1773750275.294030,0.000000
116.000000,-27941.379302,2845.220607,-15605.853868,4189.119242,6282.471869,8518.674495,1634.895996,-10361.575825,11580.662320,9726.495710,2315.260746,-20404.885162,12146.519082,5182.900153,2292.260801,-1292.981362,0.016000,-0.012000,1.004000,192.000000,0.000000,0.000000,0.000000,0.000000,0.000000,0.000000,0.000000,0.000000,0.000000,1773750275.294049,0.000000
118.000000,-27942.586296,2841.644328,-15604.244543,4192.650818,6298.162794,8529.582146,1634.091334,-10363.185151,11614.748730,9714.023437,2284.594153,-20439.575069,12149.581271,5146.153885,2287.790452,-1275.547001,0.016000,-0.012000,1.004000,192.000000,0.000000,0.000000,0.000000,0.000000,0.000000,0.000000,0.000000,0.000000,0.000000,1773750275.294066,0.000000
120.000000,-27928.325883,2851.233226,-15587.167810,4204.005504,6319.262841,8545.250719,1644.708412,-10350.467008,11576.706061,9724.484053,2301.000333,-20407.902647,12143.613356,5164.795240,2304.196632,-1293.316638,0.016000,-0.012000,1.004000,192.000000,0.000000,0.000000,0.000000,0.000000,0.000000,0.000000,0.000000,0.000000,0.000000,1773750275.294080,0.000000
122.000000,-27952.130491,2835.274081,-15607.150269,4178.412757,6308.332838,8547.172969,1618.780389,-10372.304663,11600.845945,9718.449082,2293.154871,-20428.063921,12097.144079,5169.891437,2303.503728,-1274.675283,0.016000,-0.012000,1.004000,192.000000,0.000000,0.000000,0.000000,0.000000,0.000000,0.000000,0.000000,0.000000,0.000000,1773750275.294095,0.000000
124.000000,-27918.021729,2858.609302,-15571.365127,4207.358266,6352.097553,8562.796839,1648.709375,-10341.839235,11614.704027,9724.662867,2302.274382,-20419.100871,12147.256690,5171.433708,2311.662115,-1278.452728,0.015000,-0.013000,1.001000,192.000000,0.000000,56.000000,127.500000,72.000000,15.500000,24.000000,0.000000,0.000000,0.000000,1773750275.294108,0.000000
126.000000,-27943.726235,2842.270177,-15594.677996,4186.191164,6331.064562,8557.946510,1627.050534,-10366.113230,11582.785735,9723.053542,2311.170377,-20410.696615,12179.532609,5169.712623,2325.877825,-1279.212687,0.015000,-0.013000,1.001000,192.000000,0.000000,0.000000,0.000000,0.000000,0.000000,0.000000,0.000000,0.000000,0.000000,1773750275.294119,0.000000
128.000000,-27930.695168,2853.088421,-15582.742164,4197.858774,6347.202521,8572.497496,1639.299290,-10354.959709,11626.930431,9723.880556,2292.685484,-20433.048360,12150.520045,5155.720431,2317.697086,-1256.659777,0.015000,-0.013000,1.001000,192.000000,0.000000,0.000000,0.000000,0.000000,0.000000,0.000000,0.000000,0.000000,0.000000,1773750275.294129,0.000000
130.000000,-27910.735060,2868.868753,-15564.145513,4214.287307,6361.239417,8579.650054,1652.933854,-10338.017087,11604.556335,9743.907719,2322.323897,-20393.776345,12117.551222,5203.910792,2326.078990,-1278.586838,0.015000,-0.013000,1.001000,192.000000,0.000000,0.000000,0.000000,0.000000,0.000000,0.000000,0.000000,0.000000,0.000000,1773750275.294140,0.000000
132.000000,-27935.232572,2850.942654,-15596.399080,4190.840327,6331.735114,8557.901807,1626.581148,-10362.604006,11630.685524,9741.381972,2313.807883,-20411.523630,12132.839815,5185.314141,2317.674734,-1263.052376,0.015000,-0.013000,1.001000,192.000000,0.000000,0.000000,0.000000,0.000000,0.000000,0.000000,0.000000,0.000000,0.000000,1773750275.294150,0.000000
134.000000,-27907.047022,2868.421718,-15569.800504,4221.372810,6347.895425,8560.852237,1656.688947,-10333.569090,11635.602908,9740.174978,2314.053752,-20409.355510,12164.691051,5167.231580,2308.219946,-1278.475079,0.015500,-0.013500,1.003500,192.000000,0.000000,64.000000,127.500000,72.000000,15.500000,56.000000,0.000000,0.000000,0.000000,1773750275.294161,0.000000
136.000000,-27928.996435,2852.976662,-15594.700348,4195.176565,6317.541756,8532.867853,1632.951395,-10353.395087,11601.762367,9733.737675,2322.659173,-20399.878371,12211.652066,5170.383176,2311.393894,-1290.701484,0.015500,-0.013500,1.003500,192.000000,0.000000,0.000000,0.000000,0.000000,0.000000,0.000000,0.000000,0.000000,0.000000,1773750275.294174,0.000000
138.000000,-27929.219953,2853.222531,-15587.860714,4194.103681,6308.176375,8529.224518,1637.533502,-10351.450485,11642.420190,9724.327591,2303.816653,-20426.901630,12119.786396,5162.157734,2292.864298,-1279.324446,0.015500,-0.013500,1.003500,192.000000,0.000000,0.000000,0.000000,0.000000,0.000000,0.000000,0.000000,0.000000,0.000000,1773750275.294185,0.000000
140.000000,-27922.380319,2858.721061,-15576.662490,4200.809205,6313.943125,8527.950469,1648.843485,-10344.364982,11594.073366,9729.379085,2316.087760,-20401.264179,12153.805751,5203.486109,2301.514423,-1305.230117,0.015500,-0.013500,1.003500,192.000000,0.000000,0.000000,0.000000,0.000000,0.000000,0.000000,0.000000,0.000000,0.000000,1773750275.294199,0.000000
142.000000,-27954.499776,2836.369316,-15613.185240,4176.132879,6295.011198,8511.924268,1622.244909,-10372.885808,11604.466928,9716.817405,2297.334647,-20428.801528,12128.347114,5135.872082,2296.127653,-1291.684960,0.015500,-0.013500,1.003500,192.000000,0.000000,0.000000,0.000000,0.000000,0.000000,0.000000,0.000000,0.000000,0.000000,1773750275.294212,0.000000
144.000000,-27925.286046,2854.004843,-15579.814086,4206.263030,6336.473684,8542.724972,1652.509171,-10345.884901,11617.632105,9718.627896,2300.218022,-20424.420586,12186.506353,5169.511458,2297.871089,-1291.304981,0.012750,-0.013750,1.003750,192.000000,0.000000,40.000000,127.500000,72.000000,15.500000,48.000000,0.000000,0.000000,0.000000,1773750275.294223,0.000000
146.000000,-27958.210165,2832.122485,-15606.725586,4185.632370,6310.344495,8535.818283,1626.357630,-10371.947035,11578.896532,9717.465605,2304.442502,-20415.837516,12126.201347,5152.948815,2309.896327,-1289.673303,0.012750,-0.013750,1.003750,192.000000,0.000000,0.000000,0.000000,0.000000,0.000000,0.000000,0.000000,0.000000,0.000000,1773750275.294233,0.000000
148.000000,-27950.297648,2837.665717,-15605.742110,4193.723702,6333.702068,8555.085487,1629.598633,-10367.946073,11615.106358,9714.001085,2281.621371,-20443.218403,12160.243053,5153.485257,2304.174281,-1265.444012,0.012750,-0.013750,1.003750,192.000000,0.000000,0.000000,0.000000,0.000000,0.000000,0.000000,0.000000,0.000000,0.000000,1773750275.294250,0.000000
150.000000,-27935.321979,2850.048584,-15583.189199,4212.812091,6352.231664,8568.138906,1642.361479,-10353.126866,11583.523343,9724.998143,2303.347266,-20410.562505,12132.236318,5182.296655,2320.647516,-1276.083443,0.012750,-0.013750,1.003750,192.000000,0.000000,0.000000,0.000000,0.000000,0.000000,0.000000,0.000000,0.000000,0.000000,1773750275.294266,0.000000
152.000000,-27958.992476,2834.692935,-15605.652703,4189.856850,6339.178245,8563.042708,1617.752208,-10375.858590,11604.444576,9724.864033,2293.221926,-20425.739339,12132.593946,5164.839943,2318.680563,-1257.956178,0.012750,-0.013750,1.003750,192.000000,0.000000,0.000000,0.000000,0.000000,0.000000,0.000000,0.000000,0.000000,0.000000,1773750275.294280,0.000000
154.000000,-27925.889543,2856.575293,-15573.376784,4220.434036,6377.802059,8582.332263,1650.810438,-10344.275575,11617.967381,9726.808635,2298.496938,-20421.201935,12157.940824,5190.566801,2322.145083,-1262.471230,0.011375,-0.014875,1.002875,192.000000,0.000000,40.000000,127.500000,64.000000,15.500000,40.000000,0.000000,0.000000,0.000000,1773750275.294295,0.000000
156.000000,-27946.453148,2844.594758,-15592.755746,4198.730492,6339.826446,8552.269167,1632.973746,-10359.452410,11586.831401,9732.240109,2312.578537,-20405.175734,12194.687092,5180.083833,2323.441484,-1270.517858,0.011375,-0.014875,1.002875,192.000000,0.000000,0.000000,0.000000,0.000000,0.000000,0.000000,0.000000,0.000000,0.000000,1773750275.294311,0.000000
158.000000,-27937.959485,2847.209912,-15585.290263,4198.082292,6316.200652,8542.680269,1639.455752,-10351.182264,11629.813806,9723.679390,2301.380313,-20431.394330,12105.078948,5163.744708,2298.407531,-1268.930884,0.011375,-0.014875,1.002875,192.000000,0.000000,0.000000,0.000000,0.000000,0.000000,0.000000,0.000000,0.000000,0.000000,1773750275.294327,0.000000
160.000000,-27925.308397,2855.256540,-15575.053164,4208.453501,6313.451387,8526.609364,1652.866799,-10338.084142,11595.772099,9729.110864,2324.559072,-20399.230170,12150.944728,5179.078004,2298.698103,-1299.776292,0.011375,-0.014875,1.002875,192.000000,0.000000,0.000000,0.000000,0.000000,0.000000,0.000000,0.000000,0.000000,0.000000,1773750275.294340,0.000000
162.000000,-27956.489081,2832.837741,-15609.407796,4181.296132,6283.164773,8505.889297,1624.860063,-10367.566093,11605.785681,9717.376198,2308.152891,-20423.481813,12116.880669,5150.333661,2289.891516,-1290.477966,0.011375,-0.014875,1.002875,192.000000,0.000000,0.000000,0.000000,0.000000,0.000000,0.000000,0.000000,0.000000,0.000000,1773750275.294351,0.000000
164.000000,-27926.180115,2856.217665,-15581.803391,4209.995772,6317.206480,8529.917423,1654.051441,-10340.207558,11611.552431,9724.528757,2308.666981,-20414.786984,12133.085684,5156.927425,2287.343417,-1293.584859,0.006687,-0.014438,1.004437,192.000000,0.000000,8.000000,127.500000,72.000000,15.500000,56.000000,0.000000,0.000000,0.000000,1773750275.294361,0.000000
166.000000,-27955.617363,2835.698764,-15610.972418,4183.933638,6297.738111,8519.680324,1629.620985,-10367.029651,11577.443669,9721.287754,2310.879804,-20406.650949,12194.530629,5174.182972,2297.513461,-1296.043550,0.006687,-0.014438,1.004437,192.000000,0.000000,0.000000,0.000000,0.000000,0.000000,0.000000,0.000000,0.000000,0.000000,1773750275.294372,0.000000
168.000000,-27951.124662,2836.637537,-15599.930656,4185.386501,6297.671056,8527.548138,1631.140903,-10364.436849,11614.055826,9710.111882,2289.891516,-20439.776235,12091.802012,5135.805027,2287.186955,-1278.810356,0.006687,-0.014438,1.004437,192.000000,0.000000,0.000000,0.000000,0.000000,0.000000,0.000000,0.000000,0.000000,0.000000,1773750275.294416,0.000000
170.000000,-27936.484270,2846.069973,-15584.038566,4199.937487,6314.367809,8540.042763,1643.456715,-10352.098686,11579.969416,9716.146853,2312.466778,-20410.942484,12090.863239,5158.000309,2297.312295,-1295.082425,0.006687,-0.014438,1.004437,192.000000,0.000000,0.000000,0.000000,0.000000,0.000000,0.000000,0.000000,0.000000,0.000000,1773750275.294427,0.000000
172.000000,-27966.502662,2825.931051,-15619.980171,4176.557562,6305.516518,8539.662783,1614.734723,-10383.167611,11595.839154,9710.402454,2296.529984,-20434.076540,12172.245940,5175.501725,2305.381275,-1272.440108,0.006687,-0.014438,1.004437,192.000000,0.000000,0.000000,0.000000,0.000000,0.000000,0.000000,0.000000,0.000000,0.000000,1773750275.294437,0.000000
174.000000,-27932.930342,2847.612244,-15582.071612,4206.732417,6348.633033,8573.235103,1642.674404,-10356.211407,11607.842041,9719.723132,2296.529984,-20430.276743,12180.538437,5156.972129,2312.712647,-1270.271989,0.009344,-0.014219,1.009219,192.000000,0.000000,48.000000,127.500000,72.000000,15.500000,88.000000,0.000000,0.000000,0.000000,1773750275.294448,0.000000
176.000000,-27952.130491,2837.241034,-15599.103641,4189.208649,6344.207387,8563.445039,1622.110799,-10375.500962,11581.891666,9719.253745,2309.583403,-20417.379787,12124.614373,5190.052711,2328.247109,-1265.935751,0.009344,-0.014219,1.009219,192.000000,0.000000,0.000000,0.000000,0.000000,0.000000,0.000000,0.000000,0.000000,0.000000,1773750275.294458,0.000000
178.000000,-27942.586296,2843.387764,-15587.950121,4195.198917,6354.466838,8559.131153,1628.659860,-10366.806134,11627.176300,9719.432559,2295.881783,-20439.798586,12092.897247,5141.527074,2316.646554,-1250.311881,0.009344,-0.014219,1.009219,192.000000,0.000000,0.000000,0.000000,0.000000,0.000000,0.000000,0.000000,0.000000,0.000000,1773750275.294468,0.000000
180.000000,-27927.700034,2856.932921,-15577.914188,4208.900536,6357.529027,8555.756039,1644.350784,-10349.930567,11598.454308,9730.362562,2320.669868,-20406.762708,12178.437373,5191.170298,2320.468702,-1278.944466,0.009344,-0.014219,1.009219,192.000000,0.000000,0.000000,0.000000,0.000000,0.000000,0.000000,0.000000,0.000000,0.000000,1773750275.294479,0.000000
182.000000,-27959.305401,2835.899930,-15607.418490,4185.364149,6318.480530,8529.135111,1618.646278,-10376.707956,11611.932410,9724.640515,2305.962420,-20427.013389,12172.245940,5148.813742,2310.857452,-1267.075690,0.009344,-0.014219,1.009219,192.000000,0.000000,0.000000,0.000000,0.000000,0.000000,0.000000,0.000000,0.000000,0.000000,1773750275.294489,0.000000
184.000000,-27921.016863,2861.805601,-15570.359298,4216.567185,6331.355134,8543.641394,1652.643282,-10340.811055,11625.634030,9730.675486,2309.605755,-20420.732548,12145.200329,5183.861278,2299.458063,-1279.592667,0.010672,-0.017109,1.008609,192.000000,0.000000,48.000000,127.500000,48.000000,15.500000,64.000000,0.000000,0.000000,0.000000,1773750275.294499,0.000000
186.000000,-27943.882697,2847.433430,-15598.075461,4196.383559,6308.534003,8529.537443,1632.012621,-10360.927625,11595.101547,9738.833873,2324.916700,-20402.560580,12152.308184,5169.086774,2306.811787,-1290.366207,0.010672,-0.017109,1.008609,192.000000,0.000000,0.000000,0.000000,0.000000,0.000000,0.000000,0.000000,0.000000,0.000000,1773750275.294510,0.000000
188.000000,-27939.635866,2846.226435,-15601.584685,4199.646914,6306.187070,8533.069018,1635.432438,-10359.273596,11632.920698,9730.653135,2305.269516,-20429.896764,12160.332460,5168.997368,2289.489185,-1276.888105,0.010672,-0.017109,1.008609,192.000000,0.000000,0.000000,0.000000,0.000000,0.000000,0.000000,0.000000,0.000000,0.000000,1773750275.294520,0.000000
190.000000,-27934.405557,2849.825066,-15591.749917,4209.436978,6316.379466,8529.962126,1646.161276,-10352.322203,11588.261913,9727.501539,2320.669868,-20406.092156,12162.835856,5180.396757,2293.736016,-1297.183489,0.010672,-0.017109,1.008609,192.000000,0.000000,0.000000,0.000000,0.000000,0.000000,0.000000,0.000000,0.000000,0.000000,1773750275.294530,0.000000
192.000000,-27964.602764,2829.082647,-15620.404854,4178.122184,6278.537962,8515.746417,1617.148711,-10380.932436,11595.772099,9717.264440,2302.810824,-20431.282572,12077.698061,5143.829303,2293.646609,-1280.978475,0.010672,-0.017109,1.008609,192.000000,0.000000,0.000000,0.000000,0.000000,0.000000,0.000000,0.000000,0.000000,0.000000,1773750275.294540,0.000000
194.000000,-27934.517316,2850.585026,-15585.312615,4203.960801,6313.518442,8542.367344,1644.998985,-10354.982061,11606.389178,9720.147815,2301.961458,-20428.354493,12084.895323,5159.676690,2292.596077,-1282.431338,0.010672,-0.017109,1.008609,192.000000,0.000000,0.000000,0.000000,0.000000,0.000000,0.000000,0.000000,0.000000,0.000000,1773750275.294551,0.000000
196.000000,-27962.456997,2834.424714,-15613.274647,4184.984170,6311.819710,8545.742458,1622.937813,-10378.607855,11573.040375,9721.667733,2308.622278,-20417.335083,12156.264443,5165.622254,2310.142196,-1282.833670,0.010000,-0.016000,1.006000,192.000000,0.000000,40.000000,127.500000,64.000000,15.500000,56.000000,0.000000,0.000000,0.000000,1773750275.294561,0.000000
198.000000,-27958.791311,2837.196331,-15604.222191,4192.695521,6316.535928,8562.014528,1624.860063,-10376.372680,11610.054864,9716.415073,2283.051882,-20445.319467,12187.422775,5146.243292,2307.214118,-1253.754050,0.010000,-0.016000,1.006000,192.000000,0.000000,0.000000,0.000000,0.000000,0.000000,0.000000,0.000000,0.000000,0.000000,1773750275.294571,0.000000
200.000000,-27937.378339,2855.703575,-15580.194066,4209.772254,6342.553358,8566.328414,1642.070906,-10353.596253,11579.343567,9728.842643,2308.421112,-20410.361339,12103.939009,5188.488089,2317.004182,-1268.707367,0.010000,-0.016000,1.006000,192.000000,0.000000,0.000000,0.000000,0.000000,0.000000,0.000000,0.000000,0.000000,0.000000,1773750275.294581,0.000000
202.000000,-27956.936116,2846.204084,-15607.530249,4187.353455,6321.788588,8547.530597,1620.702639,-10372.662291,11603.148175,9729.848472,2304.308391,-20424.644104,12130.023495,5171.456059,2313.562013,-1260.727794,0.010000,-0.016000,1.006000,192.000000,0.000000,0.000000,0.000000,0.000000,0.000000,0.000000,0.000000,0.000000,0.000000,1773750275.294592,0.000000
204.000000,-27919.072261,2872.802660,-15573.801467,4217.215385,6346.442562,8553.811437,1656.621892,-10339.447598,11620.448425,9741.337269,2313.316144,-20412.529458,12161.718269,5178.653321,2306.208289,-1274.071786,0.010000,-0.016000,1.006000,192.000000,0.000000,0.000000,0.000000,0.000000,0.000000,0.000000,0.000000,0.000000,0.000000,1773750275.294602,0.000000
206.000000,-27944.754415,2855.413002,-15599.617732,4197.456443,6318.458178,8525.648239,1637.622909,-10358.066602,11588.798355,9741.001992,2324.447313,-20397.285568,12176.760993,5167.365690,2309.784569,-1291.528498,0.006000,-0.016000,1.004000,192.000000,0.000000,24.000000,127.500000,64.000000,15.500000,48.000000,0.000000,0.000000,0.000000,1773750275.294612,0.000000
208.000000,-27941.558116,2854.988319,-15588.084231,4198.350513,6315.172471,8521.110835,1643.568473,-10352.903349,11623.488262,9731.055466,2306.141234,-20423.213592,12130.582289,5155.742783,2291.679656,-1282.654856,0.006000,-0.016000,1.004000,192.000000,0.000000,0.000000,0.000000,0.000000,0.000000,0.000000,0.000000,0.000000,0.000000,1773750275.294622,0.000000
210.000000,-27929.868153,2862.319691,-15580.574045,4205.123091,6327.018896,8524.396542,1655.750174,-10339.022915,11588.999520,9730.317858,2329.990546,-20397.173810,12165.830990,5192.220830,2301.290906,-1307.241774,0.006000,-0.016000,1.004000,192.000000,0.000000,0.000000,0.000000,0.000000,0.000000,0.000000,0.000000,0.000000,0.000000,1773750275.775020,0.000000
212.000000,-27959.037180,2844.035964,-15611.151232,4179.038606,6295.122957,8514.561774,1628.905729,-10365.330918,11599.437785,9719.700780,2309.114016,-20420.866659,12136.036114,5146.824437,2292.819594,-1289.896821,0.006000,-0.016000,1.004000,192.000000,0.000000,0.000000,0.000000,0.000000,0.000000,0.000000,0.000000,0.000000,0.000000,1773750275.775072,0.000000
214.000000,-27919.407537,2873.562619,-15575.611958,4209.705199,6322.570899,8540.601556,1657.627721,-10332.853834,11616.715684,9729.289678,2315.685429,-20411.188353,12124.122634,5141.415315,2289.310371,-1293.830728,0.006000,-0.016000,1.004000,192.000000,0.000000,0.000000,0.000000,0.000000,0.000000,0.000000,0.000000,0.000000,0.000000,1773750275.775118,0.000000
216.000000,-27953.359837,2852.686090,-15608.804298,4184.581838,6298.833346,8530.297402,1630.738572,-10361.978157,11579.969416,9731.010763,2319.306412,-20398.716080,12174.704632,5187.929295,2299.636877,-1296.155309,0.010000,-0.016000,1.002000,192.000000,0.000000,40.000000,127.500000,64.000000,15.500000,40.000000,0.000000,0.000000,0.000000,1773750275.775162,0.000000
218.000000,-27951.348180,2853.982491,-15602.858734,4188.292228,6306.589402,8539.908652,1634.806589,-10359.072430,11607.819689,9722.382989,2291.590249,-20431.819014,12108.275248,5179.748557,2297.155833,-1274.809393,0.010000,-0.016000,1.002000,192.000000,0.000000,0.000000,0.000000,0.000000,0.000000,0.000000,0.000000,0.000000,0.000000,1773750275.775207,0.000000
220.000000,-27937.624209,2864.241941,-15588.710080,4203.804338,6337.457161,8554.929025,1646.653014,-10345.728439,11575.432012,9733.424751,2314.344324,-20399.029004,12130.626992,5152.926463,2316.154816,-1289.963876,0.010000,-0.016000,1.002000,192.000000,0.000000,0.000000,0.000000,0.000000,0.000000,0.000000,0.000000,0.000000,0.000000,1773750275.775245,0.000000
222.000000,-27965.094503,2840.392630,-15613.676979,4178.658626,6312.266745,8541.853254,1618.735685,-10372.975215,11593.872201,9722.025361,2300.218022,-20423.437109,12150.050658,5159.117896,2319.217005,-1266.114565,0.010000,-0.016000,1.002000,192.000000,0.000000,0.000000,0.000000,0.000000,0.000000,0.000000,0.000000,0.000000,0.000000,1773750275.775258,0.000000
224.000000,-27922.447374,2870.791003,-15569.621690,4210.129882,6342.665117,8555.286652,1652.464468,-10336.944203,11608.154965,9726.339248,2306.990600,-20418.922057,12105.011893,5160.235484,2308.532871,-1273.870620,0.010000,-0.016000,1.002000,192.000000,0.000000,0.000000,0.000000,0.000000,0.000000,0.000000,0.000000,0.000000,0.000000,1773750275.775270,0.000000
226.000000,-27933.399729,2868.019386,-15592.599284,4192.136728,6336.451332,8545.362478,1633.532540,-10349.908215,11593.492221,9737.336306,2329.185883,-20397.844362,12193.614208,5188.286923,2318.546452,-1284.867678,0.018000,-0.022000,1.000000,192.000000,0.000000,72.000000,127.500000,40.000000,15.500000,32.000000,0.000000,0.000000,0.000000,1773750275.775293,0.000000
228.000000,-27916.121830,2884.090291,-15580.708156,4202.284420,6350.488228,8545.585995,1643.255549,-10336.452465,11646.734076,9749.674469,2318.635859,-20412.507106,12159.773667,5174.518248,2306.856490,-1269.243809,0.018000,-0.022000,1.000000,192.000000,0.000000,0.000000,0.000000,0.000000,0.000000,0.000000,0.000000,0.000000,0.000000,1773750275.775305,0.000000
230.000000,-27908.075202,2890.594648,-15570.739278,4212.946202,6347.761315,8539.886301,1656.599540,-10324.337819,11611.217154,9757.609338,2342.284005,-20379.873559,12199.470365,5195.998275,2314.053752,-1297.362303,0.018000,-0.022000,1.000000,192.000000,0.000000,0.000000,0.000000,0.000000,0.000000,0.000000,0.000000,0.000000,0.000000,1773750275.775316,0.000000
232.000000,-27938.518278,2870.232209,-15599.617732,4188.158117,6308.265782,8516.953411,1631.856159,-10348.947090,11622.862413,9747.036963,2326.034287,-20403.477002,12213.440205,5182.564876,2306.051827,-1284.532402,0.018000,-0.022000,1.000000,192.000000,0.000000,0.000000,0.000000,0.000000,0.000000,0.000000,0.000000,0.000000,0.000000,1773750275.775328,0.000000
234.000000,-27906.979967,2888.247715,-15564.726658,4215.717818,6330.326954,8529.872719,1662.209828,-10319.666305,11632.451312,9751.306147,2331.868092,-20397.017347,12098.060500,5165.376385,2296.440577,-1297.831690,0.018000,-0.022000,1.000000,192.000000,0.000000,0.000000,0.000000,0.000000,0.000000,0.000000,0.000000,0.000000,0.000000,1773750275.775338,0.000000
236.000000,-27939.054720,2865.672453,-15602.299941,4189.454518,6304.577745,8515.612306,1636.013584,-10348.075372,11596.085023,9745.427638,2335.310261,-20391.027080,12196.117603,5193.561935,2303.883708,-1301.899708,0.012000,-0.020000,1.004000,192.000000,0.000000,48.000000,127.500000,48.000000,15.500000,48.000000,0.000000,0.000000,0.000000,1773750275.775349,0.000000
238.000000,-27939.993494,2863.996072,-15596.175563,4190.572106,6307.639934,8530.319754,1636.237101,-10350.757581,11629.299716,9730.988411,2306.610621,-20426.141670,12129.509405,5155.496914,2292.484318,-1282.498393,0.012000,-0.020000,1.004000,192.000000,0.000000,0.000000,0.000000,0.000000,0.000000,0.000000,0.000000,0.000000,0.000000,1773750275.775360,0.000000
240.000000,-27936.730139,2869.159325,-15586.050223,4207.268859,6327.398876,8543.842559,1646.094220,-10343.068581,11588.753651,9739.057391,2321.183958,-20397.062051,12129.777626,5179.703853,2309.449292,-1294.993019,0.012000,-0.020000,1.004000,192.000000,0.000000,0.000000,0.000000,0.000000,0.000000,0.000000,0.000000,0.000000,0.000000,1773750275.775371,0.000000
242.000000,-27967.150863,2848.193389,-15618.080272,4178.993902,6307.237602,8541.585033,1616.589918,-10372.662291,11595.436823,9730.362562,2300.508595,-20421.939543,12102.284980,5174.965283,2313.182034,-1269.087347,0.012000,-0.020000,1.004000,192.000000,0.000000,0.000000,0.000000,0.000000,0.000000,0.000000,0.000000,0.000000,0.000000,1773750275.775382,0.000000
244.000000,-27924.034348,2877.027139,-15581.132839,4209.772254,6345.682603,8567.267188,1648.664671,-10336.363058,11610.770120,9737.492768,2304.241336,-20415.301074,12145.714420,5165.711661,2310.723342,-1272.976550,0.012000,-0.020000,1.004000,192.000000,0.000000,0.000000,0.000000,0.000000,0.000000,0.000000,0.000000,0.000000,0.000000,1773750275.775393,0.000000
246.000000,-27947.078997,2859.995110,-15604.669226,4184.894763,6325.811902,8547.955280,1628.503398,-10358.379526,11586.049090,9739.549129,2317.853548,-20401.912379,12198.911571,5172.953626,2317.674734,-1279.570315,0.012000,-0.018000,1.006000,192.000000,0.000000,48.000000,127.500000,56.000000,15.500000,56.000000,0.000000,0.000000,0.000000,1773750275.775404,0.000000
248.000000,-27932.036273,2871.349796,-15588.754784,4193.522536,6331.533948,8549.162274,1636.661784,-10348.321241,11634.820597,9739.951460,2307.437635,-20425.225249,12120.881631,5163.767059,2301.603830,-1264.169963,0.012000,-0.018000,1.006000,192.000000,0.000000,0.000000,0.000000,0.000000,0.000000,0.000000,0.000000,0.000000,0.000000,1773750275.775416,0.000000
250.000000,-27905.638862,2894.126224,-15573.354432,4211.158062,6342.866283,8552.470333,1656.152505,-10321.677962,11610.412492,9757.452876,2334.974985,-20383.561597,12179.465554,5206.570650,2304.666019,-1289.025103,0.012000,-0.018000,1.006000,192.000000,0.000000,0.000000,0.000000,0.000000,0.000000,0.000000,0.000000,0.000000,0.000000,1773750275.775429,0.000000
252.000000,-27927.834145,2880.804584,-15603.708101,4190.013312,6314.948954,8531.370286,1635.186569,-10340.632241,11636.094646,9757.586987,2327.263633,-20396.816182,12215.518918,5212.136234,2300.150967,-1279.391501,0.012000,-0.018000,1.006000,192.000000,0.000000,0.000000,0.000000,0.000000,0.000000,0.000000,0.000000,0.000000,0.000000,1773750275.775440,0.000000
254.000000,-27895.424115,2903.469253,-15564.190217,4219.741132,6332.696239,8535.237138,1667.440136,-10308.691598,11645.527082,9761.990280,2331.935147,-20387.674318,12177.699766,5198.859298,2296.150004,-1294.702446,0.012000,-0.018000,1.006000,192.000000,0.000000,0.000000,0.000000,0.000000,0.000000,0.000000,0.000000,0.000000,0.000000,1773750275.775452,0.000000
0.000000,-27923.855534,2880.558715,-15587.100755,4195.578896,6297.581649,8510.560812,1645.513075,-10333.636145,11612.781777,9754.994184,2347.648424,-20378.353641,12123.876765,5166.672786,2299.703932,-1304.760731,0.012000,-0.012000,1.002000,192.000000,0.000000,48.000000,127.500000,80.000000,15.500000,40.000000,0.000000,0.000000,0.000000,1773750275.775462,0.000000
2.000000,-27932.304493,2869.360491,-15594.990920,4191.265010,6304.220117,8511.209012,1643.300252,-10341.526311,11637.681620,9735.883443,2319.127598,-20416.061034,12133.644478,5148.791391,2284.772966,-1289.583896,0.012000,-0.012000,1.002000,192.000000,0.000000,0.000000,0.000000,0.000000,0.000000,0.000000,0.000000,0.000000,0.000000,1773750275.775474,0.000000
4.000000,-27923.453203,2874.054357,-15592.375766,4202.150309,6316.826501,8522.183719,1651.905674,-10334.396104,11592.329930,9732.888309,2328.135351,-20396.167981,12258.657784,5201.250935,2301.223850,-1305.878318,0.012000,-0.012000,1.002000,192.000000,0.000000,0.000000,0.000000,0.000000,0.000000,0.000000,0.000000,0.000000,0.000000,1773750275.775486,0.000000
6.000000,-27957.941944,2845.421773,-15616.336836,4172.668358,6286.830459,8517.489853,1620.300307,-10369.376584,11608.736111,9723.321762,2310.455121,-20423.325351,12071.685442,5151.250082,2298.675752,-1284.442995,0.012000,-0.012000,1.002000,192.000000,0.000000,0.000000,0.000000,0.000000,0.000000,0.000000,0.000000,0.000000,0.000000,1773750275.775497,0.000000
8.000000,-27926.962427,2865.918322,-15582.250426,4203.893745,6333.411495,8551.039821,1648.664671,-10341.548662,11616.983904,9723.031190,2307.616449,-20424.420586,12114.041998,5150.110143,2303.459025,-1285.426472,0.012000,-0.012000,1.002000,192.000000,0.000000,0.000000,0.000000,0.000000,0.000000,0.000000,0.000000,0.000000,0.000000,1773750275.775508,0.000000
10.000000,-27952.689284,2845.757049,-15607.574953,4185.408853,6316.871204,8555.353708,1624.122456,-10366.828485,11588.060747,9725.825158,2316.400685,-20412.596513,12125.284925,5176.887533,2320.334592,-1281.403158,0.012000,-0.012000,1.005000,192.000000,0.000000,48.000000,127.500000,80.000000,15.500000,64.000000,0.000000,0.000000,0.000000,1773750275.775520,0.000000
12.000000,-27939.166479,2858.005805,-15605.965627,4192.762577,6334.305565,8572.408089,1628.257528,-10359.765334,11628.383294,9724.551108,2295.322990,-20438.971572,12168.222626,5167.745670,2306.968249,-1258.604379,0.012000,-0.012000,1.005000,192.000000,0.000000,0.000000,0.000000,0.000000,0.000000,0.000000,0.000000,0.000000,0.000000,1773750275.775531,0.000000
14.000000,-27912.858476,2881.698654,-15585.826705,4210.867490,6343.827408,8582.868705,1644.440191,-10338.173549,11604.176355,9744.310051,2323.955575,-20398.827839,12207.986380,5201.183880,2312.064446,-1273.624751,0.012000,-0.012000,1.005000,192.000000,0.000000,0.000000,0.000000,0.000000,0.000000,0.000000,0.000000,0.000000,0.000000,1773750275.775546,0.000000
16.000000,-27932.840935,2871.483907,-15610.011293,4187.755786,6312.512614,8553.297347,1621.127322,-10358.424229,11627.198652,9745.718210,2315.707781,-20413.401176,12138.248937,5182.654283,2305.828310,-1255.139858,0.012000,-0.012000,1.005000,192.000000,0.000000,0.000000,0.000000,0.000000,0.000000,0.000000,0.000000,0.000000,0.000000,1773750275.775558,0.000000
18.000000,-27890.462028,2904.922116,-15572.147438,4221.350458,6337.323050,8563.579150,1657.135982,-10317.855813,11650.153893,9762.034984,2329.297641,-20396.503257,12153.403420,5185.515307,2293.736016,-1267.098041,0.012000,-0.012000,1.005000,192.000000,0.000000,0.000000,0.000000,0.000000,0.000000,0.000000,0.000000,0.000000,0.000000,1773750275.775569,0.000000
20.000000,-27916.747679,2885.453747,-15597.427261,4198.886955,6311.082102,8536.600594,1636.617081,-10338.486473,11617.922678,9764.225455,2341.144066,-20379.471228,12213.194336,5214.259650,2298.787510,-1280.956123,0.012000,-0.015000,1.005500,192.000000,0.000000,48.000000,127.500000,56.000000,15.500000,56.000000,0.000000,0.000000,0.000000,1773750275.775579,0.000000
22.000000,-27916.166534,2883.084462,-15592.040490,4201.010370,6314.703085,8540.109818,1639.791028,-10339.559357,11653.506655,9753.697783,2320.222833,-20411.456574,12100.787413,5206.816519,2288.237487,-1272.127184,0.012000,-0.015000,1.005500,192.000000,0.000000,0.000000,0.000000,0.000000,0.000000,0.000000,0.000000,0.000000,0.000000,1773750275.775590,0.000000
24.000000,-27910.668005,2885.163174,-15581.915150,4214.488472,6319.642820,8536.019449,1650.989252,-10332.563261,11611.820652,9754.413039,2335.064392,-20387.406097,12152.665812,5171.210190,2299.770987,-1298.479891,0.012000,-0.015000,1.005500,192.000000,0.000000,0.000000,0.000000,0.000000,0.000000,0.000000,0.000000,0.000000,0.000000,1773750275.775601,0.000000
26.000000,-27948.509508,2856.172962,-15613.565220,4184.179507,6288.886820,8514.740588,1621.462598,-10367.320224,11620.426073,9738.699763,2316.691258,-20414.876391,12137.556033,5155.742783,2296.082949,-1285.404120,0.012000,-0.015000,1.005500,192.000000,0.000000,0.000000,0.000000,0.000000,0.000000,0.000000,0.000000,0.000000,0.000000,1773750275.775613,0.000000
28.000000,-27924.704900,2871.193334,-15590.654682,4211.158062,6325.878957,8533.069018,1648.798781,-10345.214348,11620.537832,9730.474321,2308.756388,-20419.525554,12158.656080,5174.473545,2293.400740,-1291.684960,0.012000,-0.015000,1.005500,192.000000,0.000000,0.000000,0.000000,0.000000,0.000000,0.000000,0.000000,0.000000,0.000000,1773750275.775624,0.000000
30.000000,-27956.891412,2852.127296,-15616.582706,4189.968609,6317.631163,8529.425684,1625.597671,-10371.455296,11581.198762,9729.200271,2309.873976,-20407.947350,12179.398498,5183.257780,2307.437635,-1288.958048,0.014000,-0.016500,1.001750,192.000000,0.000000,64.000000,127.500000,56.000000,15.500000,24.000000,0.000000,0.000000,0.000000,1773750275.775634,0.000000
32.000000,-27949.962372,2855.345947,-15604.490412,4192.024969,6322.213271,8548.916405,1628.078714,-10369.354232,11619.934335,9727.054504,2287.075196,-20435.819976,12126.938954,5160.146077,2301.447368,-1266.740414,0.014000,-0.016500,1.001750,192.000000,0.000000,0.000000,0.000000,0.000000,0.000000,0.000000,0.000000,0.000000,0.000000,1773750275.775645,0.000000
34.000000,-27935.053758,2865.873619,-15588.263045,4205.011333,6347.426039,8569.189438,1639.634566,-10355.920834,11592.307579,9732.843606,2312.422074,-20406.919170,12146.675545,5183.548353,2323.396781,-1282.498393,0.014000,-0.016500,1.001750,192.000000,0.000000,0.000000,0.000000,0.000000,0.000000,0.000000,0.000000,0.000000,0.000000,1773750275.775657,0.000000
36.000000,-27956.131453,2846.226435,-15613.788738,4178.189239,6335.870187,8571.089336,1614.153578,-10380.552456,11611.999465,9719.857242,2299.905097,-20432.735435,12125.821367,5163.007100,2325.587252,-1260.504277,0.014000,-0.016500,1.001750,192.000000,0.000000,0.000000,0.000000,0.000000,0.000000,0.000000,0.000000,0.000000,0.000000,1773750275.775667,0.000000
38.000000,-27912.322034,2881.139860,-15581.065784,4212.633277,6377.533838,8602.940572,1648.351747,-10343.023878,11633.680658,9731.681315,2310.857452,-20423.079481,12175.062260,5183.056615,2321.720400,-1257.643254,0.014000,-0.016500,1.001750,192.000000,0.000000,0.000000,0.000000,0.000000,0.000000,0.000000,0.000000,0.000000,0.000000,1773750275.775678,0.000000
40.000000,-27928.124717,2868.824049,-15598.008406,4192.762577,6355.182094,8574.330339,1629.397467,-10359.117134,11608.490242,9735.324649,2326.973060,-20403.119374,12173.050603,5190.544449,2324.827293,-1264.080556,0.012000,-0.017250,1.001875,192.000000,0.000000,40.000000,127.500000,56.000000,15.500000,40.000000,0.000000,0.000000,0.000000,1773750275.775688,0.000000
42.000000,-27921.083918,2875.820145,-15592.152249,4197.881126,6350.532931,8570.239970,1636.617081,-10349.125904,11655.227739,9732.776550,2314.433731,-20426.320484,12154.230434,5179.189763,2311.662115,-1257.665605,0.012000,-0.017250,1.001875,192.000000,0.000000,0.000000,0.000000,0.000000,0.000000,0.000000,0.000000,0.000000,0.000000,1773750275.775699,0.000000
44.000000,-27910.623301,2880.536363,-15582.943330,4209.660495,6343.514483,8554.191417,1651.436287,-10335.401933,11618.682637,9740.934937,2338.037174,-20391.988205,12177.476248,5228.475359,2311.684467,-1284.353588,0.012000,-0.017250,1.001875,192.000000,0.000000,0.000000,0.000000,0.000000,0.000000,0.000000,0.000000,0.000000,0.000000,1773750275.775709,0.000000
46.000000,-27947.727197,2851.546151,-15613.721682,4183.710120,6304.622448,8515.724065,1624.614194,-10366.783782,11628.159777,9728.775588,2318.591156,-20416.597476,12181.991301,5139.537768,2298.966324,-1276.575181,0.012000,-0.017250,1.001875,192.000000,0.000000,0.000000,0.000000,0.000000,0.000000,0.000000,0.000000,0.000000,0.000000,1773750275.775719,0.000000
48.000000,-27919.206371,2865.940674,-15574.315557,4206.687713,6319.888690,8522.720161,1654.587883,-10340.498130,11629.366771,9718.918469,2316.534795,-20421.000769,12109.012855,5154.155809,2290.338551,-1292.511975,0.012000,-0.017250,1.001875,192.000000,0.000000,0.000000,0.000000,0.000000,0.000000,0.000000,0.000000,0.000000,0.000000,1773750275.775730,0.000000
50.000000,-27948.174232,2848.573369,-15604.088080,4181.743167,6303.281343,8503.072977,1632.191435,-10364.570959,11594.453346,9716.348018,2325.050810,-20411.344816,12146.340268,5159.922559,2301.134443,-1301.296210,0.010000,-0.016625,1.002938,192.000000,0.000000,32.000000,127.500000,64.000000,15.500000,48.000000,0.000000,0.000000,0.000000,1773750275.775741,0.000000
52.000000,-27948.263639,2849.556845,-15602.590514,4183.285437,6300.889707,8511.209012,1634.560720,-10364.235683,11620.984867,9706.937934,2293.020760,-20442.011409,12153.716344,5154.513437,2292.081987,-1286.409949,0.010000,-0.016625,1.002938,192.000000,0.000000,0.000000,0.000000,0.000000,0.000000,0.000000,0.000000,0.000000,0.000000,1773750275.775751,0.000000
54.000000,-27935.120813,2864.733680,-15589.000653,4198.126995,6314.948954,8515.366437,1645.714241,-10348.656517,11588.910113,9717.376198,2315.953650,-20405.756880,12113.952591,5143.069344,2307.437635,-1305.006600,0.010000,-0.016625,1.002938,192.000000,0.000000,0.000000,0.000000,0.000000,0.000000,0.000000,0.000000,0.000000,0.000000,1773750275.775762,0.000000
56.000000,-27969.430741,2839.878540,-15622.572973,4171.103736,6295.100605,8512.684228,1617.148711,-10379.300759,11593.805145,9707.832004,2295.546507,-20430.030874,12107.045902,5139.314251,2303.257859,-1287.236963,0.010000,-0.016625,1.002938,192.000000,0.000000,0.000000,0.000000,0.000000,0.000000,0.000000,0.000000,0.000000,0.000000,1773750275.775772,0.000000
58.000000,-27936.238400,2860.151572,-15591.571104,4204.966629,6333.791475,8547.843522,1646.854180,-10349.036497,11606.813861,9710.290695,2296.977019,-20427.594534,12149.178940,5158.737917,2301.425016,-1283.995960,0.010000,-0.016625,1.002938,192.000000,0.000000,0.000000,0.000000,0.000000,0.000000,0.000000,0.000000,0.000000,0.000000,1773750275.775784,0.000000
60.000000,-27948.733026,2855.971796,-15607.820822,4189.029835,6326.527158,8547.999984,1628.995136,-10363.140448,11584.663282,9719.209042,2308.845795,-20410.830726,12174.883446,5193.338417,2317.317106,-1279.994998,0.010000,-0.020313,1.001469,192.000000,0.000000,40.000000,127.500000,32.000000,15.500000,32.000000,0.000000,0.000000,0.000000,1773750275.775795,0.000000
62.000000,-27943.122738,2860.799773,-15601.517630,4193.164908,6335.892539,8559.645243,1631.386773,-10357.887788,11636.385219,9721.511271,2299.033379,-20432.444862,12069.003233,5137.973146,2303.660191,-1258.336158,0.010000,-0.020313,1.001469,192.000000,0.000000,0.000000,0.000000,0.000000,0.000000,0.000000,0.000000,0.000000,0.000000,1773750275.775805,0.000000
64.000000,-27924.347272,2874.724910,-15588.173638,4206.307734,6352.991623,8561.813362,1645.155447,-10340.118151,11600.555372,9727.792111,2321.027496,-20402.404118,12183.935903,5203.754330,2315.976002,-1274.988207,0.010000,-0.020313,1.001469,192.000000,0.000000,0.000000,0.000000,0.000000,0.000000,0.000000,0.000000,0.000000,0.000000,1773750275.775815,0.000000
66.000000,-27953.873927,2853.915436,-15614.146365,4182.816050,6321.274498,8543.149655,1620.367363,-10365.733250,11620.738998,9722.919431,2311.684467,-20420.710197,12134.180919,5162.224789,2315.685429,-1263.611169,0.010000,-0.020313,1.001469,192.000000,0.000000,0.000000,0.000000,0.000000,0.000000,0.000000,0.000000,0.000000,0.000000,1773750275.775826,0.000000
68.000000,-27918.267598,2880.044625,-15584.284435,4214.220251,6344.676774,8549.922234,1651.995081,-10332.339744,11629.053846,9727.032152,2313.830234,-20413.781156,12185.388766,5164.504667,2309.717513,-1272.305998,0.010000,-0.020313,1.001469,192.000000,0.000000,0.000000,0.000000,0.000000,0.000000,0.000000,0.000000,0.000000,0.000000,1773750275.775836,0.000000
70.000000,-27937.981837,2871.662721,-15601.070595,4196.584725,6312.736131,8533.314888,1634.895996,-10346.600157,11599.169564,9729.446140,2327.665964,-20395.005690,12165.808638,5176.932237,2313.673772,-1281.649027,0.012000,-0.017156,1.004734,192.000000,0.000000,56.000000,127.500000,72.000000,15.500000,64.000000,0.000000,0.000000,0.000000,1773750275.775846,0.000000
72.000000,-27928.415290,2880.402253,-15593.582761,4201.546812,6313.496091,8537.628774,1641.288595,-10339.894633,11643.805998,9731.569556,2316.177167,-20416.731586,12094.551277,5195.394778,2294.183051,-1268.036815,0.012000,-0.017156,1.004734,192.000000,0.000000,0.000000,0.000000,0.000000,0.000000,0.000000,0.000000,0.000000,0.000000,1773750275.775857,0.000000
74.000000,-27916.814735,2883.330331,-15585.022042,4211.605097,6322.794416,8536.444132,1652.978558,-10329.411665,11608.333779,9737.939803,2338.238339,-20385.394440,12185.411118,5190.611504,2298.161661,-1292.109643,0.012000,-0.017156,1.004734,192.000000,0.000000,0.000000,0.000000,0.000000,0.000000,0.000000,0.000000,0.000000,0.000000,1773750276.255897,0.000000
76.000000,-27950.588220,2859.436316,-15614.615752,4183.710120,6287.366901,8515.478196,1625.508264,-10359.385354,11617.676809,9719.924297,2318.725266,-20413.669397,12144.172149,5155.027527,2294.473624,-1279.123280,0.012000,-0.017156,1.004734,192.000000,0.000000,0.000000,0.000000,0.000000,0.000000,0.000000,0.000000,0.000000,0.000000,1773750276.255996,0.000000
78.000000,-27927.007130,2871.014520,-15581.691632,4211.649801,6322.727361,8533.873681,1653.269130,-10334.351401,11623.085931,9722.293582,2314.746656,-20412.931790,12088.672768,5142.890530,2294.987714,-1285.739396,0.012000,-0.017156,1.004734,192.000000,0.000000,0.000000,0.000000,0.000000,0.000000,0.000000,0.000000,0.000000,0.000000,1773750276.256089,0.000000
80.000000,-27950.185889,2854.496581,-15608.983112,4186.258219,6307.952858,8524.195376,1628.279880,-10360.033555,11591.368805,9715.319838,2322.592118,-20405.533362,12101.033282,5178.809783,2309.941031,-1287.438129,0.012000,-0.017156,1.004734,192.000000,0.000000,0.000000,0.000000,0.000000,0.000000,0.000000,0.000000,0.000000,0.000000,1773750276.256173,0.000000
82.000000,-27949.738854,2854.787154,-15610.301865,4188.739263,6321.430960,8543.909615,1630.805627,-10360.145314,11628.986791,9710.491861,2298.586345,-20435.395293,12157.203216,5158.760269,2304.442502,-1268.908533,0.012000,-0.016000,1.002000,192.000000,0.000000,48.000000,127.500000,64.000000,15.500000,40.000000,0.000000,0.000000,0.000000,1773750276.256257,0.000000
84.000000,-27932.036273,2867.237075,-15589.626502,4202.574992,6340.765219,8558.192379,1641.713278,-10346.577805,11596.979093,9720.974829,2320.401647,-20406.382728,12171.307167,5170.360824,2320.468702,-1278.765652,0.012000,-0.016000,1.002000,192.000000,0.000000,0.000000,0.000000,0.000000,0.000000,0.000000,0.000000,0.000000,0.000000,1773750276.256341,0.000000
86.000000,-27954.455072,2852.797848,-15612.067653,4179.016254,6323.979059,8543.686097,1616.656973,-10369.354232,11621.677771,9719.723132,2314.769008,-20424.040607,12138.204233,5162.291844,2323.508540,-1261.755975,0.012000,-0.016000,1.002000,192.000000,0.000000,0.000000,0.000000,0.000000,0.000000,0.000000,0.000000,0.000000,0.000000,1773750276.256416,0.000000
88.000000,-27915.741851,2880.737529,-15580.328176,4210.889841,6355.897350,8557.857103,1648.351747,-10333.859662,11638.151006,9726.495710,2321.251013,-20415.859868,12144.887405,5201.362693,2317.473569,-1269.579085,0.012000,-0.016000,1.002000,192.000000,0.000000,0.000000,0.000000,0.000000,0.000000,0.000000,0.000000,0.000000,0.000000,1773750276.256447,0.000000
90.000000,-27941.267543,2866.253598,-15610.547735,4198.037588,6328.315297,8529.872719,1629.643336,-10351.092857,11606.769157,9733.938841,2333.991508,-20394.916283,12180.493734,5179.100356,2322.636822,-1275.144669,0.012000,-0.016000,1.002000,192.000000,0.000000,0.000000,0.000000,0.000000,0.000000,0.000000,0.000000,0.000000,0.000000,1773750276.256485,0.000000
92.000000,-27936.931305,2865.605398,-15597.114336,4198.462272,6316.781797,8525.961164,1635.588901,-10348.880035,11644.454198,9727.926222,2315.976002,-20422.744205,12094.886553,5162.135382,2306.230641,-1264.572294,0.010000,-0.014000,1.000000,192.000000,0.000000,40.000000,127.500000,72.000000,15.500000,32.000000,0.000000,0.000000,0.000000,1773750276.256508,0.000000
94.000000,-27922.469726,2874.590799,-15586.743127,4210.018123,6322.772065,8529.962126,1649.379927,-10337.257127,11612.871183,9731.144873,2341.300528,-20395.519781,12158.432562,5172.730109,2309.650458,-1288.332199,0.010000,-0.014000,1.000000,192.000000,0.000000,0.000000,0.000000,0.000000,0.000000,0.000000,0.000000,0.000000,0.000000,1773750276.256530,0.000000
96.000000,-27951.884622,2854.921264,-15615.241601,4185.542963,6295.122957,8511.343123,1625.016525,-10362.291081,11623.063579,9720.103111,2325.564900,-20419.257333,12155.348021,5171.567818,2299.703932,-1274.429414,0.010000,-0.014000,1.000000,192.000000,0.000000,0.000000,0.000000,0.000000,0.000000,0.000000,0.000000,0.000000,0.000000,1773750276.256554,0.000000
98.000000,-27920.145144,2875.015482,-15576.103696,4213.661458,6323.554376,8525.357667,1657.739479,-10330.842177,11632.875995,9719.723132,2331.219891,-20413.401176,12088.382195,5161.598940,2292.931353,-1283.012483,0.010000,-0.014000,1.000000,192.000000,0.000000,0.000000,0.000000,0.000000,0.000000,0.000000,0.000000,0.000000,0.000000,1773750276.256579,0.000000
100.000000,-27948.531860,2855.323595,-15603.976322,4186.302923,6296.665227,8506.761015,1635.879473,-10356.613738,11598.186087,9714.314009,2337.411325,-20403.655816,12138.047771,5163.074155,2304.442502,-1290.701484,0.010000,-0.014000,1.000000,192.000000,0.000000,0.000000,0.000000,0.000000,0.000000,0.000000,0.000000,0.000000,0.000000,1773750276.256602,0.000000
102.000000,-27944.665008,2856.441183,-15598.947179,4185.542963,6303.616620,8518.473329,1638.807552,-10355.451447,11631.289021,9704.278076,2312.019743,-20438.256316,12105.838907,5151.652414,2294.339513,-1277.513954,0.012000,-0.014000,1.000000,192.000000,0.000000,48.000000,127.500000,72.000000,15.500000,32.000000,0.000000,0.000000,0.000000,1773750276.256625,0.000000
104.000000,-27935.389034,2862.207933,-15593.761574,4196.540021,6326.773027,8532.532577,1647.904712,-10345.996660,11596.487355,9712.324704,2332.739810,-20410.137821,12165.316899,5172.327777,2306.163586,-1291.953181,0.012000,-0.014000,1.000000,192.000000,0.000000,0.000000,0.000000,0.000000,0.000000,0.000000,0.000000,0.000000,0.000000,1773750276.256648,0.000000
106.000000,-27965.653296,2840.347927,-15620.650723,4173.473021,6309.942163,8531.616155,1619.696810,-10373.578712,11608.400835,9704.993332,2314.411380,-20433.517746,12160.198350,5142.689364,2306.342400,-1267.567428,0.012000,-0.014000,1.000000,192.000000,0.000000,0.000000,0.000000,0.000000,0.000000,0.000000,0.000000,0.000000,0.000000,1773750276.256670,0.000000
108.000000,-27936.193697,2860.978587,-15587.033699,4201.099777,6335.713725,8559.712298,1647.502380,-10347.091895,11617.565050,9707.787300,2313.830234,-20429.874412,12096.585285,5154.692251,2315.283098,-1265.309902,0.012000,-0.014000,1.000000,192.000000,0.000000,0.000000,0.000000,0.000000,0.000000,0.000000,0.000000,0.000000,0.000000,1773750276.256692,0.000000
110.000000,-27959.014828,2847.902816,-15608.603133,4180.022082,6314.680733,8535.840635,1628.212825,-10365.509732,11583.612750,9708.703722,2320.938089,-20416.776290,12082.391928,5181.179068,2322.525063,-1270.830783,0.012000,-0.014000,1.000000,192.000000,0.000000,0.000000,0.000000,0.000000,0.000000,0.000000,0.000000,0.000000,0.000000,1773750276.256715,0.000000
112.000000,-27946.967238,2858.005805,-15606.278551,4185.654722,6325.096646,8523.860100,1633.934871,-10354.825599,11627.198652,9705.797995,2308.644630,-20439.284496,12103.402567,5145.662146,2309.762217,-1262.582989,0.012000,-0.016000,1.002000,192.000000,0.000000,48.000000,127.500000,64.000000,15.500000,40.000000,0.000000,0.000000,0.000000,1773750276.256738,0.000000
114.000000,-27927.074185,2872.377976,-15593.426298,4202.597344,6333.791475,8524.865928,1648.329395,-10338.106494,11600.823593,9717.622068,2334.527950,-20403.812278,12198.308074,5171.456059,2314.858415,-1290.992056,0.012000,-0.016000,1.002000,192.000000,0.000000,0.000000,0.000000,0.000000,0.000000,0.000000,0.000000,0.000000,0.000000,1773750276.256760,0.000000
116.000000,-27945.916706,2859.257502,-15612.425281,4180.826745,6306.745864,8509.130300,1626.312927,-10357.239587,11626.215175,9715.610411,2330.012897,-20423.057130,12141.266422,5172.081908,2309.449292,-1277.446899,0.012000,-0.016000,1.002000,192.000000,0.000000,0.000000,0.000000,0.000000,0.000000,0.000000,0.000000,0.000000,0.000000,1773750276.256783,0.000000
118.000000,-27905.840028,2885.610209,-15576.215455,4216.231908,6334.462027,8529.135111,1661.025186,-10321.163871,11648.432809,9724.931088,2341.702860,-20412.685920,12119.004085,5152.993518,2298.608696,-1285.761748,0.012000,-0.016000,1.002000,192.000000,0.000000,0.000000,0.000000,0.000000,0.000000,0.000000,0.000000,0.000000,0.000000,1773750276.256805,0.000000
120.000000,-27926.023653,2874.411985,-15596.712005,4197.411740,6314.412512,8518.942716,1643.143790,-10338.128845,11617.766216,9726.093379,2355.493886,-20396.056222,12119.965210,5173.668882,2305.157757,-1292.959010,0.012000,-0.016000,1.002000,192.000000,0.000000,0.000000,0.000000,0.000000,0.000000,0.000000,0.000000,0.000000,0.000000,1773750276.256828,0.000000
122.000000,-27921.910932,2877.742395,-15598.611903,4199.468100,6307.282306,8524.530652,1646.787124,-10336.921851,11655.942995,9720.170167,2333.835046,-20420.911362,12174.682280,5165.264626,2288.013969,-1276.999864,0.010000,-0.014000,1.006000,192.000000,0.000000,40.000000,127.500000,72.000000,15.500000,56.000000,0.000000,0.000000,0.000000,1773750276.256852,0.000000
124.000000,-27913.685490,2883.285628,-15583.189199,4207.894708,6325.878957,8529.738609,1656.577189,-10327.042380,11616.872146,9727.613297,2351.559979,-20392.234074,12198.576295,5195.797109,2301.045036,-1296.781158,0.010000,-0.014000,1.006000,192.000000,0.000000,0.000000,0.000000,0.000000,0.000000,0.000000,0.000000,0.000000,0.000000,1773750276.256875,0.000000
126.000000,-27947.593087,2859.436316,-15612.648799,4177.205763,6291.591381,8514.584126,1625.150636,-10360.078259,11625.254050,9717.912640,2330.392877,-20417.491545,12069.159695,5142.354088,2299.234545,-1280.307922,0.010000,-0.014000,1.006000,192.000000,0.000000,0.000000,0.000000,0.000000,0.000000,0.000000,0.000000,0.000000,0.000000,1773750276.256897,0.000000
128.000000,-27914.870133,2883.911477,-15588.598322,4201.725626,6331.891576,8544.311946,1651.324529,-10334.574918,11634.686486,9721.578326,2327.844778,-20418.340912,12123.854413,5178.250990,2296.820557,-1280.933771,0.010000,-0.014000,1.006000,192.000000,0.000000,0.000000,0.000000,0.000000,0.000000,0.000000,0.000000,0.000000,0.000000,1773750276.256920,0.000000
130.000000,-27944.039159,2864.219590,-15611.374749,4182.033739,6308.377541,8539.193396,1630.447999,-10360.190017,11598.409605,9723.947611,2331.421057,-20407.679130,12172.715327,5189.248048,2309.605755,-1283.772443,0.010000,-0.014000,1.006000,192.000000,0.000000,0.000000,0.000000,0.000000,0.000000,0.000000,0.000000,0.000000,0.000000,1773750276.256942,0.000000
132.000000,-27944.195622,2864.934846,-15610.927714,4187.666379,6315.083064,8552.537388,1633.286671,-10359.094782,11632.227794,9714.381065,2306.878842,-20435.551755,12104.207230,5142.801123,2298.608696,-1262.314768,0.016000,-0.014000,1.004000,192.000000,0.000000,64.000000,127.500000,72.000000,15.500000,48.000000,0.000000,0.000000,0.000000,1773750276.256964,0.000000
134.000000,-27921.687415,2884.425567,-15587.413679,4203.402007,6338.530044,8551.062173,1649.894017,-10338.821750,11605.226887,9724.081722,2328.381220,-20400.928903,12118.333533,5165.689309,2311.930336,-1284.130071,0.016000,-0.014000,1.004000,192.000000,0.000000,0.000000,0.000000,0.000000,0.000000,0.000000,0.000000,0.000000,0.000000,1773750276.256988,0.000000
136.000000,-27949.448281,2864.063128,-15619.644895,4177.608094,6314.188995,8527.749303,1624.144807,-10362.693413,11624.985829,9723.187652,2320.960441,-20415.055205,12122.960344,5159.006138,2310.589231,-1271.099004,0.016000,-0.014000,1.004000,192.000000,0.000000,0.000000,0.000000,0.000000,0.000000,0.000000,0.000000,0.000000,0.000000,1773750276.257010,0.000000
138.000000,-27915.607740,2886.057244,-15586.631368,4207.827652,6346.062582,8534.655992,1655.549008,-10332.339744,11638.933318,9729.110864,2325.855473,-20411.389519,12147.591966,5174.965283,2305.023647,-1282.274876,0.016000,-0.014000,1.004000,192.000000,0.000000,0.000000,0.000000,0.000000,0.000000,0.000000,0.000000,0.000000,0.000000,1773750276.257033,0.000000
140.000000,-27933.980874,2874.613151,-15610.883011,4191.935562,6305.471814,8523.010733,1635.432438,-10348.880035,11600.913000,9732.754199,2333.589176,-20396.994996,12168.289681,5198.322856,2311.684467,-1289.114510,0.016000,-0.014000,1.004000,192.000000,0.000000,0.000000,0.000000,0.000000,0.000000,0.000000,0.000000,0.000000,0.000000,1773750276.257056,0.000000
142.000000,-27917.954674,2886.772500,-15595.370900,4200.496280,6314.591326,8529.984478,1642.786162,-10334.776084,11650.846797,9735.592870,2325.855473,-20416.105737,12106.263591,5170.472583,2290.450310,-1272.283646,0.010000,-0.012000,1.004000,192.000000,0.000000,40.000000,127.500000,80.000000,15.500000,48.000000,0.000000,0.000000,0.000000,1773750276.257078,0.000000
144.000000,-27899.045098,2900.541174,-15574.919054,4212.990905,6329.276422,8532.621984,1659.058232,-10314.681866,11627.176300,9747.238129,2359.383089,-20377.772495,12114.176108,5198.345208,2304.554260,-1297.116434,0.010000,-0.012000,1.004000,192.000000,0.000000,0.000000,0.000000,0.000000,0.000000,0.000000,0.000000,0.000000,0.000000,1773750276.257100,0.000000
146.000000,-27930.941037,2875.216648,-15608.312560,4183.263085,6307.796396,8517.825129,1633.174912,-10344.320279,11638.195710,9733.089475,2344.586235,-20402.113545,12199.559772,5204.223717,2302.319086,-1280.106757,0.010000,-0.012000,1.004000,192.000000,0.000000,0.000000,0.000000,0.000000,0.000000,0.000000,0.000000,0.000000,0.000000,1773750276.257123,0.000000
148.000000,-27903.984833,2891.332256,-15574.717888,4216.902461,6332.763294,8536.891167,1663.707395,-10317.744055,11646.957594,9727.970925,2342.507522,-20403.342891,12156.599719,5148.009079,2296.932315,-1286.700521,0.010000,-0.012000,1.004000,192.000000,0.000000,0.000000,0.000000,0.000000,0.000000,0.000000,0.000000,0.000000,0.000000,1773750276.257145,0.000000
150.000000,-27937.735967,2864.487811,-15603.998673,4191.019141,6309.048093,8527.637545,1635.633604,-10348.947090,11610.546602,9723.210004,2347.357851,-20396.033871,12133.823292,5155.966300,2305.001295,-1290.857946,0.010000,-0.012000,1.004000,192.000000,0.000000,0.000000,0.000000,0.000000,0.000000,0.000000,0.000000,0.000000,0.000000,1773750276.257168,0.000000
152.000000,-27938.674741,2861.023290,-15600.422394,4186.839364,6307.237602,8537.517016,1634.985403,-10353.596253,11641.324954,9708.770777,2319.239356,-20435.104720,12123.586193,5148.411411,2296.060597,-1266.874524,0.012000,-0.013000,1.003000,192.000000,0.000000,56.000000,127.500000,72.000000,15.500000,40.000000,0.000000,0.000000,0.000000,1773750276.257190,0.000000
154.000000,-27931.902162,2863.504334,-15592.643987,4193.366074,6326.728323,8550.637490,1645.133095,-10347.538930,11604.131651,9712.257649,2336.651365,-20410.540153,12106.040073,5191.930257,2309.739865,-1282.945428,0.012000,-0.013000,1.003000,192.000000,0.000000,0.000000,0.000000,0.000000,0.000000,0.000000,0.000000,0.000000,0.000000,1773750276.257215,0.000000
156.000000,-27959.663029,2846.896988,-15630.731360,4171.886047,6293.021893,8542.166178,1615.405275,-10374.115154,11609.518422,9701.327646,2315.618374,-20436.714046,12138.092475,5146.243292,2307.661153,-1265.622826,0.012000,-0.013000,1.003000,192.000000,0.000000,0.000000,0.000000,0.000000,0.000000,0.000000,0.000000,0.000000,0.000000,1773750276.257237,0.000000
158.000000,-27922.872057,2874.389633,-15596.399080,4203.402007,6333.143274,8569.167086,1645.133095,-10339.738171,11622.191861,9710.268344,2315.774836,-20426.968685,12106.688274,5169.287940,2301.737941,-1265.667530,0.012000,-0.013000,1.003000,192.000000,0.000000,0.000000,0.000000,0.000000,0.000000,0.000000,0.000000,0.000000,0.000000,1773750276.257260,0.000000
160.000000,-27939.814680,2866.320654,-15617.230906,4188.560449,6313.116111,8553.297347,1627.609328,-10355.250282,11593.961608,9717.510309,2329.074124,-20408.237923,12122.893288,5169.600865,2313.718476,-1270.607265,0.012000,-0.013000,1.003000,192.000000,0.000000,0.000000,0.000000,0.000000,0.000000,0.000000,0.000000,0.000000,0.000000,1773750276.257282,0.000000
162.000000,-27934.047930,2870.388671,-15607.642008,4190.460347,6322.906175,8551.933891,1631.520883,-10353.283328,11642.017858,9718.449082,2316.355981,-20431.483737,12106.934143,5175.434670,2302.095568,-1259.118469,0.015000,-0.013500,1.003500,192.000000,0.000000,72.000000,127.500000,72.000000,15.500000,48.000000,0.000000,0.000000,0.000000,1773750276.257304,0.000000
164.000000,-27922.089746,2879.754052,-15597.002577,4203.089083,6337.032478,8548.603481,1645.490723,-10339.581709,11607.976151,9727.680353,2336.338441,-20400.079536,12147.346097,5181.134365,2316.780665,-1285.292361,0.015000,-0.013500,1.003500,192.000000,0.000000,0.000000,0.000000,0.000000,0.000000,0.000000,0.000000,0.000000,0.000000,1773750276.257327,0.000000
166.000000,-27949.381226,2861.962064,-15620.158985,4179.396233,6303.147233,8527.011696,1623.429552,-10360.972328,11620.180204,9717.309143,2323.776761,-20420.061996,12140.841739,5181.447289,2311.349191,-1271.367225,0.015000,-0.013500,1.003500,192.000000,0.000000,0.000000,0.000000,0.000000,0.000000,0.000000,0.000000,0.000000,0.000000,1773750276.257349,0.000000
168.000000,-27915.764203,2886.124299,-15585.379670,4214.421417,6331.511597,8529.291574,1656.040747,-10327.489415,11632.719533,9724.238184,2329.923490,-20412.149478,12113.214983,5149.394888,2301.916754,-1280.732606,0.015000,-0.013500,1.003500,192.000000,0.000000,0.000000,0.000000,0.000000,0.000000,0.000000,0.000000,0.000000,0.000000,1773750276.257371,0.000000
170.000000,-27940.217011,2867.237075,-15605.563296,4191.980266,6309.361018,8516.305210,1635.410087,-10347.829503,11603.461099,9718.292620,2343.759220,-20398.984301,12160.623033,5178.049824,2307.661153,-1291.059111,0.015000,-0.013500,1.003500,192.000000,0.000000,0.000000,0.000000,0.000000,0.000000,0.000000,0.000000,0.000000,0.000000,1773750276.257394,0.000000
172.000000,-27934.606723,2868.511125,-15598.343682,4193.254315,6311.775006,8524.351838,1638.181703,-10344.208520,11644.096571,9710.648323,2325.564900,-20429.136804,12101.882649,5157.285053,2298.519289,-1271.590742,0.014500,-0.011750,1.003750,192.000000,0.000000,56.000000,127.500000,88.000000,15.500000,48.000000,0.000000,0.000000,0.000000,1773750276.257416,0.000000
174.000000,-27920.793345,2877.340064,-15591.414641,4204.318429,6328.091780,8533.896033,1650.676328,-10329.344610,11610.501899,9717.219736,2346.776706,-20396.615016,12199.559772,5179.837964,2306.632973,-1292.176699,0.014500,-0.011750,1.003750,192.000000,0.000000,0.000000,0.000000,0.000000,0.000000,0.000000,0.000000,0.000000,0.000000,1773750276.257439,0.000000
176.000000,-27955.840880,2851.836723,-15616.225078,4174.724719,6288.573896,8519.725027,1620.859101,-10361.240549,11617.542698,9704.434538,2329.767028,-20423.727682,12074.121782,5162.872990,2306.543566,-1274.719986,0.014500,-0.011750,1.003750,192.000000,0.000000,0.000000,0.000000,0.000000,0.000000,0.000000,0.000000,0.000000,0.000000,1773750276.257461,0.000000
178.000000,-27925.218990,2871.282741,-15584.575008,4205.257202,6326.169530,8548.357612,1651.503343,-10335.670154,11626.505748,9708.144928,2330.996374,-20423.727682,12122.558012,5147.986728,2306.208289,-1274.407062,0.014500,-0.011750,1.003750,192.000000,0.000000,0.000000,0.000000,0.000000,0.000000,0.000000,0.000000,0.000000,0.000000,1773750276.257483,0.000000
180.000000,-27945.469671,2859.659834,-15607.440842,4184.984170,6296.486413,8543.149655,1628.771618,-10355.697317,11595.056843,9711.229469,2341.278176,-20412.037720,12106.688274,5157.307405,2314.076103,-1277.871582,0.014500,-0.011750,1.003750,192.000000,0.000000,0.000000,0.000000,0.000000,0.000000,0.000000,0.000000,0.000000,0.000000,1773750276.257506,0.000000
182.000000,-27943.703883,2858.206970,-15609.094871,4184.850059,6311.015047,8549.050516,1626.961127,-10359.385354,11638.396876,9705.842698,2321.228662,-20440.558546,12082.995425,5161.889513,2303.324914,-1261.510105,0.015250,-0.011875,1.004875,192.000000,0.000000,64.000000,127.500000,80.000000,15.500000,56.000000,0.000000,0.000000,0.000000,1773750276.257528,0.000000
184.000000,-27922.827354,2870.343968,-15593.627464,4201.747978,6332.651536,8555.644280,1643.881398,-10342.934471,11602.254105,9714.850451,2338.327746,-20410.428394,12173.877618,5179.815612,2318.345287,-1275.479946,0.015250,-0.011875,1.004875,192.000000,0.000000,0.000000,0.000000,0.000000,0.000000,0.000000,0.000000,0.000000,0.000000,1773750276.257551,0.000000
186.000000,-27948.442453,2851.859075,-15620.918944,4174.635312,6316.759445,8539.059286,1615.137054,-10368.236645,11623.443559,9713.196422,2329.118827,-20428.645066,12111.695065,5158.313234,2316.490092,-1259.565504,0.015250,-0.011875,1.004875,192.000000,0.000000,0.000000,0.000000,0.000000,0.000000,0.000000,0.000000,0.000000,0.000000,1773750276.257579,0.000000
188.000000,-27911.360909,2877.407119,-15591.682862,4207.291211,6353.617472,8552.403277,1645.893055,-10337.055962,11636.832254,9720.527794,2328.917662,-20424.107662,12169.787248,5155.631024,2318.524101,-1266.606303,0.015250,-0.011875,1.004875,192.000000,0.000000,0.000000,0.000000,0.000000,0.000000,0.000000,0.000000,0.000000,0.000000,1773750276.257613,0.000000
190.000000,-27928.482345,2868.645235,-15608.491374,4192.740225,6316.580631,8542.009716,1629.062191,-10354.378564,11608.065558,9727.523890,2344.116848,-20406.941522,12138.628917,5212.873842,2321.295717,-1269.512030,0.015250,-0.011875,1.004875,192.000000,0.000000,0.000000,0.000000,0.000000,0.000000,0.000000,0.000000,0.000000,0.000000,1773750276.257651,0.000000
192.000000,-27920.055738,2873.026177,-15603.350473,4204.027856,6320.246317,8547.888225,1636.684136,-10346.108418,11655.317146,9724.886385,2330.214063,-20428.645066,12137.600736,5184.263609,2303.123749,-1253.239960,0.014625,-0.014938,1.007437,192.000000,0.000000,56.000000,127.500000,56.000000,15.500000,72.000000,0.000000,0.000000,0.000000,1773750276.257674,0.000000
194.000000,-27906.890560,2882.995055,-15583.256255,4222.065714,6328.181187,8546.100086,1653.492648,-10328.651706,11623.130634,9735.905795,2353.638691,-20391.921150,12127.140120,5171.746632,2308.398760,-1281.492565,0.014625,-0.014938,1.007437,192.000000,0.000000,0.000000,0.000000,0.000000,0.000000,0.000000,0.000000,0.000000,0.000000,1773750276.736040,0.000000
196.000000,-27940.105252,2862.386747,-15611.039473,4194.930696,6301.046169,8528.486911,1627.296403,-10353.596253,11628.651515,9726.048675,2337.321918,-20412.887086,12144.574481,5171.299597,2305.716551,-1270.607265,0.014625,-0.014938,1.007437,192.000000,0.000000,0.000000,0.000000,0.000000,0.000000,0.000000,0.000000,0.000000,0.000000,1773750276.736115,0.000000
198.000000,-27915.674796,2881.184564,-15579.881141,4216.835405,6328.471759,8545.787161,1653.492648,-10329.165796,11634.485320,9725.512233,2337.098400,-20411.210705,12100.429785,5193.628990,2302.721417,-1274.742338,0.014625,-0.014938,1.007437,192.000000,0.000000,0.000000,0.000000,0.000000,0.000000,0.000000,0.000000,0.000000,0.000000,1773750276.736170,0.000000
200.000000,-27944.687360,2863.124354,-15609.139575,4193.231963,6310.456253,8535.639469,1628.928081,-10356.747849,11596.934390,9722.405341,2340.764086,-20403.655816,12130.872861,5172.126612,2313.629069,-1281.581972,0.014625,-0.014938,1.007437,192.000000,0.000000,0.000000,0.000000,0.000000,0.000000,0.000000,0.000000,0.000000,0.000000,1773750276.736221,0.000000
202.000000,-27945.156747,2860.531552,-15610.950066,4189.745091,6320.201614,8542.389696,1629.084543,-10360.368831,11630.529062,9713.196422,2313.427903,-20438.703351,12177.565655,5151.965338,2309.762217,-1260.772498,0.012313,-0.012469,1.008719,192.000000,0.000000,40.000000,127.500000,88.000000,15.500000,72.000000,0.000000,0.000000,0.000000,1773750276.736274,0.000000
204.000000,-27932.416252,2866.499468,-15591.436993,4200.205708,6332.204501,8554.861969,1641.847389,-10349.528235,11597.470832,9718.024399,2332.493941,-20413.691749,12109.817518,5188.666903,2324.179092,-1278.162155,0.012313,-0.012469,1.008719,192.000000,0.000000,0.000000,0.000000,0.000000,0.000000,0.000000,0.000000,0.000000,0.000000,1773750276.736321,0.000000
206.000000,-27959.908898,2847.232264,-15623.534098,4173.562428,6306.567050,8557.991214,1613.371267,-10374.964520,11613.765253,9702.691102,2317.808845,-20439.418607,12086.079965,5151.250082,2316.601851,-1257.173867,0.012313,-0.012469,1.008719,192.000000,0.000000,0.000000,0.000000,0.000000,0.000000,0.000000,0.000000,0.000000,0.000000,1773750276.736344,0.000000
208.000000,-27924.280217,2871.059224,-15592.599284,4204.720760,6343.805056,8569.390603,1642.987328,-10345.862549,11628.226832,9709.128405,2322.435656,-20433.405987,12134.091512,5163.990577,2314.925470,-1256.324501,0.012313,-0.012469,1.008719,192.000000,0.000000,0.000000,0.000000,0.000000,0.000000,0.000000,0.000000,0.000000,0.000000,1773750276.736368,0.000000
210.000000,-27942.966276,2859.257502,-15609.608961,4187.688731,6327.331820,8554.973728,1622.088447,-10365.934416,11599.393082,9713.375236,2335.712592,-20418.005636,12137.444274,5176.418147,2325.654307,-1261.308940,0.012313,-0.012469,1.008719,192.000000,0.000000,0.000000,0.000000,0.000000,0.000000,0.000000,0.000000,0.000000,0.000000,1773750276.736391,0.000000
212.000000,-27933.466784,2866.052433,-15604.088080,4193.053149,6334.506730,8553.453809,1627.095238,-10358.468933,11645.549434,9713.911678,2322.323897,-20441.452615,12134.672658,5180.374405,2315.193691,-1250.133067,0.009156,-0.011234,1.007359,192.000000,0.000000,24.000000,127.500000,88.000000,15.500000,56.000000,0.000000,0.000000,0.000000,1773750276.736414,0.000000
214.000000,-27917.664101,2881.206916,-15588.799487,4210.107530,6339.669983,8542.076772,1642.406183,-10340.900462,11615.955724,9725.936917,2346.329671,-20405.801583,12149.000126,5191.885554,2321.295717,-1275.345835,0.009156,-0.011234,1.007359,192.000000,0.000000,0.000000,0.000000,0.000000,0.000000,0.000000,0.000000,0.000000,0.000000,1773750276.736437,0.000000
216.000000,-27947.950715,2860.442145,-15616.269781,4189.432167,6318.458178,8518.808606,1619.607403,-10362.671061,11626.215175,9719.119635,2331.152836,-20420.844307,12131.275193,5152.233559,2313.986696,-1263.946445,0.009156,-0.011234,1.007359,192.000000,0.000000,0.000000,0.000000,0.000000,0.000000,0.000000,0.000000,0.000000,0.000000,1773750276.736459,0.000000
218.000000,-27909.528066,2888.180660,-15579.389403,4220.255222,6342.553358,8539.215748,1654.252607,-10327.444712,11643.180149,9728.641478,2339.087706,-20411.277760,12134.002105,5177.066347,2309.918679,-1273.691806,0.009156,-0.011234,1.007359,192.000000,0.000000,0.000000,0.000000,0.000000,0.000000,0.000000,0.000000,0.000000,0.000000,1773750276.736491,0.000000
220.000000,-27931.879810,2871.595665,-15599.662435,4196.405911,6317.139425,8520.395579,1634.538369,-10347.471875,11611.753596,9730.206100,2352.409345,-20396.592664,12165.786286,5191.639685,2317.182996,-1282.453690,0.009156,-0.011234,1.007359,192.000000,0.000000,0.000000,0.000000,0.000000,0.000000,0.000000,0.000000,0.000000,0.000000,1773750276.736514,0.000000
222.000000,-27931.611589,2869.114622,-15593.627464,4199.401045,6319.195785,8528.062228,1638.405220,-10347.382468,11651.092667,9719.566669,2334.058563,-20428.354493,12089.097451,5143.046992,2308.912850,-1268.103870,0.009156,-0.011234,1.007359,192.000000,0.000000,0.000000,0.000000,0.000000,0.000000,0.000000,0.000000,0.000000,0.000000,1773750276.736542,0.000000
224.000000,-27924.861363,2872.065052,-15588.218342,4207.604135,6332.226852,8533.001963,1648.016470,-10339.291136,11611.686541,9720.550146,2349.458915,-20404.371071,12180.560789,5189.739786,2318.322935,-1286.208783,0.012000,-0.012000,1.004000,192.000000,0.000000,48.000000,127.500000,80.000000,15.500000,48.000000,0.000000,0.000000,0.000000,1773750276.736565,0.000000
226.000000,-27960.154767,2847.858113,-15620.136633,4176.803431,6300.800300,8518.920364,1619.093313,-10369.980081,11618.347361,9708.077873,2328.470627,-20430.991999,12105.593038,5182.542525,2315.305449,-1270.808431,0.012000,-0.012000,1.004000,192.000000,0.000000,0.000000,0.000000,0.000000,0.000000,0.000000,0.000000,0.000000,0.000000,1773750276.736588,0.000000
228.000000,-27931.008092,2866.767689,-15591.258179,4205.771292,6320.022800,8540.243928,1647.502380,-10343.336802,11622.996524,9707.094396,2323.955575,-20430.343798,12151.771742,5148.545521,2310.253955,-1274.183544,0.012000,-0.012000,1.004000,192.000000,0.000000,0.000000,0.000000,0.000000,0.000000,0.000000,0.000000,0.000000,0.000000,1773750276.736612,0.000000
230.000000,-27958.053703,2850.205046,-15615.353360,4187.107585,6304.108358,8533.158425,1624.413028,-10367.253168,11586.473773,9707.742597,2330.169359,-20416.731586,12131.498710,5147.629100,2319.060542,-1275.792870,0.012000,-0.012000,1.004000,192.000000,0.000000,0.000000,0.000000,0.000000,0.000000,0.000000,0.000000,0.000000,0.000000,1773750276.736635,0.000000
232.000000,-27953.203375,2852.373165,-15615.263953,4187.934600,6321.050980,8546.167141,1625.664726,-10368.504866,11628.293887,9701.305294,2306.722380,-20444.894784,12110.309256,5146.556216,2312.019743,-1251.027137,0.012000,-0.012000,1.004000,192.000000,0.000000,0.000000,0.000000,0.000000,0.000000,0.000000,0.000000,0.000000,0.000000,1773750276.736657,0.000000
234.000000,-27932.416252,2867.929979,-15602.165830,4201.300943,6340.608757,8550.570434,1639.276938,-10353.752715,11596.979093,9712.883498,2326.369563,-20415.412833,12150.430638,5178.832135,2325.631955,-1273.110661,0.012000,-0.010000,1.000000,192.000000,0.000000,48.000000,127.500000,88.000000,15.500000,32.000000,0.000000,0.000000,0.000000,1773750276.736679,0.000000
236.000000,-27959.819491,2847.165209,-15624.137595,4174.232981,6311.305620,8531.169120,1613.415970,-10380.977140,11611.708893,9706.692065,2318.099417,-20438.077502,12107.448233,5171.031376,2319.395819,-1256.838591,0.012000,-0.010000,1.000000,192.000000,0.000000,0.000000,0.000000,0.000000,0.000000,0.000000,0.000000,0.000000,0.000000,1773750276.736703,0.000000
238.000000,-27921.933284,2878.815279,-15588.508915,4208.520557,6340.832274,8550.391620,1644.149619,-10347.337764,11629.187957,9714.045789,2323.486188,-20432.087235,12097.054672,5167.835077,2316.735961,-1264.125259,0.012000,-0.010000,1.000000,192.000000,0.000000,0.000000,0.000000,0.000000,0.000000,0.000000,0.000000,0.000000,0.000000,1773750276.736726,0.000000
240.000000,-27939.389996,2871.305093,-15614.459290,4194.640123,6322.637954,8543.373173,1627.229348,-10361.061735,11599.281323,9724.037018,2336.830179,-20408.282627,12153.202254,5183.190725,2322.458008,-1270.651969,0.012000,-0.010000,1.000000,192.000000,0.000000,0.000000,0.000000,0.000000,0.000000,0.000000,0.000000,0.000000,0.000000,1773750276.736765,0.000000
242.000000,-27930.583409,2878.725872,-15609.296037,4206.128920,6322.749713,8534.611289,1637.667613,-10348.433000,11640.922623,9722.159472,2321.899214,-20426.320484,12129.710571,5172.931275,2305.045999,-1254.916341,0.012000,-0.010000,1.000000,192.000000,0.000000,0.000000,0.000000,0.000000,0.000000,0.000000,0.000000,0.000000,0.000000,1773750276.736789,0.000000
244.000000,-27915.585389,2891.153442,-15591.772269,4221.171644,6327.912966,8542.009716,1653.000909,-10331.691543,11608.825518,9735.324649,2348.989528,-20389.238940,12166.233321,5201.519156,2307.437635,-1279.324446,0.006000,-0.012000,0.998000,192.000000,0.000000,24.000000,127.500000,80.000000,15.500000,24.000000,0.000000,0.000000,0.000000,1773750276.736812,0.000000
246.000000,-27941.781633,2871.506258,-15612.984075,4194.662475,6295.771157,8529.380981,1627.050534,-10357.954843,11621.789530,9723.545280,2339.914720,-20413.244714,12103.290809,5171.612522,2301.268554,-1262.113602,0.006000,-0.012000,0.998000,192.000000,0.000000,0.000000,0.000000,0.000000,0.000000,0.000000,0.000000,0.000000,0.000000,1773750276.736826,0.000000
248.000000,-27910.332729,2890.661703,-15585.267912,4214.734341,6338.373582,8548.469370,1654.073793,-10330.506901,11637.860434,9726.942745,2343.490999,-20411.300112,12181.834839,5191.706740,2305.202461,-1272.618922,0.006000,-0.012000,0.998000,192.000000,0.000000,0.000000,0.000000,0.000000,0.000000,0.000000,0.000000,0.000000,0.000000,1773750276.736839,0.000000
250.000000,-27937.423043,2871.752128,-15607.910229,4190.885030,6313.607849,8531.035010,1629.263357,-10354.713840,11602.634085,9722.338286,2347.916645,-20403.097022,12172.558865,5188.018702,2318.099417,-1280.576143,0.006000,-0.012000,0.998000,192.000000,0.000000,0.000000,0.000000,0.000000,0.000000,0.000000,0.000000,0.000000,0.000000,1773750276.736853,0.000000
252.000000,-27931.052796,2874.479040,-15600.198877,4192.896687,6316.737094,8534.812455,1630.760924,-10351.115209,11641.414361,9716.727998,2330.012897,-20430.969647,12059.906073,5137.168483,2310.253955,-1261.778326,0.006000,-0.012000,0.998000,192.000000,0.000000,0.000000,0.000000,0.000000,0.000000,0.000000,0.000000,0.000000,0.000000,1773750276.736864,0.000000
254.000000,-27921.933284,2879.798756,-15589.470040,4202.507937,6327.465931,8544.066077,1642.473238,-10340.811055,11604.779852,9720.572498,2349.123639,-20406.338025,12094.685387,5178.005121,2319.127598,-1281.201992,0.008000,-0.014000,1.004000,192.000000,0.000000,32.000000,127.500000,72.000000,15.500000,48.000000,0.000000,0.000000,0.000000,1773750276.736874,0.000000
0.000000,-27954.633886,2858.698709,-15627.758578,4177.339873,6311.283268,8537.382905,1614.131226,-10370.002433,11609.764291,9709.083701,2330.437580,-20433.473043,12106.911791,5185.180030,2320.535758,-1259.453745,0.008000,-0.014000,1.004000,192.000000,0.000000,0.000000,0.000000,0.000000,0.000000,0.000000,0.000000,0.000000,0.000000,1773750276.736885,0.000000
2.000000,-27919.988682,2883.397386,-15595.326197,4211.828615,6340.139370,8561.455734,1644.551950,-10338.531177,11621.700123,9720.326629,2328.582386,-20422.833612,12215.027179,5162.560065,2316.445388,-1257.933826,0.008000,-0.014000,1.004000,192.000000,0.000000,0.000000,0.000000,0.000000,0.000000,0.000000,0.000000,0.000000,0.000000,1773750276.736895,0.000000
4.000000,-27939.278238,2870.343968,-15612.939371,4191.756748,6320.134559,8543.306117,1624.189511,-10356.636090,11592.531096,9723.120597,2340.138237,-20409.444917,12077.094564,5191.505574,2328.470627,-1263.097079,0.008000,-0.014000,1.004000,192.000000,0.000000,0.000000,0.000000,0.000000,0.000000,0.000000,0.000000,0.000000,0.000000,1773750276.736906,0.000000
6.000000,-27927.364758,2879.307017,-15610.279514,4199.423397,6329.566995,8547.128266,1630.939738,-10345.728439,11637.927489,9723.858204,2327.844778,-20428.935639,12098.485184,5156.681556,2312.712647,-1247.562617,0.008000,-0.014000,1.004000,192.000000,0.000000,0.000000,0.000000,0.000000,0.000000,0.000000,0.000000,0.000000,0.000000,1773750276.736916,0.000000
8.000000,-27906.287063,2899.535346,-15598.969531,4216.455426,6331.444541,8554.750211,1647.904712,-10325.097778,11602.812898,9733.201234,2351.738793,-20392.681109,12190.954350,5218.193557,2317.987659,-1269.556733,0.008000,-0.016000,1.008000,192.000000,0.000000,32.000000,127.500000,64.000000,15.500000,64.000000,0.000000,0.000000,0.000000,1773750276.736927,0.000000
10.000000,-27938.026540,2880.223439,-15627.624467,4193.991923,6310.344495,8537.852292,1623.138979,-10352.635128,11618.190899,9733.871786,2339.065354,-20405.868638,12185.992263,5187.728129,2306.163586,-1254.156381,0.008000,-0.016000,1.008000,192.000000,0.000000,0.000000,0.000000,0.000000,0.000000,0.000000,0.000000,0.000000,0.000000,1773750276.736938,0.000000
12.000000,-27904.163647,2900.272954,-15584.910284,4221.238699,6337.077181,8554.392583,1652.822095,-10326.863566,11631.624297,9733.782379,2339.355926,-20405.779231,12088.426899,5177.803955,2303.168452,-1262.158306,0.008000,-0.016000,1.008000,192.000000,0.000000,0.000000,0.000000,0.000000,0.000000,0.000000,0.000000,0.000000,0.000000,1773750276.736949,0.000000
14.000000,-27930.404595,2882.548020,-15610.257162,4198.194051,6320.894518,8540.288632,1630.068020,-10350.556415,11601.382387,9731.480149,2349.302453,-20397.173810,12137.377219,5201.787377,2314.076103,-1274.317655,0.008000,-0.016000,1.008000,192.000000,0.000000,0.000000,0.000000,0.000000,0.000000,0.000000,0.000000,0.000000,0.000000,1773750276.736960,0.000000
16.000000,-27924.257865,2886.727796,-15602.679921,4199.646914,6329.187015,8538.031106,1634.918348,-10345.460218,11643.984812,9725.601640,2333.924453,-20424.040607,12083.285997,5160.570760,2307.437635,-1257.307977,0.008000,-0.016000,1.008000,192.000000,0.000000,0.000000,0.000000,0.000000,0.000000,0.000000,0.000000,0.000000,0.000000,1773750276.736972,0.000000
18.000000,-27913.953711,2893.120395,-15590.431165,4208.833481,6336.428980,8534.298364,1647.658843,-10331.780950,11605.383349,9729.043809,2355.963273,-20394.960987,12169.250806,5181.246123,2319.105246,-1281.447861,0.014000,-0.020000,1.004000,192.000000,0.000000,56.000000,127.500000,48.000000,15.500000,48.000000,0.000000,0.000000,0.000000,1773750276.736983,0.000000
20.000000,-27948.755377,2866.901799,-15624.562278,4175.663492,6300.621486,8526.609364,1616.321697,-10365.085049,11611.954762,9715.431597,2341.658156,-20420.173755,12117.439463,5187.079929,2316.981830,-1265.756937,0.014000,-0.020000,1.004000,192.000000,0.000000,0.000000,0.000000,0.000000,0.000000,0.000000,0.000000,0.000000,0.000000,1773750276.736994,0.000000
22.000000,-27923.028520,2883.531497,-15597.941351,4205.726588,6332.807998,8549.788123,1643.747287,-10342.196863,11614.704027,9715.141024,2334.304432,-20426.253429,12124.569669,5169.757327,2315.350153,-1266.628655,0.014000,-0.020000,1.004000,192.000000,0.000000,0.000000,0.000000,0.000000,0.000000,0.000000,0.000000,0.000000,0.000000,1773750276.737004,0.000000
24.000000,-27945.939058,2871.662721,-15621.723607,4184.648893,6317.251184,8534.298364,1621.216729,-10363.766296,11575.901398,9716.035094,2337.947767,-20414.004673,12129.710571,5186.454080,2324.715534,-1270.137879,0.014000,-0.020000,1.004000,192.000000,0.000000,0.000000,0.000000,0.000000,0.000000,0.000000,0.000000,0.000000,0.000000,1773750276.737014,0.000000
26.000000,-27936.484270,2878.055320,-15616.403892,4188.560449,6331.690411,8541.070943,1625.865892,-10356.926663,11621.297791,9710.827137,2318.859377,-20438.949220,12136.125521,5146.667975,2318.121769,-1258.872599,0.014000,-0.020000,1.004000,192.000000,0.000000,0.000000,0.000000,0.000000,0.000000,0.000000,0.000000,0.000000,0.000000,1773750276.737026,0.000000
28.000000,-27912.702014,2899.758863,-15592.219304,4208.609963,6338.753562,8550.324565,1646.563607,-10332.675020,11597.403776,9728.172091,2347.938996,-20399.185467,12144.552129,5178.809783,2324.313202,-1279.436204,0.014000,-0.018000,1.008000,192.000000,0.000000,56.000000,127.500000,56.000000,15.500000,64.000000,0.000000,0.000000,0.000000,1773750276.737037,0.000000
30.000000,-27938.361816,2881.497488,-15623.824671,4185.610018,6313.093759,8535.304193,1621.172025,-10356.211407,11614.748730,9726.003972,2340.205293,-20413.736452,12116.455986,5182.363711,2320.535758,-1262.739451,0.014000,-0.018000,1.008000,192.000000,0.000000,0.000000,0.000000,0.000000,0.000000,0.000000,0.000000,0.000000,0.000000,1773750276.737047,0.000000
32.000000,-27909.282197,2898.998904,-15594.365072,4215.829577,6338.194768,8555.532522,1650.653976,-10329.635183,11628.003314,9732.240109,2340.562921,-20411.814202,12114.824309,5213.164415,2311.885633,-1270.316693,0.014000,-0.018000,1.008000,192.000000,0.000000,0.000000,0.000000,0.000000,0.000000,0.000000,0.000000,0.000000,0.000000,1773750276.737058,0.000000
34.000000,-27934.316150,2880.581067,-15621.857717,4198.059940,6315.060713,8545.965975,1629.799799,-10350.444657,11587.613712,9728.596774,2345.323842,-20400.906551,12180.381975,5200.938010,2317.026534,-1270.786079,0.014000,-0.018000,1.008000,192.000000,0.000000,0.000000,0.000000,0.000000,0.000000,0.000000,0.000000,0.000000,0.000000,1773750276.737069,0.000000
36.000000,-27928.862325,2882.369206,-15608.357264,4204.497243,6304.913021,8534.298364,1634.918348,-10343.850892,11627.019838,9723.277059,2329.409400,-20424.845269,12079.262683,5154.915768,2297.781682,-1255.452783,0.014000,-0.018000,1.008000,192.000000,0.000000,0.000000,0.000000,0.000000,0.000000,0.000000,0.000000,0.000000,0.000000,1773750276.737079,0.000000
38.000000,-27910.511543,2896.003770,-15588.933598,4218.042400,6319.799283,8539.506321,1652.620930,-10325.433055,11597.515535,9731.390742,2355.091555,-20391.541170,12139.858263,5188.644551,2308.197595,-1281.179640,0.012000,-0.014000,1.008000,192.000000,0.000000,48.000000,127.500000,72.000000,15.500000,64.000000,0.000000,0.000000,0.000000,1773750276.737090,0.000000
40.000000,-27940.217011,2875.797793,-15614.839269,4188.292228,6300.554431,8527.011696,1626.894072,-10352.478665,11611.731245,9722.003010,2342.976909,-20412.149478,12102.463794,5194.165432,2307.169414,-1267.276855,0.012000,-0.014000,1.008000,192.000000,0.000000,0.000000,0.000000,0.000000,0.000000,0.000000,0.000000,0.000000,0.000000,1773750276.737100,0.000000
42.000000,-27908.321072,2896.651971,-15587.816010,4211.828615,6339.558225,8549.452847,1653.090316,-10327.645877,11624.292925,9720.237222,2340.697031,-20412.685920,12152.062315,5176.507554,2309.181071,-1270.473155,0.012000,-0.014000,1.008000,192.000000,0.000000,0.000000,0.000000,0.000000,0.000000,0.000000,0.000000,0.000000,0.000000,1773750276.737111,0.000000
44.000000,-27933.556191,2879.865811,-15612.402929,4190.661513,6324.761370,8541.473274,1630.537406,-10349.684697,11587.680767,9720.550146,2346.642595,-20399.923074,12151.950556,5175.434670,2322.659173,-1277.782175,0.012000,-0.014000,1.008000,192.000000,0.000000,0.000000,0.000000,0.000000,0.000000,0.000000,0.000000,0.000000,0.000000,1773750276.737121,0.000000
46.000000,-27936.484270,2875.507221,-15609.586610,4190.572106,6322.280326,8545.138960,1630.246834,-10351.472837,11627.131596,9714.269306,2326.928357,-20430.477909,12141.489940,5178.005121,2312.667944,-1261.331291,0.012000,-0.014000,1.008000,192.000000,0.000000,0.000000,0.000000,0.000000,0.000000,0.000000,0.000000,0.000000,0.000000,1773750276.737132,0.000000
48.000000,-27925.576618,2882.928000,-15590.386461,4204.407836,6330.349306,8546.144789,1643.657880,-10340.878110,11591.972302,9717.778530,2343.580406,-20406.315673,12091.466736,5202.010894,2326.727191,-1279.927943,0.015000,-0.013000,1.008000,192.000000,0.000000,72.000000,127.500000,80.000000,15.500000,64.000000,0.000000,0.000000,0.000000,1773750276.737142,0.000000
50.000000,-27950.856441,2869.069918,-15624.696389,4181.966684,6304.264820,8527.190510,1617.036953,-10365.241511,11607.886744,9713.285829,2325.833121,-20426.275781,12138.137178,5153.731126,2321.630993,-1268.416794,0.015000,-0.013000,1.008000,192.000000,0.000000,0.000000,0.000000,0.000000,0.000000,0.000000,0.000000,0.000000,0.000000,1773750276.737153,0.000000
52.000000,-27915.987720,2892.516898,-15593.023967,4212.476815,6343.201559,8541.070943,1648.687023,-10333.054999,11624.114111,9726.674524,2332.672755,-20415.211667,12128.883556,5176.015815,2314.634897,-1273.714158,0.015000,-0.013000,1.008000,192.000000,0.000000,0.000000,0.000000,0.000000,0.000000,0.000000,0.000000,0.000000,0.000000,1773750276.737163,0.000000
54.000000,-27936.774842,2878.636465,-15617.946162,4194.170737,6317.854681,8529.537443,1629.129246,-10351.964575,11586.071442,9723.902908,2343.490999,-20402.605284,12131.543414,5202.457929,2322.368601,-1279.525611,0.015000,-0.013000,1.008000,192.000000,0.000000,0.000000,0.000000,0.000000,0.000000,0.000000,0.000000,0.000000,0.000000,1773750276.737174,0.000000
56.000000,-27930.918685,2882.615075,-15606.859697,4202.865565,6312.445559,8542.188530,1635.767714,-10344.454389,11631.199614,9720.952478,2328.470627,-20428.242734,12083.598922,5180.083833,2304.062522,-1263.566466,0.015000,-0.013000,1.008000,192.000000,0.000000,0.000000,0.000000,0.000000,0.000000,0.000000,0.000000,0.000000,0.000000,1773750276.737185,0.000000
58.000000,-27916.457107,2894.483852,-15593.962740,4220.724609,6339.692335,8553.051478,1649.670500,-10329.702238,11604.556335,9735.972850,2355.605645,-20392.211722,12134.069161,5194.523060,2317.406513,-1281.447861,0.014500,-0.015500,1.007000,192.000000,0.000000,56.000000,127.500000,56.000000,15.500000,56.000000,0.000000,0.000000,0.000000,1773750277.217016,0.000000
60.000000,-27944.441491,2876.334235,-15630.172566,4195.735359,6317.452349,8546.547120,1622.244909,-10356.837256,11614.011122,9729.513196,2336.114923,-20413.669397,12219.251659,5187.638722,2316.713609,-1262.918265,0.014500,-0.015500,1.007000,192.000000,0.000000,0.000000,0.000000,0.000000,0.000000,0.000000,0.000000,0.000000,0.000000,1773750277.217091,0.000000
62.000000,-27905.214179,2904.788006,-15584.351490,4225.396124,6342.709821,8565.769621,1653.783221,-10321.901479,11632.317201,9736.598699,2340.138237,-20407.522667,12112.723245,5198.635781,2310.566880,-1266.494544,0.014500,-0.015500,1.007000,192.000000,0.000000,0.000000,0.000000,0.000000,0.000000,0.000000,0.000000,0.000000,0.000000,1773750277.217149,0.000000
64.000000,-27926.180115,2890.102910,-15604.378653,4202.776158,6318.815806,8552.358574,1633.644299,-10340.766351,11605.182183,9740.376144,2358.533723,-20391.965853,12121.820405,5188.488089,2321.183958,-1275.636408,0.014500,-0.015500,1.007000,192.000000,0.000000,0.000000,0.000000,0.000000,0.000000,0.000000,0.000000,0.000000,0.000000,1773750277.217211,0.000000
66.000000,-27926.269522,2886.817203,-15604.780984,4198.864603,6315.172471,8550.682193,1634.918348,-10342.174511,11639.201538,9729.535547,2341.188769,-20424.241772,12102.866125,5190.700911,2308.219946,-1258.805544,0.014500,-0.015500,1.007000,192.000000,0.000000,0.000000,0.000000,0.000000,0.000000,0.000000,0.000000,0.000000,0.000000,1773750277.217264,0.000000
68.000000,-27918.759336,2889.164137,-15595.572066,4208.520557,6328.807036,8552.246815,1645.222502,-10333.189110,11602.365864,9734.676449,2360.321863,-20398.671377,12185.724042,5211.443330,2320.111074,-1276.306960,0.013250,-0.017750,1.009500,192.000000,0.000000,48.000000,127.500000,48.000000,15.500000,80.000000,0.000000,0.000000,0.000000,1773750277.217319,0.000000
70.000000,-27953.270430,2864.890142,-15624.808148,4181.921981,6303.437806,8539.819245,1616.031124,-10362.380488,11607.953800,9718.270268,2337.925415,-20425.560525,12113.885535,5172.864219,2322.502711,-1260.236056,0.013250,-0.017750,1.009500,192.000000,0.000000,0.000000,0.000000,0.000000,0.000000,0.000000,0.000000,0.000000,0.000000,1773750277.217349,0.000000
72.000000,-27923.564961,2883.151517,-15588.933598,4212.007429,6335.691373,8553.722030,1645.513075,-10336.765389,11625.835195,9720.058408,2336.629014,-20424.062958,12110.242201,5153.597016,2317.428865,-1269.623789,0.013250,-0.017750,1.009500,192.000000,0.000000,0.000000,0.000000,0.000000,0.000000,0.000000,0.000000,0.000000,0.000000,1773750277.217372,0.000000
74.000000,-27942.116909,2870.209857,-15612.335874,4192.851984,6321.185091,8532.353763,1627.586976,-10351.584596,11590.877067,9720.594850,2347.447258,-20410.361339,12153.045792,5185.560010,2328.940014,-1281.179640,0.013250,-0.017750,1.009500,192.000000,0.000000,0.000000,0.000000,0.000000,0.000000,0.000000,0.000000,0.000000,0.000000,1773750277.217396,0.000000
76.000000,-27937.579505,2872.266218,-15615.375711,4192.784928,6325.118998,8529.313925,1630.425648,-10348.410648,11637.480454,9712.145890,2334.773819,-20437.071674,12170.368394,5182.319007,2314.120807,-1269.534382,0.013250,-0.017750,1.009500,192.000000,0.000000,0.000000,0.000000,0.000000,0.000000,0.000000,0.000000,0.000000,0.000000,1773750277.217418,0.000000
78.000000,-27921.665063,2886.772500,-15594.253313,4211.716856,6347.180169,8534.566585,1645.423668,-10332.227985,11603.125823,9723.277059,2357.237322,-20405.108679,12127.162472,5180.866144,2326.078990,-1290.679132,0.010625,-0.019875,1.009750,192.000000,0.000000,32.000000,127.500000,40.000000,15.500000,72.000000,0.000000,0.000000,0.000000,1773750277.217441,0.000000
80.000000,-27951.594049,2867.125317,-15624.606982,4186.414681,6313.540794,8521.669629,1618.065133,-10361.240549,11615.620448,9718.247916,2343.222778,-20424.979380,12111.069216,5170.338472,2320.021667,-1272.708329,0.010625,-0.019875,1.009750,192.000000,0.000000,0.000000,0.000000,0.000000,0.000000,0.000000,0.000000,0.000000,0.000000,1773750277.217464,0.000000
82.000000,-27915.495982,2891.935753,-15586.631368,4219.249394,6333.612661,8543.730801,1649.782258,-10329.746941,11630.216137,9724.305239,2341.993432,-20421.403101,12133.465664,5182.654283,2313.852586,-1275.591704,0.010625,-0.019875,1.009750,192.000000,0.000000,0.000000,0.000000,0.000000,0.000000,0.000000,0.000000,0.000000,0.000000,1773750277.217486,0.000000
84.000000,-27934.226743,2879.061148,-15609.921886,4201.077426,6312.803187,8533.717219,1630.582110,-10344.275575,11602.298808,9728.909699,2357.326729,-20401.219475,12151.995260,5191.505574,2318.255880,-1281.380806,0.010625,-0.019875,1.009750,192.000000,0.000000,0.000000,0.000000,0.000000,0.000000,0.000000,0.000000,0.000000,0.000000,1773750277.217509,0.000000
86.000000,-27931.723348,2883.397386,-15603.998673,4202.217365,6315.485396,8539.059286,1634.068982,-10340.609889,11642.084914,9728.864995,2340.808790,-20427.214554,12102.307332,5192.801975,2306.051827,-1262.940617,0.010625,-0.019875,1.009750,192.000000,0.000000,0.000000,0.000000,0.000000,0.000000,0.000000,0.000000,0.000000,0.000000,1773750277.217531,0.000000
88.000000,-27919.631054,2893.321561,-15591.347586,4217.908289,6326.616565,8545.965975,1650.676328,-10323.980191,11608.892573,9737.962155,2362.221761,-20396.145629,12132.370428,5199.753368,2314.076103,-1280.978475,0.010313,-0.016938,1.011875,192.000000,0.000000,40.000000,127.500000,72.000000,15.500000,88.000000,0.000000,0.000000,0.000000,1773750277.217553,0.000000
90.000000,-27950.565869,2873.652026,-15625.523403,4187.196992,6295.815861,8531.124417,1621.931985,-10352.858645,11614.256992,9730.004934,2345.994395,-20415.681054,12148.955423,5167.343338,2310.924507,-1263.655873,0.010313,-0.016938,1.011875,192.000000,0.000000,0.000000,0.000000,0.000000,0.000000,0.000000,0.000000,0.000000,0.000000,1773750277.217585,0.000000
92.000000,-27923.386147,2885.364340,-15588.352452,4211.202766,6335.289041,8554.459638,1649.916369,-10328.539947,11629.925565,9721.868899,2344.541531,-20419.860830,12135.365562,5164.616426,2311.952688,-1270.942541,0.010313,-0.016938,1.011875,192.000000,0.000000,0.000000,0.000000,0.000000,0.000000,0.000000,0.000000,0.000000,0.000000,1773750277.217607,0.000000
94.000000,-27946.743720,2873.406157,-15617.074444,4192.494356,6316.714742,8546.725934,1627.609328,-10350.645822,11592.642855,9723.277059,2352.968139,-20407.276798,12129.241184,5202.748502,2326.973060,-1273.982379,0.010313,-0.016938,1.011875,192.000000,0.000000,0.000000,0.000000,0.000000,0.000000,0.000000,0.000000,0.000000,0.000000,1773750277.217630,0.000000
96.000000,-27946.274334,2871.349796,-15618.460252,4192.159080,6308.891631,8541.897958,1628.726915,-10353.283328,11630.037323,9718.314972,2328.761200,-20437.071674,12168.557902,5202.815557,2315.685429,-1255.586893,0.010313,-0.016938,1.011875,192.000000,0.000000,0.000000,0.000000,0.000000,0.000000,0.000000,0.000000,0.000000,0.000000,1773750277.217652,0.000000
98.000000,-27937.378339,2878.323540,-15602.255237,4206.866527,6315.306582,8532.689039,1642.942624,-10340.654593,11590.698253,9720.304277,2345.033270,-20411.098946,12118.177070,5174.361786,2321.407476,-1279.235039,0.011156,-0.016469,1.011937,192.000000,0.000000,48.000000,127.500000,64.000000,15.500000,80.000000,0.000000,0.000000,0.000000,1773750277.217675,0.000000
100.000000,-27968.313154,2858.698709,-15629.524366,4178.770385,6294.541811,8507.275105,1615.159406,-10368.728384,11599.147212,9711.363579,2331.063429,-20431.729607,12072.959491,5157.866199,2320.088723,-1275.949332,0.011156,-0.016469,1.011937,192.000000,0.000000,0.000000,0.000000,0.000000,0.000000,0.000000,0.000000,0.000000,0.000000,1773750277.217697,0.000000
102.000000,-27926.515392,2887.398349,-15598.164868,4210.263993,6334.014992,8529.358629,1646.764773,-10334.999601,11614.189936,9715.006914,2330.124656,-20428.957990,12121.082797,5182.855449,2318.926432,-1286.007617,0.011156,-0.016469,1.011937,192.000000,0.000000,0.000000,0.000000,0.000000,0.000000,0.000000,0.000000,0.000000,0.000000,1773750277.217720,0.000000
104.000000,-27942.094558,2877.675340,-15623.511746,4197.501146,6313.652553,8522.563699,1627.497569,-10351.584596,11589.379500,9728.082684,2346.061450,-20405.801583,12130.828158,5194.724225,2330.079952,-1288.756882,0.011156,-0.016469,1.011937,192.000000,0.000000,0.000000,0.000000,0.000000,0.000000,0.000000,0.000000,0.000000,0.000000,1773750277.217754,0.000000
106.000000,-27930.270485,2886.906610,-15613.811089,4204.139615,6328.360001,8531.102065,1631.073848,-10346.175473,11639.000373,9731.748370,2329.007069,-20427.348665,12152.039963,5160.503705,2313.807883,-1267.545076,0.011156,-0.016469,1.011937,192.000000,0.000000,0.000000,0.000000,0.000000,0.000000,0.000000,0.000000,0.000000,0.000000,1773750277.217777,0.000000
108.000000,-27910.422136,2903.178680,-15589.827667,4219.227042,6345.481437,8542.993193,1648.262340,-10327.958802,11615.553393,9745.181769,2353.750450,-20392.926978,12184.628807,5205.318952,2323.732057,-1283.526574,0.011578,-0.015234,1.011969,192.000000,0.000000,48.000000,127.500000,72.000000,15.500000,80.000000,0.000000,0.000000,0.000000,1773750277.217793,0.000000
110.000000,-27937.624209,2885.431395,-15615.398063,4193.433129,6316.312410,8534.164254,1622.468427,-10352.545721,11631.959573,9740.823178,2346.754354,-20412.328292,12102.709663,5223.088589,2318.389990,-1262.024195,0.011578,-0.015234,1.011969,192.000000,0.000000,0.000000,0.000000,0.000000,0.000000,0.000000,0.000000,0.000000,0.000000,1773750277.217806,0.000000
112.000000,-27905.080069,2905.972648,-15578.718850,4223.071542,6353.282196,8557.745344,1653.045613,-10322.728494,11648.745733,9748.065144,2350.889427,-20408.260275,12148.530739,5208.381141,2315.461912,-1265.041681,0.011578,-0.015234,1.011969,192.000000,0.000000,0.000000,0.000000,0.000000,0.000000,0.000000,0.000000,0.000000,0.000000,1773750277.217818,0.000000
114.000000,-27934.047930,2887.688921,-15606.792641,4201.055074,6322.526195,8553.453809,1631.878511,-10343.403857,11606.210364,9746.053487,2356.566770,-20395.944464,12167.283853,5187.862240,2327.129522,-1274.004730,0.011578,-0.015234,1.011969,192.000000,0.000000,0.000000,0.000000,0.000000,0.000000,0.000000,0.000000,0.000000,0.000000,1773750277.217831,0.000000
116.000000,-27932.930342,2880.938695,-15600.243580,4201.926792,6333.567957,8547.843522,1633.487837,-10344.141465,11649.840969,9736.084609,2339.668851,-20423.615923,12138.047771,5170.070251,2321.832159,-1259.654911,0.011578,-0.015234,1.011969,192.000000,0.000000,0.000000,0.000000,0.000000,0.000000,0.000000,0.000000,0.000000,0.000000,1773750277.217844,0.000000
118.000000,-27930.471650,2882.816241,-15592.845153,4212.700333,6340.340536,8558.974690,1643.948453,-10338.330011,11602.499974,9731.703667,2353.057546,-20403.477002,12162.098248,5205.184842,2334.058563,-1274.652931,0.011578,-0.015234,1.011969,192.000000,0.000000,0.000000,0.000000,0.000000,0.000000,0.000000,0.000000,0.000000,0.000000,1773750277.217856,0.000000
120.000000,-27961.026485,2858.788116,-15633.525328,4183.441899,6312.646724,8530.342106,1613.885357,-10369.443639,11609.250201,9719.946649,2333.969156,-20428.980342,12144.909757,5182.296655,2332.024554,-1253.843457,0.010000,-0.014000,1.004000,192.000000,0.000000,40.000000,127.500000,72.000000,15.500000,48.000000,0.000000,0.000000,0.000000,1773750277.217870,0.000000
122.000000,-27938.495927,2874.859020,-15596.577894,4208.699370,6331.377486,8531.929080,1643.434363,-10344.253223,11616.492166,9714.895155,2328.940014,-20433.696560,12117.394759,5170.405527,2322.681525,-1266.807469,0.010000,-0.014000,1.004000,192.000000,0.000000,0.000000,0.000000,0.000000,0.000000,0.000000,0.000000,0.000000,0.000000,1773750277.217884,0.000000
124.000000,-27960.646505,2858.832819,-15619.130804,4187.129937,6307.908154,8510.158480,1624.927118,-10364.190980,11578.382442,9712.257649,2338.350098,-20422.319522,12155.482132,5173.601827,2332.091609,-1279.190335,0.010000,-0.014000,1.004000,192.000000,0.000000,0.000000,0.000000,0.000000,0.000000,0.000000,0.000000,0.000000,0.000000,1773750277.217897,0.000000
126.000000,-27951.839918,2866.566523,-15614.906325,4190.125071,6307.058788,8508.973838,1631.789104,-10353.998584,11620.783701,9711.721207,2321.049848,-20445.140653,12108.766986,5175.367615,2317.764141,-1271.814260,0.010000,-0.014000,1.004000,192.000000,0.000000,0.000000,0.000000,0.000000,0.000000,0.000000,0.000000,0.000000,0.000000,1773750277.217910,0.000000
128.000000,-27922.894409,2886.861907,-15594.745051,4211.470987,6334.596137,8519.970896,1649.670500,-10327.914098,11594.252180,9723.232356,2347.804886,-20406.405080,12126.402512,5198.859298,2324.559072,-1292.400216,0.010000,-0.014000,1.004000,192.000000,0.000000,0.000000,0.000000,0.000000,0.000000,0.000000,0.000000,0.000000,0.000000,1773750277.217923,0.000000
130.000000,-27946.989590,2873.562619,-15622.572973,4189.901553,6303.482509,8513.466539,1622.602537,-10353.283328,11620.984867,9727.278021,2343.870979,-20417.715063,12114.019646,5165.085812,2320.826330,-1274.630579,0.010000,-0.016000,1.004000,192.000000,0.000000,40.000000,127.500000,64.000000,15.500000,48.000000,0.000000,0.000000,0.000000,1773750277.217936,0.000000
132.000000,-27913.238455,2897.948372,-15586.273740,4220.724609,6331.757466,8542.836731,1652.084488,-10323.980191,11639.961498,9732.329515,2347.760182,-20414.675226,12142.048733,5167.678615,2315.439560,-1274.787042,0.010000,-0.016000,1.004000,192.000000,0.000000,0.000000,0.000000,0.000000,0.000000,0.000000,0.000000,0.000000,0.000000,1773750277.217949,0.000000
134.000000,-27933.958523,2885.364340,-15607.507897,4202.507937,6324.917832,8537.785237,1632.191435,-10345.147293,11606.836212,9734.832911,2359.159572,-20400.146592,12175.352833,5177.826307,2330.214063,-1278.564486,0.010000,-0.016000,1.004000,192.000000,0.000000,0.000000,0.000000,0.000000,0.000000,0.000000,0.000000,0.000000,0.000000,1773750277.217962,0.000000
136.000000,-27930.918685,2886.414872,-15601.115298,4201.278591,6329.365829,8552.179760,1635.745363,-10343.359154,11648.589271,9732.508329,2341.345232,-20427.750996,12141.400533,5222.306278,2317.920604,-1257.665605,0.010000,-0.016000,1.004000,192.000000,0.000000,0.000000,0.000000,0.000000,0.000000,0.000000,0.000000,0.000000,0.000000,1773750277.217975,0.000000
138.000000,-27910.645653,2900.898802,-15580.238769,4219.964650,6350.398821,8551.933891,1651.145715,-10319.621601,11619.107320,9737.962155,2365.730985,-20396.570313,12126.380161,5202.524984,2327.062467,-1280.687902,0.010000,-0.016000,1.004000,192.000000,0.000000,0.000000,0.000000,0.000000,0.000000,0.000000,0.000000,0.000000,0.000000,1773750277.217987,0.000000
140.000000,-27939.948790,2881.609247,-15613.900496,4192.516707,6327.711800,8538.768713,1622.200206,-10343.850892,11636.787550,9733.782379,2358.846648,-20408.886124,12127.430693,5158.268530,2324.871996,-1264.572294,0.012000,-0.012000,1.008000,192.000000,0.000000,48.000000,127.500000,80.000000,15.500000,64.000000,0.000000,0.000000,0.000000,1773750277.218000,0.000000
142.000000,-27919.318130,2892.941581,-15585.960816,4214.287307,6360.859437,8565.322586,1646.273034,-10328.137616,11643.582480,9729.960231,2350.665909,-20414.496412,12179.174981,5194.478356,2323.799112,-1264.169963,0.012000,-0.012000,1.008000,192.000000,0.000000,0.000000,0.000000,0.000000,0.000000,0.000000,0.000000,0.000000,0.000000,1773750277.218013,0.000000
144.000000,-27953.717465,2869.472250,-15612.738206,4193.924867,6332.852701,8546.144789,1620.970860,-10360.502942,11593.916904,9725.333419,2349.525970,-20411.724795,12127.073065,5199.149871,2337.590139,-1263.275893,0.012000,-0.012000,1.008000,192.000000,0.000000,0.000000,0.000000,0.000000,0.000000,0.000000,0.000000,0.000000,0.000000,1773750277.218025,0.000000
146.000000,-27956.042046,2864.241941,-15618.728473,4193.299019,6337.814789,8529.537443,1621.909633,-10364.459200,11619.844928,9713.308181,2320.133426,-20446.235889,12157.270271,5160.280187,2326.570729,-1249.238998,0.012000,-0.012000,1.008000,192.000000,0.000000,0.000000,0.000000,0.000000,0.000000,0.000000,0.000000,0.000000,0.000000,1773750277.218038,0.000000
148.000000,-27942.273371,2873.048529,-15597.069633,4207.537080,6348.543626,8527.257565,1638.159351,-10348.120075,11586.585532,9718.382027,2338.327746,-20416.530420,12135.119693,5183.235429,2345.748525,-1280.330274,0.012000,-0.012000,1.008000,192.000000,0.000000,0.000000,0.000000,0.000000,0.000000,0.000000,0.000000,0.000000,0.000000,1773750277.218051,0.000000
150.000000,-27967.553194,2856.955273,-15631.446616,4177.496335,6325.208405,8510.829033,1609.370304,-10373.802230,11598.946047,9710.245992,2324.335554,-20437.786929,12126.447216,5189.672731,2340.540569,-1267.567428,0.016000,-0.014000,1.010000,192.000000,0.000000,64.000000,127.500000,72.000000,15.500000,72.000000,0.000000,0.000000,0.000000,1773750277.218064,0.000000
152.000000,-27925.710729,2888.001846,-15600.109470,4213.147368,6352.924568,8535.281841,1642.495590,-10337.279479,11625.075236,9724.416998,2328.045944,-20428.756825,12144.820350,5174.339434,2329.610566,-1273.825917,0.016000,-0.014000,1.010000,192.000000,0.000000,0.000000,0.000000,0.000000,0.000000,0.000000,0.000000,0.000000,0.000000,1773750277.218076,0.000000
154.000000,-27947.727197,2874.233171,-15622.014179,4196.092987,6312.356152,8526.341143,1624.323621,-10355.585558,11591.972302,9729.267327,2340.764086,-20409.266103,12188.897990,5165.979882,2332.225720,-1280.978475,0.016000,-0.014000,1.010000,192.000000,0.000000,0.000000,0.000000,0.000000,0.000000,0.000000,0.000000,0.000000,0.000000,1773750277.218090,0.000000
156.000000,-27935.947828,2882.972703,-15606.636179,4204.139615,6312.177338,8538.634603,1632.794932,-10344.521444,11640.229719,9727.568594,2334.147970,-20433.204822,12072.132477,5167.946836,2308.264650,-1263.700576,0.016000,-0.014000,1.010000,192.000000,0.000000,0.000000,0.000000,0.000000,0.000000,0.000000,0.000000,0.000000,0.000000,1773750277.218104,0.000000
158.000000,-27913.909008,2899.647105,-15587.212513,4223.384467,6323.710838,8557.208903,1651.056308,-10324.248412,11612.334742,9746.098190,2361.640616,-20395.810353,12126.670733,5213.007952,2314.232566,-1279.927943,0.016000,-0.014000,1.010000,192.000000,0.000000,0.000000,0.000000,0.000000,0.000000,0.000000,0.000000,0.000000,0.000000,1773750277.218116,0.000000
160.000000,-27946.050816,2876.244828,-15620.941296,4194.550716,6299.459195,8542.009716,1623.586014,-10351.428133,11629.679695,9736.822216,2351.202351,-20416.686883,12161.897083,5213.365580,2310.768045,-1262.024195,0.012000,-0.016000,1.004000,192.000000,0.000000,48.000000,127.500000,64.000000,15.500000,48.000000,0.000000,0.000000,0.000000,1773750277.218129,0.000000
162.000000,-27915.495982,2896.048474,-15584.798525,4224.502054,6331.980983,8553.610272,1653.090316,-10320.962706,11641.414361,9741.069048,2350.040060,-20412.104775,12141.244071,5187.236391,2303.771949,-1266.293379,0.012000,-0.016000,1.004000,192.000000,0.000000,0.000000,0.000000,0.000000,0.000000,0.000000,0.000000,0.000000,0.000000,1773750277.218142,0.000000
164.000000,-27939.233534,2879.150555,-15604.915095,4204.497243,6326.124826,8537.740533,1633.219616,-10340.207558,11606.925619,9736.509292,2359.696014,-20398.783135,12153.515178,5190.030359,2324.044981,-1271.121355,0.012000,-0.016000,1.004000,192.000000,0.000000,0.000000,0.000000,0.000000,0.000000,0.000000,0.000000,0.000000,0.000000,1773750277.218154,0.000000
166.000000,-27941.803985,2871.126279,-15599.394214,4201.032722,6346.643728,8545.988327,1632.549063,-10344.834369,11652.076143,9726.071027,2340.920549,-20429.047397,12155.370373,5199.529850,2321.429827,-1252.681166,0.012000,-0.016000,1.004000,192.000000,0.000000,0.000000,0.000000,0.000000,0.000000,0.000000,0.000000,0.000000,0.000000,1773750277.218167,0.000000
168.000000,-27931.835107,2876.445994,-15582.496295,4214.443769,6358.758373,8553.677327,1644.395488,-10336.944203,11618.526175,9724.998143,2356.432659,-20405.578066,12154.498655,5200.960362,2339.646499,-1265.980454,0.012000,-0.016000,1.004000,192.000000,0.000000,0.000000,0.000000,0.000000,0.000000,0.000000,0.000000,0.000000,0.000000,1773750277.218180,0.000000
170.000000,-27969.721314,2845.645290,-15621.321275,4182.972513,6322.593251,8520.708504,1612.834825,-10372.930512,11618.883803,9712.101187,2333.879749,-20433.003656,12128.682390,5147.226768,2337.947767,-1249.998957,0.010000,-0.008000,1.006000,192.000000,0.000000,40.000000,127.500000,96.000000,15.500000,56.000000,0.000000,0.000000,0.000000,1773750277.218192,0.000000
172.000000,-27941.871040,2864.063128,-15598.433089,4207.514728,6356.634957,8524.888280,1640.238063,-10348.053020,11622.907117,9709.284867,2328.291813,-20437.317543,12178.035042,5160.414298,2335.310261,-1268.841477,0.010000,-0.008000,1.006000,192.000000,0.000000,0.000000,0.000000,0.000000,0.000000,0.000000,0.000000,0.000000,0.000000,1773750277.218205,0.000000
174.000000,-27965.541537,2849.802715,-15615.420415,4189.990960,6317.497053,8513.444187,1621.931985,-10366.694375,11583.769212,9711.475338,2334.684412,-20423.593572,12115.651323,5190.812670,2343.669813,-1280.576143,0.010000,-0.008000,1.006000,192.000000,0.000000,0.000000,0.000000,0.000000,0.000000,0.000000,0.000000,0.000000,0.000000,1773750277.218218,0.000000
176.000000,-27956.556136,2857.894046,-15616.493299,4194.461309,6313.518442,8522.742513,1625.262395,-10358.670099,11624.583498,9705.328608,2317.875900,-20448.783988,12113.304390,5162.962396,2325.386086,-1265.399309,0.010000,-0.008000,1.006000,192.000000,0.000000,0.000000,0.000000,0.000000,0.000000,0.000000,0.000000,0.000000,0.000000,1773750277.218231,0.000000
178.000000,-27933.399729,2878.234134,-15603.752804,4215.628411,6324.359038,8541.607385,1642.339127,-10339.067619,11596.666169,9723.701742,2341.926377,-20407.992054,12132.437483,5179.346225,2319.641688,-1286.477004,0.010000,-0.008000,1.006000,192.000000,0.000000,0.000000,0.000000,0.000000,0.000000,0.000000,0.000000,0.000000,0.000000,1773750277.698778,0.000000
180.000000,-27956.243212,2863.347872,-15634.061770,4190.773271,6301.001465,8532.733742,1616.835787,-10365.152105,11614.815785,9723.813501,2330.661098,-20424.711159,12154.208082,5203.284943,2311.259784,-1270.897838,0.014000,-0.014000,1.006000,192.000000,0.000000,56.000000,127.500000,72.000000,15.500000,56.000000,0.000000,0.000000,0.000000,1773750277.698851,0.000000
182.000000,-27917.462935,2891.578125,-15589.850019,4223.742094,6325.230756,8561.902769,1649.223465,-10329.165796,11636.340515,9733.290641,2337.411325,-20419.994941,12097.166431,5212.516214,2298.631048,-1271.948370,0.014000,-0.014000,1.006000,192.000000,0.000000,0.000000,0.000000,0.000000,0.000000,0.000000,0.000000,0.000000,0.000000,1773750277.698908,0.000000
184.000000,-27933.712653,2882.056282,-15608.491374,4207.961763,6319.374599,8548.849350,1630.917386,-10342.040401,11611.373617,9740.465550,2361.953540,-20395.162153,12150.274175,5181.849621,2313.137330,-1275.837574,0.014000,-0.014000,1.006000,192.000000,0.000000,0.000000,0.000000,0.000000,0.000000,0.000000,0.000000,0.000000,0.000000,1773750277.698961,0.000000
186.000000,-27937.221877,2876.267180,-15606.613828,4205.681885,6326.370695,8546.323603,1629.956261,-10342.263918,11652.925510,9729.647306,2344.072145,-20424.264124,12149.827141,5192.019664,2308.197595,-1253.552884,0.014000,-0.014000,1.006000,192.000000,0.000000,0.000000,0.000000,0.000000,0.000000,0.000000,0.000000,0.000000,0.000000,1773750277.699045,0.000000
188.000000,-27927.051834,2881.296323,-15592.666339,4220.188167,6349.974138,8551.129228,1642.272072,-10332.339744,11620.448425,9735.682277,2362.735851,-20396.212685,12199.068034,5224.563804,2323.150912,-1271.724853,0.014000,-0.014000,1.006000,192.000000,0.000000,0.000000,0.000000,0.000000,0.000000,0.000000,0.000000,0.000000,0.000000,1773750277.699098,0.000000
190.000000,-27963.775750,2855.077726,-15619.913115,4192.807280,6332.316259,8536.198263,1612.521900,-10367.297872,11625.231698,9724.707571,2339.892368,-20423.817089,12146.340268,5173.914751,2335.310261,-1256.145687,0.014000,-0.012000,1.004000,192.000000,0.000000,56.000000,127.500000,88.000000,15.500000,40.000000,0.000000,0.000000,0.000000,1773750277.699132,0.000000
192.000000,-27940.574639,2866.499468,-15587.726603,4214.421417,6359.428925,8562.618025,1636.639433,-10347.315412,11634.619431,9721.175995,2334.952633,-20429.025046,12129.531757,5188.018702,2332.896272,-1253.038794,0.014000,-0.012000,1.004000,192.000000,0.000000,0.000000,0.000000,0.000000,0.000000,0.000000,0.000000,0.000000,0.000000,1773750277.699146,0.000000
194.000000,-27970.503625,2846.964043,-15619.309618,4189.365112,6342.419248,8547.061211,1612.633659,-10373.936340,11591.234695,9713.241126,2337.880711,-20423.392406,12164.802809,5229.056505,2351.314110,-1260.459573,0.014000,-0.012000,1.004000,192.000000,0.000000,0.000000,0.000000,0.000000,0.000000,0.000000,0.000000,0.000000,0.000000,1773750277.699158,0.000000
196.000000,-27973.319945,2844.550055,-15618.192031,4190.169774,6342.754524,8541.786199,1612.611307,-10375.210390,11619.867280,9701.238239,2311.393894,-20457.009430,12122.647419,5162.224789,2345.145028,-1249.551922,0.014000,-0.012000,1.004000,192.000000,0.000000,0.000000,0.000000,0.000000,0.000000,0.000000,0.000000,0.000000,0.000000,1773750277.699171,0.000000
198.000000,-27946.095520,2866.700633,-15602.389348,4211.135711,6355.539722,8546.390658,1630.962089,-10352.925700,11586.876105,9714.403416,2331.376354,-20424.420586,12148.620146,5170.226713,2353.772802,-1277.513954,0.014000,-0.012000,1.004000,192.000000,0.000000,0.000000,0.000000,0.000000,0.000000,0.000000,0.000000,0.000000,0.000000,1773750277.699184,0.000000
200.000000,-27956.623191,2864.465459,-15628.943220,4189.275705,6318.636992,8530.699734,1606.889261,-10367.990776,11612.088872,9722.070065,2329.901139,-20433.070711,12110.935105,5180.732033,2340.093534,-1263.678225,0.012000,-0.010000,1.003000,192.000000,0.000000,40.000000,127.500000,96.000000,15.500000,40.000000,0.000000,0.000000,0.000000,1773750277.699196,0.000000
202.000000,-27915.160705,2897.546041,-15592.509877,4224.233833,6341.122847,8554.124362,1641.601520,-10329.054037,11640.564995,9738.230376,2340.719383,-20419.480851,12138.919489,5197.987580,2321.765104,-1272.887143,0.012000,-0.010000,1.003000,192.000000,0.000000,0.000000,0.000000,0.000000,0.000000,0.000000,0.000000,0.000000,0.000000,1773750277.699208,0.000000
204.000000,-27929.219953,2893.858003,-15613.028778,4211.627449,6322.973230,8542.032068,1628.056363,-10335.468988,11615.888669,9749.696821,2360.232456,-20389.395403,12224.280801,5251.676470,2321.273365,-1276.463422,0.012000,-0.010000,1.003000,192.000000,0.000000,0.000000,0.000000,0.000000,0.000000,0.000000,0.000000,0.000000,0.000000,1773750277.699220,0.000000
206.000000,-27927.364758,2892.874526,-15599.237752,4212.409760,6321.073332,8548.692888,1631.252662,-10330.931584,11658.625204,9745.762914,2347.447258,-20409.601380,12083.844791,5170.316120,2302.766121,-1261.711271,0.012000,-0.010000,1.003000,192.000000,0.000000,0.000000,0.000000,0.000000,0.000000,0.000000,0.000000,0.000000,0.000000,1773750277.699232,0.000000
208.000000,-27911.137391,2902.463424,-15581.244598,4229.061810,6344.028574,8552.671498,1650.050479,-10313.094892,11627.086893,9749.897987,2371.296569,-20380.052373,12158.767838,5202.390874,2313.494958,-1278.698597,0.012000,-0.010000,1.003000,192.000000,0.000000,0.000000,0.000000,0.000000,0.000000,0.000000,0.000000,0.000000,0.000000,1773750277.699244,0.000000
210.000000,-27937.311284,2886.213706,-15612.693502,4202.016199,6323.487320,8544.244891,1620.345011,-10339.894633,11640.028553,9745.494693,2359.561903,-20399.096060,12207.494641,5208.872880,2316.825368,-1260.861905,0.013000,-0.011000,1.005500,192.000000,0.000000,56.000000,127.500000,80.000000,15.500000,64.000000,0.000000,0.000000,0.000000,1773750277.699255,0.000000
212.000000,-27904.990662,2908.364285,-15577.333042,4228.972403,6365.486248,8570.307025,1647.323566,-10314.503052,11657.194693,9749.875635,2361.081822,-20398.246693,12167.641481,5219.780531,2319.239356,-1263.879390,0.013000,-0.011000,1.005500,192.000000,0.000000,0.000000,0.000000,0.000000,0.000000,0.000000,0.000000,0.000000,0.000000,1773750277.699268,0.000000
214.000000,-27941.245191,2881.810413,-15609.765424,4206.978286,6336.764257,8557.007737,1622.960165,-10344.454389,11615.933372,9744.488864,2364.993377,-20390.423583,12179.890237,5233.169226,2337.836008,-1262.538286,0.013000,-0.011000,1.005500,192.000000,0.000000,0.000000,0.000000,0.000000,0.000000,0.000000,0.000000,0.000000,0.000000,1773750277.699280,0.000000
216.000000,-27956.064398,2864.778383,-15612.291171,4201.993847,6337.278347,8553.163237,1619.473293,-10354.512674,11639.000373,9723.075893,2332.762162,-20432.064883,12164.579292,5177.558086,2330.124656,-1239.337175,0.013000,-0.011000,1.005500,192.000000,0.000000,0.000000,0.000000,0.000000,0.000000,0.000000,0.000000,0.000000,0.000000,1773750277.699292,0.000000
218.000000,-27949.090654,2860.263331,-15598.321330,4207.738245,6342.016917,8541.830902,1629.643336,-10347.985965,11591.882895,9709.821309,2345.010918,-20418.385615,12089.097451,5175.099394,2339.400630,-1260.526629,0.013000,-0.011000,1.005500,192.000000,0.000000,0.000000,0.000000,0.000000,0.000000,0.000000,0.000000,0.000000,0.000000,1773750277.699304,0.000000
220.000000,-27982.417105,2834.827046,-15634.709970,4175.104699,6319.128730,8514.450015,1600.787234,-10380.306587,11596.800279,9693.839812,2325.542548,-20447.331124,12112.946762,5170.383176,2337.478380,-1255.184562,0.013500,-0.014500,1.006750,192.000000,0.000000,56.000000,127.500000,56.000000,15.500000,64.000000,0.000000,0.000000,0.000000,1773750277.699316,0.000000
222.000000,-27942.094558,2868.198200,-15603.350473,4205.726588,6352.276367,8540.735667,1632.303194,-10346.868378,11609.876050,9701.864088,2321.742752,-20444.604211,12141.244071,5156.011004,2338.148932,-1266.762765,0.013500,-0.014500,1.006750,192.000000,0.000000,0.000000,0.000000,0.000000,0.000000,0.000000,0.000000,0.000000,0.000000,1773750277.699329,0.000000
224.000000,-27957.651372,2862.945540,-15627.780930,4192.404949,6324.582556,8532.197300,1614.153578,-10361.352308,11580.662320,9719.454911,2338.104229,-20419.302037,12208.969856,5193.472528,2336.986642,-1273.110661,0.013500,-0.014500,1.006750,192.000000,0.000000,0.000000,0.000000,0.000000,0.000000,0.000000,0.000000,0.000000,0.000000,1773750277.699341,0.000000
226.000000,-27941.379302,2877.384767,-15614.503993,4197.277629,6311.372675,8536.779408,1623.071924,-10349.572939,11633.613602,9722.181824,2329.141179,-20441.229098,12092.651378,5199.172223,2316.512444,-1261.063070,0.013500,-0.014500,1.006750,192.000000,0.000000,0.000000,0.000000,0.000000,0.000000,0.000000,0.000000,0.000000,0.000000,1773750277.699353,0.000000
228.000000,-27913.909008,2896.473157,-15588.464211,4219.450560,6334.797303,8547.038859,1644.998985,-10321.163871,11616.112186,9739.727943,2361.975892,-20399.565446,12142.898100,5185.604714,2316.311278,-1285.337065,0.013500,-0.014500,1.006750,192.000000,0.000000,0.000000,0.000000,0.000000,0.000000,0.000000,0.000000,0.000000,0.000000,1773750277.699365,0.000000
230.000000,-27936.819546,2878.569410,-15620.047226,4192.539059,6313.205518,8538.858120,1617.975726,-10343.605023,11638.106303,9735.794036,2359.181924,-20412.864734,12155.102152,5183.637760,2310.611583,-1273.043605,0.010750,-0.015250,1.007375,192.000000,0.000000,32.000000,127.500000,64.000000,15.500000,64.000000,0.000000,0.000000,0.000000,1773750277.699377,0.000000
232.000000,-27903.135467,2900.787044,-15583.859752,4220.925775,6354.645652,8566.306062,1645.937758,-10314.905383,11657.954652,9739.526777,2360.098345,-20412.238885,12220.950391,5205.386007,2308.868147,-1271.858963,0.010750,-0.015250,1.007375,192.000000,0.000000,0.000000,0.000000,0.000000,0.000000,0.000000,0.000000,0.000000,0.000000,1773750277.699389,0.000000
234.000000,-27926.023653,2889.477061,-15604.803336,4203.469062,6331.645707,8561.455734,1624.971822,-10337.167720,11624.203518,9742.454856,2372.235343,-20397.352624,12166.613301,5247.116714,2326.347211,-1271.143707,0.010750,-0.015250,1.007375,192.000000,0.000000,0.000000,0.000000,0.000000,0.000000,0.000000,0.000000,0.000000,0.000000,1773750277.699401,0.000000
236.000000,-27928.303531,2886.191355,-15596.779060,4209.571089,6343.067449,8566.328414,1627.050534,-10340.565186,11661.530931,9737.492768,2349.391860,-20426.812223,12090.170335,5173.110088,2310.790397,-1252.435297,0.010750,-0.015250,1.007375,192.000000,0.000000,0.000000,0.000000,0.000000,0.000000,0.000000,0.000000,0.000000,0.000000,1773750277.699413,0.000000
