Sample_index,EXG Channel 0,EXG Channel 1,EXG Channel 2,EXG Channel 3,EXG Channel 4,EXG Channel 5,EXG Channel 6,EXG Channel 7,EXG Channel 8,EXG Channel 9,EXG Channel 10,EXG Channel 11,EXG Channel 12,EXG Channel 13,EXG Channel 14,EXG Channel 15,Accel Channel 0,Accel Channel 1,Accel Channel 2,Not Used,Digital Channel 0 (D11),Digital Channel 1 (D12),Digital Channel 2 (D13),Digital Channel 3 (D17),Not Used,Digital Channel 4 (D18),Analog Channel 0,Analog Channel 1,Analog Channel 2,Timestamp,Marker Channel
90.000000,-27958.657200,3224.328545,-15285.151039,3347.643119,6182.224295,8830.749551,12.494625,-9834.342877,10693.275713,8811.661161,3643.781381,-20789.737498,11860.707326,5097.829413,2323.039153,-1475.081024,0.014000,-0.020000,1.002000,192.000000,0.000000,0.000000,0.000000,0.000000,0.000000,0.000000,0.000000,0.000000,0.000000,1773750695.940044,101.000000
92.000000,-27999.426782,3190.599762,-15317.739882,3313.690819,6145.500379,8802.765167,-21.100047,-9870.887979,10669.091126,8806.274391,3641.635614,-20790.184532,11778.117630,5088.575791,2331.331650,-1476.489183,0.014000,-0.020000,1.002000,192.000000,0.000000,0.000000,0.000000,0.000000,0.000000,0.000000,0.000000,0.000000,0.000000,1773750695.940135,0.000000
94.000000,-27984.853445,3203.049684,-15309.179164,3326.587776,6154.239911,8817.584374,-9.432436,-9858.683927,10687.620722,8794.204449,3616.556956,-20816.894867,11777.760002,5050.667232,2319.328763,-1469.291922,0.014000,-0.018000,1.006000,192.000000,0.000000,56.000000,127.500000,56.000000,15.500000,56.000000,0.000000,0.000000,0.000000,1773750695.940201,0.000000
96.000000,-27983.869968,3205.351914,-15311.548449,3328.577081,6153.815228,8826.346257,-6.906689,-9857.342822,10653.914291,8803.815699,3633.588986,-20788.508152,11857.913358,5094.476651,2326.548377,-1478.970227,0.014000,-0.018000,1.006000,192.000000,0.000000,0.000000,0.000000,0.000000,0.000000,0.000000,0.000000,0.000000,0.000000,1773750695.940275,0.000000
98.000000,-28009.641529,3188.968085,-15338.638763,3304.772473,6110.564603,8813.896336,-33.684079,-9884.366081,10667.325338,8798.048949,3609.270288,-20814.570286,11827.157358,5065.531142,2306.565917,-1458.093698,0.014000,-0.018000,1.006000,192.000000,0.000000,0.000000,0.000000,0.000000,0.000000,0.000000,0.000000,0.000000,0.000000,1773750695.940312,0.000000
100.000000,-27976.382134,3209.934021,-15303.457117,3329.605261,6128.893033,8841.053705,0.469387,-9852.470142,10668.554684,8798.428929,3621.362581,-20806.031919,11766.584130,5082.339654,2298.407531,-1459.703023,0.014000,-0.018000,1.006000,192.000000,0.000000,0.000000,0.000000,0.000000,0.000000,0.000000,0.000000,0.000000,0.000000,1773750695.940346,0.000000
102.000000,-28005.931140,3189.191602,-15334.190766,3307.164110,6096.617114,8822.702923,-26.263300,-9876.855895,10644.526558,8792.371606,3626.145855,-20803.684986,11792.825078,5092.956733,2298.966324,-1453.533942,0.014000,-0.018000,1.006000,192.000000,0.000000,0.000000,0.000000,0.000000,0.000000,0.000000,0.000000,0.000000,0.000000,1773750695.940379,0.000000
104.000000,-27980.539558,3203.988457,-15317.494013,3321.558633,6128.110722,8840.606670,-10.102988,-9857.342822,10679.819963,8786.515449,3611.840738,-20821.521678,11858.427448,5059.071488,2282.738958,-1443.743878,0.012000,-0.010000,1.004000,192.000000,0.000000,48.000000,127.500000,88.000000,15.500000,48.000000,0.000000,0.000000,0.000000,1773750695.940403,0.000000
106.000000,-27963.999267,3224.663821,-15298.204458,3334.075610,6141.208844,8838.997345,0.648201,-9839.617889,10661.178608,8803.279257,3647.491771,-20782.897864,11799.731767,5099.371684,2302.028513,-1459.635968,0.012000,-0.010000,1.004000,192.000000,0.000000,0.000000,0.000000,0.000000,0.000000,0.000000,0.000000,0.000000,0.000000,1773750695.940426,0.000000
108.000000,-27981.679497,3214.985515,-15318.969228,3310.248650,6130.927042,8804.553307,-22.843483,-9856.806380,10687.754832,8805.961467,3636.293547,-20796.487724,11808.627761,5037.457351,2299.748635,-1458.540733,0.012000,-0.010000,1.004000,192.000000,0.000000,0.000000,0.000000,0.000000,0.000000,0.000000,0.000000,0.000000,0.000000,1773750695.940449,0.000000
110.000000,-27947.838956,3238.454847,-15279.026661,3339.015345,6172.367176,8819.126644,12.516977,-9820.775368,10690.548800,8812.175252,3648.743468,-20781.534407,11795.775508,5068.593331,2308.801092,-1479.104338,0.012000,-0.010000,1.004000,192.000000,0.000000,0.000000,0.000000,0.000000,0.000000,0.000000,0.000000,0.000000,0.000000,1773750695.940473,0.000000
112.000000,-27986.529826,3206.357742,-15311.950780,3304.884232,6148.473161,8796.886658,-18.239023,-9855.688793,10668.062945,8806.967295,3654.823143,-20782.495532,11828.543166,5065.240570,2322.078028,-1482.457099,0.012000,-0.010000,1.004000,192.000000,0.000000,0.000000,0.000000,0.000000,0.000000,0.000000,0.000000,0.000000,0.000000,1773750695.940496,0.000000
114.000000,-27978.974936,3204.994286,-15301.646626,3314.249613,6166.376909,8805.223859,-7.733704,-9850.346726,10693.767451,8785.822545,3629.543320,-20816.134908,11851.990146,5066.984006,2312.243260,-1478.903172,0.014000,-0.016000,1.004000,192.000000,0.000000,56.000000,127.500000,64.000000,15.500000,48.000000,0.000000,0.000000,0.000000,1773750695.940519,0.000000
116.000000,-27980.092523,3205.642486,-15300.104356,3319.949307,6167.785068,8807.280219,-3.978611,-9847.239834,10658.161123,8791.656350,3649.235207,-20789.044593,11856.304032,5090.073358,2333.790342,-1489.632009,0.014000,-0.016000,1.004000,192.000000,0.000000,0.000000,0.000000,0.000000,0.000000,0.000000,0.000000,0.000000,0.000000,1773750695.940542,0.000000
118.000000,-28008.859218,3186.375283,-15329.832176,3298.625743,6134.704487,8800.753510,-29.414896,-9874.933645,10669.962844,8786.023710,3625.654116,-20815.598466,11775.591883,5015.440883,2322.592118,-1470.275399,0.014000,-0.016000,1.004000,192.000000,0.000000,0.000000,0.000000,0.000000,0.000000,0.000000,0.000000,0.000000,0.000000,1773750695.940565,0.000000
120.000000,-27980.673668,3207.609440,-15302.853620,3327.995935,6158.978481,8828.357914,1.899898,-9845.876377,10661.357422,8790.337597,3627.039925,-20808.848239,11830.532471,5064.100631,2317.652383,-1467.839058,0.014000,-0.016000,1.004000,192.000000,0.000000,0.000000,0.000000,0.000000,0.000000,0.000000,0.000000,0.000000,0.000000,1773750695.940588,0.000000
122.000000,-28008.769811,3188.074015,-15332.357923,3297.128176,6115.169062,8814.678647,-26.755038,-9874.821886,10645.912367,8792.326902,3633.700744,-20804.489649,11775.524828,5097.225916,2313.807883,-1463.346358,0.014000,-0.016000,1.004000,192.000000,0.000000,0.000000,0.000000,0.000000,0.000000,0.000000,0.000000,0.000000,0.000000,1773750695.940611,0.000000
124.000000,-27988.809703,3202.177966,-15316.197612,3311.612107,6128.311888,8828.804949,-14.171006,-9861.991985,10679.350576,8791.432833,3617.853358,-20826.126138,11770.182761,5030.416552,2292.707836,-1452.170486,0.014000,-0.015000,1.005000,192.000000,0.000000,56.000000,127.500000,72.000000,15.500000,56.000000,0.000000,0.000000,0.000000,1773750695.940634,0.000000
126.000000,-27978.103218,3209.554042,-15312.956609,3320.575156,6125.227347,8826.413313,-6.593765,-9855.711145,10650.941509,8801.625228,3642.440276,-20793.850219,11828.386704,5059.429116,2302.207327,-1463.100489,0.014000,-0.015000,1.005000,192.000000,0.000000,0.000000,0.000000,0.000000,0.000000,0.000000,0.000000,0.000000,0.000000,1773750695.940657,0.000000
128.000000,-27999.493837,3193.818413,-15337.297659,3296.189403,6104.686094,8805.581487,-29.124323,-9874.844238,10674.321434,8792.125737,3626.235262,-20818.548896,11864.417716,5058.333881,2294.808900,-1450.471753,0.014000,-0.015000,1.005000,192.000000,0.000000,0.000000,0.000000,0.000000,0.000000,0.000000,0.000000,0.000000,0.000000,1773750695.940683,0.000000
130.000000,-27958.791311,3228.105989,-15295.455193,3337.607186,6142.102914,8821.518281,8.918346,-9829.984287,10682.703338,8806.117929,3644.094306,-20798.700547,11808.314837,5067.989834,2291.053807,-1466.565009,0.014000,-0.015000,1.005000,192.000000,0.000000,0.000000,0.000000,0.000000,0.000000,0.000000,0.000000,0.000000,0.000000,1773750695.940714,0.000000
132.000000,-27985.121666,3209.352876,-15316.778757,3309.064008,6122.053399,8797.065472,-18.954279,-9854.794723,10667.258283,8807.950772,3658.064146,-20784.060154,11744.433551,5069.062718,2298.184013,-1472.220000,0.014000,-0.015000,1.005000,192.000000,0.000000,0.000000,0.000000,0.000000,0.000000,0.000000,0.000000,0.000000,0.000000,1773750695.940756,0.000000
134.000000,-27968.313154,3225.043800,-15303.948856,3323.324421,6150.350708,8807.079054,-3.620983,-9838.589709,10696.874344,8804.843879,3642.507332,-20806.210733,11798.122442,5055.025823,2291.031455,-1469.694253,0.015000,-0.016500,1.006500,192.000000,0.000000,64.000000,127.500000,56.000000,15.500000,64.000000,0.000000,0.000000,0.000000,1773750695.940779,0.000000
136.000000,-27962.412293,3231.794027,-15297.824478,3334.880273,6158.419688,8812.063493,4.157424,-9831.481854,10665.023108,8820.512452,3664.970835,-20770.246776,11877.582893,5080.395052,2313.070275,-1484.446405,0.015000,-0.016500,1.006500,192.000000,0.000000,0.000000,0.000000,0.000000,0.000000,0.000000,0.000000,0.000000,0.000000,1773750695.940791,0.000000
138.000000,-27982.417105,3214.002039,-15317.292847,3309.980429,6138.750152,8802.943981,-22.441151,-9855.979366,10689.632379,8811.504699,3648.050564,-20796.197152,11766.159447,5075.187096,2310.142196,-1468.844887,0.015000,-0.016500,1.006500,192.000000,0.000000,0.000000,0.000000,0.000000,0.000000,0.000000,0.000000,0.000000,0.000000,1773750695.940818,0.000000
140.000000,-27951.281125,3236.554949,-15288.816725,3340.647023,6177.329263,8835.577528,5.900861,-9829.067865,10688.000701,8820.266583,3653.414983,-20784.909521,11827.783206,5107.194794,2319.149949,-1474.723396,0.015000,-0.016500,1.006500,192.000000,0.000000,0.000000,0.000000,0.000000,0.000000,0.000000,0.000000,0.000000,0.000000,1773750695.940829,0.000000
142.000000,-27978.214977,3217.757132,-15326.501766,3312.908508,6138.034897,8825.049856,-25.704506,-9858.482761,10668.398222,8821.495929,3652.476210,-20782.562588,11844.345849,5086.161803,2326.861301,-1462.653454,0.015000,-0.016500,1.006500,192.000000,0.000000,0.000000,0.000000,0.000000,0.000000,0.000000,0.000000,0.000000,0.000000,1773750695.940839,0.000000
144.000000,-27965.496834,3227.323678,-15314.074196,3330.275813,6150.350708,8846.239310,-12.449922,-9846.770447,10695.644998,8816.422083,3632.650212,-20805.160201,11861.936672,5045.347517,2304.420150,-1446.962529,0.013500,-0.018250,1.007250,192.000000,0.000000,48.000000,127.500000,48.000000,15.500000,64.000000,0.000000,0.000000,0.000000,1773750695.940850,0.000000
146.000000,-27958.590145,3231.101123,-15305.111147,3332.600395,6153.569359,8854.017717,-6.750227,-9842.970651,10663.056155,8829.296688,3657.460649,-20774.806532,11805.699683,5109.206451,2318.121769,-1452.483410,0.013500,-0.018250,1.007250,192.000000,0.000000,0.000000,0.000000,0.000000,0.000000,0.000000,0.000000,0.000000,0.000000,1773750695.940872,0.000000
148.000000,-27984.719334,3211.252774,-15331.486205,3305.577136,6126.814321,8828.849653,-30.711297,-9867.445811,10686.078451,8809.113063,3639.378087,-20804.802573,11818.887212,5091.816794,2307.169414,-1438.759439,0.013500,-0.018250,1.007250,192.000000,0.000000,0.000000,0.000000,0.000000,0.000000,0.000000,0.000000,0.000000,0.000000,1773750695.940883,0.000000
150.000000,-27949.761206,3241.382926,-15297.980940,3339.305918,6145.858007,8840.718429,3.688038,-9832.890014,10685.407899,8822.635868,3646.843570,-20790.497457,11813.232221,5081.937323,2300.173318,-1455.813820,0.013500,-0.018250,1.007250,192.000000,0.000000,0.000000,0.000000,0.000000,0.000000,0.000000,0.000000,0.000000,0.000000,1773750695.940894,0.000000
152.000000,-27976.180968,3227.547196,-15327.775815,3314.651944,6116.554870,8816.355028,-22.128227,-9854.750020,10663.480838,8826.636830,3649.235207,-20778.807494,11888.423489,5086.430023,2302.877879,-1454.383308,0.013500,-0.018250,1.007250,192.000000,0.000000,0.000000,0.000000,0.000000,0.000000,0.000000,0.000000,0.000000,0.000000,1773750695.940904,0.000000
154.000000,-27958.210165,3242.545216,-15305.446423,3337.674241,6131.642298,8824.155787,-4.269183,-9835.862796,10698.774242,8833.811740,3637.925224,-20795.057213,11710.883583,5074.963579,2281.934295,-1452.103430,0.010750,-0.019125,1.005625,192.000000,0.000000,32.000000,127.500000,48.000000,15.500000,48.000000,0.000000,0.000000,0.000000,1773750695.940915,0.000000
156.000000,-27949.895316,3248.781353,-15304.105318,3348.738354,6150.596577,8834.035258,4.649163,-9825.871566,10666.945358,8842.260700,3664.367338,-20756.455750,11817.054369,5098.187041,2295.390045,-1466.073271,0.010750,-0.019125,1.005625,192.000000,0.000000,0.000000,0.000000,0.000000,0.000000,0.000000,0.000000,0.000000,0.000000,1773750695.940926,0.000000
158.000000,-27967.307325,3238.633661,-15328.289906,3320.396342,6132.424609,8818.590202,-20.630660,-9845.921081,10688.447736,8837.969165,3648.721117,-20780.349765,11845.351678,5124.293879,2293.713664,-1456.864352,0.010750,-0.019125,1.005625,192.000000,0.000000,0.000000,0.000000,0.000000,0.000000,0.000000,0.000000,0.000000,0.000000,1773750695.940937,0.000000
160.000000,-27932.930342,3266.640397,-15283.385251,3356.181485,6172.143659,8843.512397,16.428532,-9809.554793,10697.477841,8845.412296,3664.747317,-20764.971765,11846.066933,5092.599105,2305.627144,-1468.531962,0.010750,-0.019125,1.005625,192.000000,0.000000,0.000000,0.000000,0.000000,0.000000,0.000000,0.000000,0.000000,0.000000,1773750695.940948,0.000000
162.000000,-27968.514319,3234.520940,-15314.878859,3323.391476,6139.912443,8817.852595,-14.863910,-9841.517787,10678.232989,8842.551272,3671.095213,-20760.501416,11788.846468,5084.753643,2315.037228,-1468.174335,0.010750,-0.019125,1.005625,192.000000,0.000000,0.000000,0.000000,0.000000,0.000000,0.000000,0.000000,0.000000,0.000000,1773750695.940959,0.000000
164.000000,-27965.206261,3234.900920,-15313.001312,3330.789903,6147.601443,8831.755380,-6.124378,-9838.656764,10698.908353,8822.725275,3641.657965,-20794.051384,11872.464344,5080.037425,2302.363789,-1459.993596,0.010375,-0.016563,1.003812,192.000000,0.000000,40.000000,127.500000,72.000000,15.500000,40.000000,0.000000,0.000000,0.000000,1773750695.940970,0.000000
166.000000,-27967.039104,3237.136094,-15306.921638,3336.914281,6147.288519,8842.864197,-2.011657,-9838.679116,10658.675213,8833.342354,3657.930035,-20766.692849,11785.270188,5086.564134,2312.600888,-1463.502820,0.010375,-0.016563,1.003812,192.000000,0.000000,0.000000,0.000000,0.000000,0.000000,0.000000,0.000000,0.000000,0.000000,1773750695.940980,0.000000
168.000000,-27990.731953,3218.874719,-15337.610583,3312.573232,6122.969821,8836.873929,-29.951338,-9864.249511,10673.472068,8821.652391,3633.521930,-20794.990157,11811.533488,5074.673006,2301.894403,-1440.122895,0.010375,-0.016563,1.003812,192.000000,0.000000,0.000000,0.000000,0.000000,0.000000,0.000000,0.000000,0.000000,0.000000,1773750695.940991,0.000000
170.000000,-27956.064398,3240.958243,-15299.657321,3340.088229,6161.057193,8852.676612,2.034009,-9832.979421,10681.406937,8828.357914,3642.350869,-20781.646166,11793.875610,5101.316285,2299.726284,-1448.013061,0.010375,-0.016563,1.003812,192.000000,0.000000,0.000000,0.000000,0.000000,0.000000,0.000000,0.000000,0.000000,0.000000,1773750695.941002,0.000000
172.000000,-27987.714468,3215.141978,-15333.587269,3306.381799,6132.201091,8818.098464,-29.034916,-9864.607139,10656.954128,8822.345295,3643.602567,-20783.210788,11800.245857,5089.045178,2310.008086,-1451.254064,0.010375,-0.016563,1.003812,192.000000,0.000000,0.000000,0.000000,0.000000,0.000000,0.000000,0.000000,0.000000,0.000000,1773750695.941022,0.000000
174.000000,-27971.688267,3222.540405,-15317.695179,3319.681087,6145.567434,8822.993496,-14.148654,-9851.061982,10689.051233,8812.644638,3626.615241,-20809.585847,11834.086398,5060.032613,2294.451272,-1449.041241,0.010187,-0.017281,1.002906,192.000000,0.000000,40.000000,127.500000,56.000000,15.500000,40.000000,0.000000,0.000000,0.000000,1773750695.941047,0.000000
176.000000,-27959.618325,3231.749324,-15303.457117,3331.840435,6154.172856,8825.228670,-1.877547,-9835.035781,10662.072678,8821.786502,3658.533532,-20776.058230,11857.019288,5082.674930,2305.515385,-1465.000387,0.010187,-0.017281,1.002906,192.000000,0.000000,0.000000,0.000000,0.000000,0.000000,0.000000,0.000000,0.000000,0.000000,1773750695.941068,0.000000
178.000000,-27980.941889,3218.718257,-15327.082911,3312.930860,6124.333277,8810.789443,-21.457675,-9852.425438,10684.491478,8824.111083,3647.983509,-20792.732631,11820.630648,5077.668140,2294.026589,-1457.244332,0.010187,-0.017281,1.002906,192.000000,0.000000,0.000000,0.000000,0.000000,0.000000,0.000000,0.000000,0.000000,0.000000,1773750695.941093,0.000000
180.000000,-27945.112043,3245.965033,-15287.900303,3351.152343,6160.967786,8834.191720,14.014544,-9814.203955,10688.827716,8835.532824,3658.600588,-20774.381849,11801.586962,5084.977160,2293.914830,-1462.809916,0.010187,-0.017281,1.002906,192.000000,0.000000,0.000000,0.000000,0.000000,0.000000,0.000000,0.000000,0.000000,0.000000,1773750695.941104,0.000000
182.000000,-27976.449189,3222.920385,-15319.796243,3320.351639,6135.509149,8818.746664,-16.383829,-9845.205825,10669.404050,8832.224766,3663.763841,-20770.067962,11812.986352,5095.527183,2302.609659,-1461.714680,0.010187,-0.017281,1.002906,192.000000,0.000000,0.000000,0.000000,0.000000,0.000000,0.000000,0.000000,0.000000,0.000000,1773750695.941125,0.000000
184.000000,-27964.066322,3231.458751,-15302.183068,3332.175712,6149.791914,8830.190758,-3.799797,-9835.035781,10703.825737,8822.792330,3644.630747,-20795.392489,11788.421784,5065.911122,2292.752539,-1457.221980,0.012094,-0.016641,1.004453,192.000000,0.000000,56.000000,127.500000,64.000000,15.500000,56.000000,0.000000,0.000000,0.000000,1773750695.941146,0.000000
186.000000,-27964.938040,3228.150693,-15304.686463,3337.651889,6159.134943,8833.968202,-0.335276,-9837.583880,10666.163047,8830.838958,3662.959178,-20765.485855,11870.072707,5114.973201,2307.772912,-1470.074233,0.012094,-0.016641,1.004453,192.000000,0.000000,0.000000,0.000000,0.000000,0.000000,0.000000,0.000000,0.000000,0.000000,1773750695.941165,0.000000
188.000000,-27993.101238,3205.240155,-15328.669885,3306.761778,6126.926080,8815.483310,-28.811399,-9866.484686,10680.177591,8809.716560,3636.360602,-20801.583922,11833.505253,5079.165707,2299.167490,-1452.639872,0.012094,-0.016641,1.004453,192.000000,0.000000,0.000000,0.000000,0.000000,0.000000,0.000000,0.000000,0.000000,0.000000,1773750695.941187,0.000000
190.000000,-27968.804892,3221.087542,-15300.461984,3339.551787,6148.204940,8835.912804,1.318753,-9839.148502,10678.098879,8811.147071,3641.143875,-20793.693756,11749.999136,5046.532160,2299.078083,-1459.948893,0.012094,-0.016641,1.004453,192.000000,0.000000,0.000000,0.000000,0.000000,0.000000,0.000000,0.000000,0.000000,0.000000,1773750695.941201,0.000000
192.000000,-27998.577416,3200.702751,-15329.720417,3309.689857,6123.260394,8813.181080,-25.212768,-9865.076526,10651.947338,8809.202469,3642.149704,-20787.055288,11816.964962,5078.584561,2307.437635,-1458.183105,0.012094,-0.016641,1.004453,192.000000,0.000000,0.000000,0.000000,0.000000,0.000000,0.000000,0.000000,0.000000,0.000000,1773750695.941212,0.000000
194.000000,-27979.913709,3211.789216,-15317.538716,3319.435217,6139.018373,8817.360856,-11.332334,-9848.424476,10679.194114,8797.467804,3624.380067,-20812.022187,11811.935820,5080.149183,2295.993542,-1454.785640,0.012094,-0.016641,1.004453,192.000000,0.000000,0.000000,0.000000,0.000000,0.000000,0.000000,0.000000,0.000000,0.000000,1773750695.941223,0.000000
196.000000,-27968.715485,3221.556928,-15303.837097,3329.024116,6144.405144,8818.187871,-0.558794,-9837.382714,10656.104762,8808.017827,3653.102059,-20776.974651,11812.516965,5065.732308,2312.332667,-1471.169468,0.012000,-0.018000,1.006000,192.000000,0.000000,48.000000,127.500000,56.000000,15.500000,56.000000,0.000000,0.000000,0.000000,1773750695.941234,0.000000
198.000000,-27986.999212,3208.570565,-15327.015856,3305.487729,6130.077676,8805.156804,-25.033954,-9858.058078,10678.277693,8800.507641,3638.305204,-20801.472163,11800.871706,5061.105497,2300.888574,-1456.238503,0.012000,-0.018000,1.006000,192.000000,0.000000,0.000000,0.000000,0.000000,0.000000,0.000000,0.000000,0.000000,0.000000,1773750695.941244,0.000000
200.000000,-27945.000284,3239.393620,-15285.441611,3345.720869,6165.013452,8834.258775,12.472273,-9820.395389,10688.179515,8817.785539,3651.246864,-20784.127210,11802.123404,5076.751718,2301.626182,-1464.262779,0.012000,-0.018000,1.006000,192.000000,0.000000,0.000000,0.000000,0.000000,0.000000,0.000000,0.000000,0.000000,0.000000,1773750695.941265,0.000000
202.000000,-27971.911785,3223.210957,-15312.397815,3322.430351,6139.666574,8817.718484,-12.718143,-9844.557624,10674.790820,8824.044028,3662.981530,-20771.520826,11837.372105,5105.987800,2304.509557,-1460.775907,0.012000,-0.018000,1.006000,192.000000,0.000000,0.000000,0.000000,0.000000,0.000000,0.000000,0.000000,0.000000,0.000000,1773750695.941287,0.000000
204.000000,-27959.931250,3232.106952,-15301.803088,3335.506122,6147.869664,8829.184929,-0.044703,-9833.247642,10705.122138,8814.186909,3644.139009,-20796.443021,11825.615087,5064.748831,2294.451272,-1454.539770,0.012000,-0.018000,1.006000,192.000000,0.000000,0.000000,0.000000,0.000000,0.000000,0.000000,0.000000,0.000000,0.000000,1773750695.941298,0.000000
206.000000,-27956.019694,3236.398487,-15295.030510,3338.031869,6157.950301,8830.436627,7.040800,-9826.877395,10671.326300,8828.737894,3667.764803,-20764.569433,11845.463436,5097.248268,2310.656287,-1467.749651,0.010000,-0.014000,1.012000,192.000000,0.000000,40.000000,127.500000,72.000000,15.500000,80.000000,0.000000,0.000000,0.000000,1773750695.941308,0.000000
208.000000,-27980.383096,3217.131283,-15317.046978,3317.155339,6134.659783,8813.203432,-18.820169,-9851.553720,10690.817021,8819.104292,3651.962120,-20792.307948,11813.075759,5075.276503,2304.353095,-1457.758422,0.010000,-0.014000,1.012000,192.000000,0.000000,0.000000,0.000000,0.000000,0.000000,0.000000,0.000000,0.000000,0.000000,1773750695.941319,0.000000
210.000000,-27951.526994,3237.024336,-15287.766193,3347.799581,6161.861856,8840.539615,10.170044,-9825.178662,10687.911294,8816.690304,3655.180771,-20783.188436,11780.553970,5070.023843,2303.302563,-1464.061614,0.010000,-0.014000,1.012000,192.000000,0.000000,0.000000,0.000000,0.000000,0.000000,0.000000,0.000000,0.000000,0.000000,1773750696.420480,0.000000
212.000000,-27975.689229,3217.734780,-15323.126653,3317.937650,6138.034897,8821.875909,-19.490721,-9853.766543,10665.157219,8820.110121,3655.091364,-20778.941605,11833.482901,5102.389169,2314.769008,-1457.557256,0.010000,-0.014000,1.012000,192.000000,0.000000,0.000000,0.000000,0.000000,0.000000,0.000000,0.000000,0.000000,0.000000,1773750696.420588,0.000000
214.000000,-27964.222785,3227.346030,-15309.872068,3329.962889,6153.681118,8829.766074,-8.873643,-9840.891938,10701.724673,8815.393903,3637.657003,-20799.706376,11879.996881,5068.705090,2307.392932,-1451.566988,0.010000,-0.014000,1.012000,192.000000,0.000000,0.000000,0.000000,0.000000,0.000000,0.000000,0.000000,0.000000,0.000000,1773750696.420664,0.000000
216.000000,-27954.365665,3236.912577,-15300.663149,3332.980374,6155.290443,8831.218938,-2.190471,-9833.292345,10668.331166,8828.536728,3660.142858,-20769.464465,11827.112654,5095.661294,2319.596984,-1461.580570,0.012000,-0.014000,1.010000,192.000000,0.000000,48.000000,127.500000,72.000000,15.500000,72.000000,0.000000,0.000000,0.000000,1773750696.420712,0.000000
218.000000,-27981.076000,3212.392713,-15327.440539,3302.961982,6132.201091,8812.287010,-29.325489,-9862.886055,10687.374853,8815.080978,3640.406268,-20800.891018,11781.805668,5085.424195,2307.459987,-1450.516456,0.012000,-0.014000,1.010000,192.000000,0.000000,0.000000,0.000000,0.000000,0.000000,0.000000,0.000000,0.000000,0.000000,1773750696.420771,0.000000
220.000000,-27946.788424,3235.839693,-15295.589303,3336.780171,6171.763679,8834.102313,2.525747,-9832.912366,10689.252399,8812.666990,3644.071954,-20794.006681,11854.024154,5092.464994,2307.147063,-1460.842962,0.012000,-0.014000,1.010000,192.000000,0.000000,0.000000,0.000000,0.000000,0.000000,0.000000,0.000000,0.000000,0.000000,1773750696.420807,0.000000
222.000000,-27964.982744,3226.876644,-15315.325894,3319.368162,6145.925062,8821.607688,-19.446018,-9850.525540,10679.015300,8819.148996,3655.426640,-20780.238006,11827.224413,5066.156991,2316.959478,-1461.044128,0.012000,-0.014000,1.010000,192.000000,0.000000,0.000000,0.000000,0.000000,0.000000,0.000000,0.000000,0.000000,0.000000,1773750696.420831,0.000000
224.000000,-27946.140223,3238.276033,-15294.404661,3336.131970,6161.236007,8840.427856,-1.631677,-9831.481854,10718.108501,8818.076112,3649.235207,-20796.443021,11792.668616,5068.213352,2300.352132,-1451.231712,0.012000,-0.014000,1.010000,192.000000,0.000000,0.000000,0.000000,0.000000,0.000000,0.000000,0.000000,0.000000,0.000000,1773750696.420855,0.000000
226.000000,-27939.747624,3242.187588,-15290.001367,3341.384630,6154.441077,8838.952641,4.827977,-9824.284592,10689.297103,8833.543519,3678.091309,-20763.541253,11848.838550,5139.381306,2310.745694,-1465.402718,0.010000,-0.012000,1.010000,192.000000,0.000000,40.000000,127.500000,80.000000,15.500000,72.000000,0.000000,0.000000,0.000000,1773750696.420879,0.000000
228.000000,-27963.932212,3222.115722,-15316.823461,3316.127159,6136.157350,8819.998362,-20.049515,-9848.737401,10704.876268,8823.507586,3659.271140,-20791.011547,11829.303125,5085.580657,2301.380313,-1455.232675,0.010000,-0.012000,1.010000,192.000000,0.000000,0.000000,0.000000,0.000000,0.000000,0.000000,0.000000,0.000000,0.000000,1773750696.420903,0.000000
230.000000,-27931.388072,3246.143847,-15276.992652,3348.581892,6171.294292,8836.471598,13.746323,-9813.041665,10709.078396,8822.635868,3668.189486,-20779.969785,11835.226337,5097.181213,2304.978943,-1466.408547,0.010000,-0.012000,1.010000,192.000000,0.000000,0.000000,0.000000,0.000000,0.000000,0.000000,0.000000,0.000000,0.000000,1773750696.420926,0.000000
232.000000,-27962.188776,3223.792103,-15306.988693,3321.648040,6140.873568,8810.744740,-13.947489,-9841.271918,10688.045405,8824.222842,3674.336216,-20769.240948,11830.912451,5091.459166,2315.461912,-1466.967340,0.010000,-0.012000,1.010000,192.000000,0.000000,0.000000,0.000000,0.000000,0.000000,0.000000,0.000000,0.000000,0.000000,1773750696.420950,0.000000
234.000000,-27960.020657,3225.267318,-15301.646626,3329.158226,6156.117458,8820.378342,-8.180738,-9838.120322,10711.268867,8811.839975,3647.044736,-20797.806477,11807.979561,5045.973366,2307.996429,-1459.993596,0.010000,-0.012000,1.010000,192.000000,0.000000,0.000000,0.000000,0.000000,0.000000,0.000000,0.000000,0.000000,0.000000,1773750696.420974,0.000000
236.000000,-27956.846709,3227.614251,-15300.529039,3334.120313,6162.487705,8832.425932,-3.129244,-9835.639278,10674.589655,8817.852595,3662.154515,-20769.777390,11876.778230,5110.815777,2326.838950,-1464.106317,0.012000,-0.016000,1.006000,192.000000,0.000000,48.000000,127.500000,64.000000,15.500000,56.000000,0.000000,0.000000,0.000000,1773750696.420998,0.000000
238.000000,-27981.634793,3207.922364,-15323.640743,3310.740389,6133.765713,8813.918688,-29.973689,-9863.310738,10690.615856,8804.508603,3641.412096,-20802.075660,11799.865878,5065.531142,2317.205348,-1447.901302,0.012000,-0.016000,1.006000,192.000000,0.000000,0.000000,0.000000,0.000000,0.000000,0.000000,0.000000,0.000000,0.000000,1773750696.421022,0.000000
240.000000,-27940.060549,3238.924234,-15288.749670,3344.759744,6166.890999,8839.869063,5.923212,-9824.485758,10696.404957,8812.063493,3651.358622,-20789.983367,11825.302163,5069.800326,2313.830234,-1452.461058,0.012000,-0.016000,1.006000,192.000000,0.000000,0.000000,0.000000,0.000000,0.000000,0.000000,0.000000,0.000000,0.000000,1773750696.421046,0.000000
242.000000,-27960.400636,3227.793065,-15311.883725,3314.786054,6136.336164,8821.630039,-18.551948,-9842.858892,10681.876323,8820.110121,3666.624864,-20776.415858,11810.080625,5093.716692,2315.327801,-1455.009157,0.012000,-0.016000,1.006000,192.000000,0.000000,0.000000,0.000000,0.000000,0.000000,0.000000,0.000000,0.000000,0.000000,1773750696.421070,0.000000
244.000000,-27944.933229,3239.483027,-15295.008158,3330.119351,6144.852179,8823.976973,-3.643334,-9830.498377,10717.482652,8814.790406,3653.817314,-20797.650015,11782.073889,5064.793535,2295.591211,-1452.483410,0.012000,-0.016000,1.006000,192.000000,0.000000,0.000000,0.000000,0.000000,0.000000,0.000000,0.000000,0.000000,0.000000,1773750696.421094,0.000000
246.000000,-27931.388072,3251.508266,-15288.079117,3341.943424,6155.245740,8825.988630,6.303192,-9818.696656,10691.621684,8826.681534,3680.438242,-20762.490721,11840.791922,5082.294951,2304.688371,-1472.197649,0.014000,-0.016000,1.008000,192.000000,0.000000,56.000000,127.500000,64.000000,15.500000,64.000000,0.000000,0.000000,0.000000,1773750696.421117,0.000000
248.000000,-27954.142148,3233.001022,-15313.493051,3317.803540,6135.799722,8812.555231,-17.590823,-9840.780180,10716.365065,8823.485234,3665.730794,-20782.227311,11890.792774,5079.746852,2294.831251,-1463.636930,0.014000,-0.016000,1.008000,192.000000,0.000000,0.000000,0.000000,0.000000,0.000000,0.000000,0.000000,0.000000,0.000000,1773750696.421141,0.000000
250.000000,-27922.760299,3253.743440,-15276.545617,3347.598415,6166.622778,8836.918633,14.394523,-9808.683075,10714.509870,8821.607688,3675.252637,-20775.722954,11855.789942,5110.234631,2300.352132,-1466.229733,0.014000,-0.016000,1.008000,192.000000,0.000000,0.000000,0.000000,0.000000,0.000000,0.000000,0.000000,0.000000,0.000000,1773750696.421167,0.000000
252.000000,-27950.029427,3233.828036,-15303.054786,3323.480883,6140.560644,8816.109159,-12.740494,-9834.432284,10692.314588,8823.440531,3683.522783,-20768.838616,11802.682197,5096.778881,2312.734999,-1464.843925,0.014000,-0.016000,1.008000,192.000000,0.000000,0.000000,0.000000,0.000000,0.000000,0.000000,0.000000,0.000000,0.000000,1773750696.421191,0.000000
254.000000,-27934.517316,3246.881455,-15297.891533,3336.579005,6160.319586,8826.905051,-2.190471,-9823.390522,10724.322286,8814.321019,3661.394556,-20792.687928,11865.624710,5062.066622,2305.358923,-1457.467849,0.014000,-0.016000,1.008000,192.000000,0.000000,0.000000,0.000000,0.000000,0.000000,0.000000,0.000000,0.000000,0.000000,1773750696.421215,0.000000
0.000000,-27927.096537,3253.586978,-15281.284187,3345.095020,6153.681118,8831.464807,5.006791,-9814.941563,10695.801460,8833.521167,3684.774480,-20756.634564,11820.943573,5106.345428,2321.452179,-1467.414375,0.014000,-0.012000,1.006000,192.000000,0.000000,56.000000,127.500000,80.000000,15.500000,56.000000,0.000000,0.000000,0.000000,1773750696.421239,0.000000
2.000000,-27960.892375,3224.976745,-15316.912868,3314.473130,6130.859987,8813.426949,-25.145713,-9848.469180,10708.050216,8818.433740,3665.462573,-20787.636434,11807.823099,5085.871230,2310.857452,-1454.942102,0.014000,-0.012000,1.006000,192.000000,0.000000,0.000000,0.000000,0.000000,0.000000,0.000000,0.000000,0.000000,0.000000,1773750696.421263,0.000000
4.000000,-27934.718482,3243.104010,-15283.117030,3345.966738,6172.791859,8838.572662,6.683172,-9819.724836,10703.333998,8816.667952,3665.686091,-20783.970747,11843.876462,5079.232762,2319.485226,-1457.736070,0.014000,-0.012000,1.006000,192.000000,0.000000,0.000000,0.000000,0.000000,0.000000,0.000000,0.000000,0.000000,0.000000,1773750696.421287,0.000000
6.000000,-27960.825319,3226.898995,-15310.855545,3319.077589,6146.260339,8821.205356,-21.658840,-9847.642165,10684.178553,8813.784577,3670.134088,-20778.718088,11797.876572,5086.050044,2325.028458,-1456.909055,0.014000,-0.012000,1.006000,192.000000,0.000000,0.000000,0.000000,0.000000,0.000000,0.000000,0.000000,0.000000,0.000000,1773750696.421310,0.000000
8.000000,-27942.228668,3241.449981,-15302.272475,3331.505159,6162.979443,8833.744685,-8.024276,-9832.845310,10719.851937,8818.277278,3651.693899,-20799.192285,11828.051427,5055.472857,2305.805958,-1447.320157,0.014000,-0.012000,1.006000,192.000000,0.000000,0.000000,0.000000,0.000000,0.000000,0.000000,0.000000,0.000000,0.000000,1773750696.421334,0.000000
10.000000,-27926.984778,3253.139943,-15285.061632,3338.165979,6167.360385,8833.029429,4.068017,-9817.735531,10696.024978,8829.989592,3680.684111,-20760.635526,11876.912341,5132.049934,2317.384162,-1459.792430,0.013000,-0.011000,1.007000,192.000000,0.000000,48.000000,127.500000,88.000000,15.500000,64.000000,0.000000,0.000000,0.000000,1773750696.421358,0.000000
12.000000,-27949.090654,3235.616176,-15308.508612,3316.440084,6140.337126,8811.705865,-20.898881,-9843.171816,10720.164862,8822.546461,3671.788117,-20783.702527,11861.713155,5070.649692,2304.911888,-1453.802163,0.013000,-0.011000,1.007000,192.000000,0.000000,0.000000,0.000000,0.000000,0.000000,0.000000,0.000000,0.000000,0.000000,1773750696.421382,0.000000
14.000000,-27914.914836,3263.399394,-15274.846885,3353.611035,6162.532409,8833.856444,12.695791,-9809.666551,10723.897603,8829.833130,3677.867791,-20771.878454,11821.077683,5090.922724,2297.513461,-1462.631102,0.013000,-0.011000,1.007000,192.000000,0.000000,0.000000,0.000000,0.000000,0.000000,0.000000,0.000000,0.000000,0.000000,1773750696.421406,0.000000
16.000000,-27945.894354,3239.974766,-15308.016873,3321.849206,6134.726838,8815.416254,-16.003849,-9836.667459,10698.886001,8831.040124,3683.142803,-20763.407143,11888.289379,5108.401788,2306.029475,-1467.839058,0.013000,-0.011000,1.007000,192.000000,0.000000,0.000000,0.000000,0.000000,0.000000,0.000000,0.000000,0.000000,0.000000,1773750696.421430,0.000000
18.000000,-27939.255886,3245.070964,-15290.604864,3334.924976,6148.182589,8817.360856,-2.905727,-9828.218499,10725.283411,8822.054723,3662.959178,-20787.390564,11808.560706,5075.254151,2296.127653,-1459.770079,0.013000,-0.011000,1.007000,192.000000,0.000000,0.000000,0.000000,0.000000,0.000000,0.000000,0.000000,0.000000,0.000000,1773750696.421454,0.000000
20.000000,-27938.026540,3245.875626,-15288.481449,3338.613014,6152.675289,8820.825377,3.978611,-9824.709275,10688.090108,8830.168406,3681.511126,-20759.227366,11852.750105,5097.695303,2311.975039,-1474.186954,0.010500,-0.011500,1.005500,192.000000,0.000000,32.000000,127.500000,80.000000,15.500000,48.000000,0.000000,0.000000,0.000000,1773750696.421477,0.000000
22.000000,-27973.141131,3220.618155,-15322.880783,3314.495482,6131.016449,8801.245248,-26.084486,-9856.560511,10694.639170,8818.344333,3656.276006,-20789.156352,11783.482049,5059.317357,2304.643667,-1461.289997,0.010500,-0.011500,1.005500,192.000000,0.000000,0.000000,0.000000,0.000000,0.000000,0.000000,0.000000,0.000000,0.000000,1773750696.421500,0.000000
24.000000,-27935.232572,3249.921292,-15285.486315,3350.750011,6179.117403,8838.326793,8.516015,-9821.736493,10697.030806,8825.988630,3663.272102,-20778.382811,11839.137893,5097.896468,2310.700990,-1467.079099,0.010500,-0.011500,1.005500,192.000000,0.000000,0.000000,0.000000,0.000000,0.000000,0.000000,0.000000,0.000000,0.000000,1773750696.421524,0.000000
26.000000,-27964.423950,3229.044763,-15312.844850,3323.883214,6149.590748,8824.222842,-18.753114,-9849.251491,10678.612969,8825.899223,3669.485887,-20769.822093,11840.031962,5087.860535,2326.078990,-1460.172410,0.010500,-0.011500,1.005500,192.000000,0.000000,0.000000,0.000000,0.000000,0.000000,0.000000,0.000000,0.000000,0.000000,1773750696.421551,0.000000
28.000000,-27952.912802,3239.863007,-15303.747690,3332.734505,6158.285577,8836.270432,-9.387733,-9838.299136,10711.559440,8820.333638,3649.168152,-20796.375966,11785.359595,5078.428099,2315.663077,-1451.410526,0.010500,-0.011500,1.005500,192.000000,0.000000,0.000000,0.000000,0.000000,0.000000,0.000000,0.000000,0.000000,0.000000,1773750696.421575,0.000000
30.000000,-27939.322941,3251.351804,-15293.175315,3338.434200,6164.007624,8835.443417,2.279878,-9825.268069,10681.183419,8836.248080,3674.872658,-20762.781294,11822.910526,5123.600975,2322.480359,-1464.754518,0.009250,-0.014750,1.002750,192.000000,0.000000,32.000000,127.500000,56.000000,15.500000,32.000000,0.000000,0.000000,0.000000,1773750696.421598,0.000000
32.000000,-27959.528918,3236.800818,-15321.271458,3318.585851,6129.943565,8815.036275,-17.926099,-9842.948299,10705.569173,8829.855481,3664.389689,-20783.009622,11841.127198,5069.263884,2306.230641,-1458.674843,0.009250,-0.014750,1.002750,192.000000,0.000000,0.000000,0.000000,0.000000,0.000000,0.000000,0.000000,0.000000,0.000000,1773750696.421622,0.000000
34.000000,-27925.129583,3261.655958,-15283.206437,3352.582854,6164.029975,8836.359839,17.635526,-9808.884240,10708.027864,8840.763133,3674.827954,-20767.117532,11914.418568,5112.536861,2302.855528,-1462.519343,0.009250,-0.014750,1.002750,192.000000,0.000000,0.000000,0.000000,0.000000,0.000000,0.000000,0.000000,0.000000,0.000000,1773750696.421645,0.000000
36.000000,-27950.297648,3243.416934,-15300.886667,3327.660659,6126.501396,8815.304496,-7.957221,-9831.325392,10688.492440,8841.880720,3686.495565,-20759.406180,11800.894058,5088.844012,2305.917717,-1463.480468,0.009250,-0.014750,1.002750,192.000000,0.000000,0.000000,0.000000,0.000000,0.000000,0.000000,0.000000,0.000000,0.000000,1773750696.421669,0.000000
38.000000,-27936.774842,3256.537408,-15288.772021,3338.724773,6137.274937,8825.541595,5.431474,-9817.221441,10724.702266,8838.349144,3672.771594,-20780.729745,11814.528622,5076.058814,2288.818632,-1458.764250,0.009250,-0.014750,1.002750,192.000000,0.000000,0.000000,0.000000,0.000000,0.000000,0.000000,0.000000,0.000000,0.000000,1773750696.421685,0.000000
40.000000,-27934.316150,3258.236141,-15285.553370,3342.211645,6156.340975,8824.982801,10.594727,-9814.539232,10689.945303,8849.927348,3692.776405,-20748.722046,11872.062012,5138.777809,2302.274382,-1470.454212,0.009625,-0.015375,1.000375,192.000000,0.000000,40.000000,127.500000,64.000000,15.500000,24.000000,0.000000,0.000000,0.000000,1773750696.421695,0.000000
42.000000,-27960.490043,3234.476237,-15311.414339,3317.468264,6128.401295,8807.369626,-17.009678,-9841.540139,10705.971504,8835.376362,3668.994149,-20780.014489,11843.809407,5107.485367,2304.017818,-1461.714680,0.009625,-0.015375,1.000375,192.000000,0.000000,0.000000,0.000000,0.000000,0.000000,0.000000,0.000000,0.000000,0.000000,1773750696.421706,0.000000
44.000000,-27937.758319,3249.451905,-15280.948911,3348.738354,6161.906560,8827.285031,12.606384,-9815.165080,10702.238763,8837.365668,3674.023291,-20770.067962,11796.691930,5065.464087,2306.588269,-1467.883762,0.009625,-0.015375,1.000375,192.000000,0.000000,0.000000,0.000000,0.000000,0.000000,0.000000,0.000000,0.000000,0.000000,1773750696.421718,0.000000
46.000000,-27969.967183,3222.428646,-15310.564972,3317.244746,6146.528560,8808.017827,-17.680230,-9849.653822,10674.410841,8829.587260,3674.067995,-20771.565529,11799.798822,5074.628302,2320.982792,-1470.163640,0.009625,-0.015375,1.000375,192.000000,0.000000,0.000000,0.000000,0.000000,0.000000,0.000000,0.000000,0.000000,0.000000,1773750696.421728,0.000000
48.000000,-27954.857404,3234.900920,-15302.160716,3328.264156,6166.645130,8830.011944,-6.772579,-9837.136845,10711.313571,8824.692228,3655.516047,-20797.135925,11836.321573,5111.419274,2318.546452,-1455.567951,0.009625,-0.015375,1.000375,192.000000,0.000000,0.000000,0.000000,0.000000,0.000000,0.000000,0.000000,0.000000,0.000000,1773750696.421739,0.000000
50.000000,-27949.582392,3237.158446,-15292.482411,3337.428372,6172.300121,8834.839920,-0.268221,-9830.565432,10681.608103,8840.986650,3673.576256,-20763.630660,11858.248634,5098.857593,2331.354002,-1467.012044,0.009813,-0.011687,1.001187,192.000000,0.000000,40.000000,127.500000,96.000000,15.500000,40.000000,0.000000,0.000000,0.000000,1773750696.421750,0.000000
52.000000,-27972.269413,3219.657030,-15322.120824,3316.663601,6143.891054,8815.796234,-23.067000,-9849.653822,10702.395225,8825.273374,3656.074841,-20789.491628,11840.948384,5085.200678,2316.914775,-1453.690404,0.009813,-0.011687,1.001187,192.000000,0.000000,0.000000,0.000000,0.000000,0.000000,0.000000,0.000000,0.000000,0.000000,1773750696.421761,0.000000
54.000000,-27934.986703,3249.071926,-15281.440649,3354.080421,6176.837525,8837.969165,13.679268,-9811.074711,10707.916106,8836.225729,3670.871695,-20771.118494,11886.434184,5089.089881,2310.253955,-1462.519343,0.009813,-0.011687,1.001187,192.000000,0.000000,0.000000,0.000000,0.000000,0.000000,0.000000,0.000000,0.000000,0.000000,1773750696.421772,0.000000
56.000000,-27966.390904,3224.552062,-15308.955647,3325.313726,6143.667536,8819.640734,-12.941660,-9837.315659,10686.279617,8837.879758,3679.834745,-20763.094218,11831.538300,5100.958657,2312.220909,-1464.039262,0.009813,-0.011687,1.001187,192.000000,0.000000,0.000000,0.000000,0.000000,0.000000,0.000000,0.000000,0.000000,0.000000,1773750696.421783,0.000000
58.000000,-27954.902107,3231.659917,-15290.023719,3335.036735,6146.617966,8828.961412,0.022352,-9824.865738,10720.164862,8827.977935,3664.099117,-20792.486762,11833.661715,5089.089881,2297.379350,-1454.740936,0.009813,-0.011687,1.001187,192.000000,0.000000,0.000000,0.000000,0.000000,0.000000,0.000000,0.000000,0.000000,0.000000,1773750696.421795,0.000000
60.000000,-27952.845747,3235.593824,-15282.982920,3347.509008,6151.937682,8830.749551,9.901823,-9816.036798,10682.949207,8839.712601,3686.696730,-20757.103951,11806.973732,5088.642846,2302.252031,-1467.235561,0.009906,-0.012844,1.007594,192.000000,0.000000,40.000000,127.500000,72.000000,15.500000,88.000000,0.000000,0.000000,0.000000,1773750696.421807,0.000000
62.000000,-27979.623136,3212.303306,-15316.287019,3320.128121,6128.960088,8810.253001,-16.026201,-9841.428380,10700.607085,8825.005153,3669.240018,-20781.199131,11856.527550,5103.931439,2292.149042,-1453.735108,0.009906,-0.012844,1.007594,192.000000,0.000000,0.000000,0.000000,0.000000,0.000000,0.000000,0.000000,0.000000,0.000000,1773750696.421818,0.000000
64.000000,-27956.600840,3230.385867,-15280.501876,3352.158171,6157.458563,8829.520205,17.099085,-9811.834671,10695.622646,8829.341391,3669.865867,-20773.510131,11818.082549,5077.668140,2295.233583,-1463.346358,0.009906,-0.012844,1.007594,192.000000,0.000000,0.000000,0.000000,0.000000,0.000000,0.000000,0.000000,0.000000,0.000000,1773750696.421829,0.000000
66.000000,-27986.753343,3210.604574,-15310.520269,3322.139778,6141.678231,8815.729179,-12.226404,-9840.131979,10669.672271,8827.597955,3673.352739,-20767.944547,11783.325587,5082.607875,2309.203423,-1466.408547,0.009906,-0.012844,1.007594,192.000000,0.000000,0.000000,0.000000,0.000000,0.000000,0.000000,0.000000,0.000000,0.000000,1773750696.421839,0.000000
68.000000,-27978.259680,3209.866966,-15306.116975,3328.957060,6162.420650,8820.937135,-5.677343,-9835.035781,10700.852954,8811.907031,3649.078745,-20798.655844,11867.479905,5092.733215,2305.738903,-1454.539770,0.009906,-0.012844,1.007594,192.000000,0.000000,0.000000,0.000000,0.000000,0.000000,0.000000,0.000000,0.000000,0.000000,1773750696.421849,0.000000
70.000000,-27973.342296,3218.382981,-15296.237504,3336.757819,6168.030938,8823.552289,-0.201166,-9829.805473,10664.710184,8820.959487,3667.764803,-20768.883320,11849.419695,5101.003361,2326.414266,-1467.749651,0.008953,-0.015422,1.005797,192.000000,0.000000,32.000000,127.500000,56.000000,15.500000,48.000000,0.000000,0.000000,0.000000,1773750696.421861,0.000000
72.000000,-27998.488009,3193.371379,-15320.667961,3310.136892,6153.524656,8806.028522,-28.096143,-9858.303947,10680.892847,8810.632981,3648.922282,-20796.554780,11783.727918,5079.411576,2324.492016,-1455.724413,0.008953,-0.015422,1.005797,192.000000,0.000000,0.000000,0.000000,0.000000,0.000000,0.000000,0.000000,0.000000,0.000000,1773750696.421872,0.000000
74.000000,-27962.166424,3225.960222,-15289.107298,3349.230093,6192.036711,8839.623194,6.973744,-9824.530461,10688.760661,8817.316153,3653.705556,-20786.876474,11857.287509,5085.960637,2325.900176,-1461.178239,0.008953,-0.015422,1.005797,192.000000,0.000000,0.000000,0.000000,0.000000,0.000000,0.000000,0.000000,0.000000,0.000000,1773750696.900674,0.000000
76.000000,-27985.233424,3209.464635,-15319.058635,3324.732581,6160.498400,8827.642659,-19.624832,-9850.436133,10670.029899,8825.988630,3661.930998,-20774.739477,11885.383652,5105.429006,2329.387048,-1452.818686,0.008953,-0.015422,1.005797,192.000000,0.000000,0.000000,0.000000,0.000000,0.000000,0.000000,0.000000,0.000000,0.000000,1773750696.900739,0.000000
78.000000,-27968.111988,3216.348972,-15300.417280,3335.304956,6164.901693,8835.912804,-6.839634,-9836.376886,10710.039521,8817.539670,3650.643367,-20801.472163,11809.320666,5079.210410,2308.912850,-1444.257968,0.008953,-0.015422,1.005797,192.000000,0.000000,0.000000,0.000000,0.000000,0.000000,0.000000,0.000000,0.000000,0.000000,1773750696.900786,0.000000
80.000000,-27957.897241,3224.417952,-15288.101469,3344.133895,6165.862818,8830.771903,3.978611,-9824.575165,10680.870495,8835.421066,3679.588876,-20764.971765,11812.181689,5102.366817,2318.010010,-1461.513515,0.008953,-0.015422,1.005797,192.000000,0.000000,0.000000,0.000000,0.000000,0.000000,0.000000,0.000000,0.000000,0.000000,1773750696.900833,0.000000
82.000000,-27983.422933,3202.401483,-15311.280228,3319.368162,6132.223443,8813.628115,-19.580128,-9849.698526,10701.411748,8819.059589,3663.696785,-20790.586864,11812.293448,5095.549535,2308.599926,-1450.784677,0.010000,-0.018000,1.006000,192.000000,0.000000,40.000000,127.500000,56.000000,15.500000,56.000000,0.000000,0.000000,0.000000,1773750696.900869,0.000000
84.000000,-27944.821470,3235.549120,-15280.591283,3350.280625,6177.709243,8838.796179,13.254584,-9814.248659,10703.646923,8823.619345,3673.777422,-20778.360460,11885.785983,5081.244419,2304.218984,-1458.965416,0.010000,-0.018000,1.006000,192.000000,0.000000,0.000000,0.000000,0.000000,0.000000,0.000000,0.000000,0.000000,0.000000,1773750696.900892,0.000000
86.000000,-27962.121721,3225.893167,-15300.372577,3325.671354,6152.563531,8822.233537,-9.566547,-9834.275822,10689.788841,8835.711638,3687.411986,-20765.888186,11888.512896,5139.001326,2316.132464,-1460.060651,0.010000,-0.018000,1.006000,192.000000,0.000000,0.000000,0.000000,0.000000,0.000000,0.000000,0.000000,0.000000,0.000000,1773750696.900954,0.000000
88.000000,-27955.930287,3231.123475,-15286.447440,3337.093095,6161.951263,8826.547423,3.263355,-9824.239889,10724.210527,8829.989592,3674.582085,-20787.412916,11782.409165,5081.937323,2303.168452,-1453.444535,0.010000,-0.018000,1.006000,192.000000,0.000000,0.000000,0.000000,0.000000,0.000000,0.000000,0.000000,0.000000,0.000000,1773750696.900978,0.000000
90.000000,-27947.414273,3232.844559,-15281.731222,3346.257311,6166.801592,8821.428874,12.561680,-9816.863813,10691.465222,8837.075095,3695.257449,-20758.690924,11831.962983,5083.904276,2318.971135,-1470.945951,0.010000,-0.018000,1.006000,192.000000,0.000000,0.000000,0.000000,0.000000,0.000000,0.000000,0.000000,0.000000,0.000000,1773750696.901011,0.000000
92.000000,-27982.998250,3209.911669,-15318.075158,3317.423560,6139.823036,8808.733083,-18.998983,-9848.692697,10700.987065,8822.568813,3669.888219,-20786.742364,11839.987259,5067.542799,2310.946859,-1456.774945,0.014000,-0.018000,1.010000,192.000000,0.000000,56.000000,127.500000,56.000000,15.500000,72.000000,0.000000,0.000000,0.000000,1773750696.901034,0.000000
94.000000,-27958.701904,3221.445170,-15284.279321,3340.334098,6185.085319,8826.949755,8.784236,-9826.676229,10696.628475,8821.138301,3668.994149,-20782.741402,11835.606317,5116.515472,2323.016801,-1461.513515,0.014000,-0.018000,1.010000,192.000000,0.000000,0.000000,0.000000,0.000000,0.000000,0.000000,0.000000,0.000000,0.000000,1773750696.901057,0.000000
96.000000,-27997.772753,3192.253791,-15318.186917,3312.305011,6166.242798,8807.794310,-21.927061,-9860.986157,10660.888035,8804.106272,3663.495620,-20789.804553,11857.578082,5080.640922,2342.529874,-1458.965416,0.014000,-0.018000,1.010000,192.000000,0.000000,0.000000,0.000000,0.000000,0.000000,0.000000,0.000000,0.000000,0.000000,1773750696.901080,0.000000
98.000000,-27973.610517,3216.013696,-15304.328836,3327.638308,6172.098955,8824.960449,-9.164215,-9843.976479,10691.040539,8806.341446,3645.524817,-20811.418690,11804.224468,5065.017052,2325.162569,-1445.755535,0.014000,-0.018000,1.010000,192.000000,0.000000,0.000000,0.000000,0.000000,0.000000,0.000000,0.000000,0.000000,0.000000,1773750696.901102,0.000000
100.000000,-27965.720351,3223.009792,-15294.248199,3339.596491,6169.573208,8837.119798,0.178814,-9831.437150,10666.453620,8825.608650,3673.822126,-20771.789047,11780.643377,5076.058814,2328.358868,-1458.004291,0.014000,-0.018000,1.010000,192.000000,0.000000,0.000000,0.000000,0.000000,0.000000,0.000000,0.000000,0.000000,0.000000,1773750696.901125,0.000000
102.000000,-27987.826227,3210.269297,-15324.445406,3316.305973,6150.663632,8823.105255,-23.067000,-9850.927872,10685.542010,8816.936173,3658.913512,-20791.235064,11831.694762,5074.628302,2316.579499,-1444.928520,0.016000,-0.018000,1.006000,192.000000,0.000000,64.000000,127.500000,56.000000,15.500000,56.000000,0.000000,0.000000,0.000000,1773750696.901158,0.000000
104.000000,-27949.448281,3236.376135,-15285.441611,3347.106677,6175.362310,8845.613461,11.600555,-9817.444958,10694.102728,8829.095522,3666.244884,-20777.779314,11869.335099,5118.929460,2312.690295,-1450.359994,0.016000,-0.018000,1.006000,192.000000,0.000000,0.000000,0.000000,0.000000,0.000000,0.000000,0.000000,0.000000,0.000000,1773750696.901181,0.000000
106.000000,-27980.561910,3212.593879,-15311.570801,3326.833645,6149.255472,8820.490100,-13.679268,-9844.714087,10675.528428,8827.195624,3674.827954,-20771.274957,11885.048376,5104.870213,2318.948784,-1450.583512,0.016000,-0.018000,1.006000,192.000000,0.000000,0.000000,0.000000,0.000000,0.000000,0.000000,0.000000,0.000000,0.000000,1773750696.901203,0.000000
108.000000,-27964.267488,3221.020486,-15290.157830,3337.316613,6157.078583,8827.307383,-0.894070,-9832.890014,10710.128928,8817.316153,3659.427602,-20794.543123,11787.080680,5060.457296,2305.940068,-1444.928520,0.016000,-0.018000,1.006000,192.000000,0.000000,0.000000,0.000000,0.000000,0.000000,0.000000,0.000000,0.000000,0.000000,1773750696.901226,0.000000
110.000000,-27958.701904,3230.899958,-15289.509629,3348.000747,6167.919179,8829.028467,9.320677,-9821.244755,10678.501210,8825.631002,3684.014521,-20761.574300,11815.467395,5098.745835,2315.886595,-1462.966378,0.016000,-0.018000,1.006000,192.000000,0.000000,0.000000,0.000000,0.000000,0.000000,0.000000,0.000000,0.000000,0.000000,1773750696.901248,0.000000
112.000000,-27985.322831,3210.403408,-15314.208307,3319.882252,6140.761809,8812.868156,-18.239023,-9849.251491,10693.901562,8827.553252,3663.003881,-20783.322547,11831.784169,5108.357085,2313.629069,-1448.929483,0.010000,-0.016000,1.012000,192.000000,0.000000,40.000000,127.500000,64.000000,15.500000,80.000000,0.000000,0.000000,0.000000,1773750696.901271,0.000000
114.000000,-27958.411331,3228.307155,-15276.635024,3352.761668,6170.646092,8832.001249,16.674401,-9818.875470,10697.075510,8820.803025,3671.341082,-20777.488742,11783.996139,5094.387245,2311.505653,-1455.567951,0.010000,-0.016000,1.012000,192.000000,0.000000,0.000000,0.000000,0.000000,0.000000,0.000000,0.000000,0.000000,0.000000,1773750696.901294,0.000000
116.000000,-27993.570625,3204.636658,-15315.258839,3324.397305,6136.447923,8806.833185,-12.181701,-9848.424476,10666.475972,8813.181080,3674.604437,-20773.532483,11824.653962,5084.686587,2321.161606,-1455.210323,0.010000,-0.016000,1.012000,192.000000,0.000000,0.000000,0.000000,0.000000,0.000000,0.000000,0.000000,0.000000,0.000000,1773750696.901316,0.000000
118.000000,-27988.742648,3202.781463,-15312.464871,3330.968717,6152.496475,8811.616458,-4.783273,-9845.988136,10690.817021,8804.016865,3648.050564,-20802.388585,11873.827800,5055.919892,2311.237432,-1446.046108,0.010000,-0.016000,1.012000,192.000000,0.000000,0.000000,0.000000,0.000000,0.000000,0.000000,0.000000,0.000000,0.000000,1773750696.901339,0.000000
120.000000,-27989.301442,3197.931134,-15301.020777,3335.953156,6160.967786,8821.831205,0.000000,-9845.161122,10650.002736,8798.116004,3663.674434,-20784.484838,11779.235217,5088.732253,2332.583348,-1455.836172,0.010000,-0.016000,1.012000,192.000000,0.000000,0.000000,0.000000,0.000000,0.000000,0.000000,0.000000,0.000000,0.000000,1773750696.901361,0.000000
122.000000,-28011.072041,3183.760128,-15331.217984,3311.612107,6134.682135,8814.566888,-28.967861,-9874.128982,10663.100858,8796.685493,3645.189541,-20811.709262,11755.899996,5081.870268,2325.408438,-1437.261872,0.012000,-0.018000,1.016000,192.000000,0.000000,48.000000,127.500000,56.000000,15.500000,96.000000,0.000000,0.000000,0.000000,1773750696.901386,0.000000
124.000000,-27968.514319,3217.086579,-15301.914847,3350.750011,6184.906505,8842.238348,6.906689,-9836.399238,10668.934663,8807.839013,3650.084573,-20798.029995,11845.597547,5078.517506,2315.216042,-1442.514532,0.012000,-0.018000,1.016000,192.000000,0.000000,0.000000,0.000000,0.000000,0.000000,0.000000,0.000000,0.000000,0.000000,1773750696.901409,0.000000
126.000000,-27989.144980,3202.110911,-15315.705873,3324.442008,6146.662670,8818.992534,-16.070904,-9854.794723,10657.222349,8818.657257,3665.887256,-20779.969785,11785.806630,5096.845936,2325.609604,-1442.380421,0.012000,-0.018000,1.016000,192.000000,0.000000,0.000000,0.000000,0.000000,0.000000,0.000000,0.000000,0.000000,0.000000,1773750696.901432,0.000000
128.000000,-27972.336468,3213.487949,-15300.238466,3333.919148,6151.423592,8823.686400,-2.972782,-9839.170854,10694.415652,8810.253001,3654.286701,-20802.075660,11773.848447,5070.090898,2303.861356,-1441.732221,0.012000,-0.018000,1.016000,192.000000,0.000000,0.000000,0.000000,0.000000,0.000000,0.000000,0.000000,0.000000,0.000000,1773750696.901455,0.000000
130.000000,-27958.724255,3226.094332,-15288.257931,3344.603282,6158.196170,8823.485234,9.186567,-9822.138825,10668.577035,8825.608650,3686.115585,-20766.044648,11856.885178,5124.740913,2315.126635,-1461.893494,0.012000,-0.018000,1.016000,192.000000,0.000000,0.000000,0.000000,0.000000,0.000000,0.000000,0.000000,0.000000,0.000000,1773750696.901478,0.000000
132.000000,-27981.523035,3210.090483,-15310.743786,3326.073685,6130.345897,8803.748644,-16.048553,-9843.395334,10690.682911,8818.143167,3676.012597,-20785.535370,11802.101052,5065.195866,2301.536775,-1455.187971,0.012000,-0.016000,1.008000,192.000000,0.000000,48.000000,127.500000,64.000000,15.500000,64.000000,0.000000,0.000000,0.000000,1773750696.901500,0.000000
134.000000,-27944.977933,3236.890225,-15276.076231,3359.064860,6171.718976,8824.580470,18.998983,-9810.448862,10699.511850,8824.066380,3684.752129,-20774.493608,11810.013570,5075.008282,2304.196632,-1462.586398,0.012000,-0.016000,1.008000,192.000000,0.000000,0.000000,0.000000,0.000000,0.000000,0.000000,0.000000,0.000000,0.000000,1773750696.901523,0.000000
136.000000,-27972.358820,3216.304268,-15303.278304,3329.113523,6149.456638,8805.603839,-8.918346,-9840.534310,10681.853972,8825.362781,3689.021312,-20768.548044,11862.741335,5095.236611,2317.093589,-1464.486297,0.012000,-0.016000,1.008000,192.000000,0.000000,0.000000,0.000000,0.000000,0.000000,0.000000,0.000000,0.000000,0.000000,1773750696.901546,0.000000
138.000000,-27971.554157,3211.364533,-15298.115051,3332.242767,6157.860894,8813.650467,-4.000962,-9840.400200,10714.733388,8813.158728,3663.495620,-20798.052346,11823.268154,5081.356177,2306.409455,-1452.863390,0.012000,-0.016000,1.008000,192.000000,0.000000,0.000000,0.000000,0.000000,0.000000,0.000000,0.000000,0.000000,0.000000,1773750696.901569,0.000000
140.000000,-27968.693133,3213.823225,-15289.464925,3339.037697,6163.247664,8815.460958,1.519919,-9838.053267,10675.237855,8816.131510,3679.790041,-20773.241910,11825.749198,5117.320134,2324.536720,-1461.938198,0.012000,-0.016000,1.008000,192.000000,0.000000,0.000000,0.000000,0.000000,0.000000,0.000000,0.000000,0.000000,0.000000,1773750696.901591,0.000000
142.000000,-27998.130381,3190.018617,-15325.406531,3308.415807,6143.242853,8807.391978,-30.688945,-9870.753869,10688.023053,8799.233591,3654.309053,-20804.713166,11819.334247,5066.805192,2322.726229,-1441.687517,0.010000,-0.016000,1.006000,192.000000,0.000000,40.000000,127.500000,64.000000,15.500000,56.000000,0.000000,0.000000,0.000000,1773750696.901614,0.000000
144.000000,-27965.407427,3214.806702,-15283.206437,3336.891930,6187.566362,8830.704848,1.318753,-9838.567357,10689.945303,8806.028522,3658.511181,-20798.611140,11825.145701,5066.224046,2329.811732,-1447.007233,0.010000,-0.016000,1.006000,192.000000,0.000000,0.000000,0.000000,0.000000,0.000000,0.000000,0.000000,0.000000,0.000000,1773750696.901637,0.000000
146.000000,-27991.223692,3196.455919,-15314.208307,3310.606278,6165.192266,8805.939115,-26.397410,-9865.925892,10665.246626,8804.754472,3665.037890,-20791.123306,11835.114579,5078.159878,2333.365659,-1447.454267,0.010000,-0.016000,1.006000,192.000000,0.000000,0.000000,0.000000,0.000000,0.000000,0.000000,0.000000,0.000000,0.000000,1773750696.901659,0.000000
148.000000,-27968.134340,3213.152672,-15293.689405,3323.659697,6171.249589,8816.511490,-11.846425,-9846.859854,10709.704245,8803.458071,3655.828971,-20811.977483,11767.232331,5056.657500,2314.165510,-1440.167599,0.010000,-0.016000,1.006000,192.000000,0.000000,0.000000,0.000000,0.000000,0.000000,0.000000,0.000000,0.000000,0.000000,1773750696.901682,0.000000
150.000000,-27952.219898,3229.558853,-15287.363861,3334.723811,6166.600426,8815.885641,0.402331,-9832.062999,10684.290312,8820.713618,3688.440167,-20774.135980,11849.620861,5092.196774,2321.362772,-1458.652491,0.010000,-0.016000,1.006000,192.000000,0.000000,0.000000,0.000000,0.000000,0.000000,0.000000,0.000000,0.000000,0.000000,1773750696.901704,0.000000
152.000000,-27967.642601,3218.338277,-15307.860411,3313.847281,6145.567434,8802.027560,-19.714239,-9847.083372,10705.300952,8815.170385,3675.900838,-20792.218541,11845.061105,5085.893582,2308.823444,-1449.153000,0.010000,-0.016000,1.007000,192.000000,0.000000,40.000000,127.500000,64.000000,15.500000,64.000000,0.000000,0.000000,0.000000,1773750696.901727,0.000000
154.000000,-27932.080976,3245.048612,-15268.230768,3348.850113,6170.847257,8820.601859,16.920271,-9811.007656,10716.700341,8824.714580,3690.764748,-20776.460561,11831.270079,5103.976143,2304.934240,-1462.072308,0.010000,-0.016000,1.007000,192.000000,0.000000,0.000000,0.000000,0.000000,0.000000,0.000000,0.000000,0.000000,0.000000,1773750696.901752,0.000000
156.000000,-27962.680514,3226.116684,-15302.473641,3330.566386,6138.928966,8801.647580,-8.270145,-9837.159197,10689.542972,8822.255888,3694.184565,-20767.184587,11847.318631,5076.885829,2311.438598,-1466.721471,0.010000,-0.016000,1.007000,192.000000,0.000000,0.000000,0.000000,0.000000,0.000000,0.000000,0.000000,0.000000,0.000000,1773750696.901775,0.000000
158.000000,-27948.151880,3232.598690,-15295.030510,3336.154322,6146.841484,8813.359894,-0.782311,-9830.185453,10717.437949,8816.690304,3671.654006,-20792.218541,11849.330288,5072.303721,2298.340475,-1456.774945,0.010000,-0.016000,1.007000,192.000000,0.000000,0.000000,0.000000,0.000000,0.000000,0.000000,0.000000,0.000000,0.000000,1773750696.901798,0.000000
160.000000,-27942.072206,3238.723068,-15282.446478,3344.916206,6143.913405,8814.835109,7.711352,-9823.278764,10687.084280,8825.765112,3694.966876,-20762.960108,11808.091320,5098.142338,2312.332667,-1467.861410,0.010000,-0.016000,1.007000,192.000000,0.000000,0.000000,0.000000,0.000000,0.000000,0.000000,0.000000,0.000000,0.000000,1773750696.901820,0.000000
162.000000,-27982.014773,3207.117701,-15319.818594,3313.668467,6118.275955,8796.864307,-23.379925,-9860.248549,10693.052196,8811.035313,3668.815335,-20792.754983,11786.365424,5092.554401,2305.940068,-1446.493142,0.012000,-0.015000,1.009500,192.000000,0.000000,56.000000,127.500000,72.000000,15.500000,80.000000,0.000000,0.000000,0.000000,1773750696.901843,0.000000
164.000000,-27954.119796,3226.474312,-15290.895437,3338.903587,6158.509095,8822.188833,4.604459,-9836.958031,10691.219353,8809.247173,3664.300283,-20792.330300,11810.058273,5089.067529,2311.684467,-1443.185084,0.012000,-0.015000,1.009500,192.000000,0.000000,0.000000,0.000000,0.000000,0.000000,0.000000,0.000000,0.000000,0.000000,1773750696.901865,0.000000
166.000000,-27984.764038,3201.038027,-15325.741807,3313.668467,6148.204940,8801.334655,-23.961070,-9866.819962,10665.805419,8802.653408,3664.255579,-20789.357518,11856.862826,5046.129828,2323.441484,-1440.480523,0.012000,-0.015000,1.009500,192.000000,0.000000,0.000000,0.000000,0.000000,0.000000,0.000000,0.000000,0.000000,0.000000,1773750696.901888,0.000000
168.000000,-27973.901090,3207.989419,-15310.453214,3322.318592,6159.269054,8813.605763,-14.886262,-9858.549816,10702.216411,8792.662179,3645.390707,-20816.604294,11795.730805,5043.291157,2311.460949,-1427.717677,0.012000,-0.015000,1.009500,192.000000,0.000000,0.000000,0.000000,0.000000,0.000000,0.000000,0.000000,0.000000,0.000000,1773750696.901910,0.000000
170.000000,-27954.008037,3229.000059,-15298.360920,3335.729639,6173.663577,8817.450263,-0.804663,-9841.271918,10672.600349,8806.743778,3672.659835,-20780.908558,11821.703532,5085.848878,2321.854511,-1443.453305,0.012000,-0.015000,1.009500,192.000000,0.000000,0.000000,0.000000,0.000000,0.000000,0.000000,0.000000,0.000000,0.000000,1773750696.901933,0.000000
172.000000,-27966.122683,3223.009792,-15318.946876,3308.616973,6148.271996,8802.407539,-24.631622,-9858.929796,10699.109518,8807.771958,3664.076765,-20796.420669,11843.407076,5090.676855,2312.399723,-1439.072363,0.015000,-0.016500,1.009750,192.000000,0.000000,72.000000,127.500000,56.000000,15.500000,72.000000,0.000000,0.000000,0.000000,1773750696.901956,0.000000
174.000000,-27925.867191,3257.096202,-15279.987786,3351.152343,6180.190287,8825.005153,13.008715,-9819.076636,10712.431158,8826.748589,3677.331350,-20777.064058,11813.008703,5096.153032,2307.594098,-1451.611692,0.015000,-0.016500,1.009750,192.000000,0.000000,0.000000,0.000000,0.000000,0.000000,0.000000,0.000000,0.000000,0.000000,1773750696.901978,0.000000
176.000000,-27947.280162,3241.628795,-15302.831269,3331.236938,6150.395411,8806.922592,-9.901823,-9837.941508,10691.711091,8834.661106,3689.267181,-20758.132131,11873.336062,5094.990742,2316.065409,-1454.182143,0.015000,-0.016500,1.009750,192.000000,0.000000,0.000000,0.000000,0.000000,0.000000,0.000000,0.000000,0.000000,0.000000,1773750696.902001,0.000000
178.000000,-27943.100386,3242.500513,-15285.218094,3339.708250,6154.888112,8814.276315,1.251698,-9827.145615,10725.216356,8828.581432,3675.453803,-20781.802628,11783.683215,5089.179288,2301.067388,-1449.153000,0.015000,-0.016500,1.009750,192.000000,0.000000,0.000000,0.000000,0.000000,0.000000,0.000000,0.000000,0.000000,0.000000,1773750696.902023,0.000000
180.000000,-27938.495927,3243.819266,-15277.082059,3346.771401,6149.590748,8815.192737,10.684134,-9819.814243,10686.480783,8830.682496,3698.252582,-20756.478102,11796.222543,5090.632151,2313.360848,-1465.983864,0.015000,-0.016500,1.009750,192.000000,0.000000,0.000000,0.000000,0.000000,0.000000,0.000000,0.000000,0.000000,0.000000,1773750696.902046,0.000000
182.000000,-27970.660087,3220.640507,-15312.978961,3320.396342,6121.785178,8797.020769,-17.747285,-9851.039630,10697.075510,8814.790406,3676.996073,-20782.562588,11835.002820,5077.422270,2305.493034,-1451.566988,0.017500,-0.015250,1.010875,192.000000,0.000000,80.000000,127.500000,72.000000,15.500000,80.000000,0.000000,0.000000,0.000000,1773750696.902068,0.000000
184.000000,-27947.280162,3237.136094,-15286.872123,3347.911340,6153.479952,8823.485234,12.248756,-9826.475063,10694.259190,8815.349199,3674.313864,-20779.433343,11818.373122,5088.732253,2307.080007,-1456.640834,0.017500,-0.015250,1.010875,192.000000,0.000000,0.000000,0.000000,0.000000,0.000000,0.000000,0.000000,0.000000,0.000000,1773750696.902091,0.000000
186.000000,-27988.586186,3204.077864,-15323.171356,3318.585851,6122.388675,8791.432833,-19.557776,-9863.176628,10660.083373,8805.961467,3670.111736,-20777.354631,11844.971698,5066.648730,2318.233528,-1448.348337,0.017500,-0.015250,1.010875,192.000000,0.000000,0.000000,0.000000,0.000000,0.000000,0.000000,0.000000,0.000000,0.000000,1773750696.902116,0.000000
188.000000,-27986.596881,3201.708579,-15317.762234,3321.715095,6132.893995,8809.873022,-12.427570,-9858.706279,10681.451640,8791.477536,3639.847474,-20813.631512,11792.221581,5066.246398,2305.940068,-1439.050012,0.017500,-0.015250,1.010875,192.000000,0.000000,0.000000,0.000000,0.000000,0.000000,0.000000,0.000000,0.000000,0.000000,1773750696.902139,0.000000
190.000000,-27974.973974,3211.520995,-15304.015911,3329.873482,6147.892016,8818.567850,-5.185605,-9849.586767,10647.476989,8800.664103,3662.132163,-20785.133038,11764.393659,5088.665198,2320.871034,-1447.096640,0.017500,-0.015250,1.010875,192.000000,0.000000,0.000000,0.000000,0.000000,0.000000,0.000000,0.000000,0.000000,0.000000,1773750696.902161,0.000000
192.000000,-27996.454000,3196.590030,-15330.882708,3305.308915,6128.200129,8801.066435,-31.985346,-9875.693604,10668.286463,8791.209315,3646.508294,-20811.329283,11751.764924,5034.193997,2313.383199,-1435.518436,0.015750,-0.016625,1.007437,192.000000,0.000000,56.000000,127.500000,56.000000,15.500000,48.000000,0.000000,0.000000,0.000000,1773750696.902184,0.000000
194.000000,-27955.505604,3227.010754,-15300.149059,3342.256348,6163.851161,8819.171348,2.950430,-9838.723819,10683.150373,8802.541650,3657.483000,-20795.347785,11805.431462,5060.390241,2309.091664,-1444.056802,0.015750,-0.016625,1.007437,192.000000,0.000000,0.000000,0.000000,0.000000,0.000000,0.000000,0.000000,0.000000,0.000000,1773750697.382355,0.000000
196.000000,-27970.838901,3217.198338,-15317.918696,3320.329287,6139.040725,8805.201507,-19.960108,-9856.515808,10666.632434,8811.929382,3668.480059,-20780.461524,11873.894855,5102.813852,2320.781627,-1448.884779,0.015750,-0.016625,1.007437,192.000000,0.000000,0.000000,0.000000,0.000000,0.000000,0.000000,0.000000,0.000000,0.000000,1773750697.382410,0.000000
198.000000,-27954.633886,3231.816379,-15298.405623,3338.903587,6149.993080,8821.004191,-5.342067,-9837.136845,10705.368007,8811.102368,3657.639463,-20800.265169,11789.651130,5058.780916,2302.184975,-1436.926596,0.015750,-0.016625,1.007437,192.000000,0.000000,0.000000,0.000000,0.000000,0.000000,0.000000,0.000000,0.000000,0.000000,1773750697.382447,0.000000
200.000000,-27935.456089,3246.657937,-15283.049975,3352.582854,6161.213656,8829.877833,9.901823,-9816.394426,10682.725690,8831.509510,3694.072806,-20759.093256,11810.058273,5090.073358,2314.590194,-1449.108297,0.015750,-0.016625,1.007437,192.000000,0.000000,0.000000,0.000000,0.000000,0.000000,0.000000,0.000000,0.000000,0.000000,1773750697.382488,0.000000
202.000000,-27958.210165,3225.423780,-15313.202478,3326.230148,6133.497492,8812.421121,-14.729800,-9840.556662,10701.925838,8824.871042,3684.752129,-20781.556759,11814.595677,5079.478631,2302.676714,-1442.939215,0.012875,-0.012313,1.004719,192.000000,0.000000,40.000000,127.500000,96.000000,15.500000,40.000000,0.000000,0.000000,0.000000,1773750697.382529,0.000000
204.000000,-27921.486249,3249.653071,-15278.266701,3355.823857,6156.631548,8832.023601,18.708410,-9808.951295,10712.855841,8827.016810,3692.642294,-20772.906634,11858.852131,5101.696265,2300.821519,-1451.008195,0.012875,-0.012313,1.004719,192.000000,0.000000,0.000000,0.000000,0.000000,0.000000,0.000000,0.000000,0.000000,0.000000,1773750697.382571,0.000000
206.000000,-27955.527956,3224.686173,-15301.579571,3322.609165,6125.786141,8808.442510,-10.818244,-9839.729648,10688.023053,8823.731103,3698.945486,-20767.855140,11788.399433,5122.751608,2309.829272,-1458.473677,0.012875,-0.012313,1.004719,192.000000,0.000000,0.000000,0.000000,0.000000,0.000000,0.000000,0.000000,0.000000,0.000000,1773750697.382604,0.000000
208.000000,-27955.505604,3222.607460,-15298.450327,3328.286508,6140.962975,8808.420158,-4.515052,-9839.573185,10710.017170,8809.381283,3672.346911,-20800.265169,11758.984537,5053.841180,2304.308391,-1449.197704,0.012875,-0.012313,1.004719,192.000000,0.000000,0.000000,0.000000,0.000000,0.000000,0.000000,0.000000,0.000000,0.000000,1773750697.382615,0.000000
210.000000,-27961.250003,3217.578318,-15301.736033,3333.852092,6151.490647,8812.957563,1.519919,-9839.975517,10663.413783,8815.349199,3681.935809,-20777.645204,11896.850097,5067.989834,2322.837987,-1460.060651,0.012875,-0.012313,1.004719,192.000000,0.000000,0.000000,0.000000,0.000000,0.000000,0.000000,0.000000,0.000000,0.000000,1773750697.382626,0.000000
212.000000,-27990.866064,3192.097329,-15324.020722,3303.677237,6119.818225,8788.907086,-27.246776,-9868.451639,10672.823867,8798.875964,3659.025271,-20807.149506,11782.655034,5052.030689,2318.121769,-1447.744840,0.011437,-0.012156,1.004359,192.000000,0.000000,40.000000,127.500000,80.000000,15.500000,48.000000,0.000000,0.000000,0.000000,1773750697.382636,0.000000
214.000000,-27959.081883,3212.795045,-15291.968321,3333.829741,6153.010565,8806.699074,5.610288,-9838.120322,10677.517733,8799.814737,3667.138954,-20801.740384,11771.076831,5074.136564,2313.226737,-1452.081079,0.011437,-0.012156,1.004359,192.000000,0.000000,0.000000,0.000000,0.000000,0.000000,0.000000,0.000000,0.000000,0.000000,1773750697.382647,0.000000
216.000000,-27979.176102,3197.953486,-15318.231621,3308.527566,6131.307022,8785.554324,-20.071867,-9862.327261,10654.607195,8802.496946,3672.726890,-20795.258378,11786.544238,5062.111326,2320.044019,-1453.355128,0.011437,-0.012156,1.004359,192.000000,0.000000,0.000000,0.000000,0.000000,0.000000,0.000000,0.000000,0.000000,0.000000,1773750697.382657,0.000000
218.000000,-27962.591107,3214.784350,-15303.658283,3316.507139,6150.730687,8802.787519,-11.019410,-9849.139732,10700.830603,8801.289952,3662.020405,-20813.519754,11789.159392,5059.227950,2307.325877,-1443.028622,0.011437,-0.012156,1.004359,192.000000,0.000000,0.000000,0.000000,0.000000,0.000000,0.000000,0.000000,0.000000,0.000000,1773750697.382684,0.000000
220.000000,-27944.396787,3231.995193,-15294.002330,3336.914281,6167.181571,8822.814682,3.576279,-9830.073694,10675.863704,8821.697095,3688.149594,-20776.035878,11845.463436,5087.771128,2318.233528,-1455.031509,0.011437,-0.012156,1.004359,192.000000,0.000000,0.000000,0.000000,0.000000,0.000000,0.000000,0.000000,0.000000,0.000000,1773750697.382694,0.000000
222.000000,-27960.534747,3225.714353,-15315.147080,3318.764665,6141.231196,8816.422083,-18.149616,-9846.681040,10700.204754,8823.194662,3679.767690,-20787.636434,11881.360338,5077.712843,2306.230641,-1440.636985,0.011437,-0.012156,1.004359,192.000000,0.000000,0.000000,0.000000,0.000000,0.000000,0.000000,0.000000,0.000000,0.000000,1773750697.382705,0.000000
224.000000,-27923.788479,3252.067060,-15274.533960,3355.175657,6164.477010,8840.383153,18.440189,-9809.465386,10704.920972,8832.828263,3691.815280,-20773.756000,11765.243025,5094.700169,2303.570784,-1447.409564,0.010000,-0.012000,0.996000,192.000000,0.000000,40.000000,127.500000,80.000000,15.500000,16.000000,0.000000,0.000000,0.000000,1773750697.382715,0.000000
226.000000,-27951.079959,3233.224539,-15306.742824,3332.309822,6143.511074,8817.785539,-5.610288,-9834.007601,10682.502172,8837.678592,3700.219536,-20759.942622,11897.654760,5100.735140,2309.292830,-1451.008195,0.010000,-0.012000,0.996000,192.000000,0.000000,0.000000,0.000000,0.000000,0.000000,0.000000,0.000000,0.000000,0.000000,1773750697.382726,0.000000
228.000000,-27948.420101,3233.403353,-15291.968321,3338.948290,6138.817208,8820.445397,1.922250,-9830.811302,10710.151280,8829.833130,3679.097137,-20786.876474,11756.727011,5083.546648,2295.814728,-1444.861465,0.010000,-0.012000,0.996000,192.000000,0.000000,0.000000,0.000000,0.000000,0.000000,0.000000,0.000000,0.000000,0.000000,1773750697.382736,0.000000
230.000000,-27942.653351,3238.588958,-15286.536847,3348.000747,6145.478028,8826.614478,10.460616,-9822.295287,10673.628530,8834.392885,3696.375036,-20758.288593,11772.976729,5084.775994,2307.035304,-1455.590302,0.010000,-0.012000,0.996000,192.000000,0.000000,0.000000,0.000000,0.000000,0.000000,0.000000,0.000000,0.000000,0.000000,1773750697.382746,0.000000
232.000000,-27972.850558,3214.493777,-15321.740844,3316.797711,6124.243870,8807.257868,-22.262337,-9854.839427,10687.754832,8822.881737,3674.716195,-20786.183570,11823.514023,5066.805192,2303.727246,-1443.989747,0.010000,-0.012000,0.996000,192.000000,0.000000,0.000000,0.000000,0.000000,0.000000,0.000000,0.000000,0.000000,0.000000,1773750697.382757,0.000000
234.000000,-27942.720406,3231.637565,-15285.486315,3345.720869,6163.046499,8837.388019,10.550023,-9823.479929,10691.219353,8813.404597,3677.241943,-20787.010585,11812.382855,5102.702093,2308.778740,-1449.264759,0.020000,-0.016000,1.004000,192.000000,0.000000,80.000000,127.500000,64.000000,15.500000,48.000000,0.000000,0.000000,0.000000,1773750697.382767,0.000000
236.000000,-27976.359782,3207.207108,-15321.584382,3320.843377,6135.509149,8806.810833,-17.143788,-9855.532331,10661.446829,8812.063493,3679.231248,-20781.802628,11818.864860,5084.865401,2321.563938,-1445.442610,0.020000,-0.016000,1.004000,192.000000,0.000000,0.000000,0.000000,0.000000,0.000000,0.000000,0.000000,0.000000,0.000000,1773750697.382777,0.000000
238.000000,-27970.168349,3203.608478,-15314.297714,3322.899738,6138.236062,8802.742815,-11.019410,-9852.023107,10690.437042,8797.110176,3653.437335,-20813.407995,11799.485898,5056.970424,2301.804996,-1440.726392,0.020000,-0.016000,1.004000,192.000000,0.000000,0.000000,0.000000,0.000000,0.000000,0.000000,0.000000,0.000000,0.000000,1773750697.382788,0.000000
240.000000,-27963.440473,3214.091446,-15301.087833,3331.393401,6151.356536,8803.681589,-0.447035,-9840.623717,10658.272881,8807.391978,3675.073823,-20783.411954,11790.656959,5085.804175,2314.679601,-1457.110221,0.020000,-0.016000,1.004000,192.000000,0.000000,0.000000,0.000000,0.000000,0.000000,0.000000,0.000000,0.000000,0.000000,1773750697.382798,0.000000
242.000000,-27981.545386,3197.037065,-15322.433749,3302.403188,6124.825016,8788.549458,-26.129189,-9862.036689,10674.701413,8794.137394,3660.522838,-20806.747175,11763.745459,5061.485477,2304.286039,-1446.895474,0.020000,-0.016000,1.004000,192.000000,0.000000,0.000000,0.000000,0.000000,0.000000,0.000000,0.000000,0.000000,0.000000,1773750697.382808,0.000000
244.000000,-27936.238400,3233.738629,-15287.073289,3343.910377,6165.840467,8816.220917,13.589861,-9818.428435,10696.673178,8804.150975,3676.169059,-20790.877437,11863.031907,5060.390241,2307.258821,-1454.360956,0.018000,-0.016000,1.010000,192.000000,0.000000,72.000000,127.500000,64.000000,15.500000,72.000000,0.000000,0.000000,0.000000,1773750697.382818,0.000000
246.000000,-27952.443415,3224.216786,-15308.575667,3327.079514,6139.174836,8807.414330,-8.292497,-9836.689810,10683.820925,8820.490100,3692.351722,-20770.000907,11801.452851,5085.245381,2315.037228,-1449.331814,0.018000,-0.016000,1.010000,192.000000,0.000000,0.000000,0.000000,0.000000,0.000000,0.000000,0.000000,0.000000,0.000000,1773750697.382828,0.000000
248.000000,-27934.003226,3237.627833,-15294.762289,3340.267043,6157.659728,8824.826339,2.346933,-9822.071769,10727.607993,8822.166481,3681.421719,-20789.134000,11826.956192,5069.330939,2295.971190,-1440.055840,0.018000,-0.016000,1.010000,192.000000,0.000000,0.000000,0.000000,0.000000,0.000000,0.000000,0.000000,0.000000,0.000000,1773750697.382839,0.000000
250.000000,-27918.535819,3249.518961,-15282.111202,3355.466229,6166.913350,8836.538653,15.445055,-9806.045569,10700.540030,8832.805912,3708.824957,-20750.510186,11862.942500,5118.169501,2310.186900,-1453.131611,0.018000,-0.016000,1.010000,192.000000,0.000000,0.000000,0.000000,0.000000,0.000000,0.000000,0.000000,0.000000,0.000000,1773750697.382851,0.000000
252.000000,-27950.744683,3224.373248,-15312.643684,3323.369124,6126.814321,8815.326847,-14.685096,-9835.952203,10714.576926,8824.714580,3690.787100,-20774.292442,11877.784059,5105.652524,2300.061560,-1440.569930,0.018000,-0.016000,1.010000,192.000000,0.000000,0.000000,0.000000,0.000000,0.000000,0.000000,0.000000,0.000000,0.000000,1773750697.382861,0.000000
254.000000,-27923.475554,3245.272129,-15275.830361,3357.008500,6159.492571,8835.577528,17.926099,-9807.677246,10713.012303,8825.631002,3692.441129,-20770.358535,11763.343127,5096.175384,2299.681580,-1446.716660,0.014000,-0.016000,1.006000,192.000000,0.000000,56.000000,127.500000,64.000000,15.500000,56.000000,0.000000,0.000000,0.000000,1773750697.382872,0.000000
0.000000,-27956.444377,3221.579280,-15308.463908,3329.739372,6140.582995,8813.538708,-11.913480,-9840.780180,10683.284483,8826.256851,3694.788062,-20764.502378,11774.474296,5098.231745,2313.562013,-1443.319195,0.014000,-0.016000,1.006000,192.000000,0.000000,0.000000,0.000000,0.000000,0.000000,0.000000,0.000000,0.000000,0.000000,1773750697.382882,0.000000
2.000000,-27953.940982,3219.187643,-15304.418243,3330.767552,6148.920196,8809.470690,-6.526709,-9839.282613,10708.653713,8808.733083,3668.636521,-20797.158277,11780.755136,5046.107476,2306.856490,-1440.905206,0.014000,-0.016000,1.006000,192.000000,0.000000,0.000000,0.000000,0.000000,0.000000,0.000000,0.000000,0.000000,0.000000,1773750697.382892,0.000000
4.000000,-27948.688322,3220.439341,-15302.384234,3333.248595,6160.833676,8797.490155,3.151596,-9835.236947,10668.532332,8814.321019,3685.914419,-20771.990212,11902.549792,5098.455262,2324.536720,-1461.021776,0.014000,-0.016000,1.006000,192.000000,0.000000,0.000000,0.000000,0.000000,0.000000,0.000000,0.000000,0.000000,0.000000,1773750697.382903,0.000000
6.000000,-27977.432666,3198.288762,-15324.266592,3304.370142,6126.210824,8768.723460,-24.631622,-9862.014337,10679.708204,8795.657312,3664.814373,-20804.109669,11775.837752,5047.828561,2316.132464,-1451.365823,0.014000,-0.016000,1.006000,192.000000,0.000000,0.000000,0.000000,0.000000,0.000000,0.000000,0.000000,0.000000,0.000000,1773750697.382913,0.000000
8.000000,-27938.406520,3230.117646,-15288.414393,3339.551787,6153.502304,8794.718539,8.493663,-9825.133958,10685.251437,8803.838051,3673.755070,-20793.179666,11754.670650,5068.727442,2306.834138,-1460.395927,0.018000,-0.014000,1.006000,192.000000,0.000000,72.000000,127.500000,72.000000,15.500000,56.000000,0.000000,0.000000,0.000000,1773750697.382923,0.000000
10.000000,-27952.577526,3223.948565,-15309.670902,3321.536281,6134.436266,8786.224876,-13.455750,-9841.853063,10672.019204,8818.746664,3689.289533,-20776.818189,11811.354674,5095.102500,2319.418170,-1457.981939,0.018000,-0.014000,1.006000,192.000000,0.000000,0.000000,0.000000,0.000000,0.000000,0.000000,0.000000,0.000000,0.000000,1773750697.382933,0.000000
12.000000,-27934.137337,3235.660879,-15297.109222,3334.612052,6150.753039,8800.932324,-2.771616,-9826.564470,10716.253306,8816.198566,3681.756995,-20794.856047,11837.863843,5053.483552,2304.375446,-1447.186047,0.018000,-0.014000,1.006000,192.000000,0.000000,0.000000,0.000000,0.000000,0.000000,0.000000,0.000000,0.000000,0.000000,1773750697.382944,0.000000
14.000000,-27919.474592,3246.926158,-15278.870199,3347.509008,6169.528505,8816.779711,11.332334,-9810.068883,10694.348597,8827.843824,3708.757902,-20758.713276,11883.841382,5094.476651,2321.630993,-1456.283206,0.018000,-0.014000,1.006000,192.000000,0.000000,0.000000,0.000000,0.000000,0.000000,0.000000,0.000000,0.000000,0.000000,1773750697.382954,0.000000
16.000000,-27944.150918,3231.101123,-15303.837097,3324.129084,6139.197187,8805.089749,-15.869739,-9834.432284,10716.499176,8825.340429,3696.553850,-20780.796800,11790.679311,5090.632151,2311.036266,-1439.184122,0.018000,-0.014000,1.006000,192.000000,0.000000,0.000000,0.000000,0.000000,0.000000,0.000000,0.000000,0.000000,0.000000,1773750697.382964,0.000000
18.000000,-27918.334653,3243.036955,-15269.370707,3358.841343,6172.523638,8827.642659,17.300250,-9807.096101,10722.511795,8824.826339,3699.928963,-20773.577186,11798.413014,5086.430023,2311.326839,-1443.810933,0.012000,-0.016000,1.004000,192.000000,0.000000,48.000000,127.500000,64.000000,15.500000,48.000000,0.000000,0.000000,0.000000,1773750697.382974,0.000000
20.000000,-27946.184927,3227.547196,-15303.457117,3327.034810,6143.220501,8808.286048,-9.812416,-9833.582918,10693.767451,8820.020714,3701.828861,-20769.106837,11874.453649,5098.164689,2322.525063,-1446.291977,0.012000,-0.016000,1.004000,192.000000,0.000000,0.000000,0.000000,0.000000,0.000000,0.000000,0.000000,0.000000,0.000000,1773750697.382985,0.000000
22.000000,-27939.010017,3224.909690,-15288.056766,3330.946366,6146.617966,8809.068359,-0.692904,-9826.810339,10722.355333,8809.694208,3681.287608,-20796.912408,11823.290506,5064.480610,2312.734999,-1438.982956,0.012000,-0.016000,1.004000,192.000000,0.000000,0.000000,0.000000,0.000000,0.000000,0.000000,0.000000,0.000000,0.000000,1773750697.382995,0.000000
24.000000,-27931.768052,3230.318812,-15279.652510,3338.277738,6157.458563,8815.483310,8.650125,-9821.110644,10695.488536,8812.868156,3707.394446,-20770.067962,11851.431352,5090.788614,2323.039153,-1456.640834,0.012000,-0.016000,1.004000,192.000000,0.000000,0.000000,0.000000,0.000000,0.000000,0.000000,0.000000,0.000000,0.000000,1773750697.383005,0.000000
26.000000,-27962.769921,3207.095350,-15308.173336,3312.282659,6129.541234,8790.047024,-20.273032,-9850.369078,10707.781995,8798.853612,3684.752129,-20800.354576,11783.996139,5078.070471,2314.009048,-1440.659337,0.012000,-0.016000,1.004000,192.000000,0.000000,0.000000,0.000000,0.000000,0.000000,0.000000,0.000000,0.000000,0.000000,1773750697.383017,0.000000
28.000000,-27926.381281,3236.085562,-15282.066498,3348.961872,6175.250551,8810.543574,13.411047,-9816.796758,10716.007437,8809.336580,3690.630637,-20787.010585,11824.028113,5074.293026,2313.696124,-1452.975148,0.008000,-0.022000,1.006000,192.000000,0.000000,32.000000,127.500000,40.000000,15.500000,56.000000,0.000000,0.000000,0.000000,1773750697.383027,0.000000
30.000000,-27953.940982,3220.975783,-15306.966341,3323.167959,6147.400278,8784.034405,-10.974707,-9838.969688,10685.184382,8816.422083,3695.056283,-20773.890111,11882.634387,5080.149183,2327.308336,-1459.635968,0.008000,-0.022000,1.006000,192.000000,0.000000,0.000000,0.000000,0.000000,0.000000,0.000000,0.000000,0.000000,0.000000,1773750697.383038,0.000000
32.000000,-27943.346255,3230.497626,-15291.968321,3329.649965,6158.777315,8798.294818,-3.196299,-9830.185453,10716.432120,8815.259792,3680.460594,-20794.677233,11767.925235,5063.921817,2311.997391,-1450.896436,0.008000,-0.022000,1.006000,192.000000,0.000000,0.000000,0.000000,0.000000,0.000000,0.000000,0.000000,0.000000,0.000000,1773750697.383048,0.000000
34.000000,-27926.291874,3244.311004,-15279.384289,3342.815142,6185.688816,8814.879813,8.560718,-9816.014447,10694.795632,8826.972106,3708.310867,-20764.770599,11865.401192,5114.749684,2334.103266,-1460.910018,0.008000,-0.022000,1.006000,192.000000,0.000000,0.000000,0.000000,0.000000,0.000000,0.000000,0.000000,0.000000,0.000000,1773750697.383058,0.000000
36.000000,-27948.308342,3228.418914,-15303.524173,3323.480883,6160.677214,8809.247173,-16.964974,-9839.237909,10720.030751,8824.871042,3698.252582,-20780.193303,11836.120407,5076.885829,2329.655269,-1444.816762,0.008000,-0.022000,1.006000,192.000000,0.000000,0.000000,0.000000,0.000000,0.000000,0.000000,0.000000,0.000000,0.000000,1773750697.383068,0.000000
38.000000,-27908.365775,3255.822153,-15268.610748,3357.544942,6196.976447,8840.852540,17.859044,-9804.793871,10727.607993,8830.391923,3704.846347,-20773.934814,11853.174788,5100.981009,2323.173263,-1443.967395,0.014000,-0.016000,1.012000,192.000000,0.000000,56.000000,127.500000,64.000000,15.500000,80.000000,0.000000,0.000000,0.000000,1773750697.383079,0.000000
40.000000,-27936.327807,3234.051553,-15292.325949,3337.987165,6162.621816,8823.574641,-5.543233,-9828.598479,10713.749911,8837.499778,3718.726780,-20758.176834,11841.596585,5105.853689,2332.516293,-1439.921730,0.014000,-0.016000,1.012000,192.000000,0.000000,0.000000,0.000000,0.000000,0.000000,0.000000,0.000000,0.000000,0.000000,1773750697.383089,0.000000
42.000000,-27932.036273,3235.727934,-15284.704004,3343.262177,6161.683042,8826.837996,1.855195,-9822.116473,10739.029734,8822.300592,3694.497489,-20787.792896,11821.055331,5093.224954,2314.120807,-1426.935366,0.014000,-0.016000,1.012000,192.000000,0.000000,0.000000,0.000000,0.000000,0.000000,0.000000,0.000000,0.000000,0.000000,1773750697.383100,0.000000
44.000000,-27924.593142,3240.891187,-15274.645719,3351.532322,6163.046499,8833.364705,12.449922,-9810.582973,10704.518641,8836.695115,3717.989173,-20755.159349,11859.522684,5111.553384,2320.133426,-1438.982956,0.014000,-0.016000,1.012000,192.000000,0.000000,0.000000,0.000000,0.000000,0.000000,0.000000,0.000000,0.000000,0.000000,1773750697.383110,0.000000
46.000000,-27957.740779,3208.950544,-15306.005216,3322.810331,6134.793894,8815.662124,-14.171006,-9840.199034,10716.253306,8816.019752,3697.559678,-20787.748192,11818.127253,5097.292971,2308.219946,-1426.890663,0.014000,-0.016000,1.012000,192.000000,0.000000,0.000000,0.000000,0.000000,0.000000,0.000000,0.000000,0.000000,0.000000,1773750697.383120,0.000000
48.000000,-27925.822488,3233.470408,-15272.410544,3357.902570,6164.812286,8829.296688,20.161273,-9808.906592,10725.283411,8817.070284,3700.621867,-20782.115553,11847.050410,5065.821715,2305.649496,-1434.713773,0.012000,-0.016000,1.010000,192.000000,0.000000,40.000000,127.500000,64.000000,15.500000,64.000000,0.000000,0.000000,0.000000,1773750697.383130,0.000000
50.000000,-27960.579450,3206.357742,-15301.333702,3321.916261,6140.605347,8790.762280,-9.410084,-9839.081447,10693.074547,8813.941039,3702.432359,-20774.895939,11846.983355,5074.337730,2320.334592,-1448.214227,0.012000,-0.016000,1.010000,192.000000,0.000000,0.000000,0.000000,0.000000,0.000000,0.000000,0.000000,0.000000,0.000000,1773750697.383141,0.000000
52.000000,-27947.906011,3219.321754,-15288.928484,3326.252499,6162.733574,8789.242362,-1.251698,-9831.034819,10727.339772,8803.122795,3682.382844,-20804.020262,11829.481939,5095.326018,2311.751522,-1452.841038,0.012000,-0.016000,1.010000,192.000000,0.000000,0.000000,0.000000,0.000000,0.000000,0.000000,0.000000,0.000000,0.000000,1773750697.383151,0.000000
54.000000,-27943.927401,3218.830016,-15279.406640,3335.103790,6174.825868,8791.388129,6.549061,-9824.619868,10693.521582,8813.762225,3704.578126,-20772.705468,11813.589849,5063.407727,2331.264595,-1471.102413,0.012000,-0.016000,1.010000,192.000000,0.000000,0.000000,0.000000,0.000000,0.000000,0.000000,0.000000,0.000000,0.000000,1773750697.383161,0.000000
56.000000,-27971.375343,3196.545326,-15307.547487,3305.957115,6157.749135,8779.653463,-22.418800,-9852.224273,10708.765472,8797.065472,3684.930943,-20802.589751,11802.950418,5044.788724,2329.364697,-1456.864352,0.012000,-0.016000,1.010000,192.000000,0.000000,0.000000,0.000000,0.000000,0.000000,0.000000,0.000000,0.000000,0.000000,1773750697.383171,0.000000
58.000000,-27934.785537,3226.094332,-15276.322100,3344.558578,6196.015322,8811.884679,13.992192,-9815.187432,10714.018132,8804.776824,3687.613152,-20793.246721,11877.135858,5080.171535,2329.297641,-1459.166582,0.014000,-0.017000,1.006000,192.000000,0.000000,64.000000,127.500000,56.000000,15.500000,40.000000,0.000000,0.000000,0.000000,1773750697.862356,0.000000
60.000000,-27949.962372,3223.590937,-15303.390062,3330.499331,6168.567380,8810.230650,-9.097160,-9832.755903,10693.320417,8814.924516,3697.269106,-20773.532483,11865.892931,5106.993628,2334.595005,-1448.974186,0.014000,-0.017000,1.006000,192.000000,0.000000,0.000000,0.000000,0.000000,0.000000,0.000000,0.000000,0.000000,0.000000,1773750697.862412,0.000000
62.000000,-27933.399729,3239.997118,-15287.945007,3350.280625,6168.835600,8835.219900,2.503395,-9818.361380,10731.094865,8826.502720,3687.456690,-20784.842466,11776.687119,5072.013148,2310.343362,-1429.416410,0.014000,-0.017000,1.006000,192.000000,0.000000,0.000000,0.000000,0.000000,0.000000,0.000000,0.000000,0.000000,0.000000,1773750697.862454,0.000000
64.000000,-27916.814735,3253.609330,-15278.423164,3366.396232,6164.566417,8845.680516,19.200148,-9799.652970,10706.865574,8841.411333,3718.436208,-20746.933907,11856.281681,5148.456114,2321.161606,-1438.200645,0.014000,-0.017000,1.006000,192.000000,0.000000,0.000000,0.000000,0.000000,0.000000,0.000000,0.000000,0.000000,0.000000,1773750697.862492,0.000000
66.000000,-27949.850613,3224.529710,-15308.285094,3332.555691,6122.232213,8814.991571,-9.655954,-9832.308868,10717.236783,8825.876871,3700.688922,-20773.040744,11854.985279,5109.698189,2302.877879,-1426.667145,0.014000,-0.017000,1.006000,192.000000,0.000000,0.000000,0.000000,0.000000,0.000000,0.000000,0.000000,0.000000,0.000000,1773750697.862529,0.000000
68.000000,-27922.469726,3244.981557,-15272.008213,3362.976416,6153.681118,8828.246156,23.357573,-9803.005731,10722.377684,8823.462882,3702.477062,-20769.933852,11822.128215,5084.373663,2297.580516,-1437.239520,0.013000,-0.015500,1.004000,192.000000,0.000000,48.000000,127.500000,72.000000,15.500000,40.000000,0.000000,0.000000,0.000000,1773750697.862567,0.000000
70.000000,-27952.957505,3221.579280,-15299.679673,3333.405058,6131.105856,8815.773882,-4.045666,-9833.113531,10692.314588,8815.438606,3705.315734,-20765.284689,11830.778340,5091.481518,2310.768045,-1437.775962,0.013000,-0.015500,1.004000,192.000000,0.000000,0.000000,0.000000,0.000000,0.000000,0.000000,0.000000,0.000000,0.000000,1773750697.862604,0.000000
72.000000,-27947.347217,3223.412123,-15291.700100,3334.634404,6151.177722,8806.296743,0.715256,-9830.364267,10725.059894,8798.853612,3683.656893,-20796.845352,11831.985334,5062.871285,2304.978943,-1433.260910,0.013000,-0.015500,1.004000,192.000000,0.000000,0.000000,0.000000,0.000000,0.000000,0.000000,0.000000,0.000000,0.000000,1773750697.862616,0.000000
74.000000,-27936.484270,3231.257585,-15276.970300,3340.781133,6157.190342,8791.119908,10.035933,-9820.037761,10694.125079,8807.056702,3706.030989,-20766.491683,11816.026189,5064.972349,2321.765104,-1458.138401,0.013000,-0.015500,1.004000,192.000000,0.000000,0.000000,0.000000,0.000000,0.000000,0.000000,0.000000,0.000000,0.000000,1773750697.862627,0.000000
76.000000,-27967.575546,3210.045780,-15308.866240,3306.426502,6126.657859,8766.153010,-21.927061,-9851.933700,10701.948190,8793.980932,3685.914419,-20794.967806,11781.850372,5060.658462,2316.713609,-1457.065518,0.013000,-0.015500,1.004000,192.000000,0.000000,0.000000,0.000000,0.000000,0.000000,0.000000,0.000000,0.000000,0.000000,1773750697.862638,0.000000
78.000000,-27931.700996,3240.332394,-15284.011100,3341.786962,6174.065909,8787.968312,11.332334,-9817.512014,10705.144489,8800.977028,3687.389635,-20786.652957,11866.809352,5073.354253,2318.613508,-1464.531000,0.013500,-0.014750,1.004000,192.000000,0.000000,56.000000,127.500000,72.000000,15.500000,48.000000,0.000000,0.000000,0.000000,1773750697.862649,0.000000
80.000000,-27962.144072,3220.349934,-15310.341455,3320.195177,6144.919234,8777.261827,-15.221538,-9845.854026,10671.818038,8807.682551,3688.060187,-20775.097105,11847.989183,5079.389224,2337.545435,-1461.915846,0.013500,-0.014750,1.004000,192.000000,0.000000,0.000000,0.000000,0.000000,0.000000,0.000000,0.000000,0.000000,0.000000,1773750697.862660,0.000000
82.000000,-27950.409406,3223.434475,-15298.807955,3334.947328,6159.626682,8799.971199,-7.309020,-9837.762694,10703.266943,8798.361873,3670.335254,-20800.756908,11814.886250,5028.024915,2321.183958,-1447.253102,0.013500,-0.014750,1.004000,192.000000,0.000000,0.000000,0.000000,0.000000,0.000000,0.000000,0.000000,0.000000,0.000000,1773750697.862671,0.000000
84.000000,-27925.777784,3247.529655,-15282.826457,3356.114430,6176.301083,8829.766074,7.934869,-9815.768578,10685.452603,8817.047932,3703.125263,-20761.082561,11817.501404,5103.149128,2333.499769,-1448.303634,0.013500,-0.014750,1.004000,192.000000,0.000000,0.000000,0.000000,0.000000,0.000000,0.000000,0.000000,0.000000,0.000000,1773750697.862682,0.000000
86.000000,-27948.509508,3234.587995,-15311.749615,3338.545959,6151.311833,8825.049856,-16.093256,-9835.773389,10708.854879,8825.362781,3692.955219,-20770.135018,11799.932933,5083.479593,2319.217005,-1424.677840,0.013500,-0.014750,1.004000,192.000000,0.000000,0.000000,0.000000,0.000000,0.000000,0.000000,0.000000,0.000000,0.000000,1773750697.862694,0.000000
88.000000,-27911.427964,3260.873647,-15273.908111,3371.939465,6172.948321,8850.419086,19.289555,-9800.256467,10718.801405,8834.079961,3702.789986,-20759.584994,11805.029131,5104.378474,2310.455121,-1426.287165,0.011750,-0.014375,1.002000,192.000000,0.000000,40.000000,127.500000,72.000000,15.500000,32.000000,0.000000,0.000000,0.000000,1773750697.862705,0.000000
90.000000,-27940.306418,3238.320737,-15303.121841,3339.440029,6142.661708,8822.255888,-7.353724,-9826.922098,10695.913219,8830.481330,3712.669458,-20753.170044,11849.240881,5124.964431,2314.724304,-1431.182197,0.011750,-0.014375,1.002000,192.000000,0.000000,0.000000,0.000000,0.000000,0.000000,0.000000,0.000000,0.000000,0.000000,1773750697.862724,0.000000
92.000000,-27934.830241,3240.310042,-15298.517382,3342.569273,6151.445943,8824.938098,0.201166,-9823.882261,10727.250365,8815.170385,3691.100024,-20784.753059,11903.242696,5079.121003,2299.860394,-1425.281337,0.011750,-0.014375,1.002000,192.000000,0.000000,0.000000,0.000000,0.000000,0.000000,0.000000,0.000000,0.000000,0.000000,1773750697.862736,0.000000
94.000000,-27925.017825,3244.579225,-15276.411507,3346.905511,6153.457600,8824.871042,11.667611,-9811.119415,10696.293199,8819.327810,3713.854100,-20758.310945,11826.509157,5098.857593,2315.797188,-1439.519398,0.011750,-0.014375,1.002000,192.000000,0.000000,0.000000,0.000000,0.000000,0.000000,0.000000,0.000000,0.000000,0.000000,1773750697.862747,0.000000
96.000000,-27958.120758,3217.824187,-15306.385196,3320.485749,6129.340068,8788.907086,-17.724933,-9841.875415,10711.380626,8810.387112,3697.693789,-20782.070849,11788.868819,5059.831448,2314.567842,-1439.452343,0.011750,-0.014375,1.002000,192.000000,0.000000,0.000000,0.000000,0.000000,0.000000,0.000000,0.000000,0.000000,0.000000,1773750697.862766,0.000000
98.000000,-27932.550363,3234.655051,-15276.858542,3345.765572,6164.074679,8801.781690,10.125340,-9818.115511,10712.028827,8805.536783,3695.637428,-20786.384736,11818.060198,5057.439811,2314.791359,-1450.985843,0.011875,-0.011187,1.000000,192.000000,0.000000,48.000000,127.500000,96.000000,15.500000,24.000000,0.000000,0.000000,0.000000,1773750697.862777,0.000000
100.000000,-27958.478386,3217.690077,-15306.228734,3318.787017,6142.929929,8773.014995,-15.780332,-9842.791837,10684.983216,8804.419196,3701.627696,-20779.612157,11886.344777,5089.469861,2327.375391,-1458.451326,0.011875,-0.011187,1.000000,192.000000,0.000000,0.000000,0.000000,0.000000,0.000000,0.000000,0.000000,0.000000,0.000000,1773750697.862789,0.000000
102.000000,-27954.008037,3223.546234,-15299.165583,3325.179616,6148.562568,8776.323053,-7.107855,-9838.209729,10713.414635,8799.792385,3681.309960,-20804.824925,11817.590811,5055.562264,2314.478435,-1457.378442,0.011875,-0.011187,1.000000,192.000000,0.000000,0.000000,0.000000,0.000000,0.000000,0.000000,0.000000,0.000000,0.000000,1773750697.862800,0.000000
104.000000,-27944.597953,3230.989365,-15284.704004,3338.724773,6159.693737,8789.063548,7.532538,-9826.519767,10677.137754,8813.471653,3702.119434,-20773.621890,11768.014642,5058.669157,2329.454104,-1468.978997,0.011875,-0.011187,1.000000,192.000000,0.000000,0.000000,0.000000,0.000000,0.000000,0.000000,0.000000,0.000000,0.000000,1773750697.862817,0.000000
106.000000,-27972.112950,3208.034123,-15315.191783,3312.930860,6135.263280,8781.218085,-21.837654,-9855.219407,10691.085242,8800.574696,3683.299265,-20798.544085,11769.109877,5057.573921,2324.715534,-1453.556294,0.011875,-0.011187,1.000000,192.000000,0.000000,0.000000,0.000000,0.000000,0.000000,0.000000,0.000000,0.000000,0.000000,1773750697.862828,0.000000
108.000000,-27920.525124,3248.691946,-15279.473696,3355.466229,6183.632455,8834.526996,15.914442,-9810.739435,10708.877231,8814.008095,3691.368245,-20783.277843,11875.526533,5106.345428,2324.514368,-1450.449401,0.010937,-0.012594,1.002000,192.000000,0.000000,40.000000,127.500000,72.000000,15.500000,48.000000,0.000000,0.000000,0.000000,1773750697.862839,0.000000
110.000000,-27936.037235,3238.231330,-15298.338568,3340.892892,6156.586845,8830.593089,-3.576279,-9828.173796,10699.265981,8832.001249,3711.887146,-20760.188491,11853.934747,5094.119024,2329.610566,-1438.602977,0.010937,-0.012594,1.002000,192.000000,0.000000,0.000000,0.000000,0.000000,0.000000,0.000000,0.000000,0.000000,0.000000,1773750697.862851,0.000000
112.000000,-27925.621322,3247.507304,-15286.805068,3350.638253,6162.912388,8842.417162,6.906689,-9817.199089,10743.164807,8836.918633,3701.404178,-20780.126247,11832.722942,5084.351311,2308.063484,-1421.369782,0.010937,-0.012594,1.002000,192.000000,0.000000,0.000000,0.000000,0.000000,0.000000,0.000000,0.000000,0.000000,0.000000,1773750697.862861,0.000000
114.000000,-27917.507639,3253.564626,-15273.036393,3363.848134,6172.635397,8850.128514,20.474198,-9805.710293,10715.314533,8844.652336,3725.253490,-20748.543233,11812.695779,5100.064588,2317.272403,-1429.729334,0.010937,-0.012594,1.002000,192.000000,0.000000,0.000000,0.000000,0.000000,0.000000,0.000000,0.000000,0.000000,0.000000,1773750697.862872,0.000000
116.000000,-27949.738854,3228.642431,-15309.134461,3332.913319,6139.755981,8827.262679,-9.723009,-9834.901671,10729.552594,8832.627098,3706.030989,-20774.605367,11899.085271,5109.228803,2310.209252,-1418.620517,0.010937,-0.012594,1.002000,192.000000,0.000000,0.000000,0.000000,0.000000,0.000000,0.000000,0.000000,0.000000,0.000000,1773750697.862883,0.000000
118.000000,-27917.664101,3252.491743,-15272.142324,3361.478849,6174.356481,8841.254871,20.831826,-9805.732644,10736.168711,8833.498816,3706.992114,-20770.939680,11850.626689,5097.136509,2308.912850,-1426.913014,0.010937,-0.012594,1.002000,192.000000,0.000000,0.000000,0.000000,0.000000,0.000000,0.000000,0.000000,0.000000,0.000000,1773750697.862894,0.000000
120.000000,-27943.368607,3234.163312,-15294.516420,3333.427409,6142.214673,8802.340484,-3.129244,-9829.760770,10706.284428,8836.583356,3713.809396,-20761.261375,11778.765831,5112.559213,2321.899214,-1436.725430,0.014000,-0.012000,1.008000,192.000000,0.000000,56.000000,127.500000,80.000000,15.500000,64.000000,0.000000,0.000000,0.000000,1773750697.862906,0.000000
122.000000,-27943.167441,3230.721144,-15292.951798,3333.673279,6145.366269,8786.426042,0.871718,-9829.358438,10729.977278,8820.423045,3691.770576,-20793.693756,11791.439270,5054.019994,2308.532871,-1439.765267,0.014000,-0.012000,1.008000,192.000000,0.000000,0.000000,0.000000,0.000000,0.000000,0.000000,0.000000,0.000000,0.000000,1773750697.862918,0.000000
124.000000,-27935.813717,3232.241062,-15286.134516,3340.490561,6160.900731,8794.539725,10.795893,-9823.882261,10697.433138,8818.791368,3709.249641,-20770.269128,11859.925015,5107.820643,2324.983755,-1464.128669,0.014000,-0.012000,1.008000,192.000000,0.000000,0.000000,0.000000,0.000000,0.000000,0.000000,0.000000,0.000000,0.000000,1773750697.862931,0.000000
126.000000,-27972.984668,3204.234326,-15316.644647,3308.460511,6134.369211,8778.021786,-19.870701,-9856.806380,10700.115347,8809.403635,3682.718120,-20798.141753,11845.731657,5049.884921,2322.435656,-1449.264759,0.014000,-0.012000,1.008000,192.000000,0.000000,0.000000,0.000000,0.000000,0.000000,0.000000,0.000000,0.000000,0.000000,1773750697.862941,0.000000
128.000000,-27938.495927,3226.675478,-15279.585454,3343.508046,6179.609141,8803.301609,13.746323,-9824.284592,10702.395225,8809.113063,3685.266219,-20795.705413,11858.382745,5046.755677,2323.732057,-1459.211285,0.014000,-0.012000,1.008000,192.000000,0.000000,0.000000,0.000000,0.000000,0.000000,0.000000,0.000000,0.000000,0.000000,1773750697.862953,0.000000
130.000000,-27959.081883,3211.565699,-15304.842926,3316.596546,6160.788972,8805.134452,-12.405218,-9847.709220,10686.123155,8808.263696,3696.375036,-20784.283672,11789.874648,5085.245381,2341.077011,-1455.769116,0.014000,-0.016000,1.002000,192.000000,0.000000,56.000000,127.500000,64.000000,15.500000,40.000000,0.000000,0.000000,0.000000,1773750697.862964,0.000000
132.000000,-27941.133433,3225.893167,-15297.869181,3330.611090,6166.354557,8822.278240,-0.759959,-9830.163101,10722.601202,8805.849708,3679.030082,-20807.507134,11834.086398,5074.516544,2325.564900,-1438.178293,0.014000,-0.016000,1.002000,192.000000,0.000000,0.000000,0.000000,0.000000,0.000000,0.000000,0.000000,0.000000,0.000000,1773750697.862975,0.000000
134.000000,-27919.452240,3245.920330,-15276.791486,3351.420564,6169.930836,8842.931252,17.657878,-9808.437205,10704.496289,8826.681534,3713.921155,-20765.195282,11820.541241,5120.203509,2328.492979,-1444.257968,0.014000,-0.016000,1.002000,192.000000,0.000000,0.000000,0.000000,0.000000,0.000000,0.000000,0.000000,0.000000,0.000000,1773750697.862986,0.000000
136.000000,-27944.441491,3228.843597,-15305.468774,3334.433238,6147.757905,8832.381228,-6.258488,-9828.509072,10725.328115,8826.234499,3707.528556,-20777.913425,11831.895927,5071.454355,2312.556185,-1424.186101,0.014000,-0.016000,1.002000,192.000000,0.000000,0.000000,0.000000,0.000000,0.000000,0.000000,0.000000,0.000000,0.000000,1773750697.862997,0.000000
138.000000,-27911.785592,3252.558798,-15268.297823,3366.373881,6174.311778,8855.112953,26.106838,-9797.328388,10730.580775,8830.570737,3713.228251,-20767.497512,11826.687971,5076.818773,2308.063484,-1427.762381,0.014000,-0.016000,1.002000,192.000000,0.000000,0.000000,0.000000,0.000000,0.000000,0.000000,0.000000,0.000000,0.000000,1773750697.863008,0.000000
140.000000,-27941.468709,3230.564681,-15299.366748,3333.673279,6145.634490,8827.553252,-1.810491,-9826.966802,10702.350521,8831.934194,3717.564490,-20759.495587,11913.256277,5123.243347,2313.964345,-1425.303689,0.012000,-0.018000,1.002000,192.000000,0.000000,48.000000,127.500000,56.000000,15.500000,40.000000,0.000000,0.000000,0.000000,1773750697.863019,0.000000
142.000000,-27942.452185,3226.519016,-15287.676786,3334.410886,6155.804533,8813.158728,4.112721,-9825.223365,10731.944231,8812.488176,3695.816242,-20793.470239,11819.066026,5097.471785,2310.052789,-1423.135569,0.012000,-0.018000,1.002000,192.000000,0.000000,0.000000,0.000000,0.000000,0.000000,0.000000,0.000000,0.000000,0.000000,1773750697.863030,0.000000
144.000000,-27941.021674,3226.653126,-15280.635986,3345.519703,6154.575188,8794.584429,14.506282,-9819.814243,10689.095937,8814.790406,3711.261298,-20766.715201,11806.705511,5064.659424,2325.028458,-1449.354166,0.012000,-0.018000,1.002000,192.000000,0.000000,0.000000,0.000000,0.000000,0.000000,0.000000,0.000000,0.000000,0.000000,1773750697.863041,0.000000
146.000000,-27971.375343,3199.920440,-15314.878859,3310.896851,6117.292478,8762.822600,-16.361477,-9852.671308,10694.817983,8799.457109,3689.177774,-20795.414841,11770.652148,5062.267788,2314.232566,-1445.710831,0.012000,-0.018000,1.002000,192.000000,0.000000,0.000000,0.000000,0.000000,0.000000,0.000000,0.000000,0.000000,0.000000,1773750697.863052,0.000000
148.000000,-27937.288932,3225.312021,-15283.765231,3342.122238,6161.571284,8785.509620,15.802683,-9821.691790,10704.585696,8803.323961,3694.251620,-20792.531466,11801.162279,5062.871285,2312.600888,-1455.769116,0.012000,-0.018000,1.002000,192.000000,0.000000,0.000000,0.000000,0.000000,0.000000,0.000000,0.000000,0.000000,0.000000,1773750697.863063,0.000000
150.000000,-27964.312192,3207.900012,-15312.174298,3322.452703,6148.316699,8770.601007,-9.432436,-9844.155293,10677.204809,8809.895374,3700.308943,-20780.685041,11868.731602,5062.133677,2328.805903,-1459.524209,0.012000,-0.018000,1.004000,192.000000,0.000000,48.000000,127.500000,56.000000,15.500000,48.000000,0.000000,0.000000,0.000000,1773750697.863074,0.000000
152.000000,-27959.350104,3208.190585,-15297.220981,3329.806427,6164.588769,8787.789498,-3.263355,-9838.567357,10711.224164,8801.111138,3680.974684,-20807.618893,11807.018436,5047.694450,2325.251976,-1448.080116,0.012000,-0.018000,1.004000,192.000000,0.000000,0.000000,0.000000,0.000000,0.000000,0.000000,0.000000,0.000000,0.000000,1773750697.863086,0.000000
154.000000,-27941.736930,3223.657992,-15281.887684,3346.771401,6180.614970,8820.467749,10.706486,-9822.183528,10685.206733,8813.605763,3706.768597,-20771.140846,11815.601506,5074.941227,2344.452124,-1453.824515,0.012000,-0.018000,1.004000,192.000000,0.000000,0.000000,0.000000,0.000000,0.000000,0.000000,0.000000,0.000000,0.000000,1773750697.863104,0.000000
156.000000,-27966.256793,3204.502547,-15312.375464,3318.541148,6155.916292,8813.538708,-17.859044,-9848.647994,10706.418539,8812.018789,3693.849289,-20790.676271,11833.482901,5078.405747,2331.041077,-1430.511645,0.012000,-0.018000,1.004000,192.000000,0.000000,0.000000,0.000000,0.000000,0.000000,0.000000,0.000000,0.000000,0.000000,1773750697.863116,0.000000
158.000000,-27919.698110,3239.438324,-15275.986824,3357.410831,6190.717958,8844.853502,21.748247,-9806.157327,10718.823757,8818.098464,3701.627696,-20782.070849,11928.477815,5088.531087,2328.045944,-1434.981994,0.012000,-0.018000,1.004000,192.000000,0.000000,0.000000,0.000000,0.000000,0.000000,0.000000,0.000000,0.000000,0.000000,1773750697.863127,0.000000
160.000000,-27940.641694,3225.669649,-15289.397870,3338.344793,6151.758868,8827.195624,0.268221,-9823.502281,10701.054120,8830.011944,3719.218519,-20763.653012,11791.014587,5111.463977,2326.369563,-1432.635061,0.010000,-0.020000,1.002000,192.000000,0.000000,40.000000,127.500000,48.000000,15.500000,40.000000,0.000000,0.000000,0.000000,1773750697.863138,0.000000
162.000000,-27934.249095,3230.318812,-15283.653472,3346.503180,6164.834638,8840.874891,8.605422,-9813.846328,10736.593394,8824.513414,3705.405141,-20783.791934,11792.825078,5091.772090,2311.885633,-1419.469883,0.010000,-0.020000,1.002000,192.000000,0.000000,0.000000,0.000000,0.000000,0.000000,0.000000,0.000000,0.000000,0.000000,1773750697.863149,0.000000
164.000000,-27929.599932,3232.799856,-15278.378460,3360.115392,6173.931798,8837.611537,19.781294,-9806.783176,10699.645960,8833.856444,3720.246699,-20754.622907,11893.229114,5082.987855,2327.129522,-1428.924671,0.010000,-0.020000,1.002000,192.000000,0.000000,0.000000,0.000000,0.000000,0.000000,0.000000,0.000000,0.000000,0.000000,1773750697.863160,0.000000
166.000000,-27964.401599,3203.429664,-15308.128632,3326.699534,6130.234138,8801.513469,-11.444093,-9841.383677,10712.162937,8820.601859,3697.805547,-20780.640338,11813.656904,5080.216239,2316.087760,-1423.716715,0.010000,-0.020000,1.002000,192.000000,0.000000,0.000000,0.000000,0.000000,0.000000,0.000000,0.000000,0.000000,0.000000,1773750697.863171,0.000000
168.000000,-27938.048892,3221.579280,-15280.703042,3352.292282,6163.471182,8800.820565,18.216672,-9818.294325,10712.945248,8819.685438,3694.698655,-20780.617986,11811.555840,5085.603009,2312.645592,-1441.843980,0.010000,-0.020000,1.002000,192.000000,0.000000,0.000000,0.000000,0.000000,0.000000,0.000000,0.000000,0.000000,0.000000,1773750697.863182,0.000000
170.000000,-27965.027447,3201.865041,-15309.782661,3326.185444,6133.653955,8772.053870,-6.839634,-9842.657726,10681.295178,8814.723350,3695.816242,-20775.074753,11852.280718,5075.857648,2325.207272,-1454.360956,0.010000,-0.016000,1.004000,192.000000,0.000000,40.000000,127.500000,64.000000,15.500000,48.000000,0.000000,0.000000,0.000000,1773750697.863192,0.000000
172.000000,-27960.668857,3202.915573,-15301.646626,3330.499331,6140.918272,8777.217123,-0.379980,-9836.555700,10712.587620,8807.548440,3678.270123,-20799.616969,11770.585092,5050.108439,2314.567842,-1454.293901,0.010000,-0.016000,1.004000,192.000000,0.000000,0.000000,0.000000,0.000000,0.000000,0.000000,0.000000,0.000000,0.000000,1773750697.863203,0.000000
174.000000,-27950.007075,3211.923326,-15298.182106,3343.910377,6160.811324,8796.350216,9.611250,-9826.050380,10679.171762,8814.566888,3695.078635,-20769.419762,11888.490544,5084.552477,2326.570729,-1460.865314,0.010000,-0.016000,1.004000,192.000000,0.000000,0.000000,0.000000,0.000000,0.000000,0.000000,0.000000,0.000000,0.000000,1773750697.863214,0.000000
176.000000,-27973.096427,3193.907820,-15314.208307,3316.015400,6138.861911,8790.114080,-17.769637,-9852.179569,10696.896696,8810.118891,3679.387710,-20792.620873,11795.507287,5084.507773,2326.749543,-1444.749706,0.010000,-0.016000,1.004000,192.000000,0.000000,0.000000,0.000000,0.000000,0.000000,0.000000,0.000000,0.000000,0.000000,1773750697.863226,0.000000
178.000000,-27932.975046,3224.932042,-15281.373594,3359.914227,6178.849182,8832.314173,15.445055,-9815.746226,10708.988989,8816.645600,3687.032007,-20784.931872,11796.222543,5068.570980,2326.213101,-1443.319195,0.010000,-0.016000,1.004000,192.000000,0.000000,0.000000,0.000000,0.000000,0.000000,0.000000,0.000000,0.000000,0.000000,1773750698.342815,0.000000
180.000000,-27957.450206,3212.280954,-15311.637856,3342.390459,6158.374984,8834.862272,-6.169081,-9835.058133,10689.520620,8828.380266,3697.291457,-20766.134055,11882.835553,5086.675893,2337.545435,-1433.484427,0.012000,-0.018000,1.004000,192.000000,0.000000,48.000000,127.500000,56.000000,15.500000,48.000000,0.000000,0.000000,0.000000,1773750698.342901,0.000000
182.000000,-27938.585334,3229.000059,-15295.030510,3351.241750,6161.504228,8855.649394,3.397465,-9819.724836,10717.795577,8827.463845,3679.968855,-20782.830809,11838.422637,5102.031541,2317.719438,-1415.334811,0.012000,-0.018000,1.004000,192.000000,0.000000,0.000000,0.000000,0.000000,0.000000,0.000000,0.000000,0.000000,0.000000,1773750698.342971,0.000000
184.000000,-27922.782650,3241.807609,-15281.373594,3365.636273,6169.304987,8860.320909,18.306079,-9805.129147,10702.328170,8844.026487,3716.737475,-20746.509224,11848.637384,5119.309440,2324.849644,-1423.359087,0.012000,-0.018000,1.004000,192.000000,0.000000,0.000000,0.000000,0.000000,0.000000,0.000000,0.000000,0.000000,0.000000,1773750698.343049,0.000000
186.000000,-27953.024561,3223.836806,-15309.916772,3336.199026,6143.108743,8824.736932,-9.633602,-9832.979421,10706.083263,8837.499778,3698.096120,-20771.923157,11813.858070,5078.003416,2315.439560,-1413.524319,0.012000,-0.018000,1.004000,192.000000,0.000000,0.000000,0.000000,0.000000,0.000000,0.000000,0.000000,0.000000,0.000000,1773750698.343119,0.000000
188.000000,-27920.279255,3249.206036,-15271.449419,3372.341796,6176.636359,8827.217976,27.850274,-9795.361435,10714.554574,8842.327755,3706.120396,-20761.864872,11812.271096,5088.240515,2314.634897,-1428.254119,0.012000,-0.018000,1.004000,192.000000,0.000000,0.000000,0.000000,0.000000,0.000000,0.000000,0.000000,0.000000,0.000000,1773750698.343181,0.000000
190.000000,-27948.107177,3225.982574,-15303.501821,3340.781133,6139.443057,8788.616513,0.111759,-9825.066903,10689.453565,8838.729124,3712.535347,-20749.549061,11839.920204,5113.900317,2321.318069,-1443.319195,0.014000,-0.017000,1.006000,192.000000,0.000000,64.000000,127.500000,64.000000,15.500000,64.000000,0.000000,0.000000,0.000000,1773750698.343244,0.000000
192.000000,-27948.151880,3223.300364,-15302.071309,3341.563444,6146.305042,8786.113117,1.497567,-9830.230156,10714.107539,8823.485234,3683.925114,-20784.618948,11885.271893,5085.155974,2310.924507,-1443.877988,0.014000,-0.017000,1.006000,192.000000,0.000000,0.000000,0.000000,0.000000,0.000000,0.000000,0.000000,0.000000,0.000000,1773750698.343293,0.000000
194.000000,-27937.601857,3229.849426,-15284.435783,3354.661567,6155.268092,8793.668007,12.695791,-9823.390522,10681.518696,8830.011944,3702.186489,-20762.736590,11833.840529,5065.799363,2329.275290,-1456.171448,0.014000,-0.017000,1.006000,192.000000,0.000000,0.000000,0.000000,0.000000,0.000000,0.000000,0.000000,0.000000,0.000000,1773750698.343304,0.000000
196.000000,-27961.562927,3211.923326,-15313.805975,3325.827816,6127.395466,8782.559190,-18.462541,-9852.626604,10703.021074,8822.792330,3688.104890,-20786.027108,11783.526752,5081.691454,2322.256842,-1444.369727,0.014000,-0.017000,1.006000,192.000000,0.000000,0.000000,0.000000,0.000000,0.000000,0.000000,0.000000,0.000000,0.000000,1773750698.343315,0.000000
198.000000,-27924.391976,3239.550083,-15287.274455,3360.182447,6165.840467,8822.099426,13.142826,-9820.305982,10716.119196,8833.118836,3691.412949,-20778.606329,11879.616902,5119.600012,2324.044981,-1445.397907,0.014000,-0.017000,1.006000,192.000000,0.000000,0.000000,0.000000,0.000000,0.000000,0.000000,0.000000,0.000000,0.000000,1773750698.343326,0.000000
200.000000,-27950.655276,3224.462655,-15311.570801,3341.138761,6143.734591,8813.672818,-11.041762,-9842.903595,10690.593504,8840.651374,3697.604382,-20762.446018,11834.846358,5075.790593,2334.527950,-1438.826494,0.014000,-0.016500,1.005000,192.000000,0.000000,56.000000,127.500000,64.000000,15.500000,48.000000,0.000000,0.000000,0.000000,1773750698.343337,0.000000
202.000000,-27944.910877,3228.105989,-15303.702987,3349.565369,6151.758868,8834.236423,-2.682209,-9833.940546,10719.628420,8835.465769,3678.918323,-20786.317681,11758.895130,5085.670064,2319.596984,-1424.521378,0.014000,-0.016500,1.005000,192.000000,0.000000,0.000000,0.000000,0.000000,0.000000,0.000000,0.000000,0.000000,0.000000,1773750698.343349,0.000000
204.000000,-27930.896334,3237.069039,-15289.219056,3362.529381,6175.697586,8848.720354,10.326506,-9819.635429,10686.100803,8845.412296,3699.593687,-20755.718142,11840.076666,5101.182175,2331.354002,-1430.712811,0.014000,-0.016500,1.005000,192.000000,0.000000,0.000000,0.000000,0.000000,0.000000,0.000000,0.000000,0.000000,0.000000,1773750698.343360,0.000000
206.000000,-27954.790348,3217.466559,-15313.224830,3329.269985,6163.202961,8840.785484,-19.490721,-9848.916215,10711.715902,8836.091618,3689.311885,-20781.735573,11867.368146,5131.647603,2330.191711,-1411.691476,0.014000,-0.016500,1.005000,192.000000,0.000000,0.000000,0.000000,0.000000,0.000000,0.000000,0.000000,0.000000,0.000000,1773750698.343371,0.000000
208.000000,-27918.915799,3243.863969,-15269.013079,3367.156192,6194.808328,8854.934139,17.859044,-9810.582973,10726.512757,8836.002211,3697.202050,-20774.292442,11816.607334,5121.522262,2333.432714,-1420.229843,0.014000,-0.016500,1.005000,192.000000,0.000000,0.000000,0.000000,0.000000,0.000000,0.000000,0.000000,0.000000,0.000000,1773750698.343382,0.000000
210.000000,-27935.701959,3233.872740,-15300.417280,3345.340889,6173.596522,8822.211185,-2.995134,-9825.826863,10705.524469,8844.585281,3712.870623,-20753.930003,11926.063827,5089.939247,2340.294700,-1427.941195,0.016000,-0.018250,1.005500,192.000000,0.000000,72.000000,127.500000,48.000000,15.500000,56.000000,0.000000,0.000000,0.000000,1773750698.343394,0.000000
212.000000,-27924.123755,3241.293519,-15290.224885,3348.783058,6162.688871,8819.573679,6.347895,-9815.030970,10743.455379,8838.237386,3701.404178,-20774.918291,11852.548939,5092.420291,2320.066371,-1425.303689,0.016000,-0.018250,1.005500,192.000000,0.000000,0.000000,0.000000,0.000000,0.000000,0.000000,0.000000,0.000000,0.000000,1773750698.343405,0.000000
214.000000,-27918.736985,3246.166199,-15283.720527,3362.127049,6164.253493,8815.282144,18.753114,-9803.363359,10710.911239,8847.759229,3727.220443,-20743.379980,11846.268099,5102.545631,2329.901139,-1443.721526,0.016000,-0.018250,1.005500,192.000000,0.000000,0.000000,0.000000,0.000000,0.000000,0.000000,0.000000,0.000000,0.000000,1773750698.343418,0.000000
216.000000,-27948.554212,3223.635641,-15311.906077,3330.141703,6123.394504,8789.085899,-9.320677,-9831.325392,10712.632324,8833.074133,3704.533423,-20770.984384,11849.039715,5103.909088,2318.166473,-1439.251177,0.016000,-0.018250,1.005500,192.000000,0.000000,0.000000,0.000000,0.000000,0.000000,0.000000,0.000000,0.000000,0.000000,1773750698.343429,0.000000
218.000000,-27921.307435,3243.439286,-15277.618501,3361.367090,6148.048478,8805.514432,21.748247,-9803.385711,10719.248440,8832.738856,3707.796777,-20767.430457,11791.394566,5114.727332,2311.393894,-1447.901302,0.016000,-0.018250,1.005500,192.000000,0.000000,0.000000,0.000000,0.000000,0.000000,0.000000,0.000000,0.000000,0.000000,1773750698.343441,0.000000
220.000000,-27956.399674,3218.137111,-15311.995484,3338.836532,6129.898862,8782.581542,-7.532538,-9836.488645,10679.685852,8830.146054,3709.093178,-20761.328430,11845.374029,5074.293026,2322.793284,-1451.991672,0.017000,-0.019125,1.003750,192.000000,0.000000,72.000000,127.500000,48.000000,15.500000,40.000000,0.000000,0.000000,0.000000,1773750698.343453,0.000000
222.000000,-27946.162575,3222.808626,-15302.563048,3345.475000,6147.109705,8804.329789,-4.291535,-9832.644145,10708.318437,8820.266583,3682.651065,-20791.056250,11793.786203,5046.085125,2312.980868,-1436.188988,0.017000,-0.019125,1.003750,192.000000,0.000000,0.000000,0.000000,0.000000,0.000000,0.000000,0.000000,0.000000,0.000000,1773750698.343465,0.000000
224.000000,-27929.376415,3237.426667,-15292.124783,3357.567293,6164.991100,8827.687362,8.381904,-9816.170909,10684.692643,8833.521167,3709.182585,-20758.310945,11839.115541,5115.040256,2335.086743,-1443.430953,0.017000,-0.019125,1.003750,192.000000,0.000000,0.000000,0.000000,0.000000,0.000000,0.000000,0.000000,0.000000,0.000000,1773750698.343476,0.000000
226.000000,-27946.140223,3228.016582,-15313.940086,3332.734505,6150.171894,8818.545499,-15.534462,-9833.649973,10708.430196,8837.991516,3702.678228,-20772.861930,11838.065009,5122.371629,2333.030383,-1421.995631,0.017000,-0.019125,1.003750,192.000000,0.000000,0.000000,0.000000,0.000000,0.000000,0.000000,0.000000,0.000000,0.000000,1773750698.343486,0.000000
228.000000,-27910.444487,3254.726917,-15271.181198,3368.385538,6185.733519,8844.272357,20.943585,-9797.060167,10723.852900,8851.223749,3713.898803,-20761.462541,11817.434349,5085.178326,2328.425923,-1428.969375,0.017000,-0.019125,1.003750,192.000000,0.000000,0.000000,0.000000,0.000000,0.000000,0.000000,0.000000,0.000000,0.000000,1773750698.343498,0.000000
230.000000,-27935.590200,3232.442228,-15296.282208,3342.546921,6165.728708,8826.770941,-1.698733,-9820.887127,10698.975408,8843.959432,3724.024144,-20752.991230,11854.404134,5110.458149,2342.149894,-1430.511645,0.015500,-0.018563,1.002875,192.000000,0.000000,56.000000,127.500000,56.000000,15.500000,40.000000,0.000000,0.000000,0.000000,1773750698.343509,0.000000
232.000000,-27918.625226,3242.835789,-15293.175315,3348.224264,6172.031900,8832.336525,5.520881,-9810.292400,10740.795522,8833.767037,3709.428455,-20777.466390,11884.243713,5088.687550,2325.453141,-1420.341601,0.015500,-0.018563,1.002875,192.000000,0.000000,0.000000,0.000000,0.000000,0.000000,0.000000,0.000000,0.000000,0.000000,1773750698.343520,0.000000
234.000000,-27906.778801,3255.688042,-15277.819667,3365.368052,6173.350653,8830.235461,21.591785,-9794.713234,10711.738254,8851.067287,3735.848217,-20741.994171,11860.953195,5111.039294,2328.381220,-1433.775000,0.015500,-0.018563,1.002875,192.000000,0.000000,0.000000,0.000000,0.000000,0.000000,0.000000,0.000000,0.000000,0.000000,1773750698.343531,0.000000
236.000000,-27936.506621,3233.246891,-15311.660208,3334.209720,6132.044629,8799.479461,-7.130206,-9823.256412,10717.549708,8830.615441,3720.336106,-20766.961070,11832.834701,5112.805082,2311.237432,-1423.716715,0.015500,-0.018563,1.002875,192.000000,0.000000,0.000000,0.000000,0.000000,0.000000,0.000000,0.000000,0.000000,0.000000,1773750698.343542,0.000000
238.000000,-27908.768107,3254.212827,-15285.307501,3367.402061,6156.542141,8810.275353,22.619965,-9794.489717,10724.925783,8837.320964,3723.845330,-20761.417837,11879.438088,5081.914971,2308.041132,-1437.887721,0.015500,-0.018563,1.002875,192.000000,0.000000,0.000000,0.000000,0.000000,0.000000,0.000000,0.000000,0.000000,0.000000,1773750698.343553,0.000000
240.000000,-27933.802060,3235.124437,-15302.116013,3342.166941,6130.323545,8790.449356,1.139939,-9816.528537,10696.382606,8838.215034,3729.477969,-20751.247794,11834.131102,5106.524242,2319.418170,-1444.235616,0.012750,-0.016281,1.003437,192.000000,0.000000,40.000000,127.500000,72.000000,15.500000,48.000000,0.000000,0.000000,0.000000,1773750698.343564,0.000000
