Sample_index,EXG Channel 0,EXG Channel 1,EXG Channel 2,EXG Channel 3,EXG Channel 4,EXG Channel 5,EXG Channel 6,EXG Channel 7,EXG Channel 8,EXG Channel 9,EXG Channel 10,EXG Channel 11,EXG Channel 12,EXG Channel 13,EXG Channel 14,EXG Channel 15,Accel Channel 0,Accel Channel 1,Accel Channel 2,Not Used,Digital Channel 0 (D11),Digital Channel 1 (D12),Digital Channel 2 (D13),Digital Channel 3 (D17),Not Used,Digital Channel 4 (D18),Analog Channel 0,Analog Channel 1,Analog Channel 2,Timestamp,Marker Channel
90.000000,-27759.972544,2291.009103,-15739.494948,4765.593084,5722.627726,8189.589761,2596.535098,-11709.251906,11571.922788,9550.632185,-4.023314,-20179.825447,12600.527716,4934.348754,1934.677593,-1300.938583,0.008000,-0.016000,1.008000,192.000000,0.000000,0.000000,0.000000,0.000000,0.000000,0.000000,0.000000,0.000000,0.000000,1773749806.396599,101.000000
92.000000,-27805.391288,2253.234655,-15784.578417,4720.844891,5680.248818,8155.324537,2552.748031,-11751.407296,11560.925729,9528.928641,-24.653974,-20207.474554,12603.232277,4928.559652,1929.089657,-1292.847251,0.008000,-0.016000,1.008000,192.000000,0.000000,0.000000,0.000000,0.000000,0.000000,0.000000,0.000000,0.000000,0.000000,1773749806.396697,0.000000
94.000000,-27764.062913,2286.851679,-15740.165501,4765.794249,5726.002839,8186.728738,2594.858717,-11713.006999,11588.083099,9535.544757,-31.851236,-20212.213124,12618.722036,4899.100053,1919.791331,-1291.416739,0.014000,-0.016000,1.004000,192.000000,0.000000,56.000000,127.500000,64.000000,15.500000,48.000000,0.000000,0.000000,0.000000,1773749806.396764,0.000000
96.000000,-27780.290279,2273.261818,-15765.110047,4744.314223,5694.464528,8165.114601,2576.865563,-11728.139130,11564.636119,9549.089914,-4.291535,-20182.194731,12680.725775,4943.267100,1942.791276,-1293.830728,0.014000,-0.016000,1.004000,192.000000,0.000000,0.000000,0.000000,0.000000,0.000000,0.000000,0.000000,0.000000,0.000000,1773749806.396826,0.000000
98.000000,-27790.996765,2262.778850,-15763.545425,4729.919699,5682.372234,8157.671470,2567.187258,-11738.577394,11589.200686,9522.334876,-36.276881,-20221.645560,12607.277943,4921.608260,1907.363761,-1297.809338,0.014000,-0.016000,1.004000,192.000000,0.000000,0.000000,0.000000,0.000000,0.000000,0.000000,0.000000,0.000000,0.000000,1773749806.396864,0.000000
100.000000,-27758.765550,2290.986751,-15730.017809,4767.113002,5709.104921,8181.565485,2600.893688,-11709.564830,11582.539866,9544.731324,-4.671515,-20186.307452,12598.203134,4938.148551,1930.341355,-1299.932754,0.014000,-0.016000,1.004000,192.000000,0.000000,0.000000,0.000000,0.000000,0.000000,0.000000,0.000000,0.000000,0.000000,1773749806.396889,0.000000
102.000000,-27804.050184,2257.369728,-15785.472487,4722.878900,5680.092356,8143.478113,2557.531304,-11752.547235,11570.335814,9534.203653,-26.822093,-20204.859400,12660.743315,4901.849318,1919.053724,-1304.648972,0.014000,-0.016000,1.004000,192.000000,0.000000,0.000000,0.000000,0.000000,0.000000,0.000000,0.000000,0.000000,0.000000,1773749806.396914,0.000000
104.000000,-27769.829663,2286.404644,-15742.400675,4761.368604,5709.216679,8174.994072,2595.462214,-11718.930211,11589.357148,9531.119112,-40.613120,-20217.063453,12659.335155,4905.604411,1910.850633,-1306.504167,0.016000,-0.016000,1.002000,192.000000,0.000000,64.000000,127.500000,64.000000,15.500000,40.000000,0.000000,0.000000,0.000000,1773749806.396938,0.000000
106.000000,-27788.828646,2268.523248,-15756.482274,4740.134447,5694.419824,8159.303148,2576.284418,-11737.146883,11564.300843,9547.614699,-10.706486,-20185.279272,12564.384945,4935.935728,1934.655241,-1304.693676,0.016000,-0.016000,1.002000,192.000000,0.000000,0.000000,0.000000,0.000000,0.000000,0.000000,0.000000,0.000000,0.000000,1773749806.396963,0.000000
108.000000,-27796.003556,2261.281283,-15769.625100,4732.579557,5685.948513,8160.823066,2565.577932,-11747.920423,11590.921770,9525.285307,-43.697660,-20224.953619,12625.293449,4889.332341,1908.056665,-1303.196109,0.016000,-0.016000,1.002000,192.000000,0.000000,0.000000,0.000000,0.000000,0.000000,0.000000,0.000000,0.000000,0.000000,1773749806.396987,0.000000
110.000000,-27771.774265,2283.677731,-15740.836053,4763.648482,5726.204005,8191.109680,2595.953953,-11721.992400,11576.035509,9548.262900,-16.830864,-20191.962444,12642.772513,4951.939577,1933.537654,-1303.464330,0.016000,-0.016000,1.002000,192.000000,0.000000,0.000000,0.000000,0.000000,0.000000,0.000000,0.000000,0.000000,0.000000,1773749806.397012,0.000000
112.000000,-27811.694480,2249.837190,-15787.215923,4721.381333,5684.406243,8150.854188,2552.300996,-11761.242063,11565.038450,9538.003449,-33.013527,-20210.022653,12675.987205,4906.654943,1925.714544,-1297.317600,0.016000,-0.016000,1.002000,192.000000,0.000000,0.000000,0.000000,0.000000,0.000000,0.000000,0.000000,0.000000,0.000000,1773749806.397036,0.000000
114.000000,-27767.616840,2286.426996,-15735.292820,4761.189790,5714.737560,8189.142727,2593.405854,-11719.824281,11593.156945,9529.643897,-36.455695,-20219.320979,12576.544294,4914.992144,1919.076075,-1296.915269,0.016000,-0.020000,1.008000,192.000000,0.000000,64.000000,127.500000,48.000000,15.500000,64.000000,0.000000,0.000000,0.000000,1773749806.397060,0.000000
116.000000,-27781.296108,2279.117975,-15755.364687,4742.861359,5693.346941,8171.931883,2575.010368,-11734.308211,11562.780924,9555.124885,-6.996096,-20181.568883,12601.332379,4937.902682,1943.484180,-1296.088254,0.016000,-0.020000,1.008000,192.000000,0.000000,0.000000,0.000000,0.000000,0.000000,0.000000,0.000000,0.000000,0.000000,1773749806.397085,0.000000
118.000000,-27791.108524,2268.344434,-15771.770867,4737.698106,5679.287693,8168.109735,2565.846153,-11745.618194,11587.077270,9536.237661,-40.277844,-20220.885601,12629.383818,4916.914394,1905.530918,-1292.355513,0.016000,-0.020000,1.008000,192.000000,0.000000,0.000000,0.000000,0.000000,0.000000,0.000000,0.000000,0.000000,0.000000,1773749806.397112,0.000000
120.000000,-27759.950192,2297.781682,-15742.423027,4770.309302,5712.569441,8191.824936,2598.569107,-11714.392807,11579.857657,9560.399897,-10.482968,-20183.535836,12655.915339,4958.063955,1927.234462,-1295.216536,0.016000,-0.020000,1.008000,192.000000,0.000000,0.000000,0.000000,0.000000,0.000000,0.000000,0.000000,0.000000,0.000000,1773749806.397141,0.000000
122.000000,-27806.218303,2255.581588,-15777.850542,4722.342458,5672.895095,8145.825046,2554.513819,-11754.804761,11569.106468,9545.759505,-27.313832,-20202.356005,12657.859940,4908.688952,1914.963354,-1300.312734,0.016000,-0.020000,1.008000,192.000000,0.000000,0.000000,0.000000,0.000000,0.000000,0.000000,0.000000,0.000000,0.000000,1773749806.397164,0.000000
124.000000,-27770.455512,2283.431862,-15735.270469,4758.105249,5713.016476,8177.631578,2593.003523,-11720.584240,11593.045186,9534.091894,-32.857064,-20216.571714,12533.874814,4903.011608,1910.895337,-1304.224289,0.015000,-0.019000,1.006000,192.000000,0.000000,56.000000,127.500000,56.000000,15.500000,48.000000,0.000000,0.000000,0.000000,1773749806.397188,0.000000
126.000000,-27785.230015,2271.943065,-15766.384097,4742.146104,5694.710397,8163.371165,2574.250409,-11737.191586,11564.747878,9546.452409,-9.745361,-20185.659252,12721.093025,4937.522702,1935.951643,-1301.855004,0.015000,-0.019000,1.006000,192.000000,0.000000,0.000000,0.000000,0.000000,0.000000,0.000000,0.000000,0.000000,0.000000,1773749806.397213,0.000000
128.000000,-27792.717849,2265.103431,-15770.519170,4734.121827,5679.757080,8164.935787,2563.633330,-11748.568624,11589.826535,9530.336801,-43.094163,-20224.774805,12595.096242,4917.204966,1899.250078,-1299.798644,0.015000,-0.019000,1.006000,192.000000,0.000000,0.000000,0.000000,0.000000,0.000000,0.000000,0.000000,0.000000,0.000000,1773749806.397237,0.000000
130.000000,-27756.306858,2295.121824,-15731.984762,4770.175191,5714.402284,8191.422604,2597.272706,-11717.075016,11581.489334,9553.917891,-13.500454,-20190.129601,12570.174047,4961.796696,1929.044953,-1294.523632,0.015000,-0.019000,1.006000,192.000000,0.000000,0.000000,0.000000,0.000000,0.000000,0.000000,0.000000,0.000000,0.000000,1773749806.397262,0.000000
132.000000,-27802.619672,2260.364862,-15786.500667,4729.718534,5678.192458,8159.705479,2552.792734,-11756.861121,11577.823648,9543.613737,-27.246776,-20203.451240,12646.773475,4910.812367,1925.334564,-1294.501280,0.015000,-0.019000,1.006000,192.000000,0.000000,0.000000,0.000000,0.000000,0.000000,0.000000,0.000000,0.000000,0.000000,1773749806.397285,0.000000
134.000000,-27761.023076,2296.462929,-15742.423027,4771.091613,5724.795845,8192.942523,2592.332970,-11718.214955,11602.052939,9546.228891,-39.316718,-20209.754432,12690.560542,4941.680126,1913.175215,-1293.942487,0.014500,-0.016500,1.005000,192.000000,0.000000,56.000000,127.500000,72.000000,15.500000,48.000000,0.000000,0.000000,0.000000,1773749806.397308,0.000000
136.000000,-27778.390381,2280.704949,-15756.325812,4753.545493,5689.636551,8173.697671,2573.177525,-11734.732894,11577.130744,9560.534008,-5.856157,-20178.126714,12549.588090,4913.092245,1937.292747,-1291.483795,0.014500,-0.016500,1.005000,192.000000,0.000000,0.000000,0.000000,0.000000,0.000000,0.000000,0.000000,0.000000,0.000000,1773749806.397354,0.000000
138.000000,-27794.707155,2270.557257,-15773.402545,4737.832217,5679.265342,8166.925093,2560.749955,-11749.283880,11589.491259,9538.271670,-44.144695,-20219.253924,12540.155654,4904.889155,1907.676686,-1287.996922,0.014500,-0.016500,1.005000,192.000000,0.000000,0.000000,0.000000,0.000000,0.000000,0.000000,0.000000,0.000000,0.000000,1773749806.397386,0.000000
140.000000,-27768.041523,2295.032417,-15748.972088,4770.979854,5707.942630,8189.165078,2592.847060,-11725.658086,11576.348433,9557.851798,-21.569433,-20186.732136,12622.588888,4944.384687,1926.429799,-1290.813242,0.014500,-0.016500,1.005000,192.000000,0.000000,0.000000,0.000000,0.000000,0.000000,0.000000,0.000000,0.000000,0.000000,1773749806.397409,0.000000
142.000000,-27811.515666,2259.403737,-15797.654187,4726.231662,5669.855257,8151.234168,2551.898664,-11764.125438,11562.088020,9544.641917,-43.496495,-20205.619360,12702.831650,4936.449818,1914.941003,-1291.819071,0.014500,-0.016500,1.005000,192.000000,0.000000,0.000000,0.000000,0.000000,0.000000,0.000000,0.000000,0.000000,0.000000,1773749806.397422,0.000000
144.000000,-27775.328192,2289.802109,-15744.993477,4765.011938,5715.139892,8180.671415,2591.461252,-11726.172176,11580.774078,9542.987888,-52.034861,-20216.214087,12630.188481,4916.199138,1906.872023,-1296.602344,0.015250,-0.014250,1.002500,192.000000,0.000000,64.000000,127.500000,80.000000,15.500000,32.000000,0.000000,0.000000,0.000000,1773749806.397434,0.000000
146.000000,-27787.509893,2282.135461,-15760.684402,4749.164551,5694.039845,8160.510142,2577.804336,-11734.889356,11560.903378,9564.803191,-14.886262,-20180.227778,12573.616215,4951.067859,1929.424933,-1301.452673,0.015250,-0.014250,1.002500,192.000000,0.000000,0.000000,0.000000,0.000000,0.000000,0.000000,0.000000,0.000000,0.000000,1773749806.397449,0.000000
148.000000,-27799.579835,2271.831306,-15773.648414,4736.379354,5683.445118,8151.368278,2566.494354,-11744.992345,11578.471849,9540.439789,-46.737498,-20219.700959,12564.630814,4875.384852,1897.149014,-1302.614963,0.015250,-0.014250,1.002500,192.000000,0.000000,0.000000,0.000000,0.000000,0.000000,0.000000,0.000000,0.000000,0.000000,1773749806.397460,0.000000
150.000000,-27759.771378,2308.287002,-15735.426931,4773.706767,5713.776435,8189.567410,2602.212441,-11709.497775,11577.242503,9564.825543,-14.036896,-20179.981909,12631.641344,4949.033850,1924.172273,-1305.252469,0.015250,-0.014250,1.002500,192.000000,0.000000,0.000000,0.000000,0.000000,0.000000,0.000000,0.000000,0.000000,0.000000,1773749806.397471,0.000000
152.000000,-27804.474867,2269.573780,-15786.567722,4727.997449,5680.382929,8159.392555,2556.056089,-11754.134208,11573.420355,9559.841104,-27.671460,-20196.857476,12656.116504,4919.820120,1918.271413,-1297.339952,0.015250,-0.014250,1.002500,192.000000,0.000000,0.000000,0.000000,0.000000,0.000000,0.000000,0.000000,0.000000,0.000000,1773749806.397481,0.000000
154.000000,-27763.012381,2303.771949,-15749.307364,4769.035252,5718.760874,8191.176735,2594.366979,-11717.834975,11596.107375,9554.499037,-40.747230,-20209.709729,12669.460496,4942.305975,1910.157729,-1298.099911,0.015625,-0.012125,1.001250,192.000000,0.000000,64.000000,127.500000,88.000000,15.500000,32.000000,0.000000,0.000000,0.000000,1773749806.397492,0.000000
156.000000,-27775.417599,2291.433786,-15759.969146,4748.829275,5697.660827,8170.456668,2577.379653,-11729.636697,11572.839209,9575.353214,-7.554890,-20174.528083,12589.396547,4953.995938,1933.582358,-1293.428396,0.015625,-0.012125,1.001250,192.000000,0.000000,0.000000,0.000000,0.000000,0.000000,0.000000,0.000000,0.000000,0.000000,1773749806.397503,0.000000
158.000000,-27790.728544,2277.910981,-15775.727126,4737.251072,5676.694891,8161.001880,2563.946255,-11744.120627,11593.916904,9543.323164,-38.042669,-20217.108156,12553.879625,4909.091283,1905.642677,-1294.277763,0.015625,-0.012125,1.001250,192.000000,0.000000,0.000000,0.000000,0.000000,0.000000,0.000000,0.000000,0.000000,0.000000,1773749806.397514,0.000000
160.000000,-27760.754855,2306.543566,-15749.419123,4771.605703,5711.116578,8188.718043,2596.222174,-11716.292705,11578.382442,9563.015051,-17.546119,-20183.781705,12634.211795,4932.493559,1923.345259,-1288.421606,0.015625,-0.012125,1.001250,192.000000,0.000000,0.000000,0.000000,0.000000,0.000000,0.000000,0.000000,0.000000,0.000000,1773749806.397528,0.000000
162.000000,-27794.014251,2278.402719,-15790.099298,4728.265670,5672.023376,8152.575273,2556.167848,-11749.172121,11570.089945,9552.576787,-30.219559,-20200.009072,12633.854167,4923.061123,1916.773846,-1290.500318,0.015625,-0.012125,1.001250,192.000000,0.000000,0.000000,0.000000,0.000000,0.000000,0.000000,0.000000,0.000000,0.000000,1773749806.397542,0.000000
164.000000,-27750.964791,2314.701952,-15746.558100,4769.348177,5720.638421,8184.471212,2597.049188,-11711.017693,11601.024759,9556.488342,-32.834713,-20205.149973,12613.089396,4912.533452,1901.306439,-1296.401178,0.013813,-0.012063,1.000625,192.000000,0.000000,48.000000,127.500000,80.000000,15.500000,32.000000,0.000000,0.000000,0.000000,1773749806.397552,0.000000
166.000000,-27768.823835,2299.458063,-15758.806856,4747.823447,5697.861993,8163.438220,2580.061862,-11725.546327,11575.007328,9571.016976,-4.135073,-20173.812827,12646.080571,4975.744185,1930.229596,-1298.457539,0.013813,-0.012063,1.000625,192.000000,0.000000,0.000000,0.000000,0.000000,0.000000,0.000000,0.000000,0.000000,0.000000,1773749806.397563,0.000000
168.000000,-27778.278622,2290.830289,-15774.967167,4738.994508,5694.218659,8154.631633,2570.428261,-11732.900051,11599.370730,9545.133656,-33.684079,-20212.526049,12667.650004,4928.738466,1896.411407,-1304.648972,0.013813,-0.012063,1.000625,192.000000,0.000000,0.000000,0.000000,0.000000,0.000000,0.000000,0.000000,0.000000,0.000000,1773749806.397574,0.000000
170.000000,-27744.929820,2318.434694,-15734.398751,4779.451165,5714.134063,8183.867715,2606.638087,-11700.311208,11588.910113,9567.194827,-4.403294,-20173.164627,12571.246931,4932.627670,1920.394828,-1301.027990,0.013813,-0.012063,1.000625,192.000000,0.000000,0.000000,0.000000,0.000000,0.000000,0.000000,0.000000,0.000000,0.000000,1773749806.397585,0.000000
172.000000,-27786.437009,2284.147118,-15779.213998,4734.971194,5658.053536,8146.696764,2565.086194,-11738.666801,11574.157962,9554.029650,-16.853215,-20191.336595,12584.725032,4929.788998,1909.665991,-1298.524594,0.013813,-0.012063,1.000625,192.000000,0.000000,0.000000,0.000000,0.000000,0.000000,0.000000,0.000000,0.000000,0.000000,1773749806.397596,0.000000
174.000000,-27750.696570,2311.282135,-15742.445379,4770.599874,5702.444101,8182.571314,2598.412645,-11711.554135,11594.743919,9553.448505,-28.163198,-20202.221895,12533.874814,4888.304161,1899.339485,-1302.503205,0.013906,-0.013031,1.002312,192.000000,0.000000,56.000000,127.500000,72.000000,15.500000,48.000000,0.000000,0.000000,0.000000,1773749806.397606,0.000000
176.000000,-27767.795654,2296.820557,-15768.976899,4749.253958,5699.985409,8170.993110,2579.838345,-11730.016676,11565.597244,9568.848857,-4.783273,-20172.896406,12692.214572,4976.526496,1930.453113,-1301.340914,0.013906,-0.013031,1.002312,192.000000,0.000000,0.000000,0.000000,0.000000,0.000000,0.000000,0.000000,0.000000,0.000000,1773749806.397616,0.000000
178.000000,-27782.793675,2285.108243,-15778.632853,4741.877883,5680.315874,8159.191389,2567.902513,-11741.863101,11586.898456,9542.496150,-43.720012,-20215.342369,12614.341094,4893.288600,1897.908973,-1294.769501,0.013906,-0.013031,1.002312,192.000000,0.000000,0.000000,0.000000,0.000000,0.000000,0.000000,0.000000,0.000000,0.000000,1773749806.397627,0.000000
180.000000,-27746.136814,2316.378333,-15737.863271,4776.478383,5714.849319,8186.974607,2603.039456,-11705.876792,11581.914017,9567.194827,-10.326506,-20175.444505,12576.879570,4936.718039,1924.574605,-1296.535289,0.013906,-0.013031,1.002312,192.000000,0.000000,0.000000,0.000000,0.000000,0.000000,0.000000,0.000000,0.000000,0.000000,1773749806.397637,0.000000
182.000000,-27787.576948,2280.414376,-15778.722260,4730.322031,5680.315874,8150.407153,2557.620711,-11747.339278,11573.576817,9549.246377,-23.491683,-20195.516371,12598.113727,4911.885251,1918.383171,-1294.702446,0.013906,-0.013031,1.002312,192.000000,0.000000,0.000000,0.000000,0.000000,0.000000,0.000000,0.000000,0.000000,0.000000,1773749806.397648,0.000000
184.000000,-27749.578983,2311.595060,-15741.193681,4768.901142,5717.866804,8185.924075,2595.193993,-11713.565792,11604.444576,9547.569996,-29.616061,-20207.139278,12635.105864,4909.627725,1904.838014,-1297.921097,0.013953,-0.014516,1.008156,192.000000,0.000000,56.000000,127.500000,64.000000,15.500000,88.000000,0.000000,0.000000,0.000000,1773749806.397658,0.000000
186.000000,-27769.270869,2296.977019,-15764.864178,4750.013918,5698.554897,8169.540247,2578.340778,-11729.971973,11575.677881,9568.223008,-4.492701,-20175.645670,12674.869618,4979.499278,1930.229596,-1293.629562,0.013953,-0.014516,1.008156,192.000000,0.000000,0.000000,0.000000,0.000000,0.000000,0.000000,0.000000,0.000000,0.000000,1773749806.397668,0.000000
188.000000,-27773.204776,2293.043112,-15767.546388,4739.598005,5683.847449,8159.347851,2567.231961,-11736.833958,11599.996579,9545.692449,-36.567454,-20214.493002,12600.035977,4898.943591,1897.037255,-1296.445882,0.013953,-0.014516,1.008156,192.000000,0.000000,0.000000,0.000000,0.000000,0.000000,0.000000,0.000000,0.000000,0.000000,1773749806.397680,0.000000
190.000000,-27738.358407,2320.133426,-15728.632001,4772.231552,5711.027171,8190.081500,2602.413607,-11703.619266,11600.510669,9571.016976,0.022352,-20175.533912,12596.370291,4970.312711,1921.467712,-1299.798644,0.013953,-0.014516,1.008156,192.000000,0.000000,0.000000,0.000000,0.000000,0.000000,0.000000,0.000000,0.000000,0.000000,1773749806.397690,0.000000
192.000000,-27785.833512,2281.286094,-15781.203303,4729.003278,5674.191496,8145.802694,2557.866580,-11748.993307,11582.808087,9556.622452,-19.110742,-20194.443487,12677.060089,4933.991126,1912.281145,-1301.340914,0.013953,-0.014516,1.008156,192.000000,0.000000,0.000000,0.000000,0.000000,0.000000,0.000000,0.000000,0.000000,0.000000,1773749806.397700,0.000000
194.000000,-27754.563422,2309.628106,-15738.936155,4771.829220,5706.132139,8175.888142,2594.702255,-11718.930211,11601.762367,9556.443638,-35.405163,-20203.853572,12569.972881,4887.410091,1902.446378,-1306.638277,0.013953,-0.014516,1.008156,192.000000,0.000000,0.000000,0.000000,0.000000,0.000000,0.000000,0.000000,0.000000,0.000000,1773749806.397710,0.000000
196.000000,-27773.115369,2296.529984,-15760.170312,4751.846761,5700.343037,8166.858037,2574.719796,-11737.035124,11565.709003,9569.608816,-12.896957,-20174.684545,12602.517021,4942.551844,1930.028430,-1302.123225,0.016000,-0.018000,1.006000,192.000000,0.000000,64.000000,127.500000,56.000000,15.500000,56.000000,0.000000,0.000000,0.000000,1773749806.397720,0.000000
198.000000,-27779.172692,2289.690350,-15773.134324,4735.015897,5679.600618,8160.443087,2560.995824,-11745.193511,11588.552486,9548.061734,-46.625739,-20216.817584,12577.885399,4925.676277,1901.686418,-1299.016333,0.016000,-0.018000,1.006000,192.000000,0.000000,0.000000,0.000000,0.000000,0.000000,0.000000,0.000000,0.000000,0.000000,1773749806.397731,0.000000
200.000000,-27746.203869,2316.825368,-15742.154806,4775.919590,5725.578156,8193.568372,2596.378636,-11714.593973,11586.026738,9573.430964,-11.801721,-20179.870150,12681.955121,4957.192237,1927.547387,-1295.283591,0.016000,-0.018000,1.006000,192.000000,0.000000,0.000000,0.000000,0.000000,0.000000,0.000000,0.000000,0.000000,0.000000,1773749806.397741,0.000000
202.000000,-27791.667317,2279.676769,-15785.986577,4732.758371,5677.790127,8156.822104,2553.306824,-11756.347031,11573.599168,9560.511656,-27.850274,-20196.879828,12638.257460,4921.183577,1918.740799,-1288.801585,0.016000,-0.018000,1.006000,192.000000,0.000000,0.000000,0.000000,0.000000,0.000000,0.000000,0.000000,0.000000,0.000000,1773749806.397752,0.000000
204.000000,-27755.524547,2311.863281,-15743.205338,4770.063432,5714.223470,8192.562543,2591.617714,-11721.746531,11591.882895,9558.052964,-40.993099,-20206.669892,12562.485047,4940.674298,1903.742779,-1291.863774,0.016000,-0.018000,1.006000,192.000000,0.000000,0.000000,0.000000,0.000000,0.000000,0.000000,0.000000,0.000000,0.000000,1773749806.397762,0.000000
206.000000,-27763.660582,2307.236470,-15760.684402,4758.507581,5696.453833,8183.890067,2578.541944,-11730.553118,11567.094811,9578.616569,-13.522805,-20170.080086,12607.322646,4937.098019,1936.622195,-1291.863774,0.016000,-0.018000,1.010000,192.000000,0.000000,64.000000,127.500000,56.000000,15.500000,72.000000,0.000000,0.000000,0.000000,1773749806.397772,0.000000
208.000000,-27767.169805,2301.067388,-15771.055611,4746.683508,5683.758042,8169.719061,2567.410775,-11735.694019,11597.537887,9563.752659,-40.277844,-20205.217028,12603.724015,4928.000859,1901.641715,-1289.807414,0.016000,-0.018000,1.010000,192.000000,0.000000,0.000000,0.000000,0.000000,0.000000,0.000000,0.000000,0.000000,0.000000,1773749806.397783,0.000000
210.000000,-27724.299160,2337.634842,-15729.436663,4788.347159,5723.119464,8198.485756,2608.090950,-11693.113946,11601.449442,9586.931418,3.196299,-20165.274461,12679.988167,4968.323406,1928.977898,-1294.322466,0.016000,-0.018000,1.010000,192.000000,0.000000,0.000000,0.000000,0.000000,0.000000,0.000000,0.000000,0.000000,0.000000,1773749806.878168,0.000000
212.000000,-27768.242689,2300.285077,-15772.106143,4740.849702,5674.303254,8151.234168,2563.968606,-11735.805778,11594.408643,9577.588389,-5.744398,-20178.841970,12633.049504,4951.157266,1917.042067,-1290.813242,0.016000,-0.018000,1.010000,192.000000,0.000000,0.000000,0.000000,0.000000,0.000000,0.000000,0.000000,0.000000,0.000000,1773749806.878257,0.000000
214.000000,-27731.764642,2330.661098,-15732.878832,4780.278180,5713.776435,8183.219514,2602.279496,-11702.166403,11619.956686,9571.888694,-15.422704,-20192.007147,12587.876628,4917.920222,1907.788444,-1294.769501,0.016000,-0.018000,1.010000,192.000000,0.000000,0.000000,0.000000,0.000000,0.000000,0.000000,0.000000,0.000000,0.000000,1773749806.878332,0.000000
216.000000,-27747.522622,2318.255880,-15753.330678,4763.290854,5700.186574,8169.227322,2585.381578,-11715.622153,11587.211381,9591.379415,10.840596,-20158.077199,12618.319704,4966.870542,1936.063401,-1294.054245,0.012000,-0.014000,1.012000,192.000000,0.000000,48.000000,127.500000,72.000000,15.500000,80.000000,0.000000,0.000000,0.000000,1773749806.878382,0.000000
218.000000,-27763.504119,2303.861356,-15765.065344,4747.018784,5685.568534,8159.504313,2569.735357,-11731.558947,11608.914925,9565.943130,-23.357573,-20201.350176,12618.275001,4922.412923,1907.855500,-1296.490585,0.012000,-0.014000,1.012000,192.000000,0.000000,0.000000,0.000000,0.000000,0.000000,0.000000,0.000000,0.000000,0.000000,1773749806.878430,0.000000
220.000000,-27732.368139,2328.671793,-15727.872041,4780.032310,5725.175825,8189.433299,2604.469967,-11701.942885,11599.057805,9586.618493,5.476177,-20170.035383,12615.324571,4980.594513,1937.918596,-1298.412835,0.012000,-0.014000,1.012000,192.000000,0.000000,0.000000,0.000000,0.000000,0.000000,0.000000,0.000000,0.000000,0.000000,1773749806.878475,0.000000
222.000000,-27775.171730,2290.986751,-15774.609539,4736.871092,5677.387795,8154.698688,2560.593493,-11742.935984,11587.323140,9575.442621,-10.304154,-20186.888598,12630.702571,4932.538263,1926.988593,-1294.411873,0.012000,-0.014000,1.012000,192.000000,0.000000,0.000000,0.000000,0.000000,0.000000,0.000000,0.000000,0.000000,0.000000,1773749806.878520,0.000000
224.000000,-27740.660637,2319.641688,-15742.087751,4772.298607,5725.779322,8188.963913,2596.088063,-11710.414196,11607.059730,9566.546627,-25.860968,-20200.165534,12638.793902,4929.140798,1917.980840,-1293.830728,0.012000,-0.014000,1.012000,192.000000,0.000000,0.000000,0.000000,0.000000,0.000000,0.000000,0.000000,0.000000,0.000000,1773749806.878548,0.000000
226.000000,-27754.541070,2308.242298,-15753.844768,4758.820505,5706.333304,8174.100003,2580.620656,-11722.417083,11577.063689,9584.182153,-0.245869,-20167.174359,12636.491673,4968.569275,1950.748497,-1292.735492,0.014000,-0.018000,1.006000,192.000000,0.000000,56.000000,127.500000,56.000000,15.500000,56.000000,0.000000,0.000000,0.000000,1773749806.878560,0.000000
228.000000,-27761.313648,2303.928411,-15765.422972,4745.767086,5699.739540,8167.550941,2568.707176,-11729.882566,11600.689483,9561.092801,-28.543178,-20206.468726,12575.270245,4932.404152,1918.472578,-1287.639295,0.014000,-0.018000,1.006000,192.000000,0.000000,0.000000,0.000000,0.000000,0.000000,0.000000,0.000000,0.000000,0.000000,1773749806.878571,0.000000
230.000000,-27719.672348,2341.434639,-15726.530937,4786.067281,5744.040697,8197.144651,2606.638087,-11691.638731,11602.142346,9588.808964,6.616116,-20167.599042,12692.527496,4980.840383,1948.848599,-1292.042588,0.014000,-0.018000,1.006000,192.000000,0.000000,0.000000,0.000000,0.000000,0.000000,0.000000,0.000000,0.000000,0.000000,1773749806.878583,0.000000
232.000000,-27767.370971,2301.737941,-15763.567777,4743.598967,5698.040807,8155.123371,2563.499220,-11732.765941,11596.733224,9582.796345,0.245869,-20177.009127,12606.450928,4916.690876,1937.471561,-1289.561545,0.014000,-0.018000,1.006000,192.000000,0.000000,0.000000,0.000000,0.000000,0.000000,0.000000,0.000000,0.000000,0.000000,1773749806.878595,0.000000
234.000000,-27731.675235,2332.404534,-15730.353085,4780.702863,5749.136895,8187.198125,2600.513709,-11698.388958,11615.709855,9577.186057,-13.656916,-20188.877903,12640.358524,4930.325440,1923.948756,-1293.964838,0.014000,-0.018000,1.006000,192.000000,0.000000,0.000000,0.000000,0.000000,0.000000,0.000000,0.000000,0.000000,0.000000,1773749806.878606,0.000000
236.000000,-27749.936610,2317.384162,-15748.815626,4760.452182,5706.132139,8173.094174,2582.721720,-11713.789310,11585.087965,9594.754528,12.427570,-20155.842025,12656.809408,4998.677075,1949.385041,-1289.494489,0.016000,-0.018000,1.008000,192.000000,0.000000,64.000000,127.500000,56.000000,15.500000,64.000000,0.000000,0.000000,0.000000,1773749806.878618,0.000000
238.000000,-27758.922012,2308.935202,-15762.852521,4751.489133,5687.736653,8162.812372,2569.131859,-11725.948659,11608.825518,9568.178304,-18.037858,-20196.678662,12597.219658,4922.748199,1912.147035,-1293.271934,0.016000,-0.018000,1.008000,192.000000,0.000000,0.000000,0.000000,0.000000,0.000000,0.000000,0.000000,0.000000,0.000000,1773749806.878629,0.000000
240.000000,-27718.599465,2343.580406,-15724.116948,4790.001189,5733.334212,8197.837555,2605.095816,-11690.185868,11606.411529,9598.196697,11.712314,-20157.317240,12662.844379,4937.142722,1943.059497,-1293.830728,0.016000,-0.018000,1.008000,192.000000,0.000000,0.000000,0.000000,0.000000,0.000000,0.000000,0.000000,0.000000,0.000000,1773749806.878641,0.000000
242.000000,-27764.420541,2304.733074,-15766.875835,4741.944938,5698.577249,8164.354642,2558.715947,-11734.509377,11597.806108,9590.462993,1.206994,-20174.505731,12605.400396,4969.239827,1936.599843,-1289.628600,0.016000,-0.018000,1.008000,192.000000,0.000000,0.000000,0.000000,0.000000,0.000000,0.000000,0.000000,0.000000,0.000000,1773749806.878652,0.000000
244.000000,-27731.429366,2332.918624,-15731.202451,4783.005093,5748.220473,8193.501317,2597.585630,-11700.311208,11618.704989,9580.941150,-13.791026,-20188.073240,12670.958063,4966.289397,1932.084791,-1288.220440,0.016000,-0.018000,1.008000,192.000000,0.000000,0.000000,0.000000,0.000000,0.000000,0.000000,0.000000,0.000000,0.000000,1773749806.878664,0.000000
246.000000,-27754.272849,2314.299621,-15749.173254,4766.621264,5716.168072,8174.859962,2581.827650,-11718.058493,11583.657453,9596.274447,10.930003,-20154.120940,12578.041861,4963.383670,1958.124573,-1289.472138,0.010000,-0.012000,1.002000,192.000000,0.000000,40.000000,127.500000,80.000000,15.500000,40.000000,0.000000,0.000000,0.000000,1773749806.878675,0.000000
248.000000,-27763.593526,2305.425978,-15772.486123,4756.518275,5709.507252,8175.485811,2566.472002,-11730.575470,11604.019893,9567.217179,-27.649108,-20196.522200,12601.086509,4923.999897,1923.591128,-1286.499356,0.010000,-0.012000,1.002000,192.000000,0.000000,0.000000,0.000000,0.000000,0.000000,0.000000,0.000000,0.000000,0.000000,1773749806.878687,0.000000
250.000000,-27728.031901,2337.836008,-15736.209242,4793.085729,5749.293357,8206.510032,2603.553546,-11697.539591,11597.336721,9596.944999,-2.101064,-20157.764275,12758.845122,4970.692691,1952.469582,-1282.096062,0.010000,-0.012000,1.002000,192.000000,0.000000,0.000000,0.000000,0.000000,0.000000,0.000000,0.000000,0.000000,0.000000,1773749806.878700,0.000000
252.000000,-27771.416637,2297.625220,-15767.144056,4744.135409,5706.959153,8165.002843,2560.817011,-11737.906842,11591.592323,9582.841049,-12.226404,-20176.070354,12607.523812,4969.955083,1945.518189,-1286.097024,0.010000,-0.012000,1.002000,192.000000,0.000000,0.000000,0.000000,0.000000,0.000000,0.000000,0.000000,0.000000,0.000000,1773749806.878711,0.000000
254.000000,-27737.151413,2328.247109,-15727.916745,4784.279142,5734.854130,8199.335122,2597.719741,-11702.345217,11620.828405,9579.130659,-18.149616,-20185.100458,12540.490930,4912.064065,1929.536692,-1291.036760,0.010000,-0.012000,1.002000,192.000000,0.000000,0.000000,0.000000,0.000000,0.000000,0.000000,0.000000,0.000000,0.000000,1773749806.878723,0.000000
0.000000,-27756.418616,2312.355019,-15751.319021,4765.078993,5713.642325,8184.448860,2580.777118,-11719.153728,11579.947064,9594.128680,5.096198,-20155.327935,12619.303181,4966.110583,1958.593960,-1287.929867,0.006000,-0.008000,1.008000,192.000000,0.000000,24.000000,127.500000,96.000000,15.500000,64.000000,0.000000,0.000000,0.000000,1773749806.878734,0.000000
2.000000,-27767.505082,2302.609659,-15774.900112,4752.249092,5698.510194,8172.848305,2569.578894,-11729.457883,11601.740015,9571.128734,-31.135980,-20197.528028,12671.270987,4915.550937,1921.624174,-1289.427434,0.006000,-0.008000,1.008000,192.000000,0.000000,0.000000,0.000000,0.000000,0.000000,0.000000,0.000000,0.000000,0.000000,1773749806.878746,0.000000
4.000000,-27735.877363,2328.940014,-15732.878832,4784.279142,5729.065028,8195.602381,2606.459273,-11696.623170,11595.705044,9593.256961,-0.670552,-20162.368734,12734.928755,5013.988020,1946.009928,-1294.121300,0.006000,-0.008000,1.008000,192.000000,0.000000,0.000000,0.000000,0.000000,0.000000,0.000000,0.000000,0.000000,0.000000,1773749806.878758,0.000000
6.000000,-27781.184349,2291.433786,-15769.155713,4741.632014,5681.031129,8156.844456,2562.381633,-11739.829092,11582.383404,9579.532990,-12.785198,-20179.601929,12545.855349,4929.207853,1936.018698,-1292.400216,0.006000,-0.008000,1.008000,192.000000,0.000000,0.000000,0.000000,0.000000,0.000000,0.000000,0.000000,0.000000,0.000000,1773749806.878769,0.000000
8.000000,-27742.471128,2323.374429,-15731.716541,4780.725215,5726.829854,8194.484793,2599.016142,-11705.407406,11608.132614,9575.643787,-22.999945,-20191.850685,12557.858236,4922.412923,1929.536692,-1296.065902,0.006000,-0.008000,1.008000,192.000000,0.000000,0.000000,0.000000,0.000000,0.000000,0.000000,0.000000,0.000000,0.000000,1773749806.878781,0.000000
10.000000,-27756.038637,2310.343362,-15751.833111,4761.703880,5725.421694,8181.744299,2584.867488,-11718.282010,11582.629273,9591.491174,8.672477,-20159.239490,12645.655888,4994.273781,1959.152753,-1290.701484,0.007000,-0.008000,1.009000,192.000000,0.000000,32.000000,127.500000,96.000000,15.500000,72.000000,0.000000,0.000000,0.000000,1773749806.878793,0.000000
12.000000,-27768.689724,2297.245240,-15766.987594,4746.951729,5705.036903,8171.574255,2567.678996,-11731.760112,11597.761404,9564.937301,-29.079620,-20204.211200,12661.324461,4917.897870,1934.319965,-1286.879335,0.007000,-0.008000,1.009000,192.000000,0.000000,0.000000,0.000000,0.000000,0.000000,0.000000,0.000000,0.000000,0.000000,1773749806.878804,0.000000
14.000000,-27734.536259,2328.269461,-15728.453187,4784.055624,5741.939633,8201.994980,2603.374732,-11699.864173,11594.609808,9590.820621,1.564622,-20165.699144,12622.678295,4956.879313,1954.749460,-1288.756882,0.007000,-0.008000,1.009000,192.000000,0.000000,0.000000,0.000000,0.000000,0.000000,0.000000,0.000000,0.000000,0.000000,1773749806.878816,0.000000
16.000000,-27772.958907,2300.173318,-15770.474466,4742.906063,5694.576287,8166.567465,2561.241694,-11738.197415,11579.835305,9579.756508,-12.293459,-20180.495999,12637.944536,4933.499388,1947.999233,-1285.962914,0.007000,-0.008000,1.009000,192.000000,0.000000,0.000000,0.000000,0.000000,0.000000,0.000000,0.000000,0.000000,0.000000,1773749806.878827,0.000000
18.000000,-27734.625666,2327.710668,-15732.275335,4777.864191,5729.154435,8205.258334,2596.445691,-11704.580391,11606.500936,9577.521333,-19.781294,-20192.297720,12566.351898,4947.133952,1933.045916,-1285.694693,0.007000,-0.008000,1.009000,192.000000,0.000000,0.000000,0.000000,0.000000,0.000000,0.000000,0.000000,0.000000,0.000000,1773749806.878838,0.000000
20.000000,-27751.210660,2311.796226,-15753.956527,4757.725270,5715.206947,8185.074709,2580.374787,-11719.310191,11578.069517,9591.468822,9.857119,-20161.698182,12657.055277,5018.212499,1961.186762,-1282.878373,0.008500,-0.011000,1.008500,192.000000,0.000000,40.000000,127.500000,72.000000,15.500000,64.000000,0.000000,0.000000,0.000000,1773749806.878850,0.000000
22.000000,-27761.760683,2303.660191,-15763.366611,4748.449296,5699.985409,8167.372127,2566.382595,-11730.664877,11598.677826,9566.524275,-24.184588,-20203.205371,12641.990202,4896.328437,1932.375363,-1286.901687,0.008500,-0.011000,1.008500,192.000000,0.000000,0.000000,0.000000,0.000000,0.000000,0.000000,0.000000,0.000000,0.000000,1773749806.878860,0.000000
24.000000,-27727.182535,2334.706764,-15727.000323,4786.961351,5735.949366,8201.503241,2602.257145,-11697.181964,11596.308541,9591.781746,7.353724,-20165.676792,12633.116559,4940.830760,1952.626044,-1288.890992,0.008500,-0.011000,1.008500,192.000000,0.000000,0.000000,0.000000,0.000000,0.000000,0.000000,0.000000,0.000000,0.000000,1773749806.878872,0.000000
26.000000,-27771.528396,2299.905097,-15772.843751,4737.698106,5691.670560,8156.956215,2559.252388,-11735.246984,11584.685634,9581.499944,-4.895032,-20178.596101,12668.499371,4961.617882,1942.590111,-1288.756882,0.008500,-0.011000,1.008500,192.000000,0.000000,0.000000,0.000000,0.000000,0.000000,0.000000,0.000000,0.000000,0.000000,1773749806.878885,0.000000
28.000000,-27736.659674,2328.895310,-15736.209242,4775.181982,5720.727828,8189.366244,2596.937430,-11699.305379,11604.623390,9570.279368,-14.908614,-20192.543589,12566.195436,4925.855091,1924.216977,-1295.149481,0.008500,-0.011000,1.008500,192.000000,0.000000,0.000000,0.000000,0.000000,0.000000,0.000000,0.000000,0.000000,0.000000,1773749806.878896,0.000000
30.000000,-27757.692666,2310.700990,-15754.001230,4759.714575,5701.952362,8173.205933,2581.268857,-11716.762092,11571.095773,9586.663197,10.393561,-20158.591289,12666.554769,4968.591627,1949.519151,-1290.768539,0.009250,-0.013500,1.007250,192.000000,0.000000,40.000000,127.500000,64.000000,15.500000,56.000000,0.000000,0.000000,0.000000,1773749806.878908,0.000000
32.000000,-27768.801483,2299.189842,-15762.226672,4744.582444,5698.934877,8161.091287,2567.701348,-11731.648354,11592.620503,9560.690470,-22.865835,-20205.038214,12548.246985,4923.217585,1923.859349,-1290.969705,0.009250,-0.013500,1.007250,192.000000,0.000000,0.000000,0.000000,0.000000,0.000000,0.000000,0.000000,0.000000,0.000000,1773749806.878920,0.000000
34.000000,-27731.876401,2331.085781,-15733.370570,4785.553191,5727.522758,8195.267105,2604.715837,-11697.740757,11593.358111,9581.611703,6.325544,-20170.571824,12701.043511,4993.290304,1949.340337,-1289.785062,0.009250,-0.013500,1.007250,192.000000,0.000000,0.000000,0.000000,0.000000,0.000000,0.000000,0.000000,0.000000,0.000000,1773749806.878932,0.000000
36.000000,-27775.194082,2298.988676,-15773.223731,4744.671851,5677.276036,8158.587892,2562.158115,-11736.006944,11582.003424,9579.018900,-6.794930,-20181.747697,12587.474297,4918.881347,1940.489047,-1288.756882,0.009250,-0.013500,1.007250,192.000000,0.000000,0.000000,0.000000,0.000000,0.000000,0.000000,0.000000,0.000000,0.000000,1773749806.878943,0.000000
38.000000,-27742.381721,2324.670830,-15737.416236,4777.774784,5725.533453,8191.959046,2595.775139,-11706.167365,11603.461099,9573.945054,-22.105875,-20194.555246,12600.281847,4896.127271,1929.223767,-1289.092158,0.009250,-0.013500,1.007250,192.000000,0.000000,0.000000,0.000000,0.000000,0.000000,0.000000,0.000000,0.000000,0.000000,1773749806.878954,0.000000
40.000000,-27757.424445,2312.422074,-15753.889472,4761.547418,5710.446025,8183.353625,2582.073519,-11719.377246,11573.845038,9585.031520,5.386770,-20163.620432,12654.529530,4966.758784,1957.029338,-1286.856984,0.008625,-0.014750,1.006625,192.000000,0.000000,32.000000,127.500000,64.000000,15.500000,56.000000,0.000000,0.000000,0.000000,1773749806.878966,0.000000
42.000000,-27762.587698,2309.359885,-15763.053687,4749.477476,5689.077757,8180.559657,2569.288322,-11728.340295,11596.979093,9566.814848,-26.509169,-20201.976025,12584.300349,4953.615958,1922.339430,-1287.192260,0.008625,-0.014750,1.006625,192.000000,0.000000,0.000000,0.000000,0.000000,0.000000,0.000000,0.000000,0.000000,0.000000,1773749806.878977,0.000000
44.000000,-27724.813250,2347.246092,-15723.848727,4792.616343,5733.915357,8206.554735,2607.420398,-11691.683434,11598.834288,9600.118947,7.063151,-20156.579632,12607.523812,4980.393348,1944.490009,-1285.918210,0.008625,-0.014750,1.006625,192.000000,0.000000,0.000000,0.000000,0.000000,0.000000,0.000000,0.000000,0.000000,0.000000,1773749806.878989,0.000000
46.000000,-27778.636250,2297.736978,-15777.984652,4741.676717,5694.397473,8161.270101,2557.732470,-11744.008868,11583.858619,9586.417328,-8.873643,-20176.048002,12669.549903,4916.132082,1942.232483,-1288.801585,0.008625,-0.014750,1.006625,192.000000,0.000000,0.000000,0.000000,0.000000,0.000000,0.000000,0.000000,0.000000,0.000000,1773749806.879000,0.000000
48.000000,-27750.003666,2317.048885,-15732.878832,4769.482287,5738.631575,8184.627674,2591.304790,-11717.075016,11601.047111,9564.624377,-28.811399,-20203.764165,12601.399434,4916.422655,1930.184892,-1289.472138,0.008625,-0.014750,1.006625,192.000000,0.000000,0.000000,0.000000,0.000000,0.000000,0.000000,0.000000,0.000000,0.000000,1773749806.879011,0.000000
50.000000,-27760.531337,2307.817615,-15748.189777,4756.853551,5707.987333,8175.642273,2580.419490,-11724.495795,11572.302767,9579.153011,2.615154,-20172.650537,12641.699629,4968.502220,1954.570646,-1291.774367,0.011312,-0.014375,1.006312,192.000000,0.000000,56.000000,127.500000,72.000000,15.500000,56.000000,0.000000,0.000000,0.000000,1773749806.879022,0.000000
52.000000,-27770.142587,2301.939106,-15763.679536,4740.760295,5688.340150,8163.393517,2566.315540,-11734.911708,11595.593285,9560.556359,-28.565529,-20206.133450,12557.254738,4933.834664,1919.411352,-1292.400216,0.011312,-0.014375,1.006312,192.000000,0.000000,0.000000,0.000000,0.000000,0.000000,0.000000,0.000000,0.000000,0.000000,1773749806.879034,0.000000
54.000000,-27737.665503,2330.504636,-15729.436663,4780.322883,5725.153473,8181.699596,2602.167738,-11703.418100,11590.765308,9584.696243,-2.257526,-20168.560167,12603.612256,4963.361319,1944.534712,-1299.843347,0.011312,-0.014375,1.006312,192.000000,0.000000,0.000000,0.000000,0.000000,0.000000,0.000000,0.000000,0.000000,0.000000,1773749806.879045,0.000000
56.000000,-27787.040506,2288.639818,-15778.074059,4733.563034,5671.911618,8146.853226,2555.743165,-11749.663860,11572.548637,9569.899389,-18.283727,-20186.240397,12638.883309,4907.794882,1936.175160,-1292.154347,0.011312,-0.014375,1.006312,192.000000,0.000000,0.000000,0.000000,0.000000,0.000000,0.000000,0.000000,0.000000,0.000000,1773749806.879056,0.000000
58.000000,-27757.625611,2309.337534,-15745.753437,4770.488116,5718.939688,8182.526610,2588.667284,-11723.288801,11594.654512,9554.789609,-35.919253,-20207.921589,12625.226393,4904.844452,1923.121741,-1292.467271,0.011312,-0.014375,1.006312,192.000000,0.000000,0.000000,0.000000,0.000000,0.000000,0.000000,0.000000,0.000000,0.000000,1773749806.879070,0.000000
60.000000,-27768.980297,2300.396836,-15756.146998,4756.026537,5709.574307,8172.445973,2574.965665,-11731.938926,11563.742049,9573.453316,-9.924175,-20175.735077,12617.336228,4953.928882,1953.542465,-1290.187393,0.011656,-0.013187,1.008156,192.000000,0.000000,48.000000,127.500000,80.000000,15.500000,72.000000,0.000000,0.000000,0.000000,1773749806.879081,0.000000
62.000000,-27775.886986,2292.461967,-15764.260681,4741.319089,5694.330417,8165.606340,2560.817011,-11742.623060,11592.084061,9549.715763,-36.388640,-20217.242267,12520.352008,4926.950327,1920.975974,-1291.662609,0.011656,-0.013187,1.008156,192.000000,0.000000,0.000000,0.000000,0.000000,0.000000,0.000000,0.000000,0.000000,0.000000,1773749806.879093,0.000000
64.000000,-27736.525564,2328.671793,-15732.118873,4777.193639,5741.224377,8196.138823,2600.066674,-11705.295647,11590.586494,9578.169534,-3.173948,-20177.992604,12662.352641,4959.315653,1947.127515,-1295.328295,0.011656,-0.013187,1.008156,192.000000,0.000000,0.000000,0.000000,0.000000,0.000000,0.000000,0.000000,0.000000,0.000000,1773749806.879114,0.000000
66.000000,-27776.445779,2296.932315,-15774.609539,4736.401705,5705.171013,8159.347851,2557.799525,-11743.025391,11580.550561,9573.565075,-12.986364,-20187.916778,12670.689842,4948.922092,1939.080887,-1292.489623,0.011656,-0.013187,1.008156,192.000000,0.000000,0.000000,0.000000,0.000000,0.000000,0.000000,0.000000,0.000000,0.000000,1773749806.879130,0.000000
68.000000,-27742.404073,2326.146045,-15731.582431,4780.904029,5732.484845,8192.115509,2594.612848,-11709.833051,11606.255067,9572.738060,-24.050477,-20200.903142,12565.211960,4907.392550,1927.636794,-1298.278725,0.011656,-0.013187,1.008156,192.000000,0.000000,0.000000,0.000000,0.000000,0.000000,0.000000,0.000000,0.000000,0.000000,1773749806.879141,0.000000
70.000000,-27762.542994,2308.644630,-15756.191701,4758.798153,5723.298278,8181.185506,2577.111432,-11727.446226,11578.136573,9593.726348,0.692904,-20164.693316,12662.777324,4961.126144,1954.794163,-1295.082425,0.011828,-0.014594,1.007078,192.000000,0.000000,48.000000,127.500000,64.000000,15.500000,56.000000,0.000000,0.000000,0.000000,1773749806.879152,0.000000
72.000000,-27776.043448,2295.188879,-15767.389925,4741.453200,5687.513135,8167.081555,2562.493391,-11738.867967,11591.480564,9559.282310,-36.254530,-20211.699034,12573.303291,4921.205928,1922.652355,-1294.881260,0.011828,-0.014594,1.007078,192.000000,0.000000,0.000000,0.000000,0.000000,0.000000,0.000000,0.000000,0.000000,0.000000,1773749806.879164,0.000000
74.000000,-27739.006607,2326.794246,-15734.130530,4781.932209,5715.653982,8193.970703,2598.658514,-11702.993417,11590.362977,9580.561171,-4.380942,-20173.812827,12601.175916,4926.704458,1941.181951,-1291.148518,0.011828,-0.014594,1.007078,192.000000,0.000000,0.000000,0.000000,0.000000,0.000000,0.000000,0.000000,0.000000,0.000000,1773749807.358160,0.000000
76.000000,-27779.642079,2294.384217,-15781.516228,4737.988679,5686.552010,8157.827933,2556.771345,-11742.220729,11575.230846,9567.261883,-19.446018,-20191.090726,12645.924109,4966.624673,1929.894320,-1287.639295,0.011828,-0.014594,1.007078,192.000000,0.000000,0.000000,0.000000,0.000000,0.000000,0.000000,0.000000,0.000000,0.000000,1773749807.358233,0.000000
78.000000,-27747.589677,2322.055676,-15737.527995,4776.679549,5726.919261,8186.549924,2593.562316,-11711.956467,11601.449442,9567.016014,-32.275919,-20202.780688,12606.272114,4912.198175,1920.283070,-1291.774367,0.011828,-0.014594,1.007078,192.000000,0.000000,0.000000,0.000000,0.000000,0.000000,0.000000,0.000000,0.000000,0.000000,1773749807.358288,0.000000
80.000000,-27760.196061,2311.617412,-15749.441475,4760.183961,5706.914450,8166.053375,2580.061862,-11721.321848,11571.922788,9584.808002,-0.670552,-20169.141313,12621.314838,4941.255443,1951.955492,-1294.389521,0.011828,-0.014594,1.007078,192.000000,0.000000,0.000000,0.000000,0.000000,0.000000,0.000000,0.000000,0.000000,0.000000,1773749807.358348,0.000000
82.000000,-27768.823835,2301.313257,-15760.259719,4741.095572,5690.687083,8160.174866,2565.488525,-11732.274202,11595.079195,9559.394069,-28.386715,-20207.049871,12543.530767,4900.642324,1921.557119,-1294.098949,0.012000,-0.014000,1.002000,192.000000,0.000000,48.000000,127.500000,72.000000,15.500000,40.000000,0.000000,0.000000,0.000000,1773749807.358407,0.000000
84.000000,-27725.975540,2339.244168,-15731.627134,4779.317055,5732.082514,8202.576125,2602.882994,-11695.259714,11595.615637,9582.461069,1.631677,-20171.711763,12700.797641,5017.363133,1945.697003,-1291.103815,0.012000,-0.014000,1.002000,192.000000,0.000000,0.000000,0.000000,0.000000,0.000000,0.000000,0.000000,0.000000,0.000000,1773749807.358460,0.000000
86.000000,-27772.735390,2300.240374,-15771.614405,4742.928415,5691.111766,8160.286624,2560.906417,-11737.549214,11584.305654,9579.667101,-11.824073,-20183.133505,12629.182652,4906.632591,1938.879721,-1287.304018,0.012000,-0.014000,1.002000,192.000000,0.000000,0.000000,0.000000,0.000000,0.000000,0.000000,0.000000,0.000000,0.000000,1773749807.358486,0.000000
88.000000,-27734.491555,2331.801037,-15731.448320,4775.830183,5731.210796,8195.691788,2596.177470,-11704.178060,11605.249239,9571.352252,-25.279823,-20198.824429,12555.466599,4932.694725,1928.754381,-1289.896821,0.012000,-0.014000,1.002000,192.000000,0.000000,0.000000,0.000000,0.000000,0.000000,0.000000,0.000000,0.000000,0.000000,1773749807.358504,0.000000
90.000000,-27742.918163,2325.386086,-15753.241271,4764.520200,5715.385761,8179.062090,2582.095871,-11715.041007,11581.377576,9595.760357,4.358590,-20159.865339,12644.918280,4963.003691,1955.576474,-1284.934734,0.012000,-0.014000,1.002000,192.000000,0.000000,0.000000,0.000000,0.000000,0.000000,0.000000,0.000000,0.000000,0.000000,1773749807.358535,0.000000
92.000000,-27759.123177,2308.219946,-15760.885568,4746.884673,5690.932952,8163.684090,2565.957912,-11731.626002,11605.964494,9573.743889,-28.096143,-20199.003243,12553.723163,4886.583076,1915.924479,-1289.248620,0.012000,-0.016000,1.004000,192.000000,0.000000,48.000000,127.500000,64.000000,15.500000,48.000000,0.000000,0.000000,0.000000,1773749807.358549,0.000000
94.000000,-27729.596523,2333.522121,-15728.430835,4783.854459,5728.774456,8199.022198,2601.743055,-11699.506545,11601.047111,9586.171459,1.050532,-20172.136446,12621.873632,4946.642214,1947.149866,-1293.048417,0.012000,-0.016000,1.004000,192.000000,0.000000,0.000000,0.000000,0.000000,0.000000,0.000000,0.000000,0.000000,0.000000,1773749807.358563,0.000000
96.000000,-27773.830625,2298.988676,-15773.804876,4739.016859,5682.551048,8167.550941,2558.760650,-11740.924327,11587.390195,9575.397918,-11.622907,-20182.887636,12630.948440,4954.934711,1934.878759,-1282.096062,0.012000,-0.016000,1.004000,192.000000,0.000000,0.000000,0.000000,0.000000,0.000000,0.000000,0.000000,0.000000,0.000000,1773749807.358576,0.000000
98.000000,-27735.653846,2327.576557,-15734.532861,4771.784517,5713.977601,8200.251544,2593.428206,-11708.514298,11615.553393,9568.178304,-23.223462,-20201.618397,12570.375212,4948.318594,1921.914747,-1284.890030,0.012000,-0.016000,1.004000,192.000000,0.000000,0.000000,0.000000,0.000000,0.000000,0.000000,0.000000,0.000000,0.000000,1773749807.358590,0.000000
100.000000,-27749.936610,2314.210214,-15745.462864,4758.351118,5708.255554,8176.245770,2580.955932,-11722.707656,11586.451422,9585.858534,6.303192,-20167.934319,12601.935876,4936.047487,1957.543428,-1285.918210,0.012000,-0.016000,1.004000,192.000000,0.000000,0.000000,0.000000,0.000000,0.000000,0.000000,0.000000,0.000000,0.000000,1773749807.358603,0.000000
102.000000,-27767.236861,2297.289943,-15764.573606,4743.777781,5697.906697,8165.606340,2564.795621,-11738.867967,11602.812898,9555.080182,-29.772524,-20213.218953,12610.563649,4888.907658,1927.614442,-1288.063978,0.012000,-0.014000,1.008000,192.000000,0.000000,48.000000,127.500000,72.000000,15.500000,64.000000,0.000000,0.000000,0.000000,1773749807.358619,0.000000
104.000000,-27732.725767,2325.855473,-15727.872041,4781.798098,5733.758895,8198.575163,2603.195918,-11701.428795,11599.594247,9576.470801,0.335276,-20176.919720,12629.607335,4935.332231,1951.888436,-1288.756882,0.012000,-0.014000,1.008000,192.000000,0.000000,0.000000,0.000000,0.000000,0.000000,0.000000,0.000000,0.000000,0.000000,1773749807.358635,0.000000
106.000000,-27776.512835,2288.863336,-15769.334527,4735.217063,5686.015568,8162.901779,2560.794659,-11742.243080,11588.083099,9568.267711,-8.225442,-20188.386165,12602.338207,4934.393458,1944.065326,-1290.120338,0.012000,-0.014000,1.008000,192.000000,0.000000,0.000000,0.000000,0.000000,0.000000,0.000000,0.000000,0.000000,0.000000,1773749807.358652,0.000000
108.000000,-27743.365198,2315.752484,-15732.007114,4772.298607,5719.051447,8195.468270,2596.691560,-11712.984647,11609.652532,9558.790572,-23.536387,-20206.736947,12559.154637,4934.549920,1928.195587,-1290.455614,0.012000,-0.014000,1.008000,192.000000,0.000000,0.000000,0.000000,0.000000,0.000000,0.000000,0.000000,0.000000,0.000000,1773749807.358670,0.000000
110.000000,-27759.816082,2302.386141,-15751.296669,4761.905046,5701.281810,8181.051395,2583.481679,-11725.456920,11572.056898,9577.700147,1.475215,-20171.935281,12644.985335,4943.960004,1957.386965,-1286.007617,0.012000,-0.014000,1.008000,192.000000,0.000000,0.000000,0.000000,0.000000,0.000000,0.000000,0.000000,0.000000,0.000000,1773749807.358693,0.000000
112.000000,-27770.209643,2292.707836,-15762.450190,4745.476514,5692.095243,8169.048508,2567.902513,-11735.694019,11592.620503,9556.957729,-28.520826,-20210.804964,12579.248855,4914.232184,1921.132436,-1289.069806,0.014000,-0.010000,1.014000,192.000000,0.000000,56.000000,127.500000,88.000000,15.500000,88.000000,0.000000,0.000000,0.000000,1773749807.358712,0.000000
114.000000,-27729.171840,2327.911833,-15726.150957,4782.692168,5739.480941,8202.732587,2605.744017,-11697.047853,11595.615637,9580.561171,4.962087,-20172.918758,12594.202172,4962.601359,1951.888436,-1287.102853,0.014000,-0.010000,1.014000,192.000000,0.000000,0.000000,0.000000,0.000000,0.000000,0.000000,0.000000,0.000000,0.000000,1773749807.358730,0.000000
116.000000,-27773.718867,2289.399778,-15776.062402,4735.574691,5692.452871,8166.768630,2562.202819,-11739.225595,11582.472811,9569.184133,-5.409122,-20188.341461,12709.827746,4967.742260,1945.249968,-1281.112585,0.014000,-0.010000,1.014000,192.000000,0.000000,0.000000,0.000000,0.000000,0.000000,0.000000,0.000000,0.000000,0.000000,1773749807.358747,0.000000
118.000000,-27742.135852,2317.272403,-15732.878832,4778.132412,5713.575269,8198.508107,2599.418473,-11707.352007,11606.120957,9565.093763,-17.546119,-20200.165534,12589.821230,4914.433350,1924.596956,-1283.928905,0.014000,-0.010000,1.014000,192.000000,0.000000,0.000000,0.000000,0.000000,0.000000,0.000000,0.000000,0.000000,0.000000,1773749807.358766,0.000000
120.000000,-27760.307820,2301.894403,-15743.652373,4761.525066,5700.611258,8180.224381,2584.867488,-11723.780539,11573.040375,9576.135525,7.890166,-20169.320127,12583.518038,4946.105772,1955.397660,-1288.488661,0.014000,-0.010000,1.014000,192.000000,0.000000,0.000000,0.000000,0.000000,0.000000,0.000000,0.000000,0.000000,0.000000,1773749807.358783,0.000000
122.000000,-27773.808274,2289.377426,-15761.399658,4744.895368,5684.138022,8170.702537,2567.835458,-11737.370400,11595.258009,9555.974252,-27.224425,-20209.866191,12561.456866,4901.178765,1927.770904,-1289.203917,0.018000,-0.018000,1.006000,192.000000,0.000000,72.000000,127.500000,56.000000,15.500000,56.000000,0.000000,0.000000,0.000000,1773749807.358818,0.000000
124.000000,-27736.883192,2321.161606,-15725.390998,4781.708691,5730.048505,8199.692750,2604.291153,-11703.999246,11588.038395,9573.408612,-3.598631,-20177.992604,12617.895021,4953.235978,1952.022547,-1286.991094,0.018000,-0.018000,1.006000,192.000000,0.000000,0.000000,0.000000,0.000000,0.000000,0.000000,0.000000,0.000000,0.000000,1773749807.358832,0.000000
126.000000,-27782.078419,2283.633028,-15776.710603,4735.082952,5680.897019,8167.707404,2558.112449,-11745.975822,11567.608901,9558.656461,-16.070904,-20193.080031,12658.038754,4931.063048,1950.703794,-1282.185469,0.018000,-0.018000,1.006000,192.000000,0.000000,0.000000,0.000000,0.000000,0.000000,0.000000,0.000000,0.000000,0.000000,1773749807.358845,0.000000
128.000000,-27746.606201,2313.629069,-15732.297687,4774.734947,5725.108770,8200.877392,2596.110415,-11709.877754,11593.492221,9551.660365,-28.967861,-20207.765127,12604.305161,4919.462492,1934.744648,-1281.447861,0.018000,-0.018000,1.006000,192.000000,0.000000,0.000000,0.000000,0.000000,0.000000,0.000000,0.000000,0.000000,0.000000,1773749807.358858,0.000000
130.000000,-27761.112483,2303.839004,-15745.127588,4765.637787,5703.494633,8188.025139,2585.023950,-11721.120682,11566.290148,9575.420269,2.257526,-20169.856569,12550.348049,4969.709214,1961.142059,-1282.319579,0.018000,-0.018000,1.006000,192.000000,0.000000,0.000000,0.000000,0.000000,0.000000,0.000000,0.000000,0.000000,0.000000,1773749807.358872,0.000000
132.000000,-27772.601279,2293.132519,-15766.674670,4752.249092,5705.707455,8182.325444,2568.885990,-11733.861176,11586.741994,9556.734211,-34.265224,-20207.988645,12596.213829,4910.901774,1928.307346,-1282.029007,0.018000,-0.014000,1.004000,192.000000,0.000000,72.000000,127.500000,72.000000,15.500000,48.000000,0.000000,0.000000,0.000000,1773749807.358885,0.000000
134.000000,-27732.748119,2326.861301,-15729.101387,4793.309247,5736.374049,8216.970648,2605.475796,-11697.628998,11586.697291,9580.538819,-3.643334,-20171.354135,12672.992071,4952.006632,1955.487067,-1279.436204,0.018000,-0.014000,1.004000,192.000000,0.000000,0.000000,0.000000,0.000000,0.000000,0.000000,0.000000,0.000000,0.000000,1773749807.358902,0.000000
136.000000,-27783.128951,2288.505708,-15775.972995,4742.526083,5683.534525,8171.596607,2559.095926,-11740.231423,11570.157000,9567.060717,-14.819207,-20187.335633,12635.865824,4956.186409,1948.982710,-1277.089271,0.018000,-0.014000,1.004000,192.000000,0.000000,0.000000,0.000000,0.000000,0.000000,0.000000,0.000000,0.000000,0.000000,1773749807.358950,0.000000
138.000000,-27739.475994,2317.942955,-15727.179137,4778.333578,5712.748255,8199.782157,2597.138595,-11701.294685,11601.963532,9560.735173,-21.077695,-20201.171363,12552.337355,4948.832685,1930.341355,-1279.682074,0.018000,-0.014000,1.004000,192.000000,0.000000,0.000000,0.000000,0.000000,0.000000,0.000000,0.000000,0.000000,0.000000,1773749807.358963,0.000000
140.000000,-27762.632401,2304.733074,-15744.725257,4773.259732,5701.348865,8183.577142,2584.800432,-11716.851499,11574.649700,9580.650578,9.074808,-20164.916833,12593.419861,4924.513987,1959.353919,-1282.118414,0.018000,-0.014000,1.004000,192.000000,0.000000,0.000000,0.000000,0.000000,0.000000,0.000000,0.000000,0.000000,0.000000,1773749807.358978,0.000000
142.000000,-27777.898643,2290.092682,-15761.354954,4750.997394,5690.575324,8170.680186,2569.020101,-11733.391790,11585.356186,9558.298833,-31.180684,-20205.217028,12628.936783,4902.944553,1923.747590,-1285.292361,0.018000,-0.016000,1.000000,192.000000,0.000000,72.000000,127.500000,64.000000,15.500000,32.000000,0.000000,0.000000,0.000000,1773749807.358991,0.000000
144.000000,-27747.656733,2315.305449,-15728.587297,4785.128508,5715.475168,8201.480889,2604.492319,-11701.540554,11580.729375,9574.168572,-4.805625,-20174.282214,12643.666583,4944.787019,1950.279111,-1287.527536,0.018000,-0.016000,1.000000,192.000000,0.000000,0.000000,0.000000,0.000000,0.000000,0.000000,0.000000,0.000000,0.000000,1773749807.359004,0.000000
146.000000,-27792.471980,2280.324969,-15771.927330,4740.067391,5678.393624,8168.266197,2558.268912,-11741.974859,11562.177427,9564.713784,-16.920271,-20186.732136,12589.105974,4943.848246,1941.159599,-1284.688864,0.018000,-0.016000,1.000000,192.000000,0.000000,0.000000,0.000000,0.000000,0.000000,0.000000,0.000000,0.000000,0.000000,1773749807.359018,0.000000
148.000000,-27759.279640,2303.146100,-15731.247155,4773.997339,5721.890118,8197.032892,2593.517613,-11711.330618,11590.430032,9554.722554,-28.230253,-20204.613531,12532.690171,4924.625745,1932.263605,-1290.746187,0.018000,-0.016000,1.000000,192.000000,0.000000,0.000000,0.000000,0.000000,0.000000,0.000000,0.000000,0.000000,0.000000,1773749807.359031,0.000000
150.000000,-27780.424390,2287.835155,-15753.151864,4762.799116,5714.894022,8184.135936,2579.413662,-11727.133301,11556.075401,9565.987833,-4.045666,-20175.489208,12646.617013,4945.770496,1968.808707,-1282.230172,0.018000,-0.016000,1.000000,192.000000,0.000000,0.000000,0.000000,0.000000,0.000000,0.000000,0.000000,0.000000,0.000000,1773749807.359044,0.000000
152.000000,-27801.792658,2264.544638,-15771.569702,4740.179150,5691.447042,8167.573293,2557.620711,-11752.234310,11569.128820,9541.110342,-46.983367,-20220.147994,12577.281902,4886.650132,1934.498779,-1283.772443,0.016000,-0.015000,0.998000,192.000000,0.000000,56.000000,127.500000,72.000000,15.500000,16.000000,0.000000,0.000000,0.000000,1773749807.359057,0.000000
154.000000,-27767.058047,2294.384217,-15735.695152,4777.618322,5742.967813,8211.360361,2594.322275,-11721.455958,11567.765363,9554.364926,-21.502378,-20194.845819,12668.924054,4955.694670,1956.716413,-1281.693731,0.016000,-0.015000,0.998000,192.000000,0.000000,0.000000,0.000000,0.000000,0.000000,0.000000,0.000000,0.000000,0.000000,1773749807.359072,0.000000
156.000000,-27802.060879,2267.025681,-15770.005080,4737.541644,5701.818252,8180.492601,2551.809257,-11757.822246,11554.846055,9554.521388,-32.812361,-20205.261732,12621.583059,4930.794827,1957.163448,-1273.624751,0.016000,-0.015000,0.998000,192.000000,0.000000,0.000000,0.000000,0.000000,0.000000,0.000000,0.000000,0.000000,0.000000,1773749807.359086,0.000000
158.000000,-27760.956020,2300.307429,-15724.407521,4774.556133,5744.152456,8212.276782,2588.980209,-11718.997266,11597.582590,9551.705069,-33.751134,-20213.308360,12529.873852,4910.588850,1942.299538,-1277.424547,0.016000,-0.015000,0.998000,192.000000,0.000000,0.000000,0.000000,0.000000,0.000000,0.000000,0.000000,0.000000,0.000000,1773749807.359099,0.000000
160.000000,-27770.142587,2291.076158,-15744.613498,4763.626130,5718.067970,8196.898782,2578.452537,-11724.942830,11572.705099,9568.692394,-0.625849,-20174.036345,12642.370181,4947.044545,1965.880628,-1278.005693,0.016000,-0.015000,0.998000,192.000000,0.000000,0.000000,0.000000,0.000000,0.000000,0.000000,0.000000,0.000000,0.000000,1773749807.359112,0.000000
162.000000,-27783.061896,2282.917772,-15762.651356,4749.298662,5702.220583,8185.789965,2564.996787,-11735.738723,11589.960645,9547.905272,-33.304099,-20211.721386,12635.597603,4941.993051,1931.570701,-1276.083443,0.014000,-0.014500,0.997000,192.000000,0.000000,48.000000,127.500000,72.000000,15.500000,16.000000,0.000000,0.000000,0.000000,1773749807.359126,0.000000
164.000000,-27746.829718,2315.104284,-15722.574678,4792.124604,5736.217587,8215.182509,2607.666267,-11696.645522,11587.703119,9575.442621,-1.765788,-20172.270557,12659.223397,4948.206836,1954.838867,-1280.374978,0.014000,-0.014500,0.997000,192.000000,0.000000,0.000000,0.000000,0.000000,0.000000,0.000000,0.000000,0.000000,0.000000,1773749807.359139,0.000000
166.000000,-27791.376745,2281.487260,-15761.980803,4748.382240,5691.335284,8172.222456,2564.303883,-11736.118702,11569.352337,9568.513580,-7.353724,-20181.747697,12569.570550,4928.067914,1941.003137,-1281.336103,0.014000,-0.014500,0.997000,192.000000,0.000000,0.000000,0.000000,0.000000,0.000000,0.000000,0.000000,0.000000,0.000000,1773749807.359152,0.000000
168.000000,-27754.026980,2310.410417,-15729.369608,4785.083805,5724.862900,8202.799642,2598.345589,-11703.976894,11598.476660,9562.947996,-20.273032,-20195.695185,12585.015605,4934.281699,1928.039125,-1284.644161,0.014000,-0.014500,0.997000,192.000000,0.000000,0.000000,0.000000,0.000000,0.000000,0.000000,0.000000,0.000000,0.000000,1773749807.359166,0.000000
170.000000,-27775.462303,2293.356036,-15748.927384,4769.169363,5705.439234,8194.149517,2585.023950,-11717.365589,11567.027756,9578.862438,5.342067,-20160.111208,12671.561560,4963.450725,1955.710585,-1278.072748,0.014000,-0.014500,0.997000,192.000000,0.000000,0.000000,0.000000,0.000000,0.000000,0.000000,0.000000,0.000000,0.000000,1773749807.359179,0.000000
172.000000,-27798.886931,2276.994559,-15765.445324,4750.326842,5703.047598,8179.129145,2567.008444,-11734.911708,11577.130744,9551.347441,-35.136942,-20205.306435,12575.940797,4930.101923,1931.168369,-1276.351664,0.014000,-0.013250,0.999500,192.000000,0.000000,56.000000,127.500000,80.000000,15.500000,40.000000,0.000000,0.000000,0.000000,1773749807.359192,0.000000
174.000000,-27763.392361,2307.750560,-15724.787500,4788.570677,5744.688898,8213.550832,2603.061808,-11702.032292,11568.748840,9571.799287,-10.281802,-20172.605833,12571.783372,4919.820120,1961.499686,-1279.212687,0.014000,-0.013250,0.999500,192.000000,0.000000,0.000000,0.000000,0.000000,0.000000,0.000000,0.000000,0.000000,0.000000,1773749807.359205,0.000000
176.000000,-27806.441820,2273.038301,-15777.850542,4743.084877,5706.467415,8184.538267,2555.743165,-11744.187682,11554.510779,9562.903293,-21.748247,-20188.453220,12628.601507,4947.379821,1963.757213,-1272.529515,0.014000,-0.013250,0.999500,192.000000,0.000000,0.000000,0.000000,0.000000,0.000000,0.000000,0.000000,0.000000,0.000000,1773749807.359218,0.000000
178.000000,-27771.975430,2298.943972,-15734.622268,4778.154764,5737.893967,8217.887070,2591.371845,-11713.297571,11579.544733,9553.157932,-40.590768,-20208.703900,12589.307140,4919.998934,1951.597864,-1268.550905,0.014000,-0.013250,0.999500,192.000000,0.000000,0.000000,0.000000,0.000000,0.000000,0.000000,0.000000,0.000000,0.000000,1773749807.359232,0.000000
180.000000,-27777.406904,2297.178185,-15746.401637,4770.733985,5723.387685,8205.615962,2582.744072,-11717.522051,11562.378593,9576.224932,-2.235174,-20169.364830,12613.424672,4941.657775,1977.034149,-1271.322521,0.014000,-0.013250,0.999500,192.000000,0.000000,0.000000,0.000000,0.000000,0.000000,0.000000,0.000000,0.000000,0.000000,1773749807.359245,0.000000
182.000000,-27786.682878,2289.355074,-15766.138228,4756.831200,5707.160319,8192.942523,2568.215438,-11728.787330,11587.904285,9560.243435,-32.410029,-20202.557171,12640.894966,4909.158338,1930.900148,-1271.635446,0.014000,-0.012625,1.000750,192.000000,0.000000,56.000000,127.500000,80.000000,15.500000,40.000000,0.000000,0.000000,0.000000,1773749807.359258,0.000000
184.000000,-27749.757796,2321.966269,-15721.479442,4795.186793,5737.737505,8221.664515,2607.062770,-11693.739795,11582.673977,9588.049005,-3.397465,-20165.095647,12573.884436,4970.715042,1951.441401,-1276.485774,0.014000,-0.012625,1.000750,192.000000,0.000000,0.000000,0.000000,0.000000,0.000000,0.000000,0.000000,0.000000,0.000000,1773749807.359271,0.000000
186.000000,-27789.253329,2284.191821,-15768.172236,4748.181075,5693.905734,8184.247695,2562.828668,-11737.392752,11568.391212,9577.320168,-12.427570,-20179.378412,12574.890265,4921.317687,1941.941910,-1276.977512,0.014000,-0.012625,1.000750,192.000000,0.000000,0.000000,0.000000,0.000000,0.000000,0.000000,0.000000,0.000000,0.000000,1773749807.359286,0.000000
188.000000,-27762.163015,2304.666019,-15741.685419,4773.013863,5724.997011,8211.382712,2596.021008,-11712.023522,11591.569971,9556.957729,-32.074753,-20207.742775,12680.546961,4980.907438,1928.486160,-1278.542135,0.014000,-0.012625,1.000750,192.000000,0.000000,0.000000,0.000000,0.000000,0.000000,0.000000,0.000000,0.000000,0.000000,1773749807.359299,0.000000
190.000000,-27777.831588,2293.333685,-15749.776751,4768.185886,5715.206947,8193.344855,2584.442804,-11724.831071,11562.289186,9580.315301,-4.962087,-20173.142275,12655.781228,4928.984336,1955.777640,-1282.029007,0.014000,-0.012625,1.000750,192.000000,0.000000,0.000000,0.000000,0.000000,0.000000,0.000000,0.000000,0.000000,0.000000,1773749807.359312,0.000000
192.000000,-27804.340756,2266.221019,-15758.024544,4742.481380,5692.385816,8171.686014,2564.013310,-11747.741610,11576.773116,9545.692449,-39.719050,-20217.957523,12529.963259,4893.378007,1932.822398,-1285.135899,0.013000,-0.015313,1.000375,192.000000,0.000000,48.000000,127.500000,56.000000,15.500000,32.000000,0.000000,0.000000,0.000000,1773749807.359326,0.000000
194.000000,-27766.454550,2299.368656,-15723.312285,4785.240267,5728.707400,8213.751997,2602.391255,-11710.905935,11570.201703,9565.786668,-14.260413,-20187.022708,12572.699794,4929.274908,1964.695986,-1285.046492,0.013000,-0.015313,1.000375,192.000000,0.000000,0.000000,0.000000,0.000000,0.000000,0.000000,0.000000,0.000000,0.000000,1773749807.839398,0.000000
196.000000,-27817.036547,2257.705004,-15777.023527,4736.088781,5692.899906,8177.542171,2555.698461,-11757.106990,11555.583662,9555.191941,-28.878454,-20200.746679,12589.396547,4953.101868,1960.247989,-1274.183544,0.013000,-0.015313,1.000375,192.000000,0.000000,0.000000,0.000000,0.000000,0.000000,0.000000,0.000000,0.000000,0.000000,1773749807.839456,0.000000
198.000000,-27791.801428,2278.134498,-15744.769960,4768.744680,5728.863863,8210.600401,2586.722682,-11732.251851,11572.146305,9538.137560,-53.286559,-20227.009979,12564.273186,4885.443137,1947.753364,-1271.590742,0.013000,-0.015313,1.000375,192.000000,0.000000,0.000000,0.000000,0.000000,0.000000,0.000000,0.000000,0.000000,0.000000,1773749807.839501,0.000000
200.000000,-27797.411716,2277.352187,-15762.204321,4760.496886,5719.632592,8205.347741,2579.838345,-11736.789255,11544.184273,9558.857627,-24.653974,-20190.420173,12684.771441,4953.437144,1981.571553,-1267.120393,0.013000,-0.015313,1.000375,192.000000,0.000000,0.000000,0.000000,0.000000,0.000000,0.000000,0.000000,0.000000,0.000000,1773749807.839546,0.000000
202.000000,-27814.220228,2261.214228,-15770.496818,4743.934243,5708.099092,8188.293360,2562.493391,-11752.323717,11570.067593,9536.841158,-54.158277,-20226.674703,12593.241047,4896.551954,1951.620215,-1268.617960,0.011500,-0.016656,1.003188,192.000000,0.000000,40.000000,127.500000,56.000000,15.500000,56.000000,0.000000,0.000000,0.000000,1773749807.839591,0.000000
204.000000,-27764.577003,2305.649496,-15727.134434,4784.904991,5741.626709,8222.290364,2605.028761,-11708.804871,11569.955834,9559.349365,-19.200148,-20190.174304,12553.253776,4961.707289,1969.658073,-1268.796774,0.011500,-0.016656,1.003188,192.000000,0.000000,0.000000,0.000000,0.000000,0.000000,0.000000,0.000000,0.000000,0.000000,1773749807.839636,0.000000
206.000000,-27796.607053,2280.772004,-15772.329661,4749.589235,5704.656923,8184.202991,2563.923903,-11739.516168,11563.160904,9562.076278,-21.949413,-20193.571769,12633.273021,4921.496501,1953.453058,-1266.785117,0.011500,-0.016656,1.003188,192.000000,0.000000,0.000000,0.000000,0.000000,0.000000,0.000000,0.000000,0.000000,0.000000,1773749807.839676,0.000000
208.000000,-27752.574116,2312.734999,-15727.626172,4784.547363,5737.491636,8212.053265,2601.027799,-11700.355911,11601.114166,9560.466952,-25.995079,-20202.691281,12629.584984,4909.560670,1933.627061,-1275.234076,0.011500,-0.016656,1.003188,192.000000,0.000000,0.000000,0.000000,0.000000,0.000000,0.000000,0.000000,0.000000,0.000000,1773749807.839688,0.000000
210.000000,-27760.218413,2308.152891,-15732.342390,4774.444374,5718.336191,8199.223363,2593.092929,-11703.485156,11581.265817,9578.728328,15.802683,-20164.492150,12624.399379,4981.242714,1959.286864,-1281.872545,0.011500,-0.016656,1.003188,192.000000,0.000000,0.000000,0.000000,0.000000,0.000000,0.000000,0.000000,0.000000,0.000000,1773749807.839701,0.000000
212.000000,-27775.797579,2296.664095,-15749.240309,4758.328767,5705.841566,8181.945465,2575.613865,-11717.097368,11602.075291,9561.539836,-14.886262,-20199.338519,12596.057367,4903.950382,1922.853520,-1282.587800,0.011750,-0.017328,1.004594,192.000000,0.000000,48.000000,127.500000,56.000000,15.500000,56.000000,0.000000,0.000000,0.000000,1773749807.839713,0.000000
214.000000,-27737.509041,2327.576557,-15710.840012,4790.828203,5744.912415,8213.751997,2613.634183,-11682.966254,11601.695311,9581.566999,13.455750,-20165.587385,12591.274094,4963.674243,1950.457925,-1280.978475,0.011750,-0.017328,1.004594,192.000000,0.000000,0.000000,0.000000,0.000000,0.000000,0.000000,0.000000,0.000000,0.000000,1773749807.839725,0.000000
216.000000,-27786.660527,2287.745748,-15765.333565,4745.722383,5695.000970,8171.931883,2565.354415,-11730.575470,11581.824610,9566.680737,-1.564622,-20181.948862,12617.135062,4909.605373,1958.146925,-1278.698597,0.011750,-0.017328,1.004594,192.000000,0.000000,0.000000,0.000000,0.000000,0.000000,0.000000,0.000000,0.000000,0.000000,1773749807.839738,0.000000
218.000000,-27757.603259,2311.192728,-15730.174271,4777.797136,5728.416828,8202.017331,2596.736264,-11704.826260,11596.420300,9562.724479,-22.754076,-20200.947845,12598.828983,4919.909527,1942.321890,-1277.201030,0.011750,-0.017328,1.004594,192.000000,0.000000,0.000000,0.000000,0.000000,0.000000,0.000000,0.000000,0.000000,0.000000,1773749807.839761,0.000000
220.000000,-27774.076494,2294.473624,-15748.457998,4762.039156,5716.771569,8189.612113,2581.313560,-11720.047798,11562.624462,9572.581598,3.643334,-20172.427019,12626.500443,4954.599435,1973.614332,-1277.223382,0.011750,-0.017328,1.004594,192.000000,0.000000,0.000000,0.000000,0.000000,0.000000,0.000000,0.000000,0.000000,0.000000,1773749807.839773,0.000000
222.000000,-27794.930672,2277.419243,-15768.574568,4740.380316,5707.205022,8182.347796,2560.437031,-11741.371362,11578.091869,9540.819769,-38.065021,-20217.734005,12550.213939,4922.144702,1947.999233,-1272.328350,0.011750,-0.017328,1.004594,192.000000,0.000000,0.000000,0.000000,0.000000,0.000000,0.000000,0.000000,0.000000,0.000000,1773749807.839785,0.000000
224.000000,-27760.352523,2308.711685,-15732.096521,4782.021616,5743.750124,8205.861831,2598.457348,-11708.581353,11573.666224,9564.043231,-16.070904,-20184.832237,12621.985390,4909.806539,1979.381082,-1274.071786,0.012000,-0.022000,1.004000,192.000000,0.000000,48.000000,127.500000,40.000000,15.500000,48.000000,0.000000,0.000000,0.000000,1773749807.839797,0.000000
226.000000,-27800.049222,2275.295827,-15778.007004,4740.335612,5697.414958,8176.446936,2556.458420,-11749.440342,11561.462171,9558.857627,-26.710335,-20195.024633,12599.879515,4907.996047,1969.255742,-1272.596571,0.012000,-0.022000,1.004000,192.000000,0.000000,0.000000,0.000000,0.000000,0.000000,0.000000,0.000000,0.000000,0.000000,1773749807.839810,0.000000
228.000000,-27751.098901,2317.562976,-15729.190794,4781.596933,5739.749162,8212.388541,2597.585630,-11705.876792,11594.632160,9563.327976,-34.086410,-20207.809831,12578.824172,4927.062086,1946.613425,-1276.619885,0.012000,-0.022000,1.004000,192.000000,0.000000,0.000000,0.000000,0.000000,0.000000,0.000000,0.000000,0.000000,0.000000,1773749807.839822,0.000000
230.000000,-27754.250497,2317.294755,-15736.857442,4779.317055,5733.535377,8203.559602,2592.511784,-11704.759205,11582.964549,9596.430909,11.600555,-20158.278365,12605.176879,4964.657720,1961.075003,-1276.865754,0.012000,-0.022000,1.004000,192.000000,0.000000,0.000000,0.000000,0.000000,0.000000,0.000000,0.000000,0.000000,0.000000,1773749807.839833,0.000000
232.000000,-27765.336962,2310.030438,-15752.973050,4765.190752,5712.390627,8197.725796,2577.402005,-11715.800967,11605.808032,9577.364871,-18.842521,-20191.649519,12604.752195,4945.435219,1927.457980,-1277.133975,0.012000,-0.022000,1.004000,192.000000,0.000000,0.000000,0.000000,0.000000,0.000000,0.000000,0.000000,0.000000,0.000000,1773749807.839845,0.000000
234.000000,-27726.400224,2343.513351,-15716.360893,4807.346142,5750.478000,8230.269936,2615.779950,-11677.981815,11610.703064,9603.114081,13.701619,-20152.064580,12685.263179,4979.789851,1949.072117,-1281.179640,0.012000,-0.018000,1.000000,192.000000,0.000000,48.000000,127.500000,56.000000,15.500000,32.000000,0.000000,0.000000,0.000000,1773749807.839858,0.000000
236.000000,-27779.306803,2296.932315,-15761.198492,4759.245188,5715.206947,8183.264218,2568.438955,-11726.261583,11593.872201,9596.162688,3.017486,-20165.073295,12669.549903,4955.739374,1947.082811,-1275.457594,0.012000,-0.018000,1.000000,192.000000,0.000000,0.000000,0.000000,0.000000,0.000000,0.000000,0.000000,0.000000,0.000000,1773749807.839869,0.000000
238.000000,-27752.797634,2316.624202,-15721.457091,4792.035197,5742.610185,8213.394369,2600.625467,-11702.591086,11613.340570,9581.321130,-19.021335,-20189.816676,12538.434570,4919.104864,1939.237349,-1275.010559,0.012000,-0.018000,1.000000,192.000000,0.000000,0.000000,0.000000,0.000000,0.000000,0.000000,0.000000,0.000000,0.000000,1773749807.839882,0.000000
240.000000,-27773.808274,2299.770987,-15741.975992,4778.445337,5721.756008,8197.949314,2586.789738,-11717.432644,11578.360090,9593.055796,8.717180,-20160.290022,12605.288637,4943.535321,1973.167297,-1270.271989,0.012000,-0.018000,1.000000,192.000000,0.000000,0.000000,0.000000,0.000000,0.000000,0.000000,0.000000,0.000000,0.000000,1773749807.839894,0.000000
242.000000,-27799.266910,2277.173373,-15768.216940,4753.344328,5701.684141,8191.556715,2564.236827,-11741.840749,11585.423241,9558.768220,-38.377945,-20208.748604,12601.332379,4924.402228,1945.942872,-1267.075690,0.012000,-0.018000,1.000000,192.000000,0.000000,0.000000,0.000000,0.000000,0.000000,0.000000,0.000000,0.000000,0.000000,1773749807.839906,0.000000
244.000000,-27766.476901,2305.403627,-15734.085826,4787.564848,5745.627671,8229.778198,2598.613810,-11713.945772,11578.449497,9572.089859,-22.798779,-20184.720479,12619.705512,4976.012406,1969.143983,-1265.175791,0.016000,-0.012000,1.004000,192.000000,0.000000,64.000000,127.500000,80.000000,15.500000,48.000000,0.000000,0.000000,0.000000,1773749807.839918,0.000000
246.000000,-27809.973396,2269.573780,-15776.151809,4743.397801,5700.030112,8190.081500,2554.022080,-11757.889302,11560.054011,9564.065583,-38.087373,-20198.399746,12614.966943,4928.559652,1964.494820,-1262.381823,0.016000,-0.012000,1.004000,192.000000,0.000000,0.000000,0.000000,0.000000,0.000000,0.000000,0.000000,0.000000,0.000000,1773749807.839930,0.000000
248.000000,-27771.550747,2300.598002,-15740.880756,4781.105194,5725.332287,8214.243736,2589.516650,-11723.668781,11591.368805,9561.763354,-46.916312,-20215.901162,12589.664768,4912.041713,1948.938006,-1265.555771,0.016000,-0.012000,1.004000,192.000000,0.000000,0.000000,0.000000,0.000000,0.000000,0.000000,0.000000,0.000000,0.000000,1773749807.839942,0.000000
250.000000,-27773.629460,2298.586345,-15748.368591,4771.605703,5705.662752,8201.704407,2582.609961,-11725.211051,11564.636119,9586.327921,-9.343029,-20174.639842,12589.620064,4948.966795,1965.835925,-1271.322521,0.016000,-0.012000,1.004000,192.000000,0.000000,0.000000,0.000000,0.000000,0.000000,0.000000,0.000000,0.000000,0.000000,1773749807.839956,0.000000
252.000000,-27783.665393,2290.629124,-15763.992460,4754.238397,5688.317798,8185.499392,2570.115336,-11733.771769,11589.223038,9564.400859,-36.589806,-20212.347235,12566.128381,4935.153417,1929.290823,-1279.145632,0.016000,-0.012000,1.004000,192.000000,0.000000,0.000000,0.000000,0.000000,0.000000,0.000000,0.000000,0.000000,0.000000,1773749807.839968,0.000000
254.000000,-27736.905543,2333.700935,-15727.782634,4801.981724,5734.697668,8214.891936,2614.975287,-11687.123679,11589.044224,9594.978046,-4.470349,-20169.454237,12620.778396,4966.758784,1946.859294,-1286.164079,0.014000,-0.014000,1.002000,192.000000,0.000000,56.000000,127.500000,72.000000,15.500000,40.000000,0.000000,0.000000,0.000000,1773749807.839980,0.000000
0.000000,-27774.992916,2304.978943,-15771.949681,4759.289892,5692.564630,8182.213686,2573.781022,-11722.797063,11580.572913,9597.190869,-8.158387,-20168.604871,12655.043620,4956.499333,1936.778657,-1287.080501,0.014000,-0.014000,1.002000,192.000000,0.000000,0.000000,0.000000,0.000000,0.000000,0.000000,0.000000,0.000000,0.000000,1773749807.839992,0.000000
2.000000,-27741.957038,2330.884615,-15725.815681,4791.968142,5726.762799,8210.063959,2608.850909,-11692.912780,11611.887707,9586.976121,-19.647183,-20186.642729,12559.780486,4942.283623,1924.775770,-1284.375940,0.014000,-0.014000,1.002000,192.000000,0.000000,0.000000,0.000000,0.000000,0.000000,0.000000,0.000000,0.000000,0.000000,1773749807.840004,0.000000
4.000000,-27760.218413,2314.232566,-15744.054704,4776.634845,5711.474205,8193.009578,2595.529270,-11706.904972,11582.606922,9600.990665,10.482968,-20154.120940,12668.007632,4943.803542,1953.698928,-1279.704425,0.014000,-0.014000,1.002000,192.000000,0.000000,0.000000,0.000000,0.000000,0.000000,0.000000,0.000000,0.000000,0.000000,1773749807.840016,0.000000
6.000000,-27782.436047,2290.495013,-15755.945832,4750.103325,5710.647191,8178.369186,2573.445746,-11728.876737,11598.633122,9564.691432,-29.951338,-20205.306435,12552.940852,4916.042676,1930.229596,-1276.329312,0.014000,-0.014000,1.002000,192.000000,0.000000,0.000000,0.000000,0.000000,0.000000,0.000000,0.000000,0.000000,0.000000,1773749807.840028,0.000000
8.000000,-27747.500270,2319.999316,-15721.591201,4788.414215,5749.718040,8218.267050,2609.186186,-11698.567772,11591.145288,9579.309473,-6.929041,-20178.797266,12614.966943,4950.062031,1961.879666,-1269.109698,0.014000,-0.018000,1.004000,192.000000,0.000000,56.000000,127.500000,56.000000,15.500000,48.000000,0.000000,0.000000,0.000000,1773749807.840040,0.000000
10.000000,-27796.025908,2280.436728,-15775.905940,4740.916758,5692.363464,8182.414851,2563.275702,-11743.986516,11570.268759,9568.044194,-18.641355,-20193.325900,12594.112765,4961.863752,1955.889399,-1263.611169,0.014000,-0.018000,1.004000,192.000000,0.000000,0.000000,0.000000,0.000000,0.000000,0.000000,0.000000,0.000000,0.000000,1773749807.840052,0.000000
12.000000,-27764.733465,2306.252993,-15739.539652,4774.511430,5735.569386,8210.466291,2594.925773,-11713.498737,11590.027701,9560.511656,-38.109724,-20211.251999,12606.093300,4882.380948,1946.591073,-1265.801640,0.014000,-0.018000,1.004000,192.000000,0.000000,0.000000,0.000000,0.000000,0.000000,0.000000,0.000000,0.000000,0.000000,1773749807.840064,0.000000
14.000000,-27770.902547,2303.436673,-15749.508530,4766.844781,5717.777397,8197.994017,2587.035607,-11719.623115,11570.782849,9583.399842,-2.659858,-20173.343441,12667.985281,4967.630502,1976.587114,-1268.796774,0.014000,-0.018000,1.004000,192.000000,0.000000,0.000000,0.000000,0.000000,0.000000,0.000000,0.000000,0.000000,0.000000,1773749807.840076,0.000000
16.000000,-27780.625556,2298.631048,-15761.757286,4754.439563,5686.842583,8178.279779,2570.987054,-11731.447188,11594.833326,9569.050022,-32.141809,-20207.809831,12508.170308,4915.774455,1939.706736,-1274.787042,0.014000,-0.018000,1.004000,192.000000,0.000000,0.000000,0.000000,0.000000,0.000000,0.000000,0.000000,0.000000,0.000000,1773749807.840088,0.000000
18.000000,-27737.531392,2336.852531,-15725.279239,4799.590087,5724.617031,8209.527518,2613.030686,-11688.263618,11591.458212,9596.632075,-0.961125,-20167.241414,12552.739686,4932.046525,1960.113878,-1282.207821,0.016000,-0.016000,1.002000,192.000000,0.000000,64.000000,127.500000,64.000000,15.500000,40.000000,0.000000,0.000000,0.000000,1773749807.840100,0.000000
20.000000,-27777.339849,2306.297696,-15778.297577,4760.720403,5684.473298,8188.718043,2571.165868,-11723.132339,11579.678843,9593.547534,-7.420779,-20171.890577,12659.402211,4963.763650,1944.042974,-1271.970722,0.016000,-0.016000,1.002000,192.000000,0.000000,0.000000,0.000000,0.000000,0.000000,0.000000,0.000000,0.000000,0.000000,1773749807.840111,0.000000
22.000000,-27737.866668,2338.528912,-15728.989628,4797.489023,5724.304107,8218.088236,2608.962668,-11686.721347,11613.765253,9595.514488,-15.668573,-20181.613586,12605.758024,4953.571254,1923.434666,-1270.674321,0.016000,-0.016000,1.002000,192.000000,0.000000,0.000000,0.000000,0.000000,0.000000,0.000000,0.000000,0.000000,0.000000,1773749807.840124,0.000000
24.000000,-27749.869555,2330.482284,-15734.108178,4789.509450,5720.705476,8208.074654,2601.519537,-11694.924437,11589.200686,9617.620363,20.921233,-20141.313391,12544.827169,4974.716005,1952.581340,-1270.316693,0.016000,-0.016000,1.002000,192.000000,0.000000,0.000000,0.000000,0.000000,0.000000,0.000000,0.000000,0.000000,0.000000,1773749807.840135,0.000000
26.000000,-27769.606146,2312.556185,-15764.886530,4768.655273,5702.064121,8189.388596,2578.184316,-11716.829147,11607.372654,9591.200601,-16.339125,-20182.798229,12609.043730,4935.309879,1924.440494,-1271.411928,0.016000,-0.016000,1.002000,192.000000,0.000000,0.000000,0.000000,0.000000,0.000000,0.000000,0.000000,0.000000,0.000000,1773749807.840149,0.000000
28.000000,-27737.576096,2336.696069,-15722.686436,4803.479290,5734.451799,8222.379771,2614.014162,-11689.180039,11599.013102,9603.292895,-1.408160,-20157.674868,12658.530493,4961.081441,1949.273282,-1267.790946,0.006000,-0.018000,1.006000,192.000000,0.000000,24.000000,127.500000,56.000000,15.500000,56.000000,0.000000,0.000000,0.000000,1773749807.840161,0.000000
30.000000,-27787.912224,2295.837080,-15764.283033,4753.366679,5685.926162,8183.845363,2569.690653,-11731.827167,11580.975244,9580.963502,-10.527672,-20175.578615,12583.450983,4948.385650,1955.889399,-1265.220495,0.006000,-0.018000,1.006000,192.000000,0.000000,0.000000,0.000000,0.000000,0.000000,0.000000,0.000000,0.000000,0.000000,1773749807.840173,0.000000
32.000000,-27759.369047,2317.630031,-15730.934230,4784.614418,5727.343944,8205.012465,2601.027799,-11703.596914,11599.974227,9572.425136,-30.845407,-20196.209275,12568.989404,4891.701626,1942.567759,-1271.791908,0.006000,-0.018000,1.006000,192.000000,0.000000,0.000000,0.000000,0.000000,0.000000,0.000000,0.000000,0.000000,0.000000,1773749807.840186,0.000000
34.000000,-27772.243651,2306.051827,-15743.875890,4771.762165,5709.149624,8191.489660,2591.505956,-11711.576487,11566.603072,9586.171459,-0.491738,-20163.799246,12580.545256,4956.655795,1978.531716,-1273.356530,0.006000,-0.018000,1.006000,192.000000,0.000000,0.000000,0.000000,0.000000,0.000000,0.000000,0.000000,0.000000,0.000000,1773749807.840198,0.000000
36.000000,-27787.174617,2291.076158,-15763.366611,4752.740831,5696.677351,8170.434316,2572.864601,-11728.921441,11585.065613,9562.679775,-34.533445,-20206.044043,12562.865026,4898.094225,1941.316061,-1277.737472,0.006000,-0.018000,1.006000,192.000000,0.000000,0.000000,0.000000,0.000000,0.000000,0.000000,0.000000,0.000000,0.000000,1773749807.840209,0.000000
38.000000,-27746.315628,2325.453141,-15726.687399,4791.834032,5730.629650,8200.855041,2611.510767,-11691.906952,11582.651625,9585.635017,-9.365381,-20173.924586,12668.074687,4945.591682,1961.499686,-1283.548925,0.008000,-0.017000,1.004000,192.000000,0.000000,40.000000,127.500000,64.000000,15.500000,40.000000,0.000000,0.000000,0.000000,1773749807.840222,0.000000
40.000000,-27787.062858,2291.836118,-15769.066306,4751.533836,5678.594789,8166.969796,2568.394252,-11728.697923,11566.714831,9581.097613,-16.808512,-20181.032441,12641.029077,4937.746219,1956.425840,-1280.620847,0.008000,-0.017000,1.004000,192.000000,0.000000,0.000000,0.000000,0.000000,0.000000,0.000000,0.000000,0.000000,0.000000,1773749807.840234,0.000000
42.000000,-27746.539145,2325.408438,-15723.535803,4790.716444,5712.435330,8198.038721,2605.364037,-11689.984702,11602.298808,9577.387223,-21.658840,-20193.616473,12481.839953,4937.366240,1931.749515,-1285.694693,0.008000,-0.017000,1.004000,192.000000,0.000000,0.000000,0.000000,0.000000,0.000000,0.000000,0.000000,0.000000,0.000000,1773749807.840245,0.000000
44.000000,-27749.757796,2328.381220,-15739.338486,4790.738796,5718.738522,8197.681093,2598.747921,-11691.482269,11582.361052,9606.444491,16.227366,-20145.269650,12630.009667,4929.096094,1956.358785,-1283.034835,0.008000,-0.017000,1.004000,192.000000,0.000000,0.000000,0.000000,0.000000,0.000000,0.000000,0.000000,0.000000,0.000000,1773749807.840257,0.000000
46.000000,-27764.174672,2316.177167,-15753.487140,4773.326787,5704.053426,8196.049416,2579.346607,-11710.168327,11604.154003,9591.580581,-19.557776,-20181.635938,12564.787276,4912.555803,1926.340392,-1272.305998,0.008000,-0.017000,1.004000,192.000000,0.000000,0.000000,0.000000,0.000000,0.000000,0.000000,0.000000,0.000000,0.000000,1773749807.840269,0.000000
48.000000,-27722.958055,2349.749488,-15710.191811,4813.671686,5752.668470,8230.672268,2620.540872,-11673.533818,11607.886744,9613.887622,9.879471,-20151.684600,12604.148698,4957.862789,1956.582303,-1269.087347,0.011000,-0.016500,1.008000,192.000000,0.000000,56.000000,127.500000,64.000000,15.500000,80.000000,0.000000,0.000000,0.000000,1773749807.840283,0.000000
50.000000,-27772.556576,2308.264650,-15757.689268,4765.302511,5700.097168,8194.998884,2576.373825,-11718.259659,11591.279398,9607.003284,-0.625849,-20161.921699,12653.009612,4970.066842,1955.531771,-1262.448879,0.011000,-0.016500,1.008000,192.000000,0.000000,0.000000,0.000000,0.000000,0.000000,0.000000,0.000000,0.000000,0.000000,1773749807.840297,0.000000
52.000000,-27740.347712,2330.303470,-15717.322018,4793.689226,5740.933805,8219.742265,2609.364999,-11688.420080,11613.161756,9587.736081,-17.434361,-20189.257883,12566.396602,4960.097964,1941.673689,-1263.678225,0.011000,-0.016500,1.008000,192.000000,0.000000,0.000000,0.000000,0.000000,0.000000,0.000000,0.000000,0.000000,0.000000,1773749807.840311,0.000000
54.000000,-27753.311724,2319.708743,-15737.572698,4784.033273,5734.317688,8207.068826,2597.451520,-11700.244153,11588.776003,9607.115043,18.082561,-20151.416379,12692.214572,4974.894819,1977.190611,-1263.745280,0.011000,-0.016500,1.008000,192.000000,0.000000,0.000000,0.000000,0.000000,0.000000,0.000000,0.000000,0.000000,0.000000,1773749807.840322,0.000000
56.000000,-27778.479788,2296.820557,-15753.531844,4764.251979,5706.534470,8190.662645,2574.920961,-11723.467615,11598.186087,9576.426098,-23.335221,-20200.590217,12527.728084,4917.316725,1948.982710,-1262.203009,0.011000,-0.016500,1.008000,192.000000,0.000000,0.000000,0.000000,0.000000,0.000000,0.000000,0.000000,0.000000,0.000000,1773749807.840334,0.000000
58.000000,-27736.257343,2331.331650,-15714.818622,4804.105139,5736.932842,8221.731570,2613.880052,-11686.117850,11596.733224,9596.497964,3.084541,-20170.929452,12604.841602,4959.338005,1965.455945,-1263.275893,0.010500,-0.017250,1.007000,192.000000,0.000000,40.000000,127.500000,56.000000,15.500000,56.000000,0.000000,0.000000,0.000000,1773749808.320263,0.000000
60.000000,-27783.598338,2295.144176,-15766.361745,4756.384165,5689.614199,8181.006692,2571.277627,-11726.350990,11581.891666,9596.140337,-5.587936,-20176.919720,12650.059181,4962.109621,1951.955492,-1265.332254,0.010500,-0.017250,1.007000,192.000000,0.000000,0.000000,0.000000,0.000000,0.000000,0.000000,0.000000,0.000000,0.000000,1773749808.320338,0.000000
62.000000,-27755.524547,2318.255880,-15735.203413,4792.146956,5728.953270,8200.139785,2603.665305,-11697.114908,11601.851773,9577.856610,-25.615099,-20197.460973,12582.333396,4897.177803,1937.806837,-1275.055262,0.010500,-0.017250,1.007000,192.000000,0.000000,0.000000,0.000000,0.000000,0.000000,0.000000,0.000000,0.000000,0.000000,1773749808.320391,0.000000
64.000000,-27762.632401,2314.120807,-15738.064437,4787.363683,5707.830871,8192.696654,2596.423339,-11701.808775,11575.566122,9604.209316,11.578204,-20153.316278,12547.397619,4946.016365,1961.946721,-1277.491603,0.010500,-0.017250,1.007000,192.000000,0.000000,0.000000,0.000000,0.000000,0.000000,0.000000,0.000000,0.000000,0.000000,1773749808.320443,0.000000
66.000000,-27780.245576,2300.754464,-15763.970109,4768.409403,5709.015514,8188.606285,2575.993845,-11721.031275,11595.682692,9582.058738,-21.860006,-20195.024633,12594.291579,4933.812312,1928.597919,-1275.770518,0.010500,-0.017250,1.007000,192.000000,0.000000,0.000000,0.000000,0.000000,0.000000,0.000000,0.000000,0.000000,0.000000,1773749808.320497,0.000000
68.000000,-27734.737424,2338.998299,-15718.372550,4812.777616,5758.323462,8230.985192,2617.724552,-11682.452164,11601.538849,9606.891526,2.078712,-20161.429961,12706.743205,4965.149458,1955.889399,-1268.640312,0.011250,-0.015625,1.006500,192.000000,0.000000,48.000000,127.500000,72.000000,15.500000,56.000000,0.000000,0.000000,0.000000,1773749808.320550,0.000000
70.000000,-27773.115369,2307.996429,-15755.185873,4771.248075,5703.382874,8200.139785,2574.138650,-11718.684342,11596.912038,9606.042159,1.721084,-20164.492150,12555.488951,4946.843379,1948.938006,-1264.169963,0.011250,-0.015625,1.006500,192.000000,0.000000,0.000000,0.000000,0.000000,0.000000,0.000000,0.000000,0.000000,0.000000,1773749808.320582,0.000000
72.000000,-27742.225259,2330.526987,-15720.987704,4798.696017,5747.728735,8232.862739,2605.900479,-11688.889466,11622.035399,9595.358025,-9.834768,-20182.932339,12548.850483,4941.836589,1931.458942,-1262.560637,0.011250,-0.015625,1.006500,192.000000,0.000000,0.000000,0.000000,0.000000,0.000000,0.000000,0.000000,0.000000,0.000000,1773749808.320604,0.000000
74.000000,-27756.888003,2317.182996,-15736.343352,4786.983703,5731.747238,8217.752959,2595.529270,-11700.311208,11588.373672,9609.283162,20.988288,-20151.125807,12619.012608,4983.880220,1970.798012,-1259.207876,0.011250,-0.015625,1.006500,192.000000,0.000000,0.000000,0.000000,0.000000,0.000000,0.000000,0.000000,0.000000,0.000000,1773749808.320627,0.000000
76.000000,-27786.459361,2290.964400,-15764.774771,4761.614473,5709.395493,8198.731625,2571.165868,-11729.212013,11594.922733,9580.449412,-22.418800,-20198.958540,12611.189498,4898.004818,1941.651337,-1255.855114,0.011250,-0.015625,1.006500,192.000000,0.000000,0.000000,0.000000,0.000000,0.000000,0.000000,0.000000,0.000000,0.000000,1773749808.320649,0.000000
78.000000,-27744.326323,2323.374429,-15719.780710,4799.970067,5761.676223,8231.543986,2610.974325,-11693.181001,11591.122936,9591.401767,-4.515052,-20177.344403,12635.351734,4947.223359,1972.362634,-1259.006710,0.011625,-0.015813,1.008250,192.000000,0.000000,48.000000,127.500000,64.000000,15.500000,72.000000,0.000000,0.000000,0.000000,1773749808.320671,0.000000
80.000000,-27783.218358,2288.215135,-15763.411315,4751.667947,5703.360522,8198.508107,2566.941388,-11732.676534,11580.282340,9583.712767,-7.487834,-20183.245263,12588.793050,4949.860865,1970.820364,-1259.498448,0.011625,-0.015813,1.008250,192.000000,0.000000,0.000000,0.000000,0.000000,0.000000,0.000000,0.000000,0.000000,0.000000,1773749808.320693,0.000000
82.000000,-27751.992971,2317.965307,-15732.588259,4785.173212,5724.371162,8215.540137,2600.536060,-11699.461842,11601.494146,9572.961578,-24.564567,-20203.115964,12587.988387,4945.591682,1949.206227,-1262.650044,0.011625,-0.015813,1.008250,192.000000,0.000000,0.000000,0.000000,0.000000,0.000000,0.000000,0.000000,0.000000,0.000000,1773749808.320715,0.000000
84.000000,-27755.971581,2319.909909,-15745.328754,4787.050758,5705.193365,8200.162137,2594.992828,-11700.378263,11574.984977,9603.583467,15.176834,-20152.131635,12585.529695,4929.029039,1969.300445,-1273.982379,0.011625,-0.015813,1.008250,192.000000,0.000000,0.000000,0.000000,0.000000,0.000000,0.000000,0.000000,0.000000,0.000000,1773749808.320738,0.000000
86.000000,-27775.372896,2304.844833,-15762.047858,4762.016804,5696.163260,8192.584895,2573.065766,-11721.724179,11590.474736,9583.109270,-21.032992,-20190.755450,12592.011701,4931.018344,1934.208206,-1271.277818,0.011625,-0.015813,1.008250,192.000000,0.000000,0.000000,0.000000,0.000000,0.000000,0.000000,0.000000,0.000000,0.000000,1773749808.320760,0.000000
88.000000,-27732.412843,2343.647461,-15716.673817,4805.870927,5752.176732,8232.281593,2614.192976,-11681.893370,11599.504840,9607.964409,5.386770,-20161.631127,12659.089286,4972.346720,1960.784431,-1271.121355,0.011813,-0.015906,1.012125,192.000000,0.000000,48.000000,127.500000,64.000000,15.500000,96.000000,0.000000,0.000000,0.000000,1773749808.320782,0.000000
90.000000,-27773.137721,2311.595060,-15757.622213,4770.018729,5709.462548,8200.542116,2574.585685,-11718.550231,11590.720605,9609.372569,2.928079,-20162.771066,12563.379116,4935.734562,1951.106125,-1264.482887,0.011813,-0.015906,1.012125,192.000000,0.000000,0.000000,0.000000,0.000000,0.000000,0.000000,0.000000,0.000000,0.000000,1773749808.320812,0.000000
92.000000,-27737.374930,2340.361755,-15724.161652,4806.876756,5735.636441,8240.149407,2609.812034,-11686.520181,11619.487300,9600.856555,-12.114645,-20180.227778,12553.164369,4937.880330,1931.481294,-1263.789983,0.011813,-0.015906,1.012125,192.000000,0.000000,0.000000,0.000000,0.000000,0.000000,0.000000,0.000000,0.000000,0.000000,1773749808.320838,0.000000
94.000000,-27749.735445,2330.795208,-15739.070265,4794.806814,5741.514950,8233.846215,2599.552584,-11696.310246,11588.932465,9625.331715,19.401314,-20139.324086,12630.993143,4965.261217,1967.333492,-1256.033928,0.011813,-0.015906,1.012125,192.000000,0.000000,0.000000,0.000000,0.000000,0.000000,0.000000,0.000000,0.000000,0.000000,1773749808.320862,0.000000
96.000000,-27769.986125,2311.304487,-15759.566815,4768.878790,5720.638421,8217.775311,2577.893743,-11717.522051,11601.091814,9594.687473,-19.602480,-20187.983833,12670.846304,4938.819103,1944.244140,-1253.038794,0.011813,-0.015906,1.012125,192.000000,0.000000,0.000000,0.000000,0.000000,0.000000,0.000000,0.000000,0.000000,0.000000,1773749808.320884,0.000000
98.000000,-27731.228200,2342.082839,-15712.337579,4806.407369,5760.782154,8252.398163,2618.685677,-11681.088708,11601.963532,9610.400749,8.918346,-20159.597118,12644.135969,4984.014330,1965.344186,-1253.575236,0.008906,-0.016953,1.009062,192.000000,0.000000,24.000000,127.500000,56.000000,15.500000,56.000000,0.000000,0.000000,0.000000,1773749808.320907,0.000000
100.000000,-27787.442838,2293.892478,-15760.103257,4754.573674,5703.606391,8200.408006,2569.511839,-11732.430665,11580.282340,9595.581543,-1.184642,-20174.103400,12562.417991,4949.033850,1967.333492,-1252.100021,0.008906,-0.016953,1.009062,192.000000,0.000000,0.000000,0.000000,0.000000,0.000000,0.000000,0.000000,0.000000,0.000000,1773749808.320930,0.000000
102.000000,-27761.358352,2318.881729,-15733.951716,4789.867078,5745.113581,8223.407951,2601.430130,-11703.529859,11596.889686,9580.404708,-27.470294,-20200.232589,12678.200028,4935.734562,1959.331567,-1255.273969,0.008906,-0.016953,1.009062,192.000000,0.000000,0.000000,0.000000,0.000000,0.000000,0.000000,0.000000,0.000000,0.000000,1773749808.320952,0.000000
104.000000,-27776.848111,2305.627144,-15739.249079,4782.580409,5717.352714,8199.826860,2594.411682,-11712.694074,11563.451477,9599.716616,5.319715,-20161.742885,12533.204261,4945.658737,1977.503535,-1257.330329,0.008906,-0.016953,1.009062,192.000000,0.000000,0.000000,0.000000,0.000000,0.000000,0.000000,0.000000,0.000000,0.000000,1773749808.320974,0.000000
106.000000,-27791.197931,2294.205403,-15761.869045,4760.698052,5698.711359,8177.989206,2576.753804,-11726.418045,11576.303730,9572.000453,-31.024221,-20205.731118,12529.136244,4885.286675,1944.914692,-1264.862867,0.008906,-0.016953,1.009062,192.000000,0.000000,0.000000,0.000000,0.000000,0.000000,0.000000,0.000000,0.000000,0.000000,1773749808.320996,0.000000
108.000000,-27743.007570,2334.907929,-15722.932306,4799.143052,5734.272985,8217.641201,2617.165758,-11685.044966,11582.070480,9597.503793,0.111759,-20168.224891,12607.233239,4961.640234,1958.079870,-1273.244771,0.008906,-0.016953,1.009062,192.000000,0.000000,0.000000,0.000000,0.000000,0.000000,0.000000,0.000000,0.000000,0.000000,1773749808.321036,0.000000
110.000000,-27773.495349,2312.131502,-15760.058553,4763.782592,5695.671522,8193.523668,2578.072557,-11715.689208,11575.946102,9603.002322,1.586974,-20167.979022,12588.457774,4974.894819,1949.876779,-1272.730681,0.006000,-0.016000,1.010000,192.000000,0.000000,24.000000,127.500000,64.000000,15.500000,72.000000,0.000000,0.000000,0.000000,1773749808.321058,0.000000
112.000000,-27733.373968,2346.128505,-15728.296724,4808.709599,5736.463456,8233.242718,2611.644877,-11678.384146,11612.871183,9606.265677,-7.510186,-20174.282214,12560.540445,4910.879423,1928.061477,-1269.333216,0.006000,-0.016000,1.010000,192.000000,0.000000,0.000000,0.000000,0.000000,0.000000,0.000000,0.000000,0.000000,0.000000,1773749808.321080,0.000000
114.000000,-27746.606201,2336.539607,-15745.082884,4801.311171,5736.396400,8232.080428,2600.625467,-11688.911818,11586.205552,9635.412352,23.067000,-20128.572897,12659.290452,4985.087214,1958.325739,-1261.577161,0.006000,-0.016000,1.010000,192.000000,0.000000,0.000000,0.000000,0.000000,0.000000,0.000000,0.000000,0.000000,0.000000,1773749808.321102,0.000000
116.000000,-27769.114407,2315.350153,-15761.377306,4775.807831,5721.554842,8221.262183,2578.944275,-11712.537612,11602.790547,9604.723406,-16.629698,-20177.545569,12649.880368,4956.320519,1934.319965,-1256.257445,0.006000,-0.016000,1.010000,192.000000,0.000000,0.000000,0.000000,0.000000,0.000000,0.000000,0.000000,0.000000,0.000000,1773749808.321124,0.000000
118.000000,-27726.266113,2350.688261,-15710.817660,4817.739703,5769.588741,8249.179512,2621.658459,-11671.052774,11604.265762,9625.287011,13.634564,-20149.516481,12605.020416,4962.713118,1960.337396,-1259.431393,0.006000,-0.016000,1.010000,192.000000,0.000000,0.000000,0.000000,0.000000,0.000000,0.000000,0.000000,0.000000,0.000000,1773749808.321146,0.000000
120.000000,-27780.871425,2302.050865,-15762.204321,4764.609607,5721.398380,8210.421587,2573.021063,-11720.763054,11592.285227,9613.217069,10.661782,-20161.161740,12637.296335,4959.338005,1960.113878,-1256.100983,0.008000,-0.018000,1.008000,192.000000,0.000000,32.000000,127.500000,56.000000,15.500000,64.000000,0.000000,0.000000,0.000000,1773749808.321168,0.000000
122.000000,-27753.848166,2323.285022,-15729.257849,4789.420043,5758.055241,8230.739323,2600.804281,-11697.472536,11607.149137,9588.920723,-18.507244,-20195.717537,12637.855129,4957.616920,1955.531771,-1256.413908,0.008000,-0.018000,1.008000,192.000000,0.000000,0.000000,0.000000,0.000000,0.000000,0.000000,0.000000,0.000000,0.000000,1773749808.321194,0.000000
124.000000,-27766.499253,2310.052789,-15739.584355,4784.994398,5739.771514,8217.037704,2592.020046,-11705.988551,11578.158924,9605.617476,12.002887,-20157.965441,12608.596695,4963.741298,1987.830041,-1254.044623,0.008000,-0.018000,1.008000,192.000000,0.000000,0.000000,0.000000,0.000000,0.000000,0.000000,0.000000,0.000000,0.000000,1773749808.321212,0.000000
126.000000,-27791.510855,2289.958571,-15764.283033,4759.088726,5713.642325,8197.636389,2568.371900,-11729.636697,11589.781831,9572.603950,-24.251643,-20206.044043,12558.126457,4930.481902,1955.554122,-1252.480001,0.008000,-0.018000,1.008000,192.000000,0.000000,0.000000,0.000000,0.000000,0.000000,0.000000,0.000000,0.000000,0.000000,1773749808.321225,0.000000
128.000000,-27753.155262,2321.653345,-15726.665047,4799.455976,5735.055296,8225.017276,2609.879090,-11692.264580,11586.451422,9596.453261,-1.855195,-20177.590272,12612.798823,4925.788036,1969.948646,-1255.564541,0.008000,-0.018000,1.008000,192.000000,0.000000,0.000000,0.000000,0.000000,0.000000,0.000000,0.000000,0.000000,0.000000,1773749808.321239,0.000000
130.000000,-27788.247500,2293.244278,-15772.597882,4757.054717,5693.257534,8188.941561,2570.919999,-11727.110949,11573.912093,9591.580581,-5.587936,-20184.139333,12619.079664,4963.249560,1954.123611,-1258.693786,0.006000,-0.014000,1.008000,192.000000,0.000000,24.000000,127.500000,72.000000,15.500000,64.000000,0.000000,0.000000,0.000000,1773749808.321251,0.000000
132.000000,-27755.748064,2321.452179,-15737.662105,4798.941886,5728.372124,8216.724779,2602.882994,-11698.120737,11602.097643,9586.663197,-23.469332,-20199.673796,12595.744442,4910.991181,1930.698983,-1263.789983,0.006000,-0.014000,1.008000,192.000000,0.000000,0.000000,0.000000,0.000000,0.000000,0.000000,0.000000,0.000000,0.000000,1773749808.321265,0.000000
134.000000,-27758.340866,2320.625165,-15744.389980,4796.103215,5723.007706,8219.496396,2597.809148,-11701.518202,11579.097698,9611.048950,11.354686,-20154.210347,12587.384890,4949.994975,1957.610483,-1266.628655,0.006000,-0.014000,1.008000,192.000000,0.000000,0.000000,0.000000,0.000000,0.000000,0.000000,0.000000,0.000000,0.000000,1773749808.321277,0.000000
136.000000,-27771.662506,2309.806920,-15762.025507,4773.460898,5712.144758,8215.964820,2577.647874,-11719.533708,11604.891611,9596.006226,-17.479064,-20191.046022,12596.191477,4959.762688,1929.782561,-1261.800678,0.006000,-0.014000,1.008000,192.000000,0.000000,0.000000,0.000000,0.000000,0.000000,0.000000,0.000000,0.000000,0.000000,1773749808.321290,0.000000
138.000000,-27728.188363,2349.324804,-15719.646599,4816.867985,5750.790924,8261.472972,2618.909194,-11679.613492,11613.787605,9625.734046,9.253622,-20158.524234,12641.274946,4974.581894,1955.263550,-1261.688919,0.006000,-0.014000,1.008000,192.000000,0.000000,0.000000,0.000000,0.000000,0.000000,0.000000,0.000000,0.000000,0.000000,1773749808.321304,0.000000
140.000000,-27769.136759,2317.585327,-15758.382172,4771.940979,5709.797825,8225.151387,2575.859735,-11717.075016,11603.483451,9624.728218,7.756055,-20160.871167,12601.354730,4962.020214,1956.627006,-1254.111678,0.006000,-0.018000,1.006000,192.000000,0.000000,24.000000,127.500000,56.000000,15.500000,56.000000,0.000000,0.000000,0.000000,1773749808.321318,0.000000
142.000000,-27743.231087,2333.477418,-15724.094596,4801.042950,5760.469229,8249.738306,2605.922831,-11692.935132,11631.780759,9608.836127,-8.650125,-20183.625243,12577.036032,4981.466232,1947.283977,-1256.235094,0.006000,-0.018000,1.006000,192.000000,0.000000,0.000000,0.000000,0.000000,0.000000,0.000000,0.000000,0.000000,0.000000,1773749808.321330,0.000000
144.000000,-27764.666410,2316.624202,-15742.601841,4792.124604,5754.076630,8240.976422,2595.372807,-11708.044911,11595.325064,9617.285087,16.719105,-20152.086932,12709.246601,4951.537246,1984.611390,-1250.960082,0.006000,-0.018000,1.006000,192.000000,0.000000,0.000000,0.000000,0.000000,0.000000,0.000000,0.000000,0.000000,0.000000,1773749808.321344,0.000000
146.000000,-27791.488503,2288.729225,-15756.929309,4757.904083,5719.252613,8217.685904,2570.025929,-11735.179929,11604.131651,9575.330862,-22.910538,-20205.373490,12561.032183,4936.181597,1958.504553,-1249.395460,0.006000,-0.018000,1.006000,192.000000,0.000000,0.000000,0.000000,0.000000,0.000000,0.000000,0.000000,0.000000,0.000000,1773749808.321357,0.000000
148.000000,-27752.372951,2318.412342,-15725.100425,4795.052683,5766.839476,8240.015297,2608.470930,-11703.552211,11603.103471,9587.736081,0.111759,-20184.698127,12677.462420,4971.720871,1980.252800,-1253.932864,0.006000,-0.018000,1.006000,192.000000,0.000000,0.000000,0.000000,0.000000,0.000000,0.000000,0.000000,0.000000,0.000000,1773749808.321370,0.000000
150.000000,-27797.411716,2283.856545,-15771.033260,4752.651424,5698.800766,8190.684997,2566.628464,-11740.991383,11586.473773,9572.671005,-7.599593,-20195.404612,12561.702736,4914.723923,1973.435518,-1252.211780,0.012000,-0.018000,1.004000,192.000000,0.000000,48.000000,127.500000,56.000000,15.500000,48.000000,0.000000,0.000000,0.000000,1773749808.321382,0.000000
152.000000,-27766.029866,2312.578537,-15741.216033,4787.073110,5719.342019,8211.315657,2597.898555,-11708.447243,11602.723492,9568.401822,-28.900806,-20210.089709,12550.705677,4902.341056,1941.852503,-1258.291454,0.012000,-0.018000,1.004000,192.000000,0.000000,0.000000,0.000000,0.000000,0.000000,0.000000,0.000000,0.000000,0.000000,1773749808.321395,0.000000
154.000000,-27761.961849,2315.037228,-15742.713600,4784.525011,5713.888194,8210.533346,2596.244525,-11704.289818,11584.931503,9591.893505,11.533500,-20163.195749,12617.157414,4940.786057,1964.137192,-1258.559675,0.012000,-0.018000,1.004000,192.000000,0.000000,0.000000,0.000000,0.000000,0.000000,0.000000,0.000000,0.000000,0.000000,1773749808.321422,0.000000
156.000000,-27769.047352,2313.472606,-15762.629004,4771.806869,5695.000970,8200.653875,2580.061862,-11712.112929,11612.938239,9581.790517,-12.226404,-20189.816676,12608.999027,4925.720981,1924.664012,-1259.900780,0.012000,-0.018000,1.004000,192.000000,0.000000,0.000000,0.000000,0.000000,0.000000,0.000000,0.000000,0.000000,0.000000,1773749808.321434,0.000000
158.000000,-27729.730633,2344.630938,-15719.467785,4811.928250,5748.019308,8240.216463,2621.457293,-11675.970158,11621.923640,9606.355084,17.546119,-20155.909080,12646.192330,4956.745202,1949.474448,-1263.700576,0.012000,-0.018000,1.004000,192.000000,0.000000,0.000000,0.000000,0.000000,0.000000,0.000000,0.000000,0.000000,0.000000,1773749808.321448,0.000000
160.000000,-27771.193119,2310.723342,-15755.699963,4770.264598,5714.826967,8207.269991,2579.815993,-11715.130414,11605.316294,9603.404653,13.768675,-20162.704010,12588.591884,4954.867656,1958.102221,-1261.867733,0.010000,-0.018000,1.004000,192.000000,0.000000,40.000000,127.500000,56.000000,15.500000,48.000000,0.000000,0.000000,0.000000,1773749808.321460,0.000000
162.000000,-27737.017302,2341.568749,-15721.658256,4800.126529,5753.719002,8234.516768,2610.773159,-11684.597931,11635.312335,9599.470746,-0.178814,-20182.954691,12574.152657,4931.487731,1939.617329,-1265.108736,0.010000,-0.018000,1.004000,192.000000,0.000000,0.000000,0.000000,0.000000,0.000000,0.000000,0.000000,0.000000,0.000000,1773749808.321473,0.000000
164.000000,-27746.807366,2333.678583,-15729.593126,4789.956485,5742.856055,8237.981288,2603.397084,-11690.409385,11611.261858,9625.711694,35.986309,-20141.134577,12601.377082,4976.973531,1974.061367,-1258.425565,0.010000,-0.018000,1.004000,192.000000,0.000000,0.000000,0.000000,0.000000,0.000000,0.000000,0.000000,0.000000,0.000000,1773749808.321486,0.000000
166.000000,-27776.311669,2306.655324,-15760.729106,4766.598912,5712.167110,8225.911346,2576.820860,-11720.561888,11618.146195,9593.860459,-6.124378,-20188.162647,12619.772568,4947.022193,1944.557064,-1252.949387,0.010000,-0.018000,1.004000,192.000000,0.000000,0.000000,0.000000,0.000000,0.000000,0.000000,0.000000,0.000000,0.000000,1773749808.321498,0.000000
168.000000,-27736.279695,2337.299566,-15725.882736,4806.094445,5769.633445,8258.164913,2615.735247,-11686.743699,11618.012085,9604.969276,12.516977,-20167.241414,12676.814220,4954.666490,1973.860201,-1248.836666,0.010000,-0.018000,1.004000,192.000000,0.000000,0.000000,0.000000,0.000000,0.000000,0.000000,0.000000,0.000000,0.000000,1773749808.321511,0.000000
170.000000,-27787.599300,2292.573725,-15768.641623,4756.853551,5704.545165,8209.929849,2569.310673,-11735.336391,11594.967436,9590.686511,0.201166,-20182.507656,12644.962984,4945.211702,1976.050672,-1249.820143,0.006000,-0.014000,1.004000,192.000000,0.000000,24.000000,127.500000,72.000000,15.500000,48.000000,0.000000,0.000000,0.000000,1773749808.321552,0.000000
172.000000,-27761.336000,2316.870072,-15737.550347,4788.213049,5724.259403,8219.764616,2599.731398,-11708.111967,11611.731245,9576.202580,-22.262337,-20207.988645,12504.839898,4916.802635,1951.843733,-1254.670472,0.006000,-0.014000,1.004000,192.000000,0.000000,0.000000,0.000000,0.000000,0.000000,0.000000,0.000000,0.000000,0.000000,1773749808.321564,0.000000
174.000000,-27767.192157,2315.573670,-15747.742742,4782.312188,5715.989258,8211.449768,2595.238697,-11709.073092,11577.041337,9598.219049,7.510186,-20165.542682,12561.970957,4940.160208,1974.418995,-1257.240922,0.006000,-0.014000,1.004000,192.000000,0.000000,0.000000,0.000000,0.000000,0.000000,0.000000,0.000000,0.000000,0.000000,1773749808.321577,0.000000
176.000000,-27776.311669,2305.984772,-15765.221806,4763.469668,5694.531583,8201.324427,2577.424357,-11720.651295,11600.957704,9582.237551,-19.446018,-20199.964368,12562.932082,4940.204911,1935.884587,-1259.185524,0.006000,-0.014000,1.004000,192.000000,0.000000,0.000000,0.000000,0.000000,0.000000,0.000000,0.000000,0.000000,0.000000,1773749808.321591,0.000000
178.000000,-27727.741328,2346.821409,-15722.284105,4812.352933,5747.192293,8245.379716,2622.284308,-11674.070260,11619.956686,9611.518337,17.613175,-20162.301679,12656.228263,4984.327255,1953.430707,-1263.030024,0.006000,-0.014000,1.004000,192.000000,0.000000,0.000000,0.000000,0.000000,0.000000,0.000000,0.000000,0.000000,0.000000,1773749808.801199,0.000000
180.000000,-27768.376800,2312.667944,-15765.467675,4771.046909,5708.702589,8210.913326,2580.218325,-11714.303400,11607.015026,9610.467805,14.998021,-20166.906138,12667.337080,4945.994013,1952.134305,-1265.019329,0.009000,-0.013000,1.005000,192.000000,0.000000,48.000000,127.500000,80.000000,15.500000,56.000000,0.000000,0.000000,0.000000,1773749808.801250,0.000000
182.000000,-27735.810308,2338.975947,-15722.194698,4803.814567,5737.849264,8240.551739,2612.762465,-11684.463821,11638.598041,9603.672874,1.855195,-20185.435734,12593.017530,4933.298222,1936.443381,-1267.455669,0.009000,-0.013000,1.005000,192.000000,0.000000,0.000000,0.000000,0.000000,0.000000,0.000000,0.000000,0.000000,0.000000,1773749808.801287,0.000000
184.000000,-27744.147509,2330.795208,-15725.592163,4793.108081,5744.174808,8241.065829,2605.967534,-11690.498792,11616.156890,9628.080979,40.724878,-20143.235641,12597.018492,4988.484679,1968.182858,-1263.767632,0.009000,-0.013000,1.005000,192.000000,0.000000,0.000000,0.000000,0.000000,0.000000,0.000000,0.000000,0.000000,0.000000,1773749808.801324,0.000000
186.000000,-27765.359314,2311.952688,-15752.615422,4765.906008,5724.929956,8227.945355,2581.961761,-11712.023522,11622.996524,9594.978046,1.832843,-20192.632996,12620.018437,4956.052298,1950.212055,-1262.739451,0.009000,-0.013000,1.005000,192.000000,0.000000,0.000000,0.000000,0.000000,0.000000,0.000000,0.000000,0.000000,0.000000,1773749808.801361,0.000000
188.000000,-27723.561552,2347.827238,-15711.421157,4810.318924,5775.489602,8266.300948,2622.060790,-11672.371527,11632.004277,9622.068360,29.191378,-20158.390124,12642.839568,4951.716060,1973.010835,-1261.599512,0.009000,-0.013000,1.005000,192.000000,0.000000,0.000000,0.000000,0.000000,0.000000,0.000000,0.000000,0.000000,0.000000,1773749808.801399,0.000000
190.000000,-27772.042486,2307.571746,-15757.890434,4764.944883,5718.224432,8226.268974,2575.971493,-11719.600763,11607.126785,9612.188889,20.004811,-20170.638880,12578.511247,4948.832685,1977.682349,-1251.876503,0.008500,-0.013500,1.005500,192.000000,0.000000,32.000000,127.500000,72.000000,15.500000,56.000000,0.000000,0.000000,0.000000,1773749808.801436,0.000000
192.000000,-27748.215526,2326.302508,-15729.190794,4788.257752,5748.466343,8252.264053,2604.648781,-11699.975932,11632.428960,9597.302627,-2.972782,-20197.148049,12635.061161,4964.903589,1959.733899,-1253.284663,0.008500,-0.013500,1.005500,192.000000,0.000000,0.000000,0.000000,0.000000,0.000000,0.000000,0.000000,0.000000,0.000000,1773749808.801448,0.000000
194.000000,-27758.027942,2316.110112,-15734.175233,4778.735909,5733.647136,8237.243681,2599.016142,-11707.441414,11605.495108,9610.691322,28.721992,-20165.989717,12600.728881,5005.583764,1983.337341,-1251.273006,0.008500,-0.013500,1.005500,192.000000,0.000000,0.000000,0.000000,0.000000,0.000000,0.000000,0.000000,0.000000,0.000000,1773749808.801458,0.000000
196.000000,-27775.730524,2303.414321,-15763.456018,4759.267540,5699.717188,8207.001770,2577.804336,-11723.937002,11618.727341,9587.356101,-3.866852,-20204.837049,12594.895076,4911.102940,1944.422954,-1252.591759,0.008500,-0.013500,1.005500,192.000000,0.000000,0.000000,0.000000,0.000000,0.000000,0.000000,0.000000,0.000000,0.000000,1773749808.801468,0.000000
198.000000,-27720.029976,2350.509447,-15724.273410,4806.563831,5752.690822,8245.223253,2621.166721,-11675.232551,11624.270573,9613.775863,20.049515,-20167.531987,12761.996718,4954.241807,1961.790259,-1258.962006,0.008500,-0.013500,1.005500,192.000000,0.000000,0.000000,0.000000,0.000000,0.000000,0.000000,0.000000,0.000000,0.000000,1773749808.801479,0.000000
200.000000,-27753.892869,2321.943918,-15746.871024,4766.822430,5707.629705,8207.426454,2580.106566,-11710.458900,11620.738998,9619.073226,25.659803,-20163.933356,12555.176026,4955.359394,1960.136230,-1259.833724,0.010250,-0.012750,1.006750,192.000000,0.000000,48.000000,127.500000,80.000000,15.500000,64.000000,0.000000,0.000000,0.000000,1773749808.801489,0.000000
202.000000,-27717.236008,2352.096421,-15709.364797,4797.489023,5764.827819,8237.511902,2613.164796,-11678.205333,11657.306451,9612.680627,15.959146,-20182.574711,12570.665785,4955.068821,1942.299538,-1268.215629,0.010250,-0.012750,1.006750,192.000000,0.000000,0.000000,0.000000,0.000000,0.000000,0.000000,0.000000,0.000000,0.000000,1773749808.801500,0.000000
204.000000,-27728.009549,2344.094496,-15721.144166,4792.549287,5750.410944,8234.717934,2605.744017,-11684.933208,11631.423131,9630.271450,49.576169,-20143.436807,12632.647173,4973.173734,1975.335416,-1268.886181,0.010250,-0.012750,1.006750,192.000000,0.000000,0.000000,0.000000,0.000000,0.000000,0.000000,0.000000,0.000000,0.000000,1773749808.801510,0.000000
206.000000,-27750.271887,2323.575595,-15746.178120,4771.315130,5727.679220,8223.273840,2584.442804,-11704.446281,11644.364791,9600.320113,16.182663,-20186.620377,12588.278960,4914.589812,1940.421991,-1265.846344,0.010250,-0.012750,1.006750,192.000000,0.000000,0.000000,0.000000,0.000000,0.000000,0.000000,0.000000,0.000000,0.000000,1773749808.801520,0.000000
208.000000,-27714.352633,2350.956482,-15715.578582,4812.531747,5775.176677,8263.886960,2627.469912,-11668.325861,11639.715629,9616.614534,37.819152,-20160.066504,12679.898760,4967.786964,1963.041957,-1261.778326,0.010250,-0.012750,1.006750,192.000000,0.000000,0.000000,0.000000,0.000000,0.000000,0.000000,0.000000,0.000000,0.000000,1773749808.801530,0.000000
210.000000,-27766.678067,2306.454159,-15761.310251,4763.089688,5737.491636,8230.314640,2582.721720,-11714.795138,11615.754559,9602.801156,24.206939,-20171.845874,12746.596366,5021.945241,1963.176067,-1254.469306,0.009125,-0.015375,1.006375,192.000000,0.000000,32.000000,127.500000,56.000000,15.500000,56.000000,0.000000,0.000000,0.000000,1773749808.801540,0.000000
212.000000,-27741.957038,2328.045944,-15722.306457,4796.594953,5764.961930,8259.841294,2609.007372,-11694.499754,11635.804073,9595.648598,3.263355,-20197.438621,12589.374195,4926.995030,1947.842771,-1252.100021,0.009125,-0.015375,1.006375,192.000000,0.000000,0.000000,0.000000,0.000000,0.000000,0.000000,0.000000,0.000000,0.000000,1773749808.801551,0.000000
214.000000,-27751.724750,2321.072199,-15731.045989,4786.849593,5756.960005,8251.884073,2599.194956,-11704.625094,11601.985884,9616.256907,32.499436,-20162.681659,12585.105012,4931.912414,1983.650265,-1249.462515,0.009125,-0.015375,1.006375,192.000000,0.000000,0.000000,0.000000,0.000000,0.000000,0.000000,0.000000,0.000000,0.000000,1773749808.801561,0.000000
216.000000,-27773.294183,2302.207327,-15760.192664,4761.636825,5716.101017,8228.079465,2574.093947,-11726.328638,11617.118015,9586.216162,-5.789102,-20208.234514,12574.197361,4939.288490,1952.201361,-1250.513047,0.009125,-0.015375,1.006375,192.000000,0.000000,0.000000,0.000000,0.000000,0.000000,0.000000,0.000000,0.000000,0.000000,1773749808.801571,0.000000
218.000000,-27727.406052,2338.797133,-15719.959524,4803.725160,5750.232130,8249.514788,2619.132712,-11683.256827,11621.990695,9608.009113,19.401314,-20174.975118,12657.412905,4957.147534,1958.392794,-1256.190390,0.009125,-0.015375,1.006375,192.000000,0.000000,0.000000,0.000000,0.000000,0.000000,0.000000,0.000000,0.000000,0.000000,1773749808.801587,0.000000
220.000000,-27768.130930,2304.733074,-15756.616385,4757.993490,5721.912470,8203.649009,2576.776156,-11722.037103,11605.360997,9597.101462,15.690925,-20182.217083,12642.191367,4971.787926,1960.627968,-1256.369204,0.009563,-0.014688,1.005187,192.000000,0.000000,40.000000,127.500000,72.000000,15.500000,48.000000,0.000000,0.000000,0.000000,1773749808.801597,0.000000
222.000000,-27737.285523,2331.108133,-15723.379341,4791.342293,5757.317633,8225.799587,2607.375694,-11692.398690,11638.195710,9592.117023,1.542270,-20198.578560,12554.617233,4921.429446,1937.270395,-1264.907570,0.009563,-0.014688,1.005187,192.000000,0.000000,0.000000,0.000000,0.000000,0.000000,0.000000,0.000000,0.000000,0.000000,1773749808.801612,0.000000
224.000000,-27738.358407,2331.197540,-15732.297687,4790.425872,5735.345869,8230.180529,2604.067636,-11692.845725,11611.932410,9617.642715,34.019355,-20153.383333,12684.659682,4957.773382,1964.360710,-1265.220495,0.009563,-0.014688,1.005187,192.000000,0.000000,0.000000,0.000000,0.000000,0.000000,0.000000,0.000000,0.000000,0.000000,1773749808.801622,0.000000
226.000000,-27762.967677,2312.623240,-15752.727181,4767.045947,5710.781301,8204.833651,2581.112394,-11715.219821,11627.802149,9593.368720,2.861023,-20192.744755,12577.818343,4922.547033,1933.291785,-1263.857038,0.009563,-0.014688,1.005187,192.000000,0.000000,0.000000,0.000000,0.000000,0.000000,0.000000,0.000000,0.000000,0.000000,1773749808.801632,0.000000
228.000000,-27724.790898,2339.065354,-15712.538745,4806.429721,5755.305976,8244.172721,2620.697334,-11680.686376,11629.970268,9611.451281,26.039782,-20167.554339,12626.142815,4939.847283,1955.196494,-1266.896876,0.009563,-0.014688,1.005187,192.000000,0.000000,0.000000,0.000000,0.000000,0.000000,0.000000,0.000000,0.000000,0.000000,1773749808.801642,0.000000
230.000000,-27772.824797,2299.368656,-15758.560986,4759.401650,5720.437255,8213.729645,2577.022025,-11722.931173,11610.948933,9593.882810,16.629698,-20181.680641,12639.799731,4979.186354,1954.995329,-1259.252579,0.012781,-0.015344,1.005594,192.000000,0.000000,64.000000,127.500000,64.000000,15.500000,56.000000,0.000000,0.000000,0.000000,1773749808.801652,0.000000
232.000000,-27740.750043,2327.710668,-15726.285067,4795.298552,5748.645156,8250.967652,2606.056941,-11694.052719,11630.953745,9587.400804,-3.218651,-20201.618397,12546.682363,4899.480033,1938.231520,-1256.838591,0.012781,-0.015344,1.005594,192.000000,0.000000,0.000000,0.000000,0.000000,0.000000,0.000000,0.000000,0.000000,0.000000,1773749808.801662,0.000000
234.000000,-27747.075587,2325.587252,-15735.985724,4790.314113,5754.233093,8254.163951,2600.178432,-11699.283028,11606.344474,9617.218032,30.800704,-20155.886728,12613.022341,4983.611999,1971.401509,-1251.720041,0.012781,-0.015344,1.005594,192.000000,0.000000,0.000000,0.000000,0.000000,0.000000,0.000000,0.000000,0.000000,0.000000,1773749808.801672,0.000000
236.000000,-27771.215471,2303.570784,-15763.120742,4765.838953,5753.115505,8232.862739,2572.819897,-11729.212013,11615.374579,9588.674854,-8.493663,-20203.183020,12651.355583,4961.908455,1957.252855,-1248.210817,0.012781,-0.015344,1.005594,192.000000,0.000000,0.000000,0.000000,0.000000,0.000000,0.000000,0.000000,0.000000,0.000000,1773749808.801682,0.000000
238.000000,-27733.329264,2338.864188,-15715.712692,4810.587145,5787.358378,8269.519600,2613.812997,-11691.839897,11614.726378,9617.486252,13.634564,-20174.036345,12699.680054,4956.767554,1985.751329,-1249.551922,0.012781,-0.015344,1.005594,192.000000,0.000000,0.000000,0.000000,0.000000,0.000000,0.000000,0.000000,0.000000,0.000000,1773749808.801692,0.000000
