Sample_index,EXG Channel 0,EXG Channel 1,EXG Channel 2,EXG Channel 3,EXG Channel 4,EXG Channel 5,EXG Channel 6,EXG Channel 7,EXG Channel 8,EXG Channel 9,EXG Channel 10,EXG Channel 11,EXG Channel 12,EXG Channel 13,EXG Channel 14,EXG Channel 15,Accel Channel 0,Accel Channel 1,Accel Channel 2,Not Used,Digital Channel 0 (D11),Digital Channel 1 (D12),Digital Channel 2 (D13),Digital Channel 3 (D17),Not Used,Digital Channel 4 (D18),Analog Channel 0,Analog Channel 1,Analog Channel 2,Timestamp,Marker Channel
146.000000,11342.392724,-30048.746472,-1055.203504,-2358.109040,-20312.036015,-10756.084115,-20061.718829,-27355.361266,-450.275892,3233.135132,-12334.653715,1188.352846,-11711.755301,-13995.455384,5901.016998,-28365.011914,0.006875,-0.009625,1.012750,192.000000,0.000000,0.000000,0.000000,0.000000,0.000000,0.000000,0.000000,0.000000,0.000000,1772619415.236679,101.000000
148.000000,11333.563785,-30055.027313,-1061.618455,-2366.222723,-20312.930085,-10761.381478,-20069.966623,-27365.687772,-446.297282,3229.983536,-12338.408809,1191.973828,-11706.815565,-14005.670131,5896.211373,-28376.433656,0.006875,-0.009625,1.012750,192.000000,0.000000,0.000000,0.000000,0.000000,0.000000,0.000000,0.000000,0.000000,0.000000,1772619415.236777,0.000000
150.000000,11339.062314,-30049.506432,-1050.643748,-2358.511371,-20307.990349,-10751.703173,-20062.791713,-27359.563394,-455.617959,3230.251757,-12338.855843,1181.177936,-11726.060417,-14001.959741,5894.132661,-28378.378258,0.006875,-0.009625,1.012750,192.000000,0.000000,0.000000,0.000000,0.000000,0.000000,0.000000,0.000000,0.000000,0.000000,1772619415.236861,0.000000
152.000000,11322.834947,-30065.130301,-1054.622359,-2361.975892,-20305.710471,-10748.640984,-20069.877216,-27374.896690,-456.042642,3229.961184,-12340.286355,1192.934953,-11715.264525,-14008.620561,5894.289123,-28377.148912,0.006875,-0.009625,1.012750,192.000000,0.000000,0.000000,0.000000,0.000000,0.000000,0.000000,0.000000,0.000000,0.000000,1772619415.236945,0.000000
154.000000,11316.442349,-30072.573432,-1057.908065,-2367.206200,-20300.971902,-10759.436877,-20070.838341,-27383.211539,-460.155363,3217.757132,-12358.972413,1177.065215,-11714.951600,-14012.979151,5900.145280,-28381.798074,0.002437,-0.011813,1.011375,192.000000,127.500000,120.000000,127.500000,72.000000,15.500000,72.000000,0.000000,0.000000,0.000000,1772619415.237029,0.000000
156.000000,11318.789282,-30074.920365,-1055.762298,-2372.570619,-20314.070024,-10767.774077,-20070.033678,-27381.333993,-467.956122,3214.158501,-12353.160960,1171.566686,-11712.761129,-14020.087006,5897.396016,-28377.908871,0.002437,-0.011813,1.011375,192.000000,0.000000,0.000000,0.000000,0.000000,0.000000,0.000000,0.000000,0.000000,0.000000,1772619415.237112,0.000000
158.000000,11307.076968,-30087.213825,-1062.780745,-2383.634732,-20326.184669,-10774.971339,-20078.102658,-27388.285385,-461.563523,3206.402446,-12357.988937,1170.538505,-11736.275165,-14035.509710,5892.679798,-28388.771819,0.002437,-0.011813,1.011375,192.000000,0.000000,0.000000,0.000000,0.000000,0.000000,0.000000,0.000000,0.000000,0.000000,1772619415.237172,0.000000
160.000000,11304.215944,-30091.818284,-1064.323016,-2381.556020,-20317.400434,-10776.535961,-20074.526378,-27385.200844,-473.588762,3195.964181,-12358.525379,1161.955436,-11724.518147,-14042.014067,5885.884867,-28387.944804,0.002437,-0.011813,1.011375,192.000000,0.000000,0.000000,0.000000,0.000000,0.000000,0.000000,0.000000,0.000000,0.000000,1772619415.237196,0.000000
162.000000,11298.605656,-30093.472313,-1066.513487,-2382.941828,-20329.604486,-10778.905246,-20077.923844,-27391.749906,-474.773404,3193.326675,-12358.279509,1158.535619,-11737.191586,-14042.997544,5900.413501,-28386.290775,0.002437,-0.011813,1.011375,192.000000,0.000000,0.000000,0.000000,0.000000,0.000000,0.000000,0.000000,0.000000,0.000000,1772619415.237219,0.000000
164.000000,11306.965209,-30084.643374,-1063.898333,-2374.895200,-20314.986445,-10764.197798,-20074.705192,-27387.860702,-471.241828,3197.238230,-12367.041393,1162.693043,-11738.264470,-14034.973268,5902.939248,-28386.581348,-0.000781,-0.009906,1.011688,192.000000,127.500000,112.000000,127.500000,96.000000,15.500000,80.000000,0.000000,0.000000,0.000000,1772619415.237242,0.000000
166.000000,11311.033226,-30074.696848,-1063.272484,-2367.943808,-20311.656035,-10757.179351,-20072.470018,-27383.904443,-467.911418,3215.968992,-12356.916053,1174.137136,-11725.635734,-14012.040378,5904.682685,-28370.644554,-0.000781,-0.009906,1.011688,192.000000,0.000000,0.000000,0.000000,0.000000,0.000000,0.000000,0.000000,0.000000,0.000000,1772619415.237265,0.000000
168.000000,11299.835002,-30081.692944,-1071.721443,-2374.023482,-20322.384873,-10765.337737,-20078.460285,-27391.057001,-471.331235,3218.070056,-12369.522437,1171.969017,-11746.176987,-14015.102567,5894.110309,-28377.171263,-0.000781,-0.009906,1.011688,192.000000,0.000000,0.000000,0.000000,0.000000,0.000000,0.000000,0.000000,0.000000,0.000000,1772619415.237288,0.000000
170.000000,11305.914677,-30078.451941,-1060.925551,-2367.385014,-20315.455832,-10758.766324,-20069.251367,-27380.775199,-476.516840,3213.733818,-12364.649757,1177.624008,-11740.969031,-14017.628314,5896.859574,-28372.835025,-0.000781,-0.009906,1.011688,192.000000,0.000000,0.000000,0.000000,0.000000,0.000000,0.000000,0.000000,0.000000,0.000000,1772619415.237312,0.000000
172.000000,11299.946761,-30081.134150,-1066.692301,-2371.900066,-20317.668655,-10764.153095,-20075.755724,-27383.412705,-477.433262,3219.858196,-12356.290204,1176.774642,-11731.447188,-14010.989846,5892.053949,-28375.316069,-0.000781,-0.009906,1.011688,192.000000,0.000000,0.000000,0.000000,0.000000,0.000000,0.000000,0.000000,0.000000,0.000000,1772619415.237334,0.000000
174.000000,11313.201346,-30072.260508,-1059.629149,-2368.636712,-20311.767794,-10760.330946,-20071.777114,-27376.103684,-475.242791,3218.293574,-12361.676974,1175.701758,-11736.297516,-14023.618582,5888.432966,-28386.558996,-0.000781,-0.009906,1.011688,192.000000,0.000000,0.000000,0.000000,0.000000,0.000000,0.000000,0.000000,0.000000,0.000000,1772619415.237357,0.000000
176.000000,11322.298506,-30066.583165,-1058.265693,-2368.435546,-20311.879553,-10756.285281,-20072.715887,-27370.247527,-465.609189,3223.903862,-12346.723657,1178.339264,-11714.906897,-14009.268762,5894.356179,-28379.406438,0.004000,-0.006000,1.006000,192.000000,0.000000,16.000000,127.500000,104.000000,15.500000,56.000000,0.000000,0.000000,0.000000,1772619415.237380,0.000000
178.000000,11322.633782,-30065.622040,-1064.591237,-2371.005997,-20319.635608,-10762.923749,-20074.772248,-27371.856853,-459.037776,3221.534577,-12352.468056,1186.140023,-11719.690170,-14019.662323,5891.226934,-28387.117790,0.004000,-0.006000,1.006000,192.000000,0.000000,0.000000,0.000000,0.000000,0.000000,0.000000,0.000000,0.000000,0.000000,1772619415.237403,0.000000
180.000000,11320.711532,-30067.968973,-1059.092708,-2371.341273,-20315.411128,-10765.851827,-20071.263024,-27373.197958,-472.158250,3216.483082,-12354.725582,1176.618180,-11737.616269,-14021.249297,5893.931495,-28385.575519,0.004000,-0.006000,1.006000,192.000000,0.000000,0.000000,0.000000,0.000000,0.000000,0.000000,0.000000,0.000000,0.000000,1772619415.237426,0.000000
182.000000,11307.434596,-30075.255641,-1065.373548,-2376.593933,-20322.384873,-10771.439763,-20077.119181,-27380.752847,-473.253485,3217.131283,-12353.384477,1179.658017,-11737.951545,-14020.779910,5900.681722,-28380.121694,0.004000,-0.006000,1.006000,192.000000,0.000000,0.000000,0.000000,0.000000,0.000000,0.000000,0.000000,0.000000,0.000000,1772619415.237449,0.000000
184.000000,11301.332569,-30081.648240,-1066.021748,-2383.545325,-20320.753195,-10772.490295,-20077.633271,-27387.793647,-487.178622,3203.854347,-12371.020004,1166.336377,-11749.842674,-14037.454312,5897.016036,-28388.123618,0.004000,-0.006000,1.006000,192.000000,0.000000,0.000000,0.000000,0.000000,0.000000,0.000000,0.000000,0.000000,0.000000,1772619415.237472,0.000000
186.000000,11303.120709,-30082.475255,-1061.707862,-2380.147860,-20310.002006,-10767.863484,-20074.414620,-27386.676060,-477.947352,3211.252774,-12356.759591,1161.597808,-11736.521034,-14022.858622,5906.649638,-28373.505577,0.010000,-0.010000,1.008000,192.000000,0.000000,40.000000,127.500000,88.000000,15.500000,64.000000,0.000000,0.000000,0.000000,1772619415.237495,0.000000
188.000000,11297.041034,-30088.063191,-1068.726309,-2383.679436,-20315.053501,-10764.600130,-20082.930634,-27394.588577,-475.309846,3200.143957,-12365.096791,1168.482145,-11738.018601,-14035.599117,5907.320190,-28379.339383,0.010000,-0.010000,1.008000,192.000000,0.000000,0.000000,0.000000,0.000000,0.000000,0.000000,0.000000,0.000000,0.000000,1772619415.237518,0.000000
190.000000,11311.100282,-30074.629793,-1056.924588,-2367.340310,-20305.486954,-10748.819798,-20069.966623,-27381.758676,-473.700520,3208.659972,-12359.553559,1168.705662,-11715.800967,-14023.752692,5909.220089,-28369.236394,0.010000,-0.010000,1.008000,192.000000,0.000000,0.000000,0.000000,0.000000,0.000000,0.000000,0.000000,0.000000,0.000000,1772619415.237541,0.000000
192.000000,11304.797090,-30078.273127,-1063.406594,-2370.514258,-20313.846506,-10751.099676,-20075.286338,-27387.883054,-469.565448,3223.501530,-12350.814027,1180.172107,-11718.192603,-14011.079253,5909.801234,-28359.669847,0.010000,-0.010000,1.008000,192.000000,0.000000,0.000000,0.000000,0.000000,0.000000,0.000000,0.000000,0.000000,0.000000,1772619415.237564,0.000000
194.000000,11309.133328,-30073.892185,-1062.289007,-2365.865095,-20309.979655,-10752.306670,-20069.653698,-27382.116304,-477.232096,3219.299402,-12363.509818,1175.724110,-11728.675572,-14018.835308,5900.301743,-28375.338420,0.010000,-0.010000,1.008000,192.000000,0.000000,0.000000,0.000000,0.000000,0.000000,0.000000,0.000000,0.000000,0.000000,1772619415.237586,0.000000
196.000000,11320.152738,-30061.710484,-1058.578617,-2360.679491,-20307.766832,-10747.210472,-20066.122123,-27373.533234,-476.986227,3229.156521,-12346.187216,1184.240125,-11733.816473,-14004.485488,5898.603010,-28371.426865,0.008000,-0.010000,1.010000,192.000000,0.000000,32.000000,127.500000,88.000000,15.500000,72.000000,0.000000,0.000000,0.000000,1772619415.237609,0.000000
198.000000,11321.404436,-30060.749359,-1059.562094,-2363.272293,-20308.236218,-10749.982089,-20069.988974,-27375.120208,-462.971683,3233.828036,-12345.941346,1190.945648,-11723.020580,-14005.580724,5898.871231,-28379.317031,0.008000,-0.010000,1.010000,192.000000,0.000000,0.000000,0.000000,0.000000,0.000000,0.000000,0.000000,0.000000,0.000000,1772619415.237632,0.000000
200.000000,11321.583250,-30061.822243,-1051.694280,-2358.466668,-20303.028262,-10746.539920,-20062.143512,-27370.426341,-465.050395,3234.140960,-12341.493349,1188.106977,-11723.177042,-13997.310579,5900.771129,-28375.360772,0.008000,-0.010000,1.010000,192.000000,0.000000,0.000000,0.000000,0.000000,0.000000,0.000000,0.000000,0.000000,0.000000,1772619415.237654,0.000000
202.000000,11313.938953,-30069.220670,-1058.265693,-2367.787345,-20312.527753,-10760.174484,-20069.363125,-27375.343725,-473.074671,3228.441266,-12346.835416,1179.613314,-11731.268374,-14005.848945,5900.011170,-28376.567766,0.008000,-0.010000,1.010000,192.000000,0.000000,0.000000,0.000000,0.000000,0.000000,0.000000,0.000000,0.000000,0.000000,1772619415.237677,0.000000
204.000000,11316.397645,-30068.684229,-1059.048004,-2368.748470,-20313.757099,-10759.861560,-20069.273719,-27377.131865,-466.056224,3219.142940,-12354.435009,1188.397549,-11736.453979,-14024.087968,5900.771129,-28384.010897,0.008000,-0.010000,1.010000,192.000000,0.000000,0.000000,0.000000,0.000000,0.000000,0.000000,0.000000,0.000000,0.000000,1772619415.237699,0.000000
206.000000,11308.507479,-30079.681287,-1061.417289,-2374.895200,-20315.321721,-10762.856694,-20072.782942,-27390.632318,-474.348721,3217.690077,-12353.853864,1172.974846,-11731.782464,-14017.695369,5910.963525,-28373.796150,-0.004000,-0.008000,1.008000,192.000000,127.500000,112.000000,127.500000,96.000000,15.500000,64.000000,0.000000,0.000000,0.000000,1772619415.237722,0.000000
208.000000,11289.284979,-30102.033031,-1074.202487,-2389.334427,-20331.437329,-10781.922732,-20084.137629,-27406.658519,-479.936657,3192.946695,-12370.640024,1158.468563,-11744.455903,-14041.075294,5903.542746,-28384.904967,-0.004000,-0.008000,1.008000,192.000000,0.000000,0.000000,0.000000,0.000000,0.000000,0.000000,0.000000,0.000000,0.000000,1772619415.237744,0.000000
210.000000,11298.873877,-30095.953357,-1067.720481,-2383.344160,-20319.076815,-10776.312444,-20075.643966,-27397.382545,-488.564430,3178.775689,-12368.851884,1147.918540,-11746.802836,-14046.506768,5902.425158,-28384.077952,-0.004000,-0.008000,1.008000,192.000000,0.000000,0.000000,0.000000,0.000000,0.000000,0.000000,0.000000,0.000000,0.000000,1772619415.237767,0.000000
212.000000,11302.204287,-30090.968918,-1070.805022,-2382.517145,-20323.815384,-10769.964548,-20078.795562,-27393.806266,-481.478927,3187.895201,-12360.715849,1153.908808,-11742.064266,-14039.421265,5905.286182,-28379.205272,-0.004000,-0.008000,1.008000,192.000000,0.000000,0.000000,0.000000,0.000000,0.000000,0.000000,0.000000,0.000000,0.000000,1772619415.237790,0.000000
214.000000,11315.570630,-30073.512205,-1064.367719,-2370.424851,-20310.963131,-10755.637080,-20069.832512,-27378.316507,-478.863773,3193.326675,-12364.225073,1164.548238,-11742.824226,-14031.844024,5899.385321,-28380.836949,-0.004000,-0.008000,1.008000,192.000000,0.000000,0.000000,0.000000,0.000000,0.000000,0.000000,0.000000,0.000000,0.000000,1772619415.237813,0.000000
216.000000,11322.186747,-30063.789196,-1059.584446,-2367.653235,-20310.605503,-10754.072458,-20066.837378,-27373.533234,-477.232096,3213.420893,-12347.863596,1176.081738,-11728.586165,-14007.681788,5901.821661,-28364.967211,-0.010000,-0.008000,1.012000,192.000000,127.500000,88.000000,127.500000,96.000000,15.500000,80.000000,0.000000,0.000000,0.000000,1772619415.237836,0.000000
218.000000,11322.410264,-30061.218746,-1061.573751,-2371.654197,-20313.399471,-10753.558368,-20071.397134,-27374.717876,-466.123279,3211.364533,-12354.569120,1177.579305,-11729.591993,-14021.875146,5898.513603,-28376.679525,-0.010000,-0.008000,1.012000,192.000000,0.000000,0.000000,0.000000,0.000000,0.000000,0.000000,0.000000,0.000000,0.000000,1772619415.237859,0.000000
220.000000,11342.057448,-30043.270295,-1051.940149,-2358.958406,-20298.244989,-10745.802313,-20061.607070,-27361.038609,-460.356529,3228.910652,-12341.649811,1179.769776,-11718.550231,-14006.899477,5895.831394,-28373.639688,-0.010000,-0.008000,1.012000,192.000000,0.000000,0.000000,0.000000,0.000000,0.000000,0.000000,0.000000,0.000000,0.000000,1772619415.237882,0.000000
222.000000,11327.059427,-30060.101159,-1058.936245,-2366.893276,-20306.090451,-10752.999574,-20068.558463,-27370.851024,-459.775383,3219.992306,-12334.877233,1186.229430,-11723.937002,-14010.542811,5900.681722,-28372.298583,-0.010000,-0.008000,1.012000,192.000000,0.000000,0.000000,0.000000,0.000000,0.000000,0.000000,0.000000,0.000000,0.000000,1772619415.237906,0.000000
224.000000,11334.122578,-30059.028275,-1058.220989,-2369.106098,-20302.491820,-10753.647775,-20068.133780,-27371.566280,-462.077613,3204.681361,-12347.237748,1176.461718,-11733.972935,-14027.105454,5890.712844,-28382.848606,-0.010000,-0.008000,1.012000,192.000000,0.000000,0.000000,0.000000,0.000000,0.000000,0.000000,0.000000,0.000000,0.000000,1772619415.237928,0.000000
226.000000,11327.998200,-30067.879566,-1058.757431,-2373.397633,-20308.929123,-10758.811028,-20068.044373,-27375.008449,-463.932808,3199.093425,-12340.174596,1170.918485,-11727.110949,-14025.496128,5901.709902,-28372.387990,0.004000,-0.004000,1.006000,192.000000,0.000000,16.000000,127.500000,112.000000,15.500000,56.000000,0.000000,0.000000,0.000000,1772619415.237951,0.000000
228.000000,11317.269363,-30083.078752,-1068.748661,-2387.322770,-20323.860088,-10774.971339,-20078.773210,-27388.687717,-463.999863,3181.077919,-12357.072515,1164.302369,-11740.164368,-14050.373620,5895.898449,-28385.016726,0.004000,-0.004000,1.006000,192.000000,0.000000,0.000000,0.000000,0.000000,0.000000,0.000000,0.000000,0.000000,0.000000,1772619415.237974,0.000000
230.000000,11310.094453,-30094.768714,-1069.776841,-2393.268334,-20325.223544,-10780.939255,-20079.309652,-27395.639109,-473.052320,3158.010919,-12362.794562,1145.258682,-11744.791179,-14062.085934,5894.646751,-28386.894272,0.004000,-0.004000,1.006000,192.000000,0.000000,0.000000,0.000000,0.000000,0.000000,0.000000,0.000000,0.000000,0.000000,1772619415.237997,0.000000
232.000000,11318.029322,-30089.918386,-1070.313283,-2395.436453,-20317.758062,-10780.067537,-20084.159980,-27400.310624,-466.547962,3154.568750,-12358.815951,1140.073078,-11737.929194,-14065.706917,5899.631190,-28384.033249,0.004000,-0.004000,1.006000,192.000000,0.000000,0.000000,0.000000,0.000000,0.000000,0.000000,0.000000,0.000000,0.000000,1772619415.238020,0.000000
234.000000,11310.586191,-30101.071906,-1073.286065,-2396.732854,-20321.088472,-10780.715737,-20084.517608,-27403.886903,-457.137878,3150.500733,-12365.476771,1133.680479,-11740.566700,-14074.379393,5901.553440,-28389.241205,0.004000,-0.004000,1.006000,192.000000,0.000000,0.000000,0.000000,0.000000,0.000000,0.000000,0.000000,0.000000,0.000000,1772619415.238043,0.000000
236.000000,11323.371389,-30086.275051,-1062.646635,-2381.444261,-20314.561762,-10768.422278,-20070.793637,-27386.117266,-461.407061,3151.528913,-12356.871349,1133.389906,-11737.236290,-14062.823542,5902.581621,-28378.199444,0.012000,-0.010000,1.008000,192.000000,0.000000,48.000000,127.500000,88.000000,15.500000,64.000000,0.000000,0.000000,0.000000,1772619415.238066,0.000000
238.000000,11324.041942,-30085.604499,-1063.741870,-2380.661950,-20320.507326,-10770.769211,-20070.458361,-27383.859740,-453.561598,3159.329672,-12353.473884,1153.081793,-11735.157577,-14060.700126,5898.446548,-28377.707705,0.012000,-0.010000,1.008000,192.000000,0.000000,0.000000,0.000000,0.000000,0.000000,0.000000,0.000000,0.000000,0.000000,1772619415.238088,0.000000
240.000000,11343.934994,-30070.718237,-1053.080088,-2373.352930,-20305.397547,-10766.768249,-20061.607070,-27377.869472,-448.130125,3163.464745,-12345.404905,1154.109973,-11728.116778,-14053.100533,5897.418368,-28375.807807,0.012000,-0.010000,1.008000,192.000000,0.000000,0.000000,0.000000,0.000000,0.000000,0.000000,0.000000,0.000000,0.000000,1772619415.238111,0.000000
242.000000,11346.326631,-30067.119606,-1049.861437,-2369.106098,-20299.451983,-10756.419391,-20061.763532,-27376.595423,-439.703517,3180.943809,-12338.587622,1155.696947,-11717.678513,-14043.668097,5900.368798,-28378.132388,0.012000,-0.010000,1.008000,192.000000,0.000000,0.000000,0.000000,0.000000,0.000000,0.000000,0.000000,0.000000,0.000000,1772619415.238133,0.000000
244.000000,11348.114770,-30066.829034,-1050.196713,-2367.630883,-20300.323701,-10751.837284,-20062.612899,-27375.500187,-433.065049,3179.334483,-12339.548747,1169.800898,-11716.091539,-14043.109303,5905.062664,-28380.479322,0.012000,-0.010000,1.008000,192.000000,0.000000,0.000000,0.000000,0.000000,0.000000,0.000000,0.000000,0.000000,0.000000,1772619415.238156,0.000000
246.000000,11354.507369,-30060.235269,-1047.290986,-2361.864133,-20298.312044,-10749.937385,-20058.902509,-27368.638202,-434.964947,3185.682378,-12329.803387,1163.721223,-11708.089615,-14031.709913,5908.102501,-28370.957478,0.010000,-0.007000,1.008000,192.000000,0.000000,32.000000,127.500000,112.000000,15.500000,64.000000,0.000000,0.000000,0.000000,1772619415.238179,0.000000
248.000000,11341.319840,-30076.283822,-1050.397879,-2368.301436,-20304.637588,-10757.246406,-20063.551672,-27376.774237,-432.483903,3181.636713,-12336.240689,1163.765927,-11712.224688,-14041.298812,5908.415426,-28374.958441,0.010000,-0.007000,1.008000,192.000000,0.000000,0.000000,0.000000,0.000000,0.000000,0.000000,0.000000,0.000000,0.000000,1772619415.238202,0.000000
250.000000,11341.677468,-30083.883415,-1049.392050,-2376.325712,-20302.156544,-10763.951929,-20066.189178,-27386.206673,-439.658813,3159.240265,-12342.432123,1147.851485,-11722.439435,-14052.809960,5914.763321,-28374.623164,0.010000,-0.007000,1.008000,192.000000,0.000000,0.000000,0.000000,0.000000,0.000000,0.000000,0.000000,0.000000,0.000000,1772619415.238225,0.000000
252.000000,11329.451064,-30095.752191,-1055.896408,-2387.568639,-20309.219695,-10774.703118,-20072.671184,-27397.918987,-434.897892,3153.629977,-12344.264966,1140.251892,-11718.326714,-14059.604890,5920.373609,-28376.143083,0.010000,-0.007000,1.008000,192.000000,0.000000,0.000000,0.000000,0.000000,0.000000,0.000000,0.000000,0.000000,0.000000,1772619415.238248,0.000000
254.000000,11321.985581,-30106.525732,-1062.937208,-2395.548212,-20319.032111,-10782.816801,-20077.409753,-27406.546760,-445.179694,3133.602814,-12364.493294,1125.835016,-11734.241156,-14081.308434,5906.582583,-28389.822351,0.010000,-0.007000,1.008000,192.000000,0.000000,0.000000,0.000000,0.000000,0.000000,0.000000,0.000000,0.000000,0.000000,1772619415.238271,0.000000
0.000000,11321.225622,-30105.519903,-1065.597065,-2396.978724,-20320.619085,-10780.492220,-20077.722678,-27405.920912,-457.026119,3126.539663,-12366.013213,1115.195586,-11735.381095,-14077.240417,5913.958658,-28378.266499,0.010000,-0.007000,1.008000,192.000000,0.000000,0.000000,127.500000,80.000000,15.500000,64.000000,0.000000,0.000000,0.000000,1772619415.238294,0.000000
2.000000,11331.060389,-30095.081639,-1070.559152,-2392.374264,-20324.709454,-10776.088926,-20080.695460,-27399.125981,-449.270064,3128.394857,-12369.544789,1121.051743,-11739.963202,-14085.711728,5904.526222,-28383.630918,0.010000,-0.007000,1.008000,192.000000,0.000000,0.000000,0.000000,0.000000,0.000000,0.000000,0.000000,0.000000,0.000000,1772619415.238317,0.000000
4.000000,11348.137122,-30077.759037,-1060.657330,-2376.236305,-20320.797899,-10764.845999,-20066.367992,-27381.579862,-445.157343,3145.605701,-12356.469018,1128.204301,-11735.358743,-14066.533931,5899.787652,-28374.310240,0.010000,-0.007000,1.008000,192.000000,0.000000,0.000000,0.000000,0.000000,0.000000,0.000000,0.000000,0.000000,0.000000,1772619415.238334,0.000000
6.000000,11354.864997,-30066.069074,-1056.522257,-2368.793174,-20318.473317,-10762.141438,-20062.858768,-27372.929737,-442.273968,3156.803925,-12341.538053,1154.557008,-11717.745568,-14057.772047,5901.262868,-28368.252917,0.010000,-0.007000,1.008000,192.000000,0.000000,0.000000,0.000000,0.000000,0.000000,0.000000,0.000000,0.000000,0.000000,1772619415.238345,0.000000
8.000000,11365.660890,-30057.284839,-1051.269597,-2366.513296,-20311.588980,-10756.620557,-20059.170730,-27366.067751,-427.633575,3163.174172,-12339.347582,1154.892284,-11726.708618,-14056.565053,5892.545687,-28380.591080,0.010000,-0.007000,1.008000,192.000000,0.000000,0.000000,0.000000,0.000000,0.000000,0.000000,0.000000,0.000000,0.000000,1772619415.238364,0.000000
10.000000,11365.124448,-30058.692999,-1048.900312,-2366.155668,-20302.737689,-10756.285281,-20058.813102,-27364.480777,-429.265252,3174.215934,-12327.367047,1155.004043,-11708.581353,-14038.281326,5907.610763,-28368.744656,0.010000,-0.007000,1.008000,192.000000,0.000000,0.000000,127.500000,80.000000,15.500000,64.000000,0.000000,0.000000,0.000000,1772619415.716413,0.000000
12.000000,11362.889274,-30059.676475,-1051.291949,-2368.077918,-20303.095317,-10758.967490,-20063.194044,-27368.414684,-426.001898,3170.907875,-12335.883061,1155.115802,-11712.515260,-14052.474684,5904.101539,-28378.780589,0.010000,-0.007000,1.008000,192.000000,0.000000,0.000000,0.000000,0.000000,0.000000,0.000000,0.000000,0.000000,0.000000,1772619415.716470,0.000000
14.000000,11368.164285,-30059.296496,-1044.742888,-2367.273255,-20301.888323,-10758.699269,-20060.377724,-27369.867548,-424.347868,3172.561904,-12330.809215,1152.165371,-11710.995342,-14048.049038,5908.862461,-28376.076028,0.010000,-0.007000,1.008000,192.000000,0.000000,0.000000,0.000000,0.000000,0.000000,0.000000,0.000000,0.000000,0.000000,1772619415.716512,0.000000
16.000000,11361.995204,-30066.493758,-1049.660271,-2374.202296,-20306.872762,-10768.779906,-20067.083248,-27374.606118,-421.844473,3166.214009,-12329.199890,1148.767906,-11707.933153,-14050.843006,5922.340563,-28375.941917,0.010000,-0.007000,1.008000,192.000000,0.000000,0.000000,0.000000,0.000000,0.000000,0.000000,0.000000,0.000000,0.000000,1772619415.716553,0.000000
18.000000,11359.067125,-30070.762941,-1051.113135,-2377.264485,-20302.357710,-10765.427144,-20067.597338,-27381.266937,-419.206967,3161.140163,-12340.599279,1149.058479,-11714.750435,-14063.985832,5918.943097,-28382.312165,0.010000,-0.007000,1.008000,192.000000,0.000000,0.000000,0.000000,0.000000,0.000000,0.000000,0.000000,0.000000,0.000000,1772619415.716603,0.000000
20.000000,11351.512236,-30077.781388,-1054.309434,-2379.164383,-20300.636625,-10771.015080,-20069.854864,-27390.855836,-430.092267,3162.950654,-12339.302878,1135.781543,-11708.894278,-14056.900329,5930.387191,-28365.660115,0.006000,-0.008500,1.013000,192.000000,0.000000,8.000000,127.500000,88.000000,15.500000,104.000000,0.000000,0.000000,0.000000,1772619415.716645,0.000000
22.000000,11329.473416,-30096.020412,-1067.809888,-2396.509337,-20312.863030,-10783.912037,-20083.310614,-27408.580769,-430.069915,3142.118829,-12358.167751,1126.572624,-11728.094426,-14079.386184,5918.808987,-28377.327726,0.006000,-0.008500,1.013000,192.000000,0.000000,0.000000,0.000000,0.000000,0.000000,0.000000,0.000000,0.000000,0.000000,1772619415.716674,0.000000
24.000000,11334.144930,-30092.779409,-1064.144202,-2389.602648,-20313.846506,-10780.201647,-20077.186236,-27404.244531,-439.278834,3137.469666,-12363.219245,1113.116874,-11728.474406,-14076.122829,5918.250193,-28375.047848,0.006000,-0.008500,1.013000,192.000000,0.000000,0.000000,0.000000,0.000000,0.000000,0.000000,0.000000,0.000000,0.000000,1772619415.716686,0.000000
26.000000,11352.808637,-30074.249813,-1062.668987,-2383.522973,-20315.277018,-10777.295921,-20075.643966,-27391.012298,-429.377011,3148.422020,-12354.502065,1122.012868,-11721.701827,-14074.044117,5910.024751,-28373.729095,0.006000,-0.008500,1.013000,192.000000,0.000000,0.000000,0.000000,0.000000,0.000000,0.000000,0.000000,0.000000,0.000000,1772619415.716698,0.000000
28.000000,11369.013651,-30061.755188,-1052.655405,-2372.101232,-20313.310064,-10770.255121,-20065.764495,-27376.304850,-401.102054,3164.939960,-12341.381591,1144.677537,-11708.469595,-14061.236568,5895.451414,-28376.143083,0.006000,-0.008500,1.013000,192.000000,0.000000,0.000000,0.000000,0.000000,0.000000,0.000000,0.000000,0.000000,0.000000,1772619415.716710,0.000000
30.000000,11375.205085,-30055.630810,-1042.597120,-2363.428755,-20301.977730,-10762.655528,-20055.952079,-27367.118283,-403.672505,3170.930227,-12327.702323,1148.767906,-11695.058548,-14045.143312,5900.994647,-28368.767007,0.007000,-0.013250,1.013500,192.000000,0.000000,32.000000,127.500000,56.000000,15.500000,88.000000,0.000000,0.000000,0.000000,1772619415.716722,0.000000
32.000000,11359.000070,-30066.672572,-1050.733155,-2369.642540,-20311.231352,-10769.606920,-20064.669259,-27377.645955,-408.411075,3168.493887,-12335.659544,1152.522999,-11704.915667,-14054.553396,5901.665199,-28379.227624,0.007000,-0.013250,1.013500,192.000000,0.000000,0.000000,0.000000,0.000000,0.000000,0.000000,0.000000,0.000000,0.000000,1772619415.716734,0.000000
34.000000,11372.031137,-30052.479214,-1039.512579,-2360.813601,-20298.669672,-10762.208493,-20054.722733,-27365.106626,-424.437275,3174.327692,-12334.474901,1147.583264,-11702.345217,-14054.866320,5910.136510,-28374.891385,0.007000,-0.013250,1.013500,192.000000,0.000000,0.000000,0.000000,0.000000,0.000000,0.000000,0.000000,0.000000,0.000000,1772619415.716745,0.000000
36.000000,11362.352832,-30060.235269,-1044.295853,-2369.106098,-20308.102108,-10773.831400,-20062.702306,-27371.588632,-419.408133,3164.604683,-12330.250422,1158.423860,-11711.352970,-14055.760390,5918.831339,-28376.366601,0.007000,-0.013250,1.013500,192.000000,0.000000,0.000000,0.000000,0.000000,0.000000,0.000000,0.000000,0.000000,0.000000,1772619415.716757,0.000000
38.000000,11362.889274,-30059.631772,-1042.261844,-2365.596874,-20300.994253,-10769.696327,-20057.986088,-27369.487568,-417.508235,3167.264541,-12335.905413,1156.367499,-11717.142071,-14061.102457,5918.965449,-28379.428790,0.007000,-0.013250,1.013500,192.000000,0.000000,0.000000,0.000000,0.000000,0.000000,0.000000,0.000000,0.000000,0.000000,1772619415.716769,0.000000
40.000000,11349.254709,-30071.835824,-1048.520332,-2371.251866,-20308.012701,-10776.066575,-20062.568195,-27381.490455,-430.494598,3168.471535,-12333.133797,1146.957415,-11717.343237,-14054.754562,5925.782731,-28370.286926,0.002500,-0.013625,1.009750,192.000000,127.500000,120.000000,127.500000,72.000000,15.500000,56.000000,0.000000,0.000000,0.000000,1772619415.716780,0.000000
42.000000,11335.866014,-30086.096237,-1058.511562,-2383.053587,-20322.116652,-10789.052938,-20073.431143,-27395.884978,-439.837627,3149.226683,-12355.597300,1135.043935,-11732.363609,-14071.473667,5917.736103,-28386.290775,0.002500,-0.013625,1.009750,192.000000,0.000000,0.000000,0.000000,0.000000,0.000000,0.000000,0.000000,0.000000,0.000000,1772619415.716792,0.000000
44.000000,11343.487959,-30080.977688,-1054.108269,-2379.298494,-20313.600637,-10786.013101,-20067.530282,-27388.710068,-443.212741,3145.628052,-12356.200797,1127.891377,-11731.022505,-14071.808943,5921.982935,-28381.753371,0.002500,-0.013625,1.009750,192.000000,0.000000,0.000000,0.000000,0.000000,0.000000,0.000000,0.000000,0.000000,0.000000,1772619415.716804,0.000000
46.000000,11337.944727,-30085.403333,-1061.752565,-2388.127433,-20317.556896,-10790.952836,-20076.158056,-27393.962728,-441.715174,3146.186846,-12351.484579,1130.573586,-11727.669743,-14075.541684,5919.412484,-28375.539586,0.002500,-0.013625,1.009750,192.000000,0.000000,0.000000,0.000000,0.000000,0.000000,0.000000,0.000000,0.000000,0.000000,1772619415.716815,0.000000
48.000000,11348.941785,-30075.970897,-1056.544609,-2383.075939,-20313.578285,-10784.873162,-20074.191102,-27386.385487,-436.842494,3143.661099,-12356.759591,1132.495836,-11728.966144,-14080.503771,5913.645734,-28384.972022,0.002500,-0.013625,1.009750,192.000000,0.000000,0.000000,0.000000,0.000000,0.000000,0.000000,0.000000,0.000000,0.000000,1772619415.716826,0.000000
50.000000,11358.620090,-30068.572470,-1050.800210,-2373.487040,-20304.749346,-10777.184162,-20068.871387,-27376.081333,-433.109752,3153.965253,-12337.291221,1135.848598,-11710.436548,-14065.192826,5921.737066,-28372.052714,-0.001750,-0.011813,1.010875,192.000000,127.500000,104.000000,127.500000,88.000000,15.500000,80.000000,0.000000,0.000000,0.000000,1772619415.716840,0.000000
52.000000,11366.800829,-30060.995228,-1047.916835,-2366.021558,-20303.899980,-10771.730336,-20065.205701,-27366.492434,-411.920299,3161.117811,-12335.190157,1139.670746,-11703.663969,-14063.717611,5913.869251,-28376.880691,-0.001750,-0.011813,1.010875,192.000000,0.000000,0.000000,0.000000,0.000000,0.000000,0.000000,0.000000,0.000000,0.000000,1772619415.716851,0.000000
54.000000,11385.777460,-30042.219763,-1032.292966,-2353.504581,-20287.337337,-10758.811028,-20049.268907,-27344.274800,-407.762874,3164.604683,-12321.622648,1157.663901,-11697.628998,-14056.341536,5912.438740,-28373.349115,-0.001750,-0.011813,1.010875,192.000000,0.000000,0.000000,0.000000,0.000000,0.000000,0.000000,0.000000,0.000000,0.000000,1772619415.716863,0.000000
56.000000,11383.251713,-30040.856307,-1035.936300,-2359.070165,-20290.958320,-10760.554464,-20055.259175,-27351.069731,-400.230336,3177.613399,-12309.910334,1167.565723,-11686.743699,-14039.376562,5920.395961,-28369.437560,-0.001750,-0.011813,1.010875,192.000000,0.000000,0.000000,0.000000,0.000000,0.000000,0.000000,0.000000,0.000000,0.000000,1772619415.716874,0.000000
58.000000,11381.195352,-30041.705673,-1037.724440,-2358.734889,-20288.969015,-10756.374688,-20056.644983,-27355.853004,-397.682237,3174.439451,-12319.163957,1163.475354,-11695.147955,-14048.697239,5913.913955,-28378.937051,-0.001750,-0.011813,1.010875,192.000000,0.000000,0.000000,0.000000,0.000000,0.000000,0.000000,0.000000,0.000000,0.000000,1772619415.716885,0.000000
60.000000,11374.445125,-30046.533650,-1034.148161,-2356.991453,-20285.258625,-10757.045240,-20052.174634,-27358.490510,-407.382894,3179.893277,-12312.659599,1162.111898,-11695.684397,-14038.616602,5922.988763,-28367.805882,-0.001750,-0.011813,1.010875,192.000000,0.000000,0.000000,0.000000,0.000000,0.000000,0.000000,0.000000,0.000000,0.000000,1772619415.716897,0.000000
62.000000,11358.195407,-30058.044798,-1044.742888,-2364.971026,-20296.970939,-10762.476714,-20060.936518,-27370.962783,-415.451874,3170.103213,-12331.949154,1155.719299,-11708.402539,-14049.837178,5920.284202,-28378.557072,-0.001750,-0.011813,1.010875,192.000000,0.000000,0.000000,0.000000,0.000000,15.500000,56.000000,0.000000,0.000000,0.000000,1772619415.716908,0.000000
64.000000,11358.865960,-30058.871813,-1043.155914,-2363.607569,-20292.545294,-10763.750763,-20058.723695,-27370.649859,-425.554863,3168.873867,-12333.759646,1150.287825,-11709.788347,-14047.423190,5924.843958,-28370.778664,-0.001750,-0.011813,1.010875,192.000000,0.000000,0.000000,0.000000,0.000000,0.000000,0.000000,0.000000,0.000000,0.000000,1772619415.716919,0.000000
66.000000,11342.213910,-30072.394618,-1053.035385,-2374.314055,-20304.369367,-10773.362014,-20069.787809,-27387.950109,-430.248729,3160.491962,-12337.425332,1142.308252,-11711.375321,-14055.648632,5930.454246,-28369.281098,-0.001750,-0.011813,1.010875,192.000000,0.000000,0.000000,0.000000,0.000000,0.000000,0.000000,0.000000,0.000000,0.000000,1772619415.716931,0.000000
68.000000,11332.312087,-30083.481083,-1064.032443,-2378.806755,-20312.572457,-10784.582589,-20075.465152,-27397.449600,-434.629671,3148.399669,-12353.116256,1131.937043,-11725.099292,-14072.010108,5919.613650,-28377.573595,-0.001750,-0.011813,1.010875,192.000000,0.000000,0.000000,0.000000,0.000000,0.000000,0.000000,0.000000,0.000000,0.000000,1772619415.716942,0.000000
70.000000,11331.149796,-30086.431514,-1067.653426,-2379.924343,-20319.725015,-10787.465964,-20074.526378,-27398.164856,-448.085421,3145.940977,-12349.942309,1123.152807,-11730.441359,-14077.218065,5920.060685,-28369.951650,-0.001750,-0.011813,1.010875,192.000000,0.000000,0.000000,0.000000,0.000000,0.000000,0.000000,0.000000,0.000000,0.000000,1772619415.716954,0.000000
72.000000,11333.921413,-30084.509264,-1071.944961,-2377.644465,-20324.977675,-10788.695310,-20076.001594,-27398.164856,-441.402250,3148.198503,-12358.570082,1124.225691,-11737.616269,-14072.792420,5910.047103,-28376.813635,-0.001750,-0.011813,1.010875,192.000000,0.000000,0.000000,127.500000,96.000000,15.500000,72.000000,0.000000,0.000000,0.000000,1772619415.716966,0.000000
74.000000,11354.015631,-30066.471406,-1055.047042,-2362.087651,-20310.516096,-10778.793487,-20059.684820,-27375.880167,-433.400325,3154.993433,-12347.260099,1139.156656,-11728.519109,-14067.539760,5901.218164,-28374.287888,-0.001750,-0.011813,1.010875,192.000000,0.000000,0.000000,0.000000,0.000000,0.000000,0.000000,0.000000,0.000000,0.000000,1772619415.716977,0.000000
76.000000,11364.409192,-30057.642467,-1048.945016,-2360.143049,-20308.549143,-10776.580665,-20059.371896,-27364.212556,-415.831854,3168.270370,-12326.048294,1150.734860,-11713.588144,-14053.905195,5904.772091,-28376.478359,-0.001750,-0.011813,1.010875,192.000000,0.000000,0.000000,0.000000,0.000000,0.000000,0.000000,0.000000,0.000000,0.000000,1772619415.716989,0.000000
78.000000,11384.503410,-30039.783423,-1034.572844,-2351.291758,-20289.103125,-10760.867388,-20049.313611,-27344.431263,-398.889232,3175.713500,-12318.560459,1160.815497,-11704.312170,-14050.150102,5903.453339,-28387.497769,-0.001750,-0.011813,1.010875,192.000000,0.000000,0.000000,0.000000,0.000000,0.000000,0.000000,0.000000,0.000000,0.000000,1772619415.717001,0.000000
80.000000,11403.234172,-30019.666853,-1026.705030,-2341.032307,-20276.161465,-10741.510778,-20040.931707,-27328.025082,-386.394606,3196.366512,-12292.431270,1175.366482,-11678.048870,-14019.081178,5920.038333,-28367.895289,-0.001750,-0.011813,1.010875,192.000000,0.000000,0.000000,0.000000,0.000000,0.000000,0.000000,0.000000,0.000000,0.000000,1772619415.717012,0.000000
82.000000,11376.277968,-30041.817432,-1042.373603,-2351.291758,-20291.874742,-10754.631252,-20054.499215,-27344.230097,-391.088473,3199.831033,-12301.751948,1180.440328,-11695.930266,-14030.435864,5917.870214,-28371.113941,-0.001750,-0.011813,1.010875,192.000000,0.000000,0.000000,127.500000,80.000000,15.500000,80.000000,0.000000,0.000000,0.000000,1772619415.717025,0.000000
84.000000,11386.403309,-30034.977798,-1034.148161,-2345.770877,-20285.348032,-10754.430086,-20045.245593,-27338.083367,-413.440217,3184.497736,-12313.911297,1167.521020,-11707.754339,-14043.042248,5913.086940,-28372.365638,-0.001750,-0.011813,1.010875,192.000000,0.000000,0.000000,0.000000,0.000000,0.000000,0.000000,0.000000,0.000000,0.000000,1772619415.717036,0.000000
86.000000,11363.403364,-30051.831013,-1044.653481,-2356.589121,-20303.609407,-10770.031604,-20056.443817,-27351.069731,-419.564595,3189.392768,-12310.491480,1172.639569,-11709.341313,-14036.873166,5918.920746,-28367.180034,-0.001750,-0.011813,1.010875,192.000000,0.000000,0.000000,0.000000,0.000000,0.000000,0.000000,0.000000,0.000000,0.000000,1772619415.717048,0.000000
88.000000,11351.914567,-30069.399484,-1051.224893,-2360.701842,-20306.671596,-10774.278435,-20059.953041,-27356.322391,-438.183598,3164.001186,-12330.473939,1158.848543,-11730.821339,-14060.118980,5917.266717,-28376.835987,-0.001750,-0.011813,1.010875,192.000000,0.000000,0.000000,0.000000,0.000000,0.000000,0.000000,0.000000,0.000000,0.000000,1772619415.717060,0.000000
90.000000,11351.802808,-30073.422798,-1059.539742,-2366.446241,-20310.963131,-10777.966473,-20066.345640,-27366.805359,-441.692822,3157.027442,-12328.149358,1148.276168,-11727.066246,-14054.955727,5916.596164,-28363.223775,-0.001750,-0.011813,1.010875,192.000000,0.000000,0.000000,0.000000,0.000000,0.000000,0.000000,0.000000,0.000000,0.000000,1772619415.717071,0.000000
92.000000,11336.402456,-30081.871758,-1071.855554,-2374.917552,-20323.033073,-10787.600075,-20077.901492,-27380.596385,-443.682127,3152.020651,-12347.103637,1141.816514,-11737.258641,-14066.958614,5908.102501,-28370.890423,-0.001750,-0.011813,1.010875,192.000000,0.000000,0.000000,127.500000,80.000000,15.500000,88.000000,0.000000,0.000000,0.000000,1772619415.717082,0.000000
94.000000,11338.190596,-30081.782351,-1060.076184,-2370.290741,-20317.199268,-10781.900380,-20063.864596,-27375.231966,-462.144668,3147.058564,-12353.786809,1135.468618,-11744.366496,-14071.719536,5906.716693,-28370.957478,-0.001750,-0.011813,1.010875,192.000000,0.000000,0.000000,0.000000,0.000000,0.000000,0.000000,0.000000,0.000000,0.000000,1772619415.717093,0.000000
96.000000,11334.904889,-30084.151636,-1065.373548,-2377.219782,-20326.788166,-10788.918828,-20069.698402,-27379.478798,-456.735546,3146.075087,-12345.047277,1136.228578,-11735.984592,-14071.451315,5902.849841,-28370.644554,-0.001750,-0.011813,1.010875,192.000000,0.000000,0.000000,0.000000,0.000000,0.000000,0.000000,0.000000,0.000000,0.000000,1772619415.717105,0.000000
98.000000,11367.471381,-30053.842670,-1047.738021,-2359.897180,-20300.524867,-10770.545694,-20054.901547,-27354.467196,-432.081572,3160.111983,-12336.866538,1151.003081,-11714.236345,-14063.136466,5895.272600,-28382.826255,-0.001750,-0.011813,1.010875,192.000000,0.000000,0.000000,0.000000,0.000000,0.000000,0.000000,0.000000,0.000000,0.000000,1772619415.717116,0.000000
100.000000,11382.111774,-30034.441356,-1040.764277,-2347.022575,-20286.756192,-10758.073420,-20046.474939,-27340.519707,-408.366371,3188.833974,-12305.261171,1170.203229,-11694.745623,-14028.625372,5905.353237,-28371.784493,-0.001750,-0.011813,1.010875,192.000000,0.000000,0.000000,0.000000,0.000000,0.000000,0.000000,0.000000,0.000000,0.000000,1772619415.717127,0.000000
102.000000,11363.202198,-30050.534612,-1050.576693,-2356.142087,-20296.568608,-10766.410621,-20056.957907,-27355.808300,-411.428560,3193.863117,-12316.749968,1174.651226,-11703.641618,-14036.157910,5905.174423,-28381.909833,-0.004000,-0.010000,1.010000,192.000000,127.500000,112.000000,127.500000,88.000000,15.500000,72.000000,0.000000,0.000000,0.000000,1772619415.717138,0.000000
104.000000,11380.033062,-30032.206182,-1039.601986,-2344.720345,-20283.358727,-10750.473827,-20047.301954,-27348.991018,-417.038848,3201.462710,-12320.572116,1170.873782,-11706.793214,-14028.223041,5908.795405,-28376.701877,-0.004000,-0.010000,1.010000,192.000000,0.000000,0.000000,0.000000,0.000000,0.000000,0.000000,0.000000,0.000000,0.000000,1772619415.717150,0.000000
106.000000,11354.641480,-30052.836842,-1051.448411,-2354.353947,-20291.673576,-10757.782848,-20059.148378,-27366.783007,-421.062162,3202.267373,-12320.125082,1171.142002,-11708.268429,-14021.897497,5917.400827,-28365.771874,-0.004000,-0.010000,1.010000,192.000000,0.000000,0.000000,0.000000,0.000000,0.000000,0.000000,0.000000,0.000000,0.000000,1772619415.717162,0.000000
108.000000,11353.769762,-30051.808661,-1055.739946,-2354.935092,-20293.506419,-10758.408696,-20062.009402,-27370.381638,-431.276909,3193.639600,-12338.677029,1163.765927,-11724.048760,-14034.258012,5915.545632,-28372.343287,-0.004000,-0.010000,1.010000,192.000000,0.000000,0.000000,0.000000,0.000000,0.000000,0.000000,0.000000,0.000000,0.000000,1772619415.717173,0.000000
110.000000,11349.657041,-30056.793100,-1054.689414,-2358.712537,-20293.953454,-10758.408696,-20061.763532,-27374.874338,-438.094191,3199.138129,-12332.954983,1159.072060,-11719.868984,-14031.642858,5918.652525,-28361.122711,-0.004000,-0.010000,1.010000,192.000000,0.000000,0.000000,0.000000,0.000000,0.000000,0.000000,0.000000,0.000000,0.000000,1772619415.717185,0.000000
112.000000,11327.193538,-30080.530653,-1070.201525,-2376.728043,-20314.382948,-10779.352281,-20076.761553,-27393.158065,-450.141782,3179.446242,-12352.401001,1149.147886,-11734.330563,-14055.581576,5918.250193,-28370.711609,-0.002000,-0.008000,1.008000,192.000000,127.500000,120.000000,127.500000,96.000000,15.500000,64.000000,0.000000,0.000000,0.000000,1772619415.717196,0.000000
114.000000,11329.629878,-30079.502473,-1065.664120,-2374.850497,-20306.984521,-10775.373671,-20070.391306,-27389.134751,-462.189372,3166.549285,-12358.055992,1138.955490,-11740.387886,-14060.655422,5920.127740,-28368.968173,-0.002000,-0.008000,1.008000,192.000000,0.000000,0.000000,0.000000,0.000000,0.000000,0.000000,0.000000,0.000000,0.000000,1772619415.717210,0.000000
116.000000,11327.014724,-30085.179816,-1071.319112,-2382.964180,-20320.842602,-10783.844982,-20077.543864,-27392.509865,-455.886180,3162.525971,-12354.189140,1136.250929,-11736.409275,-14064.164646,5918.473711,-28365.973039,-0.002000,-0.008000,1.008000,192.000000,0.000000,0.000000,0.000000,0.000000,0.000000,0.000000,0.000000,0.000000,0.000000,1772619415.717221,0.000000
118.000000,11335.351924,-30081.312964,-1065.261789,-2381.265447,-20319.590905,-10780.179296,-20073.274681,-27386.251376,-452.823991,3154.501695,-12360.224111,1135.647432,-11731.022505,-14077.419231,5903.632153,-28378.288851,-0.002000,-0.008000,1.008000,192.000000,0.000000,0.000000,0.000000,0.000000,0.000000,0.000000,0.000000,0.000000,0.000000,1772619415.717233,0.000000
120.000000,11348.047715,-30071.612307,-1054.935283,-2376.705691,-20311.343111,-10782.526229,-20064.781018,-27377.645955,-440.865808,3165.051718,-12336.955945,1139.313118,-11729.301420,-14061.236568,5907.744873,-28370.264574,-0.002000,-0.008000,1.008000,192.000000,0.000000,0.000000,0.000000,0.000000,0.000000,0.000000,0.000000,0.000000,0.000000,1772619415.717245,0.000000
122.000000,11353.926224,-30061.889298,-1050.174361,-2372.771784,-20311.477221,-10782.034490,-20062.836416,-27370.918080,-426.650098,3171.265503,-12337.894718,1147.762078,-11727.714447,-14067.807981,5897.485423,-28387.587176,0.008000,-0.010000,1.016000,192.000000,0.000000,32.000000,127.500000,88.000000,15.500000,96.000000,0.000000,0.000000,0.000000,1772619415.717257,0.000000
124.000000,11369.639500,-30046.265429,-1036.003356,-2358.086688,-20296.501553,-10772.713813,-20048.710114,-27353.930754,-417.329421,3187.962256,-12325.958887,1162.782450,-11714.839842,-14049.926585,5907.096673,-28387.453066,0.008000,-0.010000,1.016000,192.000000,0.000000,0.000000,0.000000,0.000000,0.000000,0.000000,0.000000,0.000000,0.000000,1772619415.717269,0.000000
126.000000,11368.745431,-30044.454938,-1039.467876,-2359.137220,-20298.870838,-10772.087964,-20054.387457,-27350.063902,-412.456740,3202.960277,-12313.531317,1179.635665,-11706.524993,-14040.404742,5921.401789,-28381.619261,0.008000,-0.010000,1.016000,192.000000,0.000000,0.000000,0.000000,0.000000,0.000000,0.000000,0.000000,0.000000,0.000000,1772619415.717280,0.000000
128.000000,11377.395556,-30035.536591,-1035.981004,-2350.151819,-20290.131305,-10759.056897,-20049.492425,-27339.849155,-414.267232,3203.273201,-12320.482709,1183.591924,-11717.030313,-14044.293945,5913.288106,-28388.660060,0.008000,-0.010000,1.016000,192.000000,0.000000,0.000000,0.000000,0.000000,0.000000,0.000000,0.000000,0.000000,0.000000,1772619415.717291,0.000000
130.000000,11375.339195,-30033.726100,-1040.205483,-2348.989528,-20290.377175,-10755.324156,-20051.884061,-27343.447786,-423.945537,3215.611364,-12307.406939,1183.077834,-11706.413234,-14017.851832,5920.373609,-28366.151853,0.008000,-0.010000,1.016000,192.000000,0.000000,0.000000,0.000000,0.000000,0.000000,0.000000,0.000000,0.000000,0.000000,1772619416.198735,0.000000
132.000000,11363.358660,-30046.913629,-1058.243341,-2360.523028,-20305.308140,-10762.566121,-20068.066724,-27363.162024,-428.214720,3203.384960,-12327.568212,1185.760043,-11724.674609,-14036.426131,5910.382379,-28375.204310,0.007000,-0.009000,1.014000,192.000000,0.000000,24.000000,127.500000,96.000000,15.500000,80.000000,0.000000,0.000000,0.000000,1772619416.198827,0.000000
134.000000,11362.442239,-30050.355798,-1058.220989,-2361.484153,-20305.106974,-10762.879045,-20064.691611,-27365.799530,-446.096116,3197.260582,-12337.335925,1168.660959,-11731.916574,-14039.957707,5912.349333,-28368.342324,0.007000,-0.009000,1.014000,192.000000,0.000000,0.000000,0.000000,0.000000,0.000000,0.000000,0.000000,0.000000,0.000000,1772619416.198872,0.000000
136.000000,11354.529721,-30056.904859,-1066.871115,-2369.262561,-20309.487916,-10767.148229,-20072.380611,-27371.610984,-449.113601,3194.243097,-12340.129893,1160.636683,-11735.045819,-14043.221062,5910.874118,-28362.329705,0.007000,-0.009000,1.014000,192.000000,0.000000,0.000000,0.000000,0.000000,0.000000,0.000000,0.000000,0.000000,0.000000,1772619416.198917,0.000000
138.000000,11343.912642,-30069.555947,-1068.055757,-2377.443299,-20315.366425,-10780.492220,-20075.621614,-27378.249452,-449.135953,3185.592972,-12348.958832,1159.474392,-11742.243080,-14060.409553,5907.499004,-28369.079932,0.007000,-0.009000,1.014000,192.000000,0.000000,0.000000,0.000000,0.000000,0.000000,0.000000,0.000000,0.000000,0.000000,1772619416.198962,0.000000
140.000000,11352.406305,-30059.341199,-1053.147144,-2370.670720,-20306.939817,-10775.485429,-20063.305803,-27370.202824,-452.801639,3180.787346,-12337.939422,1151.025432,-11733.525900,-14058.330841,5912.505795,-28368.252917,0.007000,-0.009000,1.014000,192.000000,0.000000,0.000000,0.000000,0.000000,0.000000,0.000000,0.000000,0.000000,0.000000,1772619416.199016,0.000000
142.000000,11345.678430,-30061.017580,-1057.796306,-2372.794136,-20312.907733,-10779.307578,-20069.385477,-27375.455484,-445.939654,3188.722216,-12341.761570,1159.429688,-11732.944755,-14058.219082,5911.835243,-28375.830159,0.004500,-0.009500,1.012000,192.000000,0.000000,8.000000,127.500000,88.000000,15.500000,72.000000,0.000000,0.000000,0.000000,1772619416.199062,0.000000
144.000000,11364.163323,-30042.823260,-1044.340556,-2353.437525,-20294.713413,-10766.321214,-20053.448683,-27359.161062,-443.168037,3199.473405,-12334.854881,1165.352901,-11719.421949,-14047.445541,5909.510661,-28374.086723,0.004500,-0.009500,1.012000,192.000000,0.000000,0.000000,0.000000,0.000000,0.000000,0.000000,0.000000,0.000000,0.000000,1772619416.199108,0.000000
146.000000,11374.221608,-30034.553115,-1041.971271,-2352.007014,-20292.522942,-10759.615691,-20054.052181,-27356.054170,-424.392572,3221.132245,-12317.889907,1184.374235,-11705.697978,-14030.637029,5914.338638,-28371.225699,0.004500,-0.009500,1.012000,192.000000,0.000000,0.000000,0.000000,0.000000,0.000000,0.000000,0.000000,0.000000,0.000000,1772619416.199173,0.000000
148.000000,11375.003919,-30037.749414,-1035.109286,-2350.643557,-20284.610425,-10756.285281,-20050.073570,-27354.020161,-409.506310,3221.065190,-12321.019151,1181.513212,-11704.848612,-14028.401855,5910.181214,-28380.948708,0.004500,-0.009500,1.012000,192.000000,0.000000,0.000000,0.000000,0.000000,0.000000,0.000000,0.000000,0.000000,0.000000,1772619416.199219,0.000000
150.000000,11378.311977,-30033.860211,-1031.197730,-2347.156685,-20277.726087,-10749.378592,-20047.726637,-27348.991018,-409.483958,3219.925251,-12307.473994,1187.838756,-11692.398690,-14019.997599,5922.675839,-28370.935127,0.004500,-0.009500,1.012000,192.000000,0.000000,0.000000,0.000000,0.000000,0.000000,0.000000,0.000000,0.000000,0.000000,1772619416.199264,0.000000
152.000000,11363.828047,-30045.371359,-1041.591292,-2353.325767,-20281.570587,-10750.809103,-20059.528358,-27360.949202,-400.856185,3224.596766,-12311.072625,1189.291619,-11691.616379,-14018.567087,5920.038333,-28373.483226,0.001250,-0.010750,1.010000,192.000000,127.500000,120.000000,127.500000,80.000000,15.500000,64.000000,0.000000,0.000000,0.000000,1772619416.199310,0.000000
154.000000,11365.750297,-30046.466595,-1042.932396,-2347.536665,-20275.915596,-10746.070534,-20056.957907,-27363.944335,-408.344019,3218.204167,-12318.403997,1178.093395,-11694.633865,-14016.846003,5925.201586,-28368.431731,0.001250,-0.010750,1.010000,192.000000,0.000000,0.000000,0.000000,0.000000,0.000000,0.000000,0.000000,0.000000,0.000000,1772619416.199355,0.000000
156.000000,11340.716343,-30063.297458,-1060.344405,-2358.444316,-20285.973881,-10752.507836,-20069.810160,-27382.116304,-423.766723,3216.952469,-12331.300954,1175.165316,-11702.904010,-14019.058826,5926.006249,-28360.496862,0.001250,-0.010750,1.010000,192.000000,0.000000,0.000000,0.000000,0.000000,0.000000,0.000000,0.000000,0.000000,0.000000,1772619416.199400,0.000000
158.000000,11326.210061,-30075.725028,-1063.496001,-2360.545380,-20290.846561,-10750.496179,-20069.720753,-27386.877225,-445.067936,3207.140053,-12354.725582,1167.498668,-11723.132339,-14032.268707,5917.937269,-28365.101321,0.001250,-0.010750,1.010000,192.000000,0.000000,0.000000,0.000000,0.000000,0.000000,0.000000,0.000000,0.000000,0.000000,1772619416.199425,0.000000
160.000000,11323.706665,-30082.542310,-1060.120888,-2364.278122,-20294.758117,-10758.028717,-20066.010364,-27382.116304,-464.178677,3197.104120,-12350.478751,1155.160505,-11721.165385,-14033.140425,5920.910051,-28354.193670,0.001250,-0.010750,1.010000,192.000000,0.000000,0.000000,0.000000,0.000000,0.000000,0.000000,0.000000,0.000000,0.000000,1772619416.199437,0.000000
162.000000,11316.531756,-30088.152598,-1067.832240,-2374.671683,-20311.991312,-10769.025775,-20072.291204,-27382.988022,-446.833723,3192.432605,-12347.528320,1160.010834,-11725.211051,-14039.600079,5917.490234,-28364.140196,0.001625,-0.011375,1.008000,192.000000,0.000000,8.000000,127.500000,80.000000,15.500000,56.000000,0.000000,0.000000,0.000000,1772619416.199448,0.000000
164.000000,11320.420959,-30085.984479,-1055.605835,-2365.932151,-20305.755175,-10766.634138,-20058.500178,-27367.967649,-465.184506,3189.057492,-12349.651736,1154.713470,-11738.219766,-14043.086951,5907.051969,-28371.538624,0.001625,-0.011375,1.008000,192.000000,0.000000,0.000000,0.000000,0.000000,0.000000,0.000000,0.000000,0.000000,0.000000,1772619416.199460,0.000000
166.000000,11327.439407,-30079.524825,-1047.469800,-2362.802906,-20299.943721,-10765.851827,-20055.817968,-27363.497301,-456.064994,3190.957390,-12337.671201,1158.557970,-11725.792196,-14039.734189,5914.718618,-28369.415208,0.001625,-0.011375,1.008000,192.000000,0.000000,0.000000,0.000000,0.000000,0.000000,0.000000,0.000000,0.000000,0.000000,1772619416.199471,0.000000
168.000000,11333.586137,-30073.221633,-1043.111210,-2360.344214,-20288.477276,-10760.107429,-20054.275698,-27361.932678,-433.042697,3199.831033,-12336.620669,1169.689139,-11711.688246,-14041.835253,5919.323077,-28380.211101,0.001625,-0.011375,1.008000,192.000000,0.000000,0.000000,0.000000,0.000000,0.000000,0.000000,0.000000,0.000000,0.000000,1772619416.199483,0.000000
170.000000,11343.487959,-30058.089502,-1032.382373,-2346.486133,-20278.396640,-10747.724563,-20044.664448,-27342.933696,-439.390593,3211.789216,-12321.488538,1172.907790,-11702.412272,-14023.216250,5923.279336,-28374.421999,0.001625,-0.011375,1.008000,192.000000,0.000000,0.000000,0.000000,0.000000,0.000000,0.000000,0.000000,0.000000,0.000000,1772619416.199494,0.000000
172.000000,11340.336363,-30061.308153,-1037.635033,-2351.470572,-20281.481180,-10752.284318,-20050.811178,-27345.057111,-423.543206,3221.646335,-12314.805366,1190.431558,-11700.132394,-14020.511689,5920.999458,-28377.327726,0.004812,-0.009687,1.009000,192.000000,0.000000,32.000000,127.500000,96.000000,15.500000,72.000000,0.000000,0.000000,0.000000,1772619416.199506,0.000000
174.000000,11345.969003,-30057.463653,-1035.511617,-2345.726174,-20277.144942,-10746.294051,-20045.916146,-27342.218440,-429.377011,3218.450036,-12315.073587,1186.631761,-11700.333560,-14018.120053,5931.527130,-28372.075066,0.004812,-0.009687,1.009000,192.000000,0.000000,0.000000,0.000000,0.000000,0.000000,0.000000,0.000000,0.000000,0.000000,1772619416.199524,0.000000
176.000000,11335.866014,-30071.232327,-1045.122867,-2352.185828,-20287.560855,-10753.424257,-20053.649849,-27350.980324,-440.642290,3206.693018,-12318.515756,1179.121575,-11707.709635,-14026.278439,5930.677763,-28368.565842,0.004812,-0.009687,1.009000,192.000000,0.000000,0.000000,0.000000,0.000000,0.000000,0.000000,0.000000,0.000000,0.000000,1772619416.199536,0.000000
178.000000,11328.489939,-30071.567604,-1054.376489,-2356.566770,-20290.310119,-10751.971394,-20059.975393,-27362.804396,-432.327441,3202.401483,-12332.284431,1174.025378,-11717.142071,-14027.731303,5925.939193,-28371.002182,0.004812,-0.009687,1.009000,192.000000,0.000000,0.000000,0.000000,0.000000,0.000000,0.000000,0.000000,0.000000,0.000000,1772619416.199549,0.000000
180.000000,11313.782491,-30083.123455,-1060.903199,-2362.758203,-20292.813515,-10755.592377,-20065.049239,-27374.270841,-465.922113,3199.920440,-12342.923861,1163.251837,-11727.557984,-14031.173471,5937.472694,-28359.178109,0.004812,-0.009687,1.009000,192.000000,0.000000,0.000000,0.000000,0.000000,0.000000,0.000000,0.000000,0.000000,0.000000,1772619416.199560,0.000000
182.000000,11308.462776,-30089.918386,-1065.038272,-2370.268389,-20300.636625,-10757.022888,-20070.368954,-27384.440885,-464.625712,3185.280047,-12356.670184,1158.177991,-11735.291688,-14044.316297,5926.207414,-28365.593060,0.005406,-0.007844,1.008500,192.000000,0.000000,24.000000,127.500000,104.000000,15.500000,64.000000,0.000000,0.000000,0.000000,1772619416.199572,0.000000
184.000000,11318.118729,-30086.476217,-1060.165591,-2364.903970,-20295.495724,-10760.241540,-20063.059934,-27377.914176,-464.379843,3192.544364,-12352.333945,1151.606578,-11731.558947,-14040.717666,5925.358048,-28359.982772,0.005406,-0.007844,1.008500,192.000000,0.000000,0.000000,0.000000,0.000000,0.000000,0.000000,0.000000,0.000000,0.000000,1772619416.199583,0.000000
186.000000,11317.090549,-30087.526749,-1063.026615,-2368.815526,-20308.057405,-10775.977168,-20066.300936,-27375.522539,-462.211724,3178.641579,-12344.957870,1162.536581,-11731.402484,-14052.899367,5916.015019,-28362.173243,0.005406,-0.007844,1.008500,192.000000,0.000000,0.000000,0.000000,0.000000,0.000000,0.000000,0.000000,0.000000,0.000000,1772619416.199594,0.000000
188.000000,11328.981677,-30075.166234,-1058.712728,-2361.975892,-20308.795012,-10777.251217,-20060.757704,-27366.537138,-450.722927,3180.072091,-12345.404905,1167.811593,-11736.386923,-14056.609757,5905.241478,-28376.411304,0.005406,-0.007844,1.008500,192.000000,0.000000,0.000000,0.000000,0.000000,0.000000,0.000000,0.000000,0.000000,0.000000,1772619416.199606,0.000000
190.000000,11339.062314,-30059.430606,-1048.766202,-2348.631900,-20301.441288,-10760.196836,-20051.548785,-27356.501205,-461.652930,3192.834937,-12334.743122,1172.840735,-11727.178005,-14039.533024,5904.570926,-28371.203348,0.005406,-0.007844,1.008500,192.000000,0.000000,0.000000,0.000000,0.000000,0.000000,0.000000,0.000000,0.000000,0.000000,1772619416.199617,0.000000
192.000000,11338.257651,-30056.703693,-1048.721498,-2351.224703,-20299.139058,-10766.164752,-20055.750913,-27358.624620,-441.446953,3207.631792,-12333.200852,1185.514174,-11720.651295,-14034.839157,5907.253135,-28376.232490,0.005406,-0.007844,1.008500,192.000000,0.000000,0.000000,127.500000,104.000000,15.500000,72.000000,0.000000,0.000000,0.000000,1772619416.199628,0.000000
194.000000,11354.306204,-30043.918496,-1034.148161,-2341.680508,-20284.275148,-10755.145342,-20043.010419,-27344.766539,-441.737526,3212.549175,-12328.372875,1186.631761,-11712.202336,-14022.948029,5915.500929,-28376.724228,0.005406,-0.007844,1.008500,192.000000,0.000000,0.000000,0.000000,0.000000,0.000000,0.000000,0.000000,0.000000,0.000000,1772619416.199640,0.000000
196.000000,11347.019535,-30049.931115,-1043.066507,-2349.727136,-20289.416050,-10760.554464,-20051.884061,-27350.756806,-439.211779,3218.226518,-12318.426349,1192.867898,-11707.284952,-14023.707989,5924.039295,-28372.879728,0.005406,-0.007844,1.008500,192.000000,0.000000,0.000000,0.000000,0.000000,0.000000,0.000000,0.000000,0.000000,0.000000,1772619416.199651,0.000000
198.000000,11335.933070,-30061.755188,-1049.034423,-2353.795153,-20294.713413,-10760.487409,-20054.320401,-27357.954068,-445.403212,3204.234326,-12331.457416,1184.910677,-11718.393769,-14037.297849,5922.094693,-28381.105170,0.005406,-0.007844,1.008500,192.000000,0.000000,0.000000,0.000000,0.000000,0.000000,0.000000,0.000000,0.000000,0.000000,1772619416.199662,0.000000
200.000000,11329.719285,-30068.550118,-1057.729251,-2356.902046,-20298.133230,-10758.967490,-20059.215434,-27368.057056,-459.104831,3196.433568,-12333.334963,1172.147831,-11724.719313,-14034.481530,5929.247252,-28366.285964,0.005406,-0.007844,1.008500,192.000000,0.000000,0.000000,0.000000,0.000000,0.000000,0.000000,0.000000,0.000000,0.000000,1772619416.199673,0.000000
202.000000,11312.351979,-30079.770694,-1078.091690,-2369.486078,-20314.517059,-10768.869313,-20075.398096,-27384.016202,-466.391500,3190.264486,-12352.937442,1165.934046,-11747.004002,-14047.602004,5920.977106,-28369.214042,0.005406,-0.007844,1.008500,192.000000,0.000000,0.000000,0.000000,0.000000,0.000000,0.000000,0.000000,0.000000,0.000000,1772619416.199684,0.000000
204.000000,11324.779549,-30065.331467,-1072.347292,-2361.193581,-20305.039919,-10756.531150,-20065.451570,-27372.862681,-474.862811,3192.991399,-12359.084172,1163.855334,-11751.988441,-14045.299774,5908.929516,-28363.670810,0.005406,-0.007844,1.008500,192.000000,0.000000,0.000000,127.500000,112.000000,15.500000,72.000000,0.000000,0.000000,0.000000,1772619416.199696,0.000000
206.000000,11317.314067,-30070.673534,-1072.928437,-2367.027386,-20310.024358,-10763.840170,-20069.474884,-27378.964708,-472.337064,3197.774672,-12353.853864,1169.733843,-11744.299441,-14042.952841,5914.025714,-28357.121749,0.005406,-0.007844,1.008500,192.000000,0.000000,0.000000,0.000000,0.000000,0.000000,0.000000,0.000000,0.000000,0.000000,1772619416.199707,0.000000
208.000000,11314.564802,-30074.540386,-1068.793365,-2368.167325,-20314.226486,-10767.192932,-20066.099771,-27380.551682,-471.375939,3188.342236,-12360.961719,1166.224619,-11745.171159,-14056.363887,5910.114158,-28365.682467,0.005406,-0.007844,1.008500,192.000000,0.000000,0.000000,0.000000,0.000000,0.000000,0.000000,0.000000,0.000000,0.000000,1772619416.199718,0.000000
210.000000,11326.701799,-30068.639525,-1060.143240,-2361.551209,-20309.599675,-10769.249293,-20058.164902,-27369.509920,-474.326369,3187.716387,-12348.377687,1161.553104,-11736.498682,-14047.981983,5910.225917,-28358.440502,0.005406,-0.007844,1.008500,192.000000,0.000000,0.000000,0.000000,0.000000,0.000000,0.000000,0.000000,0.000000,0.000000,1772619416.199731,0.000000
212.000000,11337.609451,-30056.815452,-1055.963463,-2358.712537,-20302.692986,-10769.696327,-20058.477826,-27361.642106,-459.976549,3195.494794,-12342.655640,1173.868915,-11734.911708,-14051.558262,5907.499004,-28369.795188,0.005406,-0.007844,1.008500,192.000000,0.000000,0.000000,0.000000,0.000000,0.000000,0.000000,0.000000,0.000000,0.000000,1772619416.199742,0.000000
214.000000,11371.897027,-30026.081804,-1031.600062,-2342.284005,-20278.307233,-10753.044278,-20039.344733,-27333.411853,-443.436258,3212.236251,-12322.851994,1185.223601,-11718.013789,-14034.749750,5914.226879,-28373.080894,0.004000,-0.006000,1.010000,192.000000,0.000000,16.000000,127.500000,104.000000,15.500000,72.000000,0.000000,0.000000,0.000000,1772619416.199753,0.000000
216.000000,11375.160381,-30016.179981,-1030.437771,-2344.094496,-20279.201302,-10757.782848,-20042.228108,-27329.612056,-423.766723,3237.381963,-12299.002683,1203.417921,-11695.997321,-14016.130747,5927.079132,-28383.072124,0.004000,-0.006000,1.010000,192.000000,0.000000,0.000000,0.000000,0.000000,0.000000,0.000000,0.000000,0.000000,0.000000,1772619416.199764,0.000000
218.000000,11374.065146,-30005.428792,-1036.673908,-2344.049793,-20279.335413,-10755.659432,-20048.576003,-27336.451690,-428.371182,3232.397524,-12313.911297,1195.863032,-11709.587182,-14028.625372,5920.977106,-28378.042981,0.004000,-0.006000,1.010000,192.000000,0.000000,0.000000,0.000000,0.000000,0.000000,0.000000,0.000000,0.000000,0.000000,1772619416.199776,0.000000
220.000000,11370.757088,-30024.874809,-1036.964481,-2343.379240,-20271.936985,-10742.114275,-20048.598355,-27338.999789,-432.461552,3238.119571,-12306.714035,1193.829023,-11703.798080,-14013.783814,5937.316231,-28359.289868,0.004000,-0.006000,1.010000,192.000000,0.000000,0.000000,0.000000,0.000000,0.000000,0.000000,0.000000,0.000000,0.000000,1772619416.199787,0.000000
222.000000,11359.625919,-30044.343179,-1050.353175,-2353.102249,-20281.212959,-10745.154112,-20059.528358,-27352.768463,-432.796828,3227.949527,-12316.548802,1194.477224,-11712.470557,-14020.377579,5940.780752,-28362.217946,0.004000,-0.006000,1.010000,192.000000,0.000000,0.000000,0.000000,0.000000,0.000000,0.000000,0.000000,0.000000,0.000000,1772619416.199798,0.000000
224.000000,11347.935956,-30047.472423,-1053.571827,-2353.973967,-20283.783410,-10749.959737,-20057.248480,-27353.863699,-452.242846,3213.778521,-12330.049256,1177.221677,-11727.625040,-14031.754617,5931.571833,-28363.246127,0.002000,-0.010000,1.006000,192.000000,0.000000,8.000000,127.500000,88.000000,15.500000,56.000000,0.000000,0.000000,0.000000,1772619416.199810,0.000000
226.000000,11338.525872,-30051.853365,-1059.293873,-2361.908837,-20302.380061,-10761.582644,-20063.417561,-27363.966687,-458.255465,3207.832957,-12328.283468,1171.589037,-11733.995287,-14036.202614,5926.810912,-28360.005124,0.002000,-0.010000,1.006000,192.000000,0.000000,0.000000,0.000000,0.000000,0.000000,0.000000,0.000000,0.000000,0.000000,1772619416.199821,0.000000
228.000000,11338.056485,-30050.109929,-1062.557228,-2367.519124,-20310.694910,-10767.952891,-20065.518625,-27370.247527,-463.150497,3200.188661,-12342.655640,1160.211999,-11743.651240,-14048.920756,5909.510661,-28367.962345,0.002000,-0.010000,1.006000,192.000000,0.000000,0.000000,0.000000,0.000000,0.000000,0.000000,0.000000,0.000000,0.000000,1772619416.199831,0.000000
230.000000,11349.858206,-30042.465632,-1056.522257,-2361.260636,-20300.882495,-10759.369821,-20059.438951,-27361.507995,-463.910456,3211.185719,-12330.451587,1152.500648,-11725.166348,-14038.996582,5905.554403,-28363.000257,0.002000,-0.010000,1.006000,192.000000,0.000000,0.000000,0.000000,0.000000,0.000000,0.000000,0.000000,0.000000,0.000000,1772619416.199843,0.000000
232.000000,11355.088515,-30041.057472,-1053.415364,-2358.846648,-20296.412146,-10760.822685,-20060.154207,-27354.668362,-445.000880,3220.305231,-12329.892794,1177.445194,-11730.173138,-14036.090855,5909.421254,-28368.476435,0.002000,-0.010000,1.006000,192.000000,0.000000,0.000000,0.000000,0.000000,0.000000,0.000000,0.000000,0.000000,0.000000,1772619416.199854,0.000000
234.000000,11369.036003,-30030.216876,-1040.272539,-2345.212083,-20281.056497,-10747.389286,-20045.826739,-27341.905515,-445.962005,3233.738629,-12320.572116,1184.977732,-11717.790272,-14027.418378,5912.796368,-28362.799092,0.006000,-0.010000,1.014000,192.000000,0.000000,24.000000,127.500000,88.000000,15.500000,88.000000,0.000000,0.000000,0.000000,1772619416.199865,0.000000
236.000000,11361.369355,-30037.592952,-1044.027632,-2348.475438,-20286.353861,-10753.379554,-20048.464244,-27346.442920,-440.754049,3235.169141,-12311.407901,1187.816404,-11706.770862,-14012.755634,5918.384304,-28358.574612,0.006000,-0.010000,1.014000,192.000000,0.000000,0.000000,0.000000,0.000000,0.000000,0.000000,0.000000,0.000000,0.000000,1772619416.199877,0.000000
238.000000,11361.749335,-30036.453013,-1042.775934,-2350.218874,-20292.053555,-10764.644833,-20049.291259,-27343.023103,-442.072802,3215.566661,-12321.935573,1188.174032,-11721.254792,-14038.393085,5912.863423,-28377.238319,0.006000,-0.010000,1.014000,192.000000,0.000000,0.000000,0.000000,0.000000,0.000000,0.000000,0.000000,0.000000,0.000000,1772619416.199888,0.000000
240.000000,11370.220646,-30026.238266,-1038.998489,-2350.241226,-20290.287768,-10761.403830,-20047.771340,-27337.770443,-441.178732,3226.608423,-12306.646980,1187.391721,-11714.661028,-14028.267745,5920.842996,-28372.097417,0.006000,-0.010000,1.014000,192.000000,0.000000,0.000000,0.000000,0.000000,0.000000,0.000000,0.000000,0.000000,0.000000,1772619416.199900,0.000000
242.000000,11359.469457,-30034.039025,-1045.234626,-2357.974930,-20293.931102,-10767.550560,-20054.409808,-27349.035722,-438.429467,3229.782370,-12314.000704,1190.006875,-11721.008923,-14030.882899,5924.218109,-28379.540548,0.006000,-0.010000,1.014000,192.000000,0.000000,0.000000,0.000000,0.000000,0.000000,0.000000,0.000000,0.000000,0.000000,1772619416.199912,0.000000
244.000000,11359.558864,-30037.145917,-1041.747754,-2355.024499,-20283.917521,-10763.124915,-20048.754817,-27352.790815,-447.973662,3224.037972,-12324.550727,1179.747424,-11724.518147,-14030.838195,5933.382324,-28376.791284,0.002000,-0.006000,1.008000,192.000000,0.000000,8.000000,127.500000,104.000000,15.500000,64.000000,0.000000,0.000000,0.000000,1772619416.199924,0.000000
246.000000,11341.096323,-30054.088539,-1059.562094,-2368.927284,-20297.417974,-10770.903322,-20065.988012,-27371.141597,-460.021253,3217.399504,-12333.849053,1168.638607,-11732.832996,-14037.476663,5931.571833,-28373.550281,0.002000,-0.006000,1.008000,192.000000,0.000000,0.000000,0.000000,0.000000,0.000000,0.000000,0.000000,0.000000,0.000000,1772619416.199938,0.000000
248.000000,11339.755218,-30054.155595,-1062.266655,-2367.429717,-20302.894152,-10770.433935,-20068.044373,-27369.912251,-463.597532,3204.569603,-12350.478751,1160.167296,-11747.540444,-14051.178283,5924.732199,-28380.278156,0.002000,-0.006000,1.008000,192.000000,0.000000,0.000000,0.000000,0.000000,0.000000,0.000000,0.000000,0.000000,0.000000,1772619416.199950,0.000000
250.000000,11346.326631,-30045.237249,-1058.779783,-2360.970063,-20303.363538,-10763.884874,-20064.266928,-27362.178548,-464.513953,3214.113797,-12335.525433,1164.659997,-11737.929194,-14033.699218,5924.463978,-28362.150891,0.002000,-0.006000,1.008000,192.000000,0.000000,0.000000,0.000000,0.000000,0.000000,0.000000,0.000000,0.000000,0.000000,1772619416.677538,0.000000
252.000000,11349.433523,-30043.672626,-1059.070356,-2362.624092,-20309.018530,-10766.276511,-20065.988012,-27359.496338,-454.835648,3214.829053,-12333.312611,1175.657055,-11736.722200,-14041.030591,5910.136510,-28369.795188,0.002000,-0.006000,1.008000,192.000000,0.000000,0.000000,0.000000,0.000000,0.000000,0.000000,0.000000,0.000000,0.000000,1772619416.677599,0.000000
254.000000,11367.918416,-30027.557019,-1044.675832,-2350.062412,-20293.126439,-10751.077324,-20052.934593,-27344.833594,-444.106811,3226.764885,-12319.856861,1183.949552,-11721.277144,-14028.446559,5910.538842,-28361.010952,-0.004000,-0.008000,1.006000,192.000000,127.500000,112.000000,127.500000,96.000000,15.500000,56.000000,0.000000,0.000000,0.000000,1772619416.677642,0.000000
0.000000,11363.828047,-30026.707652,-1048.274463,-2350.844723,-20297.417974,-10757.693441,-20057.203777,-27345.951181,-440.821104,3237.896054,-12314.000704,1187.615238,-11724.249926,-14019.774082,5912.081112,-28359.647496,-0.004000,-0.008000,1.006000,192.000000,0.000000,0.000000,0.000000,0.000000,0.000000,0.000000,0.000000,0.000000,0.000000,1772619416.677695,0.000000
2.000000,11365.683242,-30025.858286,-1045.748716,-2352.163476,-20292.791163,-10760.286243,-20055.125064,-27345.459443,-440.329366,3230.944661,-12323.522547,1196.198308,-11727.222708,-14029.564146,5908.705999,-28374.511406,-0.004000,-0.008000,1.006000,192.000000,0.000000,0.000000,0.000000,0.000000,0.000000,0.000000,0.000000,0.000000,0.000000,1772619416.677746,0.000000
4.000000,11368.186637,-30025.902990,-1040.406649,-2351.045889,-20291.248893,-10760.912092,-20050.520605,-27344.431263,-440.016441,3237.672536,-12312.324323,1194.320761,-11708.223725,-14018.142404,5915.880908,-28368.230566,-0.004000,-0.008000,1.006000,192.000000,0.000000,0.000000,0.000000,0.000000,0.000000,0.000000,0.000000,0.000000,0.000000,1772619416.677792,0.000000
6.000000,11362.397535,-30030.708615,-1039.959614,-2354.622168,-20292.388832,-10765.561255,-20054.253346,-27350.801510,-437.602453,3228.664783,-12320.393302,1190.588020,-11724.942830,-14030.368809,5919.591298,-28379.786417,-0.004000,-0.008000,1.006000,192.000000,0.000000,0.000000,0.000000,0.000000,0.000000,0.000000,0.000000,0.000000,0.000000,1772619416.677838,0.000000
8.000000,11372.545227,-30025.701824,-1033.164684,-2352.789325,-20284.319852,-10761.292071,-20050.252384,-27342.620771,-435.076706,3225.960222,-12313.151337,1190.297447,-11717.857327,-14030.972306,5925.134531,-28378.020630,0.004000,-0.010000,1.012000,192.000000,0.000000,16.000000,127.500000,88.000000,15.500000,80.000000,0.000000,0.000000,0.000000,1772619416.677859,0.000000
10.000000,11366.465553,-30028.495792,-1038.864379,-2359.941883,-20287.650262,-10767.841133,-20057.516701,-27347.806376,-430.360488,3232.419876,-12303.070701,1195.371293,-11709.475423,-14029.452387,5938.143246,-28373.080894,0.004000,-0.010000,1.012000,192.000000,0.000000,0.000000,0.000000,0.000000,0.000000,0.000000,0.000000,0.000000,0.000000,1772619416.677872,0.000000
12.000000,11357.591910,-30038.554077,-1047.045117,-2363.741680,-20289.326643,-10773.004386,-20062.791713,-27359.965725,-436.574273,3224.261489,-12324.550727,1186.140023,-11722.774711,-14043.444579,5939.774923,-28384.480284,0.004000,-0.010000,1.012000,192.000000,0.000000,0.000000,0.000000,0.000000,0.000000,0.000000,0.000000,0.000000,0.000000,1772619416.677884,0.000000
14.000000,11353.747410,-30039.559905,-1053.951806,-2362.624092,-20292.746460,-10769.405755,-20065.429218,-27369.666382,-447.996014,3221.579280,-12331.524471,1175.612351,-11724.719313,-14033.922736,5938.009135,-28370.801016,0.004000,-0.010000,1.012000,192.000000,0.000000,0.000000,0.000000,0.000000,0.000000,0.000000,0.000000,0.000000,0.000000,1772619416.677896,0.000000
16.000000,11344.873767,-30048.992342,-1069.240400,-2370.581313,-20307.453907,-10774.546656,-20078.817913,-27380.685792,-447.280758,3216.639545,-12343.661468,1172.170183,-11733.660011,-14045.031553,5917.065551,-28370.689257,0.004000,-0.010000,1.012000,192.000000,0.000000,0.000000,0.000000,0.000000,0.000000,0.000000,0.000000,0.000000,0.000000,1772619416.677908,0.000000
18.000000,11361.838742,-30037.347083,-1055.225856,-2357.371432,-20292.902922,-10758.162827,-20063.037582,-27363.676115,-451.281721,3218.874719,-12341.158073,1169.242104,-11729.681400,-14037.253146,5914.539804,-28362.687333,0.004000,-0.010000,1.012000,192.000000,0.000000,0.000000,127.500000,80.000000,15.500000,72.000000,0.000000,0.000000,0.000000,1772619416.677928,0.000000
20.000000,11359.469457,-30037.168269,-1054.845876,-2357.907874,-20295.518076,-10755.838246,-20064.199873,-27358.758731,-437.535398,3229.447094,-12325.243631,1184.910677,-11718.863156,-14033.006314,5914.182176,-28354.819519,0.004000,-0.010000,1.012000,192.000000,0.000000,0.000000,0.000000,0.000000,0.000000,0.000000,0.000000,0.000000,0.000000,1772619416.677940,0.000000
22.000000,11365.817352,-30033.815507,-1047.067469,-2355.180962,-20288.343166,-10752.999574,-20057.114370,-27348.409873,-434.450857,3224.037972,-12328.104654,1191.392683,-11723.266449,-14039.845948,5904.436815,-28369.862243,0.004000,-0.010000,1.012000,192.000000,0.000000,0.000000,0.000000,0.000000,0.000000,0.000000,0.000000,0.000000,0.000000,1772619416.677951,0.000000
24.000000,11372.321710,-30028.942827,-1034.997527,-2347.044927,-20281.369422,-10748.819798,-20048.374837,-27340.363245,-428.527645,3234.520940,-12309.016265,1194.007837,-11709.698940,-14022.165718,5915.523281,-28361.502690,0.004000,-0.010000,1.012000,192.000000,0.000000,0.000000,0.000000,0.000000,0.000000,0.000000,0.000000,0.000000,0.000000,1772619416.677963,0.000000
26.000000,11359.000070,-30041.459804,-1040.004318,-2352.878732,-20285.124515,-10755.950005,-20055.281526,-27350.935620,-420.972755,3235.102085,-12312.301971,1198.142910,-11706.368531,-14023.417416,5923.458150,-28371.046885,0.004000,-0.010000,1.012000,192.000000,0.000000,0.000000,0.000000,0.000000,0.000000,0.000000,0.000000,0.000000,0.000000,1772619416.677975,0.000000
28.000000,11367.806657,-30035.693054,-1035.690431,-2344.563883,-20273.456904,-10750.786752,-20047.726637,-27343.604248,-427.588871,3228.530673,-12318.828680,1190.453910,-11708.134318,-14023.417416,5923.234632,-28372.678563,0.001000,-0.012000,1.011000,192.000000,127.500000,120.000000,127.500000,72.000000,15.500000,72.000000,0.000000,0.000000,0.000000,1772619416.677987,0.000000
30.000000,11350.998145,-30047.852403,-1040.116076,-2351.179999,-20277.390811,-10753.848941,-20052.934593,-27349.907440,-422.515025,3234.498588,-12309.642113,1196.354770,-11698.500717,-14014.499070,5932.644717,-28363.089664,0.001000,-0.012000,1.011000,192.000000,0.000000,0.000000,0.000000,0.000000,0.000000,0.000000,0.000000,0.000000,0.000000,1772619416.677999,0.000000
32.000000,11333.027343,-30068.326601,-1051.046080,-2359.204276,-20287.627910,-10762.588473,-20058.924861,-27362.782045,-443.235093,3218.762960,-12333.156149,1183.100186,-11719.511356,-14030.346457,5923.122874,-28377.953574,0.001000,-0.012000,1.011000,192.000000,0.000000,0.000000,0.000000,0.000000,0.000000,0.000000,0.000000,0.000000,0.000000,1772619416.678011,0.000000
34.000000,11324.377218,-30079.055438,-1051.113135,-2359.897180,-20290.041898,-10761.448534,-20055.303878,-27364.816053,-458.523686,3210.761036,-12330.362181,1172.013721,-11721.388903,-14027.373675,5930.208377,-28364.877804,0.001000,-0.012000,1.011000,192.000000,0.000000,0.000000,0.000000,0.000000,0.000000,0.000000,0.000000,0.000000,0.000000,1772619416.678023,0.000000
36.000000,11302.651322,-30100.043726,-1069.530972,-2377.353892,-20303.989387,-10773.920807,-20073.766419,-27385.647879,-463.977511,3201.999152,-12344.712000,1167.968055,-11736.677496,-14042.796378,5920.932403,-28369.906946,0.001000,-0.012000,1.011000,192.000000,0.000000,0.000000,0.000000,0.000000,0.000000,0.000000,0.000000,0.000000,0.000000,1772619416.678034,0.000000
38.000000,11295.498764,-30102.033031,-1068.771013,-2372.481212,-20296.680367,-10762.767287,-20068.245538,-27388.441847,-484.786985,3198.892259,-12362.325175,1149.259645,-11747.383982,-14042.550509,5918.607821,-28364.497824,-0.000500,-0.012000,1.009500,192.000000,127.500000,120.000000,127.500000,80.000000,15.500000,64.000000,0.000000,0.000000,0.000000,1772619416.678046,0.000000
40.000000,11285.172258,-30105.408145,-1078.583429,-2373.799965,-20307.252742,-10767.975243,-20074.414620,-27395.281481,-494.308829,3203.027332,-12367.130800,1158.468563,-11747.160464,-14040.047114,5916.640868,-28354.439539,-0.000500,-0.012000,1.009500,192.000000,0.000000,0.000000,0.000000,0.000000,0.000000,0.000000,0.000000,0.000000,0.000000,1772619416.678059,0.000000
42.000000,11285.440479,-30105.721069,-1071.430870,-2367.921456,-20304.615236,-10765.717717,-20066.233881,-27387.458371,-495.582878,3206.536556,-12374.618635,1158.714433,-11755.899996,-14042.550509,5900.257039,-28363.179071,-0.000500,-0.012000,1.009500,192.000000,0.000000,0.000000,0.000000,0.000000,0.000000,0.000000,0.000000,0.000000,0.000000,1772619416.678070,0.000000
44.000000,11302.584267,-30091.415953,-1058.444507,-2360.590084,-20296.523904,-10759.235711,-20058.723695,-27372.125074,-491.850137,3218.003001,-12349.987012,1165.732880,-11729.256717,-14023.484471,5910.069455,-28353.254897,-0.000500,-0.012000,1.009500,192.000000,0.000000,0.000000,0.000000,0.000000,0.000000,0.000000,0.000000,0.000000,0.000000,1772619416.678082,0.000000
46.000000,11297.555124,-30091.684174,-1057.684548,-2360.344214,-20297.462678,-10758.051069,-20060.824759,-27371.007487,-478.684959,3225.937870,-12345.382553,1176.327607,-11726.999191,-14025.138500,5904.302705,-28365.995391,-0.000500,-0.012000,1.009500,192.000000,0.000000,0.000000,0.000000,0.000000,0.000000,0.000000,0.000000,0.000000,0.000000,1772619416.678094,0.000000
48.000000,11310.072101,-30076.976726,-1046.687489,-2349.704784,-20284.342204,-10745.802313,-20049.268907,-27358.602269,-478.662608,3236.599652,-12340.956907,1180.261514,-11729.480234,-14011.950971,5911.432911,-28362.933202,0.000750,-0.012000,1.007750,192.000000,0.000000,8.000000,127.500000,80.000000,15.500000,56.000000,0.000000,0.000000,0.000000,1772619416.678106,0.000000
50.000000,11303.411282,-30081.581185,-1055.337614,-2354.108078,-20292.165314,-10755.502970,-20053.739256,-27360.144539,-488.475023,3247.641414,-12340.755742,1184.106014,-11730.329601,-14002.674997,5919.345429,-28367.023571,0.000750,-0.012000,1.007750,192.000000,0.000000,0.000000,0.000000,0.000000,0.000000,0.000000,0.000000,0.000000,0.000000,1772619416.678120,0.000000
52.000000,11302.807784,-30081.000040,-1056.812830,-2353.906912,-20287.046765,-10755.793542,-20053.403980,-27356.590612,-475.913343,3255.710394,-12346.544844,1195.125424,-11733.570604,-14007.502974,5914.115121,-28376.992449,0.000750,-0.012000,1.007750,192.000000,0.000000,0.000000,0.000000,0.000000,0.000000,0.000000,0.000000,0.000000,0.000000,1772619416.678132,0.000000
54.000000,11301.846659,-30082.005868,-1053.460068,-2351.850552,-20280.408297,-10752.932519,-20051.392323,-27355.473024,-489.503204,3256.470353,-12340.576928,1191.280924,-11728.697923,-14002.317369,5923.771074,-28366.464778,0.000750,-0.012000,1.007750,192.000000,0.000000,0.000000,0.000000,0.000000,0.000000,0.000000,0.000000,0.000000,0.000000,1772619416.678144,0.000000
56.000000,11269.548389,-30112.314834,-1067.720481,-2366.423889,-20294.109916,-10765.293034,-20066.435047,-27380.238757,-499.539137,3245.629757,-12355.709059,1184.888325,-11738.465636,-14014.387311,5930.543653,-28369.370505,0.000750,-0.012000,1.007750,192.000000,0.000000,0.000000,0.000000,0.000000,0.000000,0.000000,0.000000,0.000000,0.000000,1772619416.678156,0.000000
58.000000,11267.782601,-30113.387717,-1067.452260,-2365.552171,-20288.700794,-10758.408696,-20066.010364,-27384.865568,-516.481759,3233.984498,-12370.908245,1164.637645,-11749.932080,-14020.265820,5923.905185,-28368.051752,0.004375,-0.010000,1.007875,192.000000,0.000000,32.000000,127.500000,96.000000,15.500000,64.000000,0.000000,0.000000,0.000000,1772619416.678168,0.000000
60.000000,11252.181083,-30122.507229,-1077.108214,-2365.708633,-20297.462678,-10755.257100,-20069.877216,-27393.001603,-524.126056,3233.895091,-12371.377632,1165.866991,-11754.402429,-14018.365922,5929.537824,-28353.903097,0.004375,-0.010000,1.007875,192.000000,0.000000,0.000000,0.000000,0.000000,0.000000,0.000000,0.000000,0.000000,0.000000,1772619416.678180,0.000000
62.000000,11251.689345,-30121.479049,-1091.301571,-2366.669758,-20310.627855,-10757.782848,-20077.812085,-27397.650766,-535.458390,3236.510245,-12390.823649,1161.217828,-11776.553008,-14026.680771,5916.774978,-28358.753426,0.004375,-0.010000,1.007875,192.000000,0.000000,0.000000,0.000000,0.000000,0.000000,0.000000,0.000000,0.000000,0.000000,1772619416.678191,0.000000
64.000000,11260.026546,-30118.059232,-1088.015865,-2357.058508,-20307.230390,-10755.033583,-20070.056030,-27387.413667,-531.144503,3246.546179,-12377.747879,1163.788279,-11769.489857,-14010.542811,5911.857594,-28340.246182,0.004375,-0.010000,1.007875,192.000000,0.000000,0.000000,0.000000,0.000000,0.000000,0.000000,0.000000,0.000000,0.000000,1772619416.678203,0.000000
66.000000,11259.959490,-30114.706470,-1086.719464,-2356.522066,-20306.917466,-10752.977223,-20069.966623,-27383.189187,-526.450637,3239.997118,-12380.184219,1168.750366,-11771.210941,-14015.124919,5896.300780,-28349.097472,0.004375,-0.010000,1.007875,192.000000,0.000000,0.000000,0.000000,0.000000,0.000000,0.000000,0.000000,0.000000,0.000000,1772619416.678223,0.000000
68.000000,11287.027453,-30091.527711,-1063.741870,-2345.077973,-20291.405355,-10745.332926,-20053.336925,-27362.603231,-514.626564,3257.833810,-12361.855788,1179.546258,-11754.313022,-13999.523401,5896.412539,-28352.763158,0.006188,-0.009000,1.006938,192.000000,0.000000,32.000000,127.500000,96.000000,15.500000,56.000000,0.000000,0.000000,0.000000,1772619416.678235,0.000000
70.000000,11283.875857,-30091.013621,-1057.036347,-2349.548322,-20289.885436,-10747.322231,-20054.543919,-27366.090103,-499.270916,3265.925141,-12347.237748,1184.933029,-11736.588089,-13992.840230,5901.687551,-28361.078007,0.006188,-0.009000,1.006938,192.000000,0.000000,0.000000,0.000000,0.000000,0.000000,0.000000,0.000000,0.000000,0.000000,1772619416.678247,0.000000
72.000000,11285.440479,-30092.511188,-1051.135486,-2350.755316,-20284.521018,-10745.422333,-20052.241689,-27365.978344,-497.080445,3265.120478,-12355.954928,1185.178898,-11738.487987,-14001.490355,5903.140414,-28375.584290,0.006188,-0.009000,1.006938,192.000000,0.000000,0.000000,0.000000,0.000000,0.000000,0.000000,0.000000,0.000000,0.000000,1772619416.678259,0.000000
74.000000,11282.333586,-30095.327508,-1055.091745,-2351.895255,-20283.023451,-10745.310574,-20052.286393,-27367.095931,-494.599401,3265.500458,-12344.153207,1182.474337,-11724.808720,-13989.174544,5916.216185,-28364.251955,0.006188,-0.009000,1.006938,192.000000,0.000000,0.000000,0.000000,0.000000,0.000000,0.000000,0.000000,0.000000,0.000000,1772619416.678271,0.000000
76.000000,11267.782601,-30109.453810,-1068.771013,-2360.321863,-20293.193494,-10758.274586,-20062.188216,-27378.361211,-501.282573,3261.208923,-12357.452495,1181.021474,-11738.487987,-14000.573933,5909.711827,-28375.114903,0.006188,-0.009000,1.006938,192.000000,0.000000,0.000000,0.000000,0.000000,0.000000,0.000000,0.000000,0.000000,0.000000,1772619416.678283,0.000000
78.000000,11273.191723,-30106.078697,-1065.619417,-2354.197485,-20280.967090,-10750.384420,-20056.130893,-27374.047324,-506.512881,3247.261434,-12361.006422,1167.610427,-11733.280031,-14005.357207,5909.823586,-28370.532795,0.005094,-0.012500,1.009469,192.000000,0.000000,16.000000,127.500000,64.000000,15.500000,80.000000,0.000000,0.000000,0.000000,1772619416.678296,0.000000
80.000000,11261.568816,-30111.912502,-1080.460975,-2360.634787,-20294.266378,-10756.128819,-20069.296070,-27385.916100,-507.384599,3248.513132,-12360.134704,1172.192534,-11739.717333,-14003.054977,5912.103464,-28360.273345,0.005094,-0.012500,1.009469,192.000000,0.000000,0.000000,0.000000,0.000000,0.000000,0.000000,0.000000,0.000000,0.000000,1772619416.678308,0.000000
82.000000,11251.979918,-30122.641340,-1084.998379,-2366.334482,-20298.736727,-10761.157961,-20073.833474,-27395.683813,-521.399143,3234.096257,-12380.765364,1160.346110,-11756.659956,-14016.488375,5908.303667,-28366.174205,0.005094,-0.012500,1.009469,192.000000,0.000000,0.000000,0.000000,0.000000,0.000000,0.000000,0.000000,0.000000,0.000000,1772619416.678321,0.000000
84.000000,11250.795275,-30128.564552,-1086.875926,-2373.777613,-20307.029224,-10765.896531,-20075.688669,-27403.015185,-523.299041,3227.658955,-12377.792582,1147.739726,-11750.222653,-14011.727454,5919.077208,-28354.216022,0.005094,-0.012500,1.009469,192.000000,0.000000,0.000000,0.000000,0.000000,0.000000,0.000000,0.000000,0.000000,0.000000,1772619416.678332,0.000000
86.000000,11242.391019,-30134.711282,-1098.923516,-2381.019578,-20326.832870,-10776.558313,-20085.590492,-27409.653653,-525.914195,3219.075885,-12392.254161,1140.765982,-11771.590921,-14033.788625,5904.749740,-28365.280135,0.005094,-0.012500,1.009469,192.000000,0.000000,0.000000,0.000000,0.000000,0.000000,0.000000,0.000000,0.000000,0.000000,1772619416.678344,0.000000
88.000000,11256.986708,-30123.021319,-1086.183022,-2371.251866,-20314.539410,-10765.538903,-20071.106562,-27389.894711,-526.607099,3220.931079,-12386.286245,1143.515246,-11772.417935,-14033.654515,5893.775033,-28356.562955,0.005094,-0.012500,1.009469,192.000000,0.000000,0.000000,0.000000,0.000000,0.000000,0.000000,0.000000,0.000000,0.000000,1772619416.678356,0.000000
90.000000,11266.396793,-30111.688985,-1079.544554,-2361.484153,-20302.581227,-10762.990804,-20067.239710,-27379.344687,-510.759713,3229.312984,-12367.108448,1156.412203,-11754.424781,-14022.456291,5890.712844,-28352.696103,0.004000,-0.008000,1.010000,192.000000,0.000000,16.000000,127.500000,96.000000,15.500000,72.000000,0.000000,0.000000,0.000000,1772619416.678368,0.000000
92.000000,11281.819496,-30096.243929,-1067.608722,-2350.554150,-20292.522942,-10758.073420,-20059.908338,-27368.258222,-494.912326,3244.936853,-12365.543826,1171.186706,-11747.316926,-14014.074387,5889.103519,-28366.084798,0.004000,-0.008000,1.010000,192.000000,0.000000,0.000000,0.000000,0.000000,0.000000,0.000000,0.000000,0.000000,0.000000,1772619416.678380,0.000000
94.000000,11299.253857,-30082.072923,-1050.599045,-2339.490037,-20279.670689,-10744.416504,-20049.112445,-27354.221327,-488.027988,3260.225446,-12339.973431,1181.222639,-11725.121644,-13991.476773,5905.152071,-28358.574612,0.004000,-0.008000,1.010000,192.000000,0.000000,0.000000,0.000000,0.000000,0.000000,0.000000,0.000000,0.000000,0.000000,1772619416.678392,0.000000
96.000000,11294.604694,-30084.509264,-1055.494077,-2346.128505,-20282.866989,-10747.612804,-20056.265003,-27362.916155,-469.364282,3266.372176,-12338.274698,1187.436424,-11717.700865,-13992.035567,5904.928554,-28367.537661,0.004000,-0.008000,1.010000,192.000000,0.000000,0.000000,0.000000,0.000000,0.000000,0.000000,0.000000,0.000000,0.000000,1772619416.678403,0.000000
98.000000,11294.291770,-30085.068057,-1055.002338,-2343.580406,-20277.390811,-10751.300842,-20051.414675,-27357.104702,-476.181564,3264.159353,-12342.677992,1184.731863,-11718.103196,-13996.640026,5910.114158,-28369.549318,0.004000,-0.008000,1.010000,192.000000,0.000000,0.000000,0.000000,0.000000,0.000000,0.000000,0.000000,0.000000,0.000000,1772619416.678415,0.000000
100.000000,11284.389947,-30092.287671,-1068.413385,-2350.554150,-20281.034145,-10742.181330,-20064.848073,-27371.029838,-475.645122,3258.124382,-12342.566233,1185.581229,-11718.326714,-13993.488430,5916.283240,-28365.570708,0.004000,-0.008000,1.014000,192.000000,0.000000,16.000000,127.500000,96.000000,15.500000,88.000000,0.000000,0.000000,0.000000,1772619416.678427,0.000000
102.000000,11289.799069,-30086.319755,-1069.754490,-2343.580406,-20271.445247,-10737.263946,-20062.255271,-27368.884071,-475.354549,3252.938778,-12359.620614,1178.361616,-11710.235382,-13995.813012,5908.974219,-28369.571670,0.004000,-0.008000,1.014000,192.000000,0.000000,0.000000,0.000000,0.000000,0.000000,0.000000,0.000000,0.000000,0.000000,1772619416.678438,0.000000
104.000000,11285.239313,-30092.578243,-1071.296760,-2349.861246,-20269.880625,-10735.252289,-20066.345640,-27376.260147,-478.483794,3260.985406,-12346.366030,1174.472412,-11708.022560,-13982.983110,5923.771074,-28343.822461,0.004000,-0.008000,1.014000,192.000000,0.000000,0.000000,0.000000,0.000000,0.000000,0.000000,0.000000,0.000000,0.000000,1772619416.678450,0.000000
106.000000,11274.644586,-30101.384831,-1079.589257,-2361.730023,-20285.325680,-10738.001554,-20076.940367,-27387.905406,-486.820994,3246.456772,-12362.325175,1165.442308,-11739.180891,-14000.931561,5920.463016,-28355.087740,0.004000,-0.008000,1.014000,192.000000,0.000000,0.000000,0.000000,0.000000,0.000000,0.000000,0.000000,0.000000,0.000000,1772619416.678462,0.000000
108.000000,11281.037185,-30096.802723,-1077.935228,-2360.411270,-20286.867951,-10741.868406,-20070.324250,-27385.938452,-490.419625,3244.333356,-12365.342661,1159.854372,-11741.907804,-14004.329026,5922.094693,-28352.249068,0.004000,-0.008000,1.014000,192.000000,0.000000,0.000000,0.000000,0.000000,0.000000,0.000000,0.000000,0.000000,0.000000,1772619416.678474,0.000000
110.000000,11271.694156,-30111.666633,-1090.653371,-2368.279084,-20304.972864,-10759.123952,-20078.393230,-27398.991871,-496.231079,3234.945623,-12368.360146,1152.746517,-11744.902938,-14012.129785,5916.685571,-28348.896307,0.004000,-0.010000,1.012000,192.000000,0.000000,16.000000,127.500000,88.000000,15.500000,80.000000,0.000000,0.000000,0.000000,1772619416.678486,0.000000
112.000000,11281.081889,-30103.463543,-1091.145109,-2367.072090,-20309.443213,-10764.980109,-20079.130838,-27402.411688,-498.175680,3228.240100,-12387.359129,1141.950624,-11749.596804,-14027.820710,5894.155013,-28363.581403,0.004000,-0.010000,1.012000,192.000000,0.000000,0.000000,0.000000,0.000000,0.000000,0.000000,0.000000,0.000000,0.000000,1772619416.678497,0.000000
114.000000,11279.785488,-30089.605461,-1077.175269,-2354.622168,-20302.335358,-10760.934444,-20067.396172,-27385.044382,-490.531384,3243.506341,-12369.365975,1150.086659,-11734.308211,-14013.225021,5894.579696,-28357.367618,0.004000,-0.010000,1.012000,192.000000,0.000000,0.000000,0.000000,0.000000,0.000000,0.000000,0.000000,0.000000,0.000000,1772619417.159072,0.000000
116.000000,11288.033281,-30086.699735,-1072.257885,-2355.985624,-20305.822230,-10762.163790,-20069.899567,-27373.801455,-481.076596,3243.863969,-12361.945195,1165.643473,-11727.423874,-14010.140480,5893.327998,-28375.405476,0.004000,-0.010000,1.012000,192.000000,0.000000,0.000000,0.000000,0.000000,0.000000,0.000000,0.000000,0.000000,0.000000,1772619417.159138,0.000000
118.000000,11310.787357,-30068.036028,-1053.884751,-2342.172246,-20281.056497,-10744.863539,-20053.605146,-27352.969629,-469.230171,3258.459658,-12337.335925,1180.708549,-11724.272278,-13992.415546,5897.239554,-28371.024534,0.004000,-0.010000,1.012000,192.000000,0.000000,0.000000,0.000000,0.000000,0.000000,0.000000,0.000000,0.000000,0.000000,1772619417.159200,0.000000
120.000000,11309.558011,-30065.957316,-1057.595141,-2342.887502,-20283.671651,-10747.635156,-20056.443817,-27357.842309,-464.692767,3267.847391,-12329.199890,1186.072968,-11702.568734,-13987.453459,5911.052932,-28364.743693,0.004000,-0.010000,1.012000,192.000000,0.000000,0.000000,127.500000,72.000000,15.500000,80.000000,0.000000,0.000000,0.000000,1772619417.159259,0.000000
122.000000,11308.395721,-30066.091426,-1064.546533,-2341.769915,-20289.617215,-10753.156037,-20060.556538,-27361.351533,-461.876447,3266.953321,-12342.677992,1187.369369,-11722.372380,-14001.244486,5906.873155,-28370.063409,0.004000,-0.010000,1.012000,192.000000,0.000000,0.000000,0.000000,0.000000,0.000000,0.000000,0.000000,0.000000,0.000000,1772619417.159300,0.000000
124.000000,11314.497747,-30061.017580,-1061.372585,-2338.305394,-20284.051631,-10744.371801,-20057.069666,-27358.065827,-474.035796,3268.584999,-12340.733390,1181.826136,-11732.073037,-13994.561314,5909.711827,-28359.625144,0.004000,-0.010000,1.012000,192.000000,0.000000,0.000000,0.000000,0.000000,0.000000,0.000000,0.000000,0.000000,0.000000,1772619417.159342,0.000000
126.000000,11307.546354,-30068.885394,-1071.073243,-2348.944825,-20286.935006,-10752.820760,-20067.016192,-27365.911289,-466.682072,3266.215714,-12343.393248,1182.161412,-11727.557984,-13999.165773,5910.136510,-28360.474510,0.004000,-0.010000,1.012000,192.000000,0.000000,0.000000,0.000000,0.000000,0.000000,0.000000,0.000000,0.000000,0.000000,1772619417.159383,0.000000
128.000000,11299.298561,-30076.283822,-1076.795289,-2353.504581,-20289.348994,-10755.815894,-20069.765457,-27372.862681,-482.305942,3250.860065,-12353.853864,1165.196438,-11733.637659,-14007.368864,5906.023789,-28360.988600,0.004000,-0.010000,1.012000,192.000000,0.000000,0.000000,0.000000,0.000000,0.000000,0.000000,0.000000,0.000000,0.000000,1772619417.159424,0.000000
130.000000,11286.066328,-30087.258528,-1091.100406,-2363.898142,-20303.274131,-10761.381478,-20080.986033,-27391.347574,-492.967724,3245.674461,-12364.828570,1152.143020,-11743.181854,-14008.799375,5899.407673,-28357.166452,0.004000,-0.010000,1.012000,192.000000,0.000000,0.000000,127.500000,80.000000,15.500000,88.000000,0.000000,0.000000,0.000000,1772619417.159466,0.000000
132.000000,11280.344281,-30092.801761,-1096.442473,-2366.982683,-20312.438346,-10765.315385,-20082.260082,-27396.846103,-501.506090,3237.516074,-12385.526286,1143.112915,-11760.236235,-14023.685637,5892.657446,-28361.659153,0.004000,-0.010000,1.012000,192.000000,0.000000,0.000000,0.000000,0.000000,0.000000,0.000000,0.000000,0.000000,0.000000,1772619417.159508,0.000000
134.000000,11288.010930,-30083.794008,-1090.005170,-2358.176095,-20316.595771,-10769.249293,-20071.218320,-27385.156141,-507.406951,3239.572434,-12373.992786,1142.487066,-11756.682307,-14014.163794,5896.703112,-28356.585307,0.004000,-0.010000,1.012000,192.000000,0.000000,0.000000,0.000000,0.000000,0.000000,0.000000,0.000000,0.000000,0.000000,1772619417.159549,0.000000
136.000000,11297.353959,-30073.445150,-1083.076129,-2352.364642,-20317.959227,-10770.679804,-20067.887910,-27373.644993,-496.767521,3245.003908,-12370.394155,1153.662938,-11759.878607,-14018.075349,5881.727443,-28376.746580,0.004000,-0.010000,1.012000,192.000000,0.000000,0.000000,0.000000,0.000000,0.000000,0.000000,0.000000,0.000000,0.000000,1772619417.159591,0.000000
138.000000,11326.433578,-30048.232382,-1060.478516,-2335.533778,-20288.812553,-10749.736220,-20051.571137,-27348.678094,-478.774366,3259.309025,-12347.193044,1169.935008,-11727.848557,-14000.283361,5893.193888,-28371.896252,0.004000,-0.010000,1.012000,192.000000,0.000000,0.000000,0.000000,0.000000,0.000000,0.000000,0.000000,0.000000,0.000000,1772619417.159631,0.000000
140.000000,11329.674581,-30042.823260,-1059.785612,-2337.903063,-20286.197398,-10743.120103,-20056.399114,-27351.539117,-463.843401,3275.245819,-12328.127006,1183.636628,-11705.832089,-13981.172619,5905.196775,-28362.329705,0.002000,-0.008000,1.010000,192.000000,0.000000,8.000000,127.500000,96.000000,15.500000,72.000000,0.000000,0.000000,0.000000,1772619417.159673,0.000000
142.000000,11327.662924,-30043.896144,-1060.545571,-2338.394801,-20283.470486,-10743.455379,-20055.661506,-27350.935620,-456.735546,3279.112670,-12337.581794,1185.111843,-11725.501624,-13990.560352,5899.966466,-28372.186824,0.002000,-0.008000,1.010000,192.000000,0.000000,0.000000,0.000000,0.000000,0.000000,0.000000,0.000000,0.000000,0.000000,1772619417.159705,0.000000
144.000000,11328.400532,-30043.717330,-1058.064527,-2332.985679,-20279.782448,-10741.019039,-20050.788826,-27346.241754,-467.710253,3279.112670,-12331.524471,1181.736729,-11722.707656,-13978.758631,5906.828452,-28361.189766,0.002000,-0.008000,1.010000,192.000000,0.000000,0.000000,0.000000,0.000000,0.000000,0.000000,0.000000,0.000000,0.000000,1772619417.159716,0.000000
146.000000,11320.555070,-30047.561830,-1069.016882,-2337.634842,-20286.756192,-10743.924766,-20062.367029,-27353.260202,-456.176753,3277.056310,-12337.179463,1186.743520,-11721.523013,-13989.018081,5910.471786,-28363.447292,0.002000,-0.008000,1.010000,192.000000,0.000000,0.000000,0.000000,0.000000,0.000000,0.000000,0.000000,0.000000,0.000000,1772619417.159742,0.000000
148.000000,11332.625012,-30036.520068,-1063.339539,-2330.124656,-20272.585186,-10730.267850,-20058.187253,-27343.626600,-461.809392,3281.660769,-12338.006477,1186.072968,-11719.176080,-13986.604093,5915.746798,-28354.931278,0.002000,-0.008000,1.010000,192.000000,0.000000,0.000000,0.000000,0.000000,0.000000,0.000000,0.000000,0.000000,0.000000,1772619417.159754,0.000000
150.000000,11329.249898,-30038.822298,-1067.027577,-2336.338441,-20279.715393,-10737.554519,-20064.289279,-27348.856908,-455.953235,3283.806537,-12327.232936,1187.279962,-11717.164423,-13979.116259,5920.485368,-28341.453176,0.002000,-0.008000,1.010000,192.000000,0.000000,0.000000,127.500000,88.000000,15.500000,56.000000,0.000000,0.000000,0.000000,1772619417.159765,0.000000
152.000000,11314.229526,-30054.177946,-1075.878868,-2345.167380,-20290.377175,-10745.936423,-20069.296070,-27361.575051,-461.898799,3274.239990,-12344.823759,1179.546258,-11726.708618,-13999.568105,5913.243403,-28353.634876,0.002000,-0.008000,1.010000,192.000000,0.000000,0.000000,0.000000,0.000000,0.000000,0.000000,0.000000,0.000000,0.000000,1772619417.159778,0.000000
154.000000,11307.926334,-30061.934002,-1081.109176,-2348.542493,-20296.188628,-10749.333888,-20069.743105,-27368.727609,-482.305942,3261.477144,-12349.204701,1163.318892,-11729.279069,-14001.132727,5910.516490,-28342.570763,0.002000,-0.008000,1.010000,192.000000,0.000000,0.000000,0.000000,0.000000,0.000000,0.000000,0.000000,0.000000,0.000000,1772619417.159790,0.000000
156.000000,11295.297598,-30071.589955,-1090.541612,-2356.522066,-20311.097242,-10764.331909,-20076.828608,-27374.695525,-488.497375,3251.418859,-12364.448591,1157.999177,-11754.044801,-14018.812957,5893.439757,-28355.557126,0.002000,-0.008000,1.010000,192.000000,0.000000,0.000000,0.000000,0.000000,0.000000,0.000000,0.000000,0.000000,0.000000,1772619417.159802,0.000000
158.000000,11317.559936,-30050.244039,-1071.073243,-2343.043964,-20297.060346,-10760.420353,-20060.668297,-27355.540080,-485.435186,3254.078717,-12358.704192,1160.614331,-11748.412162,-14013.694407,5895.518469,-28367.180034,0.002000,-0.008000,1.010000,192.000000,0.000000,0.000000,0.000000,0.000000,0.000000,0.000000,0.000000,0.000000,0.000000,1772619417.159814,0.000000
160.000000,11325.673619,-30040.163403,-1061.461992,-2337.880711,-20293.796992,-10761.314423,-20054.879195,-27342.374902,-471.890029,3272.362443,-12335.927765,1178.003988,-11728.608516,-14000.350416,5900.905240,-28366.911813,0.002000,-0.008000,1.010000,192.000000,0.000000,0.000000,127.500000,72.000000,15.500000,64.000000,0.000000,0.000000,0.000000,1772619417.159826,0.000000
162.000000,11325.025418,-30045.326656,-1057.773955,-2338.126580,-20291.338300,-10758.878083,-20054.879195,-27344.252449,-468.805488,3275.938723,-12338.766436,1183.256648,-11730.910746,-14002.630294,5898.334789,-28377.975926,0.002000,-0.008000,1.010000,192.000000,0.000000,0.000000,0.000000,0.000000,0.000000,0.000000,0.000000,0.000000,0.000000,1772619417.159838,0.000000
164.000000,11333.899061,-30037.347083,-1050.621396,-2329.163531,-20283.939872,-10749.266833,-20048.955983,-27337.457518,-464.513953,3275.871667,-12325.958887,1180.239162,-11722.059455,-13991.275607,5909.756530,-28366.397723,0.002000,-0.008000,1.010000,192.000000,0.000000,0.000000,0.000000,0.000000,0.000000,0.000000,0.000000,0.000000,0.000000,1772619417.159850,0.000000
166.000000,11330.881575,-30036.967103,-1053.415364,-2325.654307,-20278.597805,-10737.308650,-20053.783960,-27340.162079,-455.617959,3286.354636,-12327.501157,1193.069064,-11719.131377,-13992.974340,5911.298801,-28363.469644,0.002000,-0.008000,1.010000,192.000000,0.000000,0.000000,0.000000,0.000000,0.000000,0.000000,0.000000,0.000000,0.000000,1772619417.159862,0.000000
168.000000,11327.573517,-30039.492850,-1051.359004,-2321.519234,-20259.308250,-10727.898565,-20051.973468,-27340.407949,-458.277817,3285.885249,-12329.423407,1195.281886,-11714.325752,-13983.519552,5923.458150,-28352.204365,0.002000,-0.008000,1.010000,192.000000,0.000000,0.000000,0.000000,0.000000,0.000000,0.000000,0.000000,0.000000,0.000000,1772619417.159873,0.000000
170.000000,11315.324761,-30049.394673,-1059.830315,-2332.002203,-20262.616308,-10725.372818,-20060.042448,-27350.354475,-461.451764,3286.444042,-12329.445759,1187.726997,-11709.453071,-13976.076421,5930.387191,-28341.117900,0.002000,-0.008000,1.010000,192.000000,0.000000,0.000000,127.500000,72.000000,15.500000,64.000000,0.000000,0.000000,0.000000,1772619417.159885,0.000000
172.000000,11299.678540,-30065.599688,-1071.967312,-2341.077011,-20277.904901,-10741.354315,-20066.725620,-27365.576013,-467.285570,3275.446984,-12349.942309,1176.841697,-11724.182871,-13992.974340,5923.480502,-28348.471623,0.002000,-0.008000,1.010000,192.000000,0.000000,0.000000,0.000000,0.000000,0.000000,0.000000,0.000000,0.000000,0.000000,1772619417.159898,0.000000
174.000000,11289.307331,-30081.961165,-1076.281199,-2346.486133,-20292.522942,-10750.451475,-20064.736314,-27370.716914,-479.042587,3267.579170,-12352.825684,1160.994310,-11728.228537,-13995.455384,5918.920746,-28342.414301,0.002000,-0.008000,1.010000,192.000000,0.000000,0.000000,0.000000,0.000000,0.000000,0.000000,0.000000,0.000000,0.000000,1772619417.159909,0.000000
176.000000,11261.747630,-30106.011642,-1097.425949,-2361.439450,-20323.547163,-10773.294958,-20080.002556,-27389.380621,-501.170814,3234.096257,-12370.125934,1148.566741,-11742.287784,-14018.857660,5898.401844,-28353.098435,0.002000,-0.008000,1.010000,192.000000,0.000000,0.000000,0.000000,0.000000,0.000000,0.000000,0.000000,0.000000,0.000000,1772619417.159920,0.000000
178.000000,11278.176162,-30093.137037,-1089.535783,-2354.465706,-20315.969922,-10775.910112,-20071.106562,-27374.159083,-505.372942,3228.396562,-12372.741088,1144.275206,-11758.448095,-14034.637992,5881.258056,-28368.722304,0.002000,-0.008000,1.010000,192.000000,0.000000,0.000000,0.000000,0.000000,0.000000,0.000000,0.000000,0.000000,0.000000,1772619417.159932,0.000000
180.000000,11289.977883,-30075.993249,-1080.416272,-2346.441429,-20308.772660,-10768.198761,-20064.736314,-27359.518690,-488.564430,3243.998080,-12350.992841,1163.788279,-11740.253775,-14020.645800,5890.399920,-28366.621240,0.002000,-0.008000,1.010000,192.000000,0.000000,0.000000,127.500000,80.000000,15.500000,40.000000,0.000000,0.000000,0.000000,1772619417.159943,0.000000
182.000000,11290.111994,-30069.824167,-1074.560115,-2344.854456,-20293.886399,-10754.787714,-20063.685782,-27359.742207,-481.635390,3257.722051,-12356.178445,1175.031206,-11747.406333,-14014.253201,5890.891658,-28372.008010,0.002000,-0.008000,1.010000,192.000000,0.000000,0.000000,0.000000,0.000000,0.000000,0.000000,0.000000,0.000000,0.000000,1772619417.159955,0.000000
184.000000,11295.789337,-30071.701714,-1060.299702,-2336.494903,-20278.776619,-10743.656545,-20053.001649,-27350.913268,-476.919171,3266.059252,-12342.476826,1173.131308,-11727.870909,-13995.835363,5911.343504,-28360.295696,0.002000,-0.008000,1.010000,192.000000,0.000000,0.000000,0.000000,0.000000,0.000000,0.000000,0.000000,0.000000,0.000000,1772619417.159967,0.000000
186.000000,11290.760194,-30079.636583,-1062.780745,-2336.718421,-20280.453000,-10747.590452,-20058.343715,-27356.680019,-474.795756,3257.565589,-12345.382553,1171.767851,-11727.043894,-14000.372767,5918.764284,-28365.034266,0.002000,-0.008000,1.010000,192.000000,0.000000,0.000000,0.000000,0.000000,0.000000,0.000000,0.000000,0.000000,0.000000,1772619417.159979,0.000000
188.000000,11292.213058,-30081.603537,-1057.416327,-2329.364697,-20275.714430,-10745.176464,-20052.129931,-27353.260202,-467.844363,3254.928083,-12341.873329,1165.084680,-11723.847595,-13998.472869,5922.988763,-28361.994429,0.002000,-0.008000,1.010000,192.000000,0.000000,0.000000,0.000000,0.000000,0.000000,0.000000,0.000000,0.000000,0.000000,1772619417.159990,0.000000
190.000000,11287.675653,-30084.598671,-1064.725347,-2329.856435,-20284.811590,-10748.037487,-20057.159073,-27350.846213,-472.225305,3255.173952,-12336.821835,1164.637645,-11725.725141,-13996.863544,5927.727333,-28354.037208,0.002000,-0.008000,1.010000,192.000000,0.000000,0.000000,127.500000,88.000000,15.500000,48.000000,0.000000,0.000000,0.000000,1772619417.160002,0.000000
192.000000,11288.681482,-30083.235214,-1072.526106,-2333.522121,-20292.075907,-10751.032621,-20061.472960,-27347.828728,-475.443956,3251.955301,-12340.129893,1170.158526,-11737.973897,-14005.692483,5918.853690,-28356.227679,0.002000,-0.008000,1.010000,192.000000,0.000000,0.000000,0.000000,0.000000,0.000000,0.000000,0.000000,0.000000,0.000000,1772619417.160014,0.000000
194.000000,11298.091566,-30074.227461,-1071.430870,-2332.046906,-20291.964149,-10744.774132,-20059.997745,-27344.230097,-474.125203,3266.305121,-12326.472977,1178.071043,-11729.368476,-13996.796488,5911.008228,-28343.286019,0.002000,-0.008000,1.010000,192.000000,0.000000,0.000000,0.000000,0.000000,0.000000,0.000000,0.000000,0.000000,0.000000,1772619417.160026,0.000000
196.000000,11271.917674,-30096.959185,-1088.529955,-2351.515275,-20304.168201,-10752.507836,-20077.879140,-27370.091065,-481.791852,3253.475219,-12345.360201,1168.348034,-11740.946679,-14005.021930,5900.659371,-28349.253935,0.002000,-0.008000,1.010000,192.000000,0.000000,0.000000,0.000000,0.000000,0.000000,0.000000,0.000000,0.000000,0.000000,1772619417.160037,0.000000
198.000000,11277.572665,-30091.080676,-1080.930362,-2345.279139,-20295.339262,-10744.796484,-20067.507931,-27364.748998,-489.637314,3247.127324,-12362.593396,1154.869933,-11749.619156,-14013.135614,5898.379493,-28349.857432,0.002000,-0.008000,1.010000,192.000000,0.000000,0.000000,0.000000,0.000000,0.000000,0.000000,0.000000,0.000000,0.000000,1772619417.160048,0.000000
200.000000,11259.691269,-30107.732726,-1090.698074,-2355.292720,-20306.403375,-10759.839208,-20073.654660,-27374.762580,-494.152366,3252.111763,-12359.777076,1158.580322,-11745.461732,-14010.788680,5897.999513,-28346.191746,0.003000,-0.010000,1.007000,192.000000,0.000000,16.000000,127.500000,80.000000,15.500000,48.000000,0.000000,0.000000,0.000000,1772619417.160060,0.000000
202.000000,11250.705868,-30118.640377,-1091.368627,-2360.768898,-20306.604541,-10767.528208,-20076.403925,-27381.713972,-505.842329,3227.748362,-12377.993748,1144.029336,-11760.571511,-14032.782797,5892.523336,-28369.124635,0.003000,-0.010000,1.007000,192.000000,0.000000,0.000000,0.000000,0.000000,0.000000,0.000000,0.000000,0.000000,0.000000,1772619417.160072,0.000000
204.000000,11276.119802,-30094.299328,-1072.503754,-2342.954557,-20291.986500,-10757.760496,-20059.953041,-27362.580879,-501.416683,3229.201225,-12362.906320,1143.179970,-11745.417028,-14020.534041,5903.252173,-28366.263612,0.003000,-0.010000,1.007000,192.000000,0.000000,0.000000,0.000000,0.000000,0.000000,0.000000,0.000000,0.000000,0.000000,1772619417.160084,0.000000
206.000000,11288.122688,-30080.195377,-1070.089766,-2337.858360,-20293.394660,-10760.286243,-20061.562367,-27354.847175,-485.323427,3250.435382,-12348.176521,1168.258627,-11727.602688,-14012.688579,5913.064589,-28369.594022,0.003000,-0.010000,1.007000,192.000000,0.000000,0.000000,0.000000,0.000000,0.000000,0.000000,0.000000,0.000000,0.000000,1772619417.160097,0.000000
208.000000,11300.572610,-30069.578298,-1053.549475,-2321.832159,-20276.787314,-10745.154112,-20046.832567,-27339.692693,-473.275837,3264.226409,-12336.553614,1182.027302,-11730.955449,-13999.903381,5914.986839,-28368.163510,0.003000,-0.010000,1.007000,192.000000,0.000000,0.000000,0.000000,0.000000,0.000000,0.000000,0.000000,0.000000,0.000000,1772619417.160109,0.000000
210.000000,11300.326741,-30064.415045,-1053.013033,-2325.900176,-20278.039012,-10743.589490,-20049.425369,-27341.212611,-471.510049,3273.591789,-12325.914183,1187.861107,-11721.590069,-13987.431107,5927.928499,-28354.730112,0.002500,-0.010000,1.003500,192.000000,0.000000,8.000000,127.500000,88.000000,15.500000,32.000000,0.000000,0.000000,0.000000,1772619417.160123,0.000000
212.000000,11284.345243,-30082.966993,-1058.377452,-2334.796171,-20279.737744,-10749.423295,-20052.308744,-27351.248545,-465.989168,3270.417842,-12338.386457,1186.072968,-11728.072074,-14002.049148,5927.392057,-28365.101321,0.002500,-0.010000,1.003500,192.000000,0.000000,0.000000,0.000000,0.000000,0.000000,0.000000,0.000000,0.000000,0.000000,1772619417.160134,0.000000
214.000000,11266.665014,-30100.200188,-1064.658292,-2338.238339,-20288.901960,-10753.603071,-20051.638192,-27363.877280,-484.250544,3250.614196,-12345.762532,1168.482145,-11731.581298,-14003.099680,5933.404676,-28354.774815,0.002500,-0.010000,1.003500,192.000000,0.000000,0.000000,0.000000,0.000000,0.000000,0.000000,0.000000,0.000000,0.000000,1772619417.160146,0.000000
216.000000,11240.357010,-30121.389642,-1087.054740,-2356.700880,-20312.013663,-10773.384365,-20069.966623,-27387.972461,-503.674210,3228.888301,-12371.221169,1150.377232,-11756.525845,-14024.758521,5921.848824,-28361.480339,0.002500,-0.010000,1.003500,192.000000,0.000000,0.000000,0.000000,0.000000,0.000000,0.000000,0.000000,0.000000,0.000000,1772619417.160157,0.000000
218.000000,11248.202473,-30116.226389,-1087.524126,-2352.185828,-20313.690044,-10768.064650,-20067.440875,-27382.272766,-509.172739,3224.082675,-12375.736222,1141.749459,-11764.952453,-14028.692428,5905.308533,-28357.814653,0.002500,-0.010000,1.003500,192.000000,0.000000,0.000000,0.000000,0.000000,0.000000,0.000000,0.000000,0.000000,0.000000,1772619417.160169,0.000000
220.000000,11244.425028,-30120.294406,-1100.108159,-2361.126526,-20325.111786,-10771.596226,-20079.957852,-27388.419496,-512.190224,3226.586071,-12373.635158,1138.933139,-11767.321738,-14024.579707,5887.114213,-28352.986676,0.002500,-0.010000,1.003500,192.000000,0.000000,0.000000,0.000000,0.000000,0.000000,0.000000,0.000000,0.000000,0.000000,1772619417.160181,0.000000
222.000000,11252.002269,-30115.600540,-1095.771920,-2361.059470,-20317.176916,-10766.254159,-20078.125009,-27380.752847,-494.711160,3233.045725,-12372.875198,1144.588130,-11764.281900,-14028.468910,5875.446603,-28363.424941,-0.006000,-0.016000,1.002000,192.000000,127.500000,104.000000,127.500000,64.000000,15.500000,40.000000,0.000000,0.000000,0.000000,1772619417.160193,0.000000
224.000000,11255.623252,-30116.002872,-1086.987685,-2360.634787,-20306.738652,-10771.059784,-20070.391306,-27377.534196,-501.975477,3230.452923,-12362.928672,1139.357822,-11755.050630,-14027.016047,5884.029673,-28363.670810,-0.006000,-0.016000,1.002000,192.000000,0.000000,0.000000,0.000000,0.000000,0.000000,0.000000,0.000000,0.000000,0.000000,1772619417.160204,0.000000
226.000000,11252.091676,-30115.175857,-1089.334618,-2362.489982,-20311.365463,-10778.569970,-20069.005498,-27379.545853,-487.893878,3231.928138,-12361.185236,1146.666842,-11750.557929,-14030.525271,5882.599161,-28375.919566,-0.006000,-0.016000,1.002000,192.000000,0.000000,0.000000,0.000000,0.000000,0.000000,0.000000,0.000000,0.000000,0.000000,1772619417.160216,0.000000
228.000000,11258.439572,-30106.838656,-1076.839993,-2354.018671,-20301.173067,-10775.932464,-20056.265003,-27371.588632,-506.110550,3235.124437,-12367.734297,1148.611444,-11754.916520,-14030.145291,5889.483498,-28382.490979,-0.006000,-0.016000,1.002000,192.000000,0.000000,0.000000,0.000000,0.000000,0.000000,0.000000,0.000000,0.000000,0.000000,1772619417.160227,0.000000
230.000000,11253.455133,-30107.218636,-1076.012978,-2358.623130,-20307.655073,-10782.928560,-20062.747009,-27375.902519,-497.192204,3240.242987,-12360.246463,1151.070136,-11748.948604,-14023.529175,5901.262868,-28381.686316,-0.006000,-0.016000,1.002000,192.000000,0.000000,0.000000,0.000000,0.000000,0.000000,0.000000,0.000000,0.000000,0.000000,1772619417.160239,0.000000
232.000000,11261.278243,-30098.769677,-1070.112118,-2353.035194,-20300.949550,-10776.848886,-20062.255271,-27371.275708,-500.433207,3241.092353,-12368.807181,1154.959339,-11757.554025,-14031.195823,5908.862461,-28388.861226,-0.004000,-0.016000,1.000000,192.000000,127.500000,112.000000,127.500000,64.000000,15.500000,32.000000,0.000000,0.000000,0.000000,1772619417.160250,0.000000
234.000000,11270.509514,-30098.613214,-1061.037309,-2343.558054,-20291.807686,-10763.460191,-20053.649849,-27360.345705,-496.231079,3240.779429,-12349.987012,1156.814534,-11742.354839,-14025.227907,5925.469807,-28369.839891,-0.004000,-0.016000,1.000000,192.000000,0.000000,0.000000,0.000000,0.000000,0.000000,0.000000,0.000000,0.000000,0.000000,1772619417.160262,0.000000
236.000000,11262.976976,-30104.514075,-1078.069339,-2348.386031,-20304.659939,-10768.712851,-20062.344678,-27363.653763,-489.123224,3239.035993,-12353.675050,1162.737747,-11739.024429,-14026.971343,5920.351257,-28368.275269,-0.004000,-0.016000,1.000000,192.000000,0.000000,0.000000,0.000000,0.000000,0.000000,0.000000,0.000000,0.000000,0.000000,1772619417.639323,0.000000
238.000000,11275.493953,-30090.745400,-1073.353120,-2341.367583,-20299.943721,-10757.738144,-20052.644021,-27349.147481,-495.046436,3243.729859,-12354.524416,1164.436479,-11750.446171,-14023.707989,5909.711827,-28361.815615,-0.004000,-0.016000,1.000000,192.000000,0.000000,0.000000,0.000000,0.000000,0.000000,0.000000,0.000000,0.000000,0.000000,1772619417.639416,0.000000
240.000000,11268.274339,-30094.589900,-1087.501775,-2350.621206,-20312.214829,-10762.789638,-20064.423390,-27359.630449,-490.509032,3248.311966,-12346.209567,1166.962226,-11751.407296,-14018.343570,5905.755568,-28355.355961,-0.004000,-0.016000,1.000000,192.000000,0.000000,0.000000,0.000000,0.000000,0.000000,0.000000,0.000000,0.000000,0.000000,1772619417.639483,0.000000
242.000000,11265.100392,-30096.758020,-1091.703903,-2349.973005,-20314.941742,-10762.722583,-20062.814064,-27361.373885,-493.571221,3243.908673,-12360.559387,1164.503534,-11761.219711,-14025.071445,5885.884867,-28362.687333,0.002000,-0.014000,1.002000,192.000000,0.000000,8.000000,127.500000,72.000000,15.500000,40.000000,0.000000,0.000000,0.000000,1772619417.639558,0.000000
244.000000,11271.269473,-30091.795932,-1089.915763,-2349.637729,-20313.019492,-10764.488371,-20061.718829,-27359.630449,-497.393369,3252.625853,-12348.936480,1163.318892,-11750.982612,-14013.090910,5887.516545,-28352.226717,0.002000,-0.014000,1.002000,192.000000,0.000000,0.000000,0.000000,0.000000,0.000000,0.000000,0.000000,0.000000,0.000000,1772619417.639632,0.000000
246.000000,11264.675708,-30098.277938,-1089.044045,-2357.460839,-20315.992274,-10776.603016,-20067.038544,-27365.263088,-497.952163,3247.596711,-12358.279509,1161.821325,-11747.987479,-14023.350361,5878.821716,-28369.035228,0.002000,-0.014000,1.002000,192.000000,0.000000,0.000000,0.000000,0.000000,0.000000,0.000000,0.000000,0.000000,0.000000,1772619417.639706,0.000000
248.000000,11266.128572,-30100.691927,-1080.438623,-2354.800982,-20306.537486,-10777.050051,-20061.785884,-27363.720818,-488.005637,3242.992251,-12353.764457,1156.501610,-11743.450075,-14024.177375,5880.609856,-28376.903042,0.002000,-0.014000,1.002000,192.000000,0.000000,0.000000,0.000000,0.000000,0.000000,0.000000,0.000000,0.000000,0.000000,1772619417.639773,0.000000
250.000000,11271.090659,-30095.685136,-1076.214144,-2347.514313,-20293.662881,-10767.170580,-20060.690649,-27361.865623,-484.965799,3251.150638,-12342.879157,1161.262531,-11737.124531,-14014.141442,5893.931495,-28369.437560,0.002000,-0.014000,1.002000,192.000000,0.000000,0.000000,0.000000,0.000000,0.000000,0.000000,0.000000,0.000000,0.000000,1772619417.639841,0.000000
252.000000,11262.798162,-30106.257511,-1078.605780,-2350.151819,-20290.444230,-10768.131705,-20067.105599,-27372.147426,-480.160174,3238.946586,-12354.345602,1157.149810,-11741.572528,-14025.764349,5898.446548,-28380.769894,0.004000,-0.006000,1.006000,192.000000,0.000000,16.000000,127.500000,104.000000,15.500000,56.000000,0.000000,0.000000,0.000000,1772619417.639852,0.000000
254.000000,11266.396793,-30097.696793,-1071.453222,-2339.110057,-20276.496741,-10755.525321,-20059.774227,-27372.214481,-488.631486,3246.680289,-12346.142512,1154.378194,-11733.727066,-14011.638047,5916.149129,-28366.218909,0.004000,-0.006000,1.006000,192.000000,0.000000,0.000000,0.000000,0.000000,0.000000,0.000000,0.000000,0.000000,0.000000,1772619417.639864,0.000000
0.000000,11247.621327,-30115.667595,-1082.360874,-2350.643557,-20288.946663,-10767.796429,-20068.737277,-27390.185283,-488.407968,3241.919368,-12360.537036,1151.383060,-11739.627926,-14016.063692,5917.154958,-28368.387028,0.004000,-0.006000,1.006000,192.000000,0.000000,0.000000,0.000000,0.000000,0.000000,0.000000,0.000000,0.000000,0.000000,1772619417.639875,0.000000
2.000000,11242.055743,-30120.786145,-1078.874001,-2352.744621,-20298.848486,-10769.897493,-20063.238748,-27389.984118,-508.725704,3229.916481,-12375.803277,1141.727107,-11752.457828,-14026.144329,5915.523281,-28370.488092,0.004000,-0.006000,1.006000,192.000000,0.000000,0.000000,0.000000,0.000000,0.000000,0.000000,0.000000,0.000000,0.000000,1772619417.639886,0.000000
4.000000,11244.447380,-30117.031052,-1081.735025,-2356.723232,-20310.270227,-10771.328005,-20064.445742,-27383.412705,-516.928794,3233.448056,-12367.354318,1143.515246,-11754.022450,-14024.736169,5918.049028,-28364.050789,0.004000,-0.006000,1.006000,192.000000,0.000000,0.000000,0.000000,0.000000,0.000000,0.000000,0.000000,0.000000,0.000000,1772619417.639898,0.000000
6.000000,11245.363801,-30121.613159,-1088.664065,-2357.192619,-20319.456794,-10768.668147,-20066.703268,-27378.428266,-508.502186,3226.183739,-12371.757611,1142.017679,-11764.930101,-14036.649649,5897.038388,-28372.343287,0.006000,-0.008000,0.998000,192.000000,0.000000,24.000000,127.500000,96.000000,15.500000,24.000000,0.000000,0.000000,0.000000,1772619417.639909,0.000000
8.000000,11262.574644,-30103.530598,-1088.395845,-2349.570674,-20310.136117,-10753.692478,-20060.511835,-27362.714990,-514.537157,3235.683231,-12352.758628,1148.566741,-11756.279976,-14016.354265,5890.109347,-28353.389007,0.006000,-0.008000,0.998000,192.000000,0.000000,0.000000,0.000000,0.000000,0.000000,0.000000,0.000000,0.000000,0.000000,1772619417.639920,0.000000
10.000000,11253.924519,-30110.034956,-1100.108159,-2359.003110,-20321.222582,-10771.059784,-20067.709096,-27368.258222,-493.034779,3252.692908,-12349.919957,1162.178953,-11746.691078,-14015.549602,5876.273617,-28356.026513,0.006000,-0.008000,0.998000,192.000000,0.000000,0.000000,0.000000,0.000000,0.000000,0.000000,0.000000,0.000000,0.000000,1772619417.639931,0.000000
12.000000,11247.397810,-30119.668558,-1094.654333,-2358.421964,-20317.914524,-10779.575798,-20062.009402,-27371.521577,-510.357381,3232.263414,-12364.716812,1146.242159,-11765.064211,-14031.218175,5869.679853,-28365.838929,0.006000,-0.008000,0.998000,192.000000,0.000000,0.000000,0.000000,0.000000,0.000000,0.000000,0.000000,0.000000,0.000000,1772619417.639942,0.000000
14.000000,11241.206377,-30123.669520,-1091.994475,-2359.852476,-20315.321721,-10780.894551,-20062.679954,-27375.477836,-509.530367,3233.984498,-12358.503027,1143.358784,-11759.655089,-14025.317314,5875.290141,-28364.922507,0.006000,-0.008000,0.998000,192.000000,0.000000,0.000000,0.000000,0.000000,0.000000,0.000000,0.000000,0.000000,0.000000,1772619417.639953,0.000000
16.000000,11245.408505,-30120.182648,-1085.266600,-2354.152781,-20310.829021,-10777.161810,-20058.164902,-27370.381638,-509.999753,3226.273146,-12368.874236,1139.089601,-11765.511246,-14036.336724,5876.519486,-28382.759199,0.004000,-0.006000,1.004000,192.000000,0.000000,16.000000,127.500000,104.000000,15.500000,48.000000,0.000000,0.000000,0.000000,1772619417.639964,0.000000
18.000000,11257.411391,-30110.236121,-1072.973141,-2343.781572,-20295.316910,-10765.136572,-20049.537128,-27355.361266,-500.254393,3245.093315,-12344.175559,1152.500648,-11743.718296,-14014.856698,5894.736158,-28370.108112,0.004000,-0.006000,1.004000,192.000000,0.000000,0.000000,0.000000,0.000000,0.000000,0.000000,0.000000,0.000000,0.000000,1772619417.639976,0.000000
