Sample_index,EXG Channel 0,EXG Channel 1,EXG Channel 2,EXG Channel 3,EXG Channel 4,EXG Channel 5,EXG Channel 6,EXG Channel 7,EXG Channel 8,EXG Channel 9,EXG Channel 10,EXG Channel 11,EXG Channel 12,EXG Channel 13,EXG Channel 14,EXG Channel 15,Accel Channel 0,Accel Channel 1,Accel Channel 2,Not Used,Digital Channel 0 (D11),Digital Channel 1 (D12),Digital Channel 2 (D13),Digital Channel 3 (D17),Not Used,Digital Channel 4 (D18),Analog Channel 0,Analog Channel 1,Analog Channel 2,Timestamp,Marker Channel
90.000000,10657.222349,-22917.847087,-2807.915545,-697.977924,-21751.130730,-14558.741696,-19500.131249,-22824.550906,-3476.612684,1802.042341,-8920.871785,3094.397854,-12854.130608,-17271.863493,2231.866387,-29351.886136,0.004000,-0.016000,1.012000,192.000000,0.000000,0.000000,0.000000,0.000000,0.000000,0.000000,0.000000,0.000000,0.000000,1772620364.838334,101.000000
92.000000,10637.128131,-22936.220221,-2833.776514,-717.826273,-21767.268690,-14576.757202,-19521.723035,-22843.169909,-3448.985928,1846.902293,-8880.281017,3131.010012,-12799.972332,-17221.460309,2270.154926,-29302.600539,0.004000,-0.016000,1.012000,192.000000,0.000000,0.000000,0.000000,0.000000,0.000000,0.000000,0.000000,0.000000,0.000000,1772620364.838417,0.000000
94.000000,10615.804567,-22955.129797,-2856.687052,-734.970061,-21783.607815,-14589.251827,-19540.744369,-22866.460427,-3493.622362,1796.990847,-8942.240052,3086.038302,-12859.293861,-17278.703127,2233.453361,-29357.384665,0.002000,-0.014000,1.004000,192.000000,0.000000,8.000000,127.500000,72.000000,15.500000,48.000000,0.000000,0.000000,0.000000,1772620364.838464,0.000000
96.000000,10666.028937,-22903.363157,-2807.602621,-689.864241,-21736.579744,-14538.491015,-19492.598712,-22815.654911,-3464.028652,1836.665194,-8895.994293,3118.403628,-12817.473747,-17229.953972,2267.875048,-29309.082545,0.002000,-0.014000,1.004000,192.000000,0.000000,0.000000,0.000000,0.000000,0.000000,0.000000,0.000000,0.000000,0.000000,1772620364.838517,0.000000
98.000000,10626.689866,-22946.211451,-2848.416906,-735.528855,-21776.276443,-14579.081783,-19539.336209,-22855.061037,-3459.826524,1832.932452,-8892.418014,3116.637840,-12803.347445,-17238.827615,2265.706928,-29319.990196,0.002000,-0.014000,1.004000,192.000000,0.000000,0.000000,0.000000,0.000000,0.000000,0.000000,0.000000,0.000000,0.000000,1772620364.838565,0.000000
100.000000,10670.096954,-22902.558494,-2805.881537,-690.534793,-21733.361093,-14534.266536,-19497.136116,-22816.258409,-3466.286178,1816.325106,-8910.813500,3102.533889,-12824.738064,-17254.809112,2254.843981,-29338.720958,0.002000,-0.014000,1.004000,192.000000,0.000000,0.000000,0.000000,0.000000,0.000000,0.000000,0.000000,0.000000,0.000000,1772620364.838598,0.000000
102.000000,10654.383678,-22915.567209,-2819.985487,-704.415227,-21750.504881,-14552.550263,-19514.414014,-22832.597534,-3432.847969,1860.894485,-8866.065307,3143.214064,-12785.354291,-17211.938466,2285.734091,-29294.173931,0.002000,-0.014000,1.004000,192.000000,0.000000,0.000000,0.000000,0.000000,0.000000,0.000000,0.000000,0.000000,0.000000,1772620364.838612,0.000000
104.000000,10634.334163,-22936.287276,-2841.219645,-721.491959,-21771.739038,-14572.108039,-19531.669561,-22853.630525,-3473.170516,1817.353286,-8920.245936,3105.394912,-12828.403750,-17261.849911,2247.669071,-29347.236973,0.002000,-0.014000,1.004000,192.000000,0.000000,0.000000,127.500000,88.000000,15.500000,24.000000,0.000000,0.000000,0.000000,1772620364.838623,0.000000
106.000000,10660.418649,-22914.516677,-2808.541394,-685.706816,-21738.457291,-14541.217928,-19490.005909,-22823.410967,-3449.030632,1841.940205,-8885.824249,3125.712648,-12803.839183,-17226.400045,2262.689443,-29306.489743,0.002000,-0.014000,1.004000,192.000000,0.000000,0.000000,0.000000,0.000000,0.000000,0.000000,0.000000,0.000000,0.000000,1772620364.838634,0.000000
108.000000,10608.249677,-22972.072419,-2858.855171,-738.635747,-21794.403707,-14591.062318,-19544.633573,-22876.406953,-3470.242437,1811.541833,-8907.304276,3100.969267,-12830.616573,-17253.937394,2247.154981,-29326.516906,0.002000,-0.014000,1.004000,192.000000,0.000000,0.000000,0.000000,0.000000,0.000000,0.000000,0.000000,0.000000,0.000000,1772620364.838647,0.000000
110.000000,10640.637355,-22937.628381,-2819.739618,-705.555165,-21747.800320,-14552.885539,-19507.060290,-22843.818109,-3487.989722,1790.732359,-8928.046695,3078.662226,-12848.609727,-17277.540836,2234.749762,-29348.376912,0.002000,-0.014000,1.004000,192.000000,0.000000,0.000000,0.000000,0.000000,0.000000,0.000000,0.000000,0.000000,0.000000,1772620364.838657,0.000000
112.000000,10630.646125,-22947.463149,-2834.514121,-721.313145,-21763.424189,-14567.861207,-19526.171032,-22858.413799,-3455.445582,1828.484455,-8883.723186,3113.061561,-12803.146279,-17231.116263,2266.913923,-29302.399373,0.002000,-0.014000,1.004000,192.000000,0.000000,0.000000,0.000000,0.000000,0.000000,0.000000,0.000000,0.000000,0.000000,1772620364.838668,0.000000
114.000000,10617.793872,-22960.717733,-2850.182694,-733.919529,-21778.846893,-14580.601702,-19540.587907,-22869.209691,-3484.681664,1792.587554,-8930.505387,3082.998464,-12845.502835,-17280.401859,2239.331870,-29351.304990,0.003000,-0.012000,1.005000,192.000000,0.000000,16.000000,127.500000,88.000000,15.500000,56.000000,0.000000,0.000000,0.000000,1772620364.838678,0.000000
116.000000,10660.731573,-22918.517639,-2810.106016,-694.535755,-21731.461195,-14537.239318,-19495.482087,-22821.891048,-3461.480553,1822.941223,-8894.139098,3111.295773,-12793.959712,-17235.251336,2267.115088,-29313.530542,0.003000,-0.012000,1.005000,192.000000,0.000000,0.000000,0.000000,0.000000,0.000000,0.000000,0.000000,0.000000,0.000000,1772620364.838689,0.000000
118.000000,10634.356515,-22948.334867,-2852.440220,-736.937015,-21771.426114,-14572.264501,-19541.303163,-22856.804473,-3452.428097,1826.338688,-8894.295561,3112.569822,-12801.872230,-17239.073484,2267.942103,-29321.376004,0.003000,-0.012000,1.005000,192.000000,0.000000,0.000000,0.000000,0.000000,0.000000,0.000000,0.000000,0.000000,0.000000,1772620364.838701,0.000000
120.000000,10671.907445,-22905.218352,-2805.009819,-690.177165,-21722.587552,-14522.174242,-19494.744479,-22816.817202,-3458.686585,1830.138484,-8909.628857,3108.747674,-12826.861480,-17252.238661,2260.923655,-29337.715130,0.003000,-0.012000,1.005000,192.000000,0.000000,0.000000,0.000000,0.000000,0.000000,0.000000,0.000000,0.000000,0.000000,1772620364.838712,0.000000
122.000000,10654.495436,-22922.719767,-2820.477226,-703.610564,-21737.876146,-14540.346210,-19511.642398,-22826.719025,-3433.630280,1867.220028,-8866.199418,3143.325823,-12775.452468,-17201.343739,2295.077121,-29287.602519,0.003000,-0.012000,1.005000,192.000000,0.000000,0.000000,0.000000,0.000000,0.000000,0.000000,0.000000,0.000000,0.000000,1772620364.838722,0.000000
124.000000,10635.943489,-22947.440797,-2840.035002,-724.263576,-21754.908175,-14569.895216,-19531.289581,-22839.794795,-3466.085013,1814.648725,-8912.780453,3107.272459,-12814.053931,-17256.932528,2258.621425,-29340.307932,0.003500,-0.010000,1.006500,192.000000,0.000000,16.000000,127.500000,96.000000,15.500000,64.000000,0.000000,0.000000,0.000000,1772620364.838733,0.000000
126.000000,10672.913274,-22904.592503,-2795.152699,-683.739863,-21723.660436,-14533.640687,-19482.920406,-22794.934844,-3442.906254,1848.332804,-8870.468601,3137.447314,-12790.361081,-17216.386463,2283.297751,-29303.002870,0.003500,-0.010000,1.006500,192.000000,0.000000,0.000000,0.000000,0.000000,0.000000,0.000000,0.000000,0.000000,0.000000,1772620364.838744,0.000000
128.000000,10615.446939,-22966.283317,-2846.896988,-740.446239,-21777.371678,-14587.709557,-19539.626782,-22855.977458,-3467.493173,1827.411571,-8886.785374,3120.549395,-12817.831375,-17241.845100,2267.003330,-29325.198153,0.003500,-0.010000,1.006500,192.000000,0.000000,0.000000,0.000000,0.000000,0.000000,0.000000,0.000000,0.000000,0.000000,1772620364.838755,0.000000
130.000000,10652.752000,-22931.883983,-2810.329534,-702.604735,-21737.742035,-14544.458931,-19499.259531,-22834.497432,-3472.946998,1806.669153,-8912.042846,3099.002313,-12812.757529,-17272.332880,2254.285187,-29345.359426,0.003500,-0.010000,1.006500,192.000000,0.000000,0.000000,0.000000,0.000000,0.000000,0.000000,0.000000,0.000000,0.000000,1772620364.838768,0.000000
132.000000,10626.354590,-22957.454378,-2832.211892,-715.524044,-21760.183187,-14562.586196,-19518.236162,-22858.525557,-3443.152123,1837.961595,-8878.917560,3123.700991,-12785.846029,-17221.706178,2283.811841,-29297.146713,0.003500,-0.010000,1.006500,192.000000,0.000000,0.000000,0.000000,0.000000,0.000000,0.000000,0.000000,0.000000,0.000000,1772620364.838784,0.000000
134.000000,10596.425604,-22982.175408,-2857.111735,-734.075991,-21784.032498,-14583.954463,-19540.364389,-22879.290328,-3499.500871,1790.531193,-8944.408172,3079.310427,-12847.603899,-17278.703127,2241.701155,-29352.154356,0.005750,-0.009000,1.006250,192.000000,0.000000,32.000000,127.500000,96.000000,15.500000,56.000000,0.000000,0.000000,0.000000,1772620364.838818,0.000000
136.000000,10641.307907,-22933.381550,-2811.469473,-690.870069,-21738.434939,-14539.921527,-19495.035052,-22826.339045,-3473.572847,1829.780856,-8904.957343,3111.832215,-12798.139488,-17240.191071,2266.869219,-29314.916350,0.005750,-0.009000,1.006250,192.000000,0.000000,0.000000,0.000000,0.000000,0.000000,0.000000,0.000000,0.000000,0.000000,1772620364.838829,0.000000
138.000000,10609.076692,-22969.680783,-2851.613206,-738.009898,-21777.237568,-14576.667795,-19544.097131,-22859.777255,-3475.718615,1821.108379,-8904.689122,3110.155834,-12821.564117,-17239.766388,2262.018891,-29327.545086,0.005750,-0.009000,1.006250,192.000000,0.000000,0.000000,0.000000,0.000000,0.000000,0.000000,0.000000,0.000000,0.000000,1772620364.838840,0.000000
140.000000,10657.624681,-22919.031730,-2807.267345,-693.306410,-21721.537020,-14522.889498,-19500.041842,-22814.671435,-3468.856629,1818.984964,-8911.394645,3107.071293,-12827.487329,-17250.696391,2255.358071,-29338.653903,0.005750,-0.009000,1.006250,192.000000,0.000000,0.000000,0.000000,0.000000,0.000000,0.000000,0.000000,0.000000,0.000000,1772620364.838850,0.000000
142.000000,10642.783122,-22931.504003,-2819.158473,-702.358866,-21724.263933,-14523.492995,-19510.591866,-22828.328351,-3441.699259,1863.777860,-8864.478334,3143.079954,-12777.844105,-17190.838419,2293.423092,-29283.489798,0.005750,-0.009000,1.006250,192.000000,0.000000,0.000000,0.000000,0.000000,0.000000,0.000000,0.000000,0.000000,0.000000,1772620364.838861,0.000000
144.000000,10620.543137,-22957.432027,-2840.705555,-723.682430,-21743.754654,-14542.067294,-19532.161299,-22850.724799,-3476.545629,1828.707973,-8913.451006,3104.925526,-12802.609837,-17234.893708,2263.628216,-29331.702510,0.005875,-0.009500,1.008125,192.000000,0.000000,24.000000,127.500000,88.000000,15.500000,72.000000,0.000000,0.000000,0.000000,1772620364.838871,0.000000
146.000000,10661.469181,-22919.411709,-2793.632781,-680.498860,-21706.181372,-14506.818593,-19484.037993,-22809.619940,-3447.980100,1853.898389,-8876.950607,3127.120808,-12786.695395,-17203.042472,2286.561106,-29296.364402,0.005875,-0.009500,1.008125,192.000000,0.000000,0.000000,0.000000,0.000000,0.000000,0.000000,0.000000,0.000000,0.000000,1772620364.838881,0.000000
148.000000,10611.356570,-22970.150169,-2842.001956,-734.277157,-21767.425152,-14565.491923,-19538.732712,-22862.861796,-3454.909140,1836.776952,-8888.417052,3116.213157,-12788.125907,-17222.779062,2271.317216,-29316.615083,0.005875,-0.009500,1.008125,192.000000,0.000000,0.000000,0.000000,0.000000,0.000000,0.000000,0.000000,0.000000,0.000000,1772620364.838892,0.000000
150.000000,10642.336088,-22937.695436,-2806.663848,-703.923488,-21741.787701,-14541.642611,-19500.913560,-22830.921153,-3478.758452,1815.028705,-8918.770721,3096.029531,-12823.508718,-17257.021935,2248.093754,-29346.253496,0.005875,-0.009500,1.008125,192.000000,0.000000,0.000000,0.000000,0.000000,0.000000,0.000000,0.000000,0.000000,0.000000,1772620364.838902,0.000000
152.000000,10621.437206,-22960.136588,-2819.203176,-720.441427,-21758.529157,-14561.178036,-19515.062215,-22844.041627,-3451.779896,1839.906197,-8876.347110,3127.813712,-12792.260980,-17222.779062,2276.793394,-29303.494609,0.005875,-0.009500,1.008125,192.000000,0.000000,0.000000,0.000000,0.000000,0.000000,0.000000,0.000000,0.000000,0.000000,1772620364.838912,0.000000
154.000000,10596.179735,-22987.115143,-2845.622938,-744.871884,-21782.222007,-14584.110926,-19542.666619,-22873.277709,-3492.013036,1784.607981,-8931.220642,3083.713720,-12842.775922,-17279.843066,2244.875103,-29354.747159,0.008938,-0.006750,1.007062,192.000000,0.000000,48.000000,127.500000,112.000000,15.500000,56.000000,0.000000,0.000000,0.000000,1772620364.838923,0.000000
156.000000,10628.120378,-22951.195890,-2815.492787,-706.829215,-21745.140463,-14548.839873,-19501.137078,-22836.598496,-3472.008225,1811.184205,-8900.509346,3100.924564,-12799.726462,-17249.198824,2264.522286,-29315.899827,0.008938,-0.006750,1.007062,192.000000,0.000000,0.000000,0.000000,0.000000,0.000000,0.000000,0.000000,0.000000,0.000000,1772620364.838933,0.000000
158.000000,10581.874619,-22997.978091,-2868.466421,-751.309186,-21795.051908,-14588.313054,-19550.646192,-22887.471066,-3486.670969,1800.075388,-8914.970924,3089.100491,-12820.647695,-17251.948089,2255.313367,-29327.366272,0.008938,-0.006750,1.007062,192.000000,0.000000,0.000000,0.000000,0.000000,0.000000,0.000000,0.000000,0.000000,0.000000,1772620364.838943,0.000000
160.000000,10624.141768,-22952.089960,-2828.523854,-712.238337,-21745.185166,-14543.184882,-19509.384872,-22847.059112,-3502.853632,1788.631295,-8941.815369,3073.856601,-12842.954736,-17276.356194,2239.488332,-29348.891002,0.008938,-0.006750,1.007062,192.000000,0.000000,0.000000,0.000000,0.000000,0.000000,0.000000,0.000000,0.000000,0.000000,1772620364.838953,0.000000
162.000000,10629.305020,-22944.244497,-2834.201197,-715.144064,-21748.895556,-14540.770893,-19522.997084,-22846.276801,-3462.553437,1835.637013,-8889.802860,3122.695163,-12800.844050,-17212.765481,2276.368711,-29294.799780,0.008938,-0.006750,1.007062,192.000000,0.000000,0.000000,0.000000,0.000000,0.000000,0.000000,0.000000,0.000000,0.000000,1772620364.838964,0.000000
164.000000,10630.199090,-22940.377646,-2841.554921,-722.251919,-21745.229870,-14543.073123,-19538.419788,-22847.729665,-3476.791498,1822.561243,-8921.162357,3109.038247,-12823.799291,-17247.567147,2259.604902,-29328.953246,0.008469,-0.008375,1.009531,192.000000,0.000000,32.000000,127.500000,88.000000,15.500000,80.000000,0.000000,0.000000,0.000000,1772620364.838974,0.000000
166.000000,10673.673233,-22899.898636,-2799.533641,-681.728206,-21708.751823,-14510.752500,-19497.091412,-22805.283702,-3441.051059,1865.409537,-8876.570627,3143.638747,-12780.235741,-17205.635274,2287.052844,-29288.898920,0.008469,-0.008375,1.009531,192.000000,0.000000,0.000000,0.000000,0.000000,0.000000,0.000000,0.000000,0.000000,0.000000,1772620364.838984,0.000000
168.000000,10629.595593,-22949.854785,-2840.012650,-725.135294,-21761.434884,-14554.114885,-19539.582078,-22850.948316,-3451.534027,1850.702089,-8884.706662,3131.278232,-12782.336805,-17217.414643,2276.502821,-29305.081583,0.008469,-0.008375,1.009531,192.000000,0.000000,0.000000,0.000000,0.000000,0.000000,0.000000,0.000000,0.000000,0.000000,1772620364.838994,0.000000
170.000000,10663.637300,-22914.360215,-2803.914583,-692.166471,-21719.078328,-14519.648495,-19499.550104,-22820.237019,-3466.263827,1827.746848,-8907.371331,3108.501805,-12800.687587,-17240.392237,2255.156905,-29329.824964,0.008469,-0.008375,1.009531,192.000000,0.000000,0.000000,0.000000,0.000000,0.000000,0.000000,0.000000,0.000000,0.000000,1772620364.839004,0.000000
172.000000,10651.165027,-22924.217334,-2811.178900,-708.103264,-21728.555468,-14529.840890,-19510.569514,-22832.753996,-3431.708030,1862.906142,-8863.137229,3137.961404,-12755.134732,-17194.369995,2281.286094,-29287.803684,0.008469,-0.008375,1.009531,192.000000,0.000000,0.000000,0.000000,0.000000,0.000000,0.000000,0.000000,0.000000,0.000000,1772620364.839014,0.000000
174.000000,10629.305020,-22943.864518,-2831.451932,-733.137218,-21748.090893,-14558.339364,-19534.508232,-22851.998848,-3464.363928,1832.463066,-8910.947610,3105.707837,-12801.067567,-17237.777083,2257.548542,-29336.731653,0.008469,-0.008375,1.009531,192.000000,0.000000,0.000000,0.000000,0.000000,0.000000,0.000000,0.000000,0.000000,0.000000,1772620364.839025,0.000000
176.000000,10662.966748,-22911.879171,-2794.728016,-699.609601,-21712.864544,-14531.159643,-19495.817363,-22813.889124,-3447.197789,1856.759412,-8880.750403,3129.244224,-12780.146334,-17212.609018,2282.157812,-29307.070888,0.006000,-0.010000,1.008000,192.000000,0.000000,24.000000,127.500000,88.000000,15.500000,64.000000,0.000000,0.000000,0.000000,1772620364.839035,0.000000
178.000000,10610.328389,-22967.758532,-2847.478133,-746.704727,-21772.007259,-14578.724155,-19547.785169,-22868.717953,-3462.419327,1835.055868,-8897.849488,3112.055732,-12804.353273,-17237.642972,2273.261818,-29322.962978,0.006000,-0.010000,1.008000,192.000000,0.000000,0.000000,0.000000,0.000000,0.000000,0.000000,0.000000,0.000000,0.000000,1772620364.839046,0.000000
180.000000,10646.515864,-22930.788747,-2818.912604,-709.846700,-21744.782835,-14544.235414,-19512.827040,-22839.615982,-3486.358045,1806.803263,-8925.923279,3086.619447,-12836.584489,-17271.349403,2249.099582,-29346.946400,0.006000,-0.010000,1.008000,192.000000,0.000000,0.000000,0.000000,0.000000,0.000000,0.000000,0.000000,0.000000,0.000000,1772620364.839056,0.000000
182.000000,10648.259300,-22928.911201,-2829.127351,-716.999259,-21749.364942,-14549.063390,-19524.293485,-22841.895859,-3447.600120,1853.339595,-8873.799011,3126.070276,-12768.903407,-17218.711045,2277.687463,-29295.403277,0.006000,-0.010000,1.008000,192.000000,0.000000,0.000000,0.000000,0.000000,0.000000,0.000000,0.000000,0.000000,0.000000,1772620364.839067,0.000000
184.000000,10633.529500,-22941.472881,-2848.930997,-733.271329,-21771.068486,-14564.463742,-19545.170015,-22854.703409,-3477.640865,1819.633164,-8915.954401,3097.124767,-12839.378457,-17259.502978,2247.736126,-29340.084414,0.006000,-0.010000,1.008000,192.000000,0.000000,0.000000,0.000000,0.000000,0.000000,0.000000,0.000000,0.000000,0.000000,1772620364.839077,0.000000
186.000000,10672.488591,-22899.116325,-2807.513214,-694.356942,-21722.475794,-14521.861317,-19503.282845,-22808.569408,-3451.243454,1854.479534,-8876.481220,3129.154817,-12803.034521,-17219.292190,2275.049958,-29299.091315,0.002000,-0.010000,1.008000,192.000000,0.000000,8.000000,127.500000,88.000000,15.500000,64.000000,0.000000,0.000000,0.000000,1772620364.839087,0.000000
188.000000,10641.821997,-22930.654637,-2843.454819,-726.543454,-21756.763370,-14551.477379,-19541.571384,-22839.392464,-3455.423231,1852.445525,-8884.639607,3126.629070,-12800.732291,-17220.074501,2267.360958,-29306.713260,0.002000,-0.010000,1.008000,192.000000,0.000000,0.000000,0.000000,0.000000,0.000000,0.000000,0.000000,0.000000,0.000000,1772620364.839098,0.000000
190.000000,10686.972521,-22885.906444,-2803.132272,-690.110110,-21711.791660,-14515.021684,-19500.645340,-22799.651062,-3455.110306,1846.969348,-8893.826174,3120.817616,-12806.320227,-17231.272725,2259.515495,-29322.918275,0.002000,-0.010000,1.008000,192.000000,0.000000,0.000000,0.000000,0.000000,0.000000,0.000000,0.000000,0.000000,0.000000,1772620364.839108,0.000000
192.000000,10687.643074,-22885.101781,-2807.535566,-696.614468,-21716.038491,-14522.151890,-19507.484973,-22800.120449,-3418.118169,1889.080034,-8842.506569,3160.223742,-12751.133770,-17190.659605,2292.439615,-29280.159388,0.002000,-0.010000,1.008000,192.000000,0.000000,0.000000,0.000000,0.000000,0.000000,0.000000,0.000000,0.000000,0.000000,1772620364.839118,0.000000
194.000000,10660.999794,-22911.722709,-2830.893139,-721.983698,-21743.754654,-14555.008954,-19532.921259,-22828.261295,-3443.777972,1852.087897,-8886.517154,3127.478436,-12793.915009,-17230.557469,2257.950873,-29334.094147,0.002000,-0.010000,1.008000,192.000000,0.000000,0.000000,0.000000,0.000000,0.000000,0.000000,0.000000,0.000000,0.000000,1772620364.839128,0.000000
196.000000,10694.683873,-22876.161084,-2788.447176,-677.123747,-21699.788773,-14515.088739,-19484.932063,-22793.593740,-3425.717762,1875.378415,-8859.784467,3148.198503,-12750.373811,-17200.829649,2280.906115,-29300.745344,0.004000,-0.010000,1.006000,192.000000,0.000000,16.000000,127.500000,88.000000,15.500000,56.000000,0.000000,0.000000,0.000000,1772620364.839138,0.000000
198.000000,10631.339029,-22940.109425,-2841.711383,-738.434582,-21756.159873,-14570.677527,-19544.812387,-22855.552775,-3446.907216,1856.111211,-8881.264494,3128.730134,-12790.294026,-17220.141556,2276.569876,-29316.056289,0.004000,-0.010000,1.006000,192.000000,0.000000,0.000000,0.000000,0.000000,0.000000,0.000000,0.000000,0.000000,0.000000,1772620364.839148,0.000000
200.000000,10654.808361,-22915.924837,-2807.937897,-706.918622,-21729.874221,-14539.340382,-19507.462622,-22828.216592,-3471.896466,1826.495150,-8912.333418,3096.543622,-12819.306590,-17246.158987,2261.974187,-29344.375949,0.004000,-0.010000,1.006000,192.000000,0.000000,0.000000,0.000000,0.000000,0.000000,0.000000,0.000000,0.000000,0.000000,1772620364.839158,0.000000
202.000000,10642.760771,-22924.485555,-2824.522892,-715.591099,-21743.955820,-14554.047829,-19522.237125,-22838.856022,-3453.523332,1857.452316,-8874.871895,3123.164549,-12776.324186,-17217.057016,2290.517365,-29294.732725,0.004000,-0.010000,1.006000,192.000000,0.000000,0.000000,0.000000,0.000000,0.000000,0.000000,0.000000,0.000000,0.000000,1772620364.839168,0.000000
204.000000,10625.684038,-22939.416521,-2847.075802,-731.617300,-21769.660326,-14569.783457,-19542.867785,-22856.245679,-3481.485365,1823.052981,-8917.988410,3094.241392,-12832.717637,-17263.906272,2259.426088,-29340.374987,0.004000,-0.010000,1.006000,192.000000,0.000000,0.000000,0.000000,0.000000,0.000000,0.000000,0.000000,0.000000,0.000000,1772620364.839178,0.000000
206.000000,10675.707242,-22888.052212,-2806.842662,-683.762215,-21720.039454,-14527.158681,-19497.091412,-22805.395461,-3459.088917,1853.026671,-8882.627950,3124.460950,-12800.441718,-17223.114338,2273.284170,-29305.148638,0.004000,-0.004000,1.004000,192.000000,0.000000,16.000000,127.500000,112.000000,15.500000,48.000000,0.000000,0.000000,0.000000,1772620364.839189,0.000000
208.000000,10642.447846,-22925.066701,-2853.133124,-727.839855,-21768.542739,-14562.630899,-19544.991201,-22844.488662,-3451.936358,1859.396918,-8878.716395,3129.646555,-12797.848916,-17223.583725,2269.238504,-29306.735612,0.004000,-0.004000,1.004000,192.000000,0.000000,0.000000,0.000000,0.000000,0.000000,0.000000,0.000000,0.000000,0.000000,1772620364.839199,0.000000
210.000000,10671.259245,-22894.780087,-2816.029229,-697.061503,-21732.310561,-14527.292791,-19508.066119,-22811.206914,-3465.570923,1840.152066,-8902.923334,3109.194709,-12804.666198,-17244.348496,2251.446515,-29329.333225,0.004000,-0.004000,1.004000,192.000000,0.000000,0.000000,0.000000,0.000000,0.000000,0.000000,0.000000,0.000000,0.000000,1772620365.318675,0.000000
212.000000,10670.879265,-22893.506037,-2811.983563,-701.107168,-21730.455366,-14532.277230,-19509.496630,-22811.408080,-3427.952937,1883.492098,-8846.395772,3147.438544,-12776.503000,-17191.888951,2289.288019,-29280.762885,0.004000,-0.004000,1.004000,192.000000,0.000000,0.000000,0.000000,0.000000,0.000000,0.000000,0.000000,0.000000,0.000000,1772620365.318725,0.000000
214.000000,10640.324431,-22923.300913,-2834.692935,-726.811674,-21755.221099,-14557.355888,-19535.536413,-22838.073711,-3464.676853,1836.419324,-8897.000122,3108.322991,-12818.725445,-17249.712914,2253.726393,-29338.095109,0.004000,-0.004000,1.004000,192.000000,0.000000,0.000000,0.000000,0.000000,0.000000,0.000000,0.000000,0.000000,0.000000,1772620365.318763,0.000000
216.000000,10691.554629,-22870.237871,-2786.189650,-679.694197,-21705.108488,-14513.859393,-19485.647319,-22785.658870,-3438.413553,1868.024691,-8856.990499,3138.967233,-12776.570055,-17201.813126,2279.162679,-29303.785181,0.004000,-0.004000,1.004000,192.000000,0.000000,0.000000,127.500000,88.000000,15.500000,40.000000,0.000000,0.000000,0.000000,1772620365.318801,0.000000
218.000000,10646.202939,-22916.953017,-2833.709459,-729.158608,-21749.677867,-14562.094457,-19537.838642,-22833.111624,-3438.748829,1867.085918,-8861.639662,3138.095515,-12779.654596,-17216.609981,2275.698158,-29312.211789,0.004000,-0.004000,1.004000,192.000000,0.000000,0.000000,0.000000,0.000000,0.000000,0.000000,0.000000,0.000000,0.000000,1772620365.318849,0.000000
220.000000,10669.784030,-22896.836447,-2800.830042,-698.223793,-21714.943256,-14529.080931,-19502.925218,-22809.798754,-3458.932454,1838.945072,-8891.591000,3110.401703,-12798.519468,-17239.833443,2260.454269,-29339.905601,0.004000,-0.004000,1.004000,192.000000,0.000000,0.000000,0.000000,0.000000,0.000000,0.000000,0.000000,0.000000,0.000000,1772620365.318886,0.000000
222.000000,10649.958032,-22916.729500,-2817.012705,-714.205291,-21735.015122,-14548.973983,-19519.845488,-22829.267124,-3430.948070,1866.147145,-8853.190703,3132.909910,-12758.912177,-17206.283475,2293.534850,-29291.782295,0.004000,-0.004000,1.004000,192.000000,0.000000,0.000000,0.000000,0.000000,0.000000,0.000000,0.000000,0.000000,0.000000,1772620365.318902,0.000000
224.000000,10621.951297,-22942.545765,-2841.689031,-732.623128,-21752.427131,-14563.502617,-19543.381875,-22854.479892,-3471.404728,1824.170568,-8909.360636,3088.586401,-12803.258038,-17258.161874,2260.364862,-29343.012493,0.004000,-0.004000,1.004000,192.000000,0.000000,0.000000,0.000000,0.000000,0.000000,0.000000,0.000000,0.000000,0.000000,1772620365.318913,0.000000
226.000000,10661.111553,-22897.641110,-2803.467548,-690.780662,-21709.847058,-14516.876878,-19500.757098,-22813.553847,-3453.858608,1858.256979,-8881.063328,3117.666020,-12772.367927,-17216.453518,2286.985789,-29297.638452,0.004000,-0.004000,1.004000,192.000000,0.000000,0.000000,127.500000,64.000000,15.500000,64.000000,0.000000,0.000000,0.000000,1772620365.318923,0.000000
228.000000,10627.941564,-22933.135680,-2843.834799,-735.417096,-21750.571936,-14554.852492,-19549.550956,-22848.422569,-3457.926626,1854.434830,-8886.606561,3115.095570,-12808.398939,-17220.700350,2284.191821,-29304.031051,0.004000,-0.004000,1.004000,192.000000,0.000000,0.000000,0.000000,0.000000,0.000000,0.000000,0.000000,0.000000,0.000000,1772620365.318934,0.000000
230.000000,10657.490570,-22900.323319,-2811.469473,-701.151872,-21716.038491,-14520.251992,-19512.447061,-22814.492621,-3465.459164,1840.643804,-8902.744520,3103.718532,-12804.979122,-17243.163853,2269.819649,-29325.421670,0.004000,-0.004000,1.004000,192.000000,0.000000,0.000000,0.000000,0.000000,0.000000,0.000000,0.000000,0.000000,0.000000,1772620365.318945,0.000000
232.000000,10653.154332,-22904.033709,-2810.821272,-698.536718,-21719.882991,-14524.878803,-19512.558819,-22811.475135,-3431.886844,1881.502793,-8853.324813,3143.594044,-12764.298947,-17192.581855,2298.072254,-29277.387771,0.004000,-0.004000,1.004000,192.000000,0.000000,0.000000,0.000000,0.000000,0.000000,0.000000,0.000000,0.000000,0.000000,1772620365.318955,0.000000
234.000000,10636.122303,-22921.848049,-2832.502464,-722.117808,-21745.118111,-14551.969117,-19538.062160,-22831.055263,-3462.754603,1839.950900,-8893.870877,3112.994506,-12814.389207,-17244.437903,2266.355129,-29328.975597,0.004000,-0.004000,1.004000,192.000000,0.000000,0.000000,0.000000,0.000000,0.000000,0.000000,0.000000,0.000000,0.000000,1772620365.318965,0.000000
236.000000,10687.464260,-22870.863720,-2778.053615,-673.234543,-21695.988976,-14499.531925,-19482.696889,-22776.226434,-3418.699314,1884.252058,-8847.602766,3147.371488,-12764.298947,-17196.336948,2294.853603,-29294.978594,0.008000,-0.016000,1.010000,192.000000,0.000000,32.000000,127.500000,64.000000,15.500000,72.000000,0.000000,0.000000,0.000000,1772620365.318976,0.000000
238.000000,10641.687887,-22914.159049,-2823.807636,-720.329669,-21739.910154,-14548.772818,-19531.177822,-22818.650045,-3426.433018,1873.344406,-8853.861255,3139.011936,-12760.029764,-17206.551696,2287.790452,-29306.489743,0.008000,-0.016000,1.010000,192.000000,0.000000,0.000000,0.000000,0.000000,0.000000,0.000000,0.000000,0.000000,0.000000,1772620365.318986,0.000000
240.000000,10676.154277,-22877.301023,-2788.290714,-684.589229,-21698.850000,-14513.479413,-19494.431555,-22788.497542,-3437.586539,1861.632092,-8878.001139,3127.009049,-12772.658500,-17234.647838,2271.607789,-29331.769566,0.008000,-0.016000,1.010000,192.000000,0.000000,0.000000,0.000000,0.000000,0.000000,0.000000,0.000000,0.000000,0.000000,1772620365.318996,0.000000
242.000000,10656.954128,-22897.909331,-2804.003990,-702.045942,-21718.117203,-14523.738864,-19508.691968,-22807.921208,-3410.809149,1903.809834,-8839.600842,3157.541532,-12749.971479,-17178.679070,2301.559127,-29286.797856,0.008000,-0.016000,1.010000,192.000000,0.000000,0.000000,0.000000,0.000000,0.000000,0.000000,0.000000,0.000000,0.000000,1772620365.319006,0.000000
244.000000,10617.011561,-22940.243535,-2836.324613,-727.862206,-21749.409646,-14554.919547,-19539.224450,-22845.807415,-3465.146239,1836.016993,-8902.476299,3103.539718,-12811.058797,-17235.363094,2261.773021,-29341.447871,0.008000,-0.016000,1.010000,192.000000,0.000000,0.000000,0.000000,0.000000,0.000000,0.000000,0.000000,0.000000,0.000000,1772620365.319017,0.000000
246.000000,10652.573186,-22906.402994,-2803.020513,-689.014875,-21710.227038,-14521.950724,-19499.170124,-22813.956179,-3446.817809,1870.371624,-8876.905903,3124.729171,-12781.018052,-17210.686768,2283.409510,-29301.281786,0.009000,-0.014000,1.010000,192.000000,0.000000,40.000000,127.500000,80.000000,15.500000,72.000000,0.000000,0.000000,0.000000,1772620365.319027,0.000000
248.000000,10597.073805,-22965.545710,-2856.687052,-740.870922,-21758.953841,-14570.342251,-19552.523738,-22868.114456,-3461.949940,1842.834275,-8897.245991,3104.478491,-12797.915971,-17225.170699,2275.005254,-29309.037841,0.009000,-0.014000,1.010000,192.000000,0.000000,0.000000,0.000000,0.000000,0.000000,0.000000,0.000000,0.000000,0.000000,1772620365.319038,0.000000
250.000000,10628.589765,-22936.354332,-2829.239110,-709.489073,-21730.410663,-14535.138254,-19520.448985,-22842.566412,-3488.727330,1812.279440,-8931.466512,3078.662226,-12824.603954,-17259.413571,2256.609768,-29336.105804,0.009000,-0.014000,1.010000,192.000000,0.000000,0.000000,0.000000,0.000000,0.000000,0.000000,0.000000,0.000000,0.000000,1772620365.319049,0.000000
252.000000,10620.274916,-22943.171614,-2834.804694,-717.803921,-21735.395102,-14536.859338,-19527.534488,-22844.913345,-3449.701184,1856.021804,-8885.019587,3115.475549,-12784.616683,-17211.066748,2287.544583,-29283.758018,0.009000,-0.014000,1.010000,192.000000,0.000000,0.000000,0.000000,0.000000,0.000000,0.000000,0.000000,0.000000,0.000000,1772620365.319060,0.000000
254.000000,10604.539288,-22957.141454,-2850.406212,-736.199407,-21748.247355,-14552.080876,-19546.488767,-22857.340915,-3484.145222,1813.978173,-8927.800826,3084.697197,-12803.995646,-17258.050115,2262.398870,-29329.221467,0.009000,-0.014000,1.010000,192.000000,0.000000,0.000000,0.000000,0.000000,0.000000,0.000000,0.000000,0.000000,0.000000,1772620365.319070,0.000000
0.000000,10653.958995,-22904.078413,-2798.818385,-691.495918,-21699.788773,-14504.918695,-19495.660901,-22804.836667,-3447.287196,1859.843953,-8881.353901,3118.157758,-12771.272692,-17206.708158,2287.522231,-29293.950414,0.008500,-0.014000,1.009000,192.000000,0.000000,32.000000,127.500000,72.000000,15.500000,64.000000,0.000000,0.000000,0.000000,1772620365.319080,0.000000
2.000000,10615.044608,-22946.367913,-2838.425677,-736.735849,-21745.788663,-14555.679507,-19539.783244,-22842.879336,-3446.437829,1859.709842,-8877.487049,3119.163587,-12783.633206,-17209.725643,2282.783661,-29304.902769,0.008500,-0.014000,1.009000,192.000000,0.000000,0.000000,0.000000,0.000000,0.000000,0.000000,0.000000,0.000000,0.000000,1772620365.319091,0.000000
4.000000,10650.695640,-22909.398128,-2804.160452,-704.906965,-21712.752785,-14517.949762,-19503.416956,-22809.284664,-3454.976196,1834.027688,-8898.631799,3102.399779,-12789.623474,-17239.341705,2261.616559,-29336.306970,0.008500,-0.014000,1.009000,192.000000,0.000000,0.000000,0.000000,0.000000,0.000000,0.000000,0.000000,0.000000,0.000000,1772620365.319101,0.000000
6.000000,10641.866701,-22919.434061,-2806.015647,-710.874881,-21710.361148,-14528.253916,-19506.188572,-22816.213705,-3415.435960,1880.496965,-8849.368554,3139.369564,-12761.169703,-17185.742222,2296.082949,-29290.441190,0.008500,-0.014000,1.009000,192.000000,0.000000,0.000000,0.000000,0.000000,0.000000,0.000000,0.000000,0.000000,0.000000,1772620365.319111,0.000000
8.000000,10609.166099,-22951.642925,-2831.809560,-738.859265,-21739.731340,-14557.288832,-19535.290543,-22846.634429,-3455.311472,1836.352269,-8902.744520,3101.438654,-12807.571925,-17244.728475,2258.397908,-29346.946400,0.008500,-0.014000,1.009000,192.000000,0.000000,0.000000,0.000000,0.000000,0.000000,0.000000,0.000000,0.000000,0.000000,1772620365.319122,0.000000
10.000000,10640.771465,-22922.183326,-2797.589040,-700.101340,-21703.007424,-14521.883669,-19497.493744,-22812.100984,-3440.067582,1852.154953,-8876.905903,3120.728209,-12764.008375,-17219.314542,2281.129632,-29310.669519,0.007250,-0.013000,1.006500,192.000000,0.000000,24.000000,127.500000,80.000000,15.500000,48.000000,0.000000,0.000000,0.000000,1772620365.319132,0.000000
12.000000,10589.585971,-22971.692440,-2850.719136,-746.257692,-21759.780855,-14571.057507,-19549.975640,-22860.291345,-3459.938283,1840.308528,-8893.848526,3109.865261,-12777.844105,-17230.043379,2273.395929,-29322.717109,0.007250,-0.013000,1.006500,192.000000,0.000000,0.000000,0.000000,0.000000,0.000000,0.000000,0.000000,0.000000,0.000000,1772620365.319143,0.000000
14.000000,10620.453730,-22942.009323,-2822.421828,-713.110055,-21733.025817,-14537.909870,-19518.124404,-22835.637371,-3482.245324,1812.771179,-8923.777512,3085.054825,-12833.857576,-17258.385391,2256.073327,-29343.638342,0.007250,-0.013000,1.006500,192.000000,0.000000,0.000000,0.000000,0.000000,0.000000,0.000000,0.000000,0.000000,0.000000,1772620365.319153,0.000000
16.000000,10617.659762,-22945.786768,-2827.339211,-718.452122,-21737.540869,-14538.759236,-19523.399415,-22844.399255,-3448.628300,1849.338633,-8876.794145,3115.430846,-12787.120078,-17209.189201,2287.410472,-29288.183664,0.007250,-0.013000,1.006500,192.000000,0.000000,0.000000,0.000000,0.000000,0.000000,0.000000,0.000000,0.000000,0.000000,1772620365.319163,0.000000
18.000000,10591.821145,-22968.742009,-2852.887255,-747.621149,-21758.417399,-14564.463742,-19553.440160,-22869.455560,-3485.195754,1821.086028,-8924.760988,3080.763290,-12832.829396,-17254.093856,2256.565065,-29334.384720,0.007250,-0.013000,1.006500,192.000000,0.000000,0.000000,0.000000,0.000000,0.000000,0.000000,0.000000,0.000000,0.000000,1772620365.319173,0.000000
20.000000,10636.681096,-22922.362140,-2801.634705,-696.502709,-21709.176506,-14514.328779,-19501.315892,-22817.912438,-3465.347405,1840.621452,-8890.719282,3107.563032,-12797.558343,-17220.879164,2281.688426,-29300.991213,0.008625,-0.011500,1.007250,192.000000,0.000000,40.000000,127.500000,88.000000,15.500000,64.000000,0.000000,0.000000,0.000000,1772620365.319183,0.000000
22.000000,10611.490680,-22950.435931,-2837.822180,-738.054602,-21747.956782,-14556.484170,-19543.158358,-22846.165043,-3456.138486,1835.033516,-8885.354863,3108.479453,-12796.954846,-17226.355341,2280.883763,-29305.126286,0.008625,-0.011500,1.007250,192.000000,0.000000,0.000000,0.000000,0.000000,0.000000,0.000000,0.000000,0.000000,0.000000,1772620365.319194,0.000000
24.000000,10655.411858,-22899.518657,-2804.406322,-702.112997,-21711.121107,-14519.357922,-19506.769718,-22803.741432,-3459.401841,1840.152066,-8894.630837,3109.753503,-12805.672026,-17243.230908,2263.717623,-29331.635455,0.008625,-0.011500,1.007250,192.000000,0.000000,0.000000,0.000000,0.000000,0.000000,0.000000,0.000000,0.000000,0.000000,1772620365.319204,0.000000
26.000000,10649.265128,-22906.872381,-2803.646362,-706.270421,-21715.457346,-14519.894364,-19508.893133,-22807.496525,-3423.102608,1888.141261,-8841.523092,3152.065355,-12751.513750,-17189.162038,2287.745748,-29288.787161,0.008625,-0.011500,1.007250,192.000000,0.000000,0.000000,0.000000,0.000000,0.000000,0.000000,0.000000,0.000000,0.000000,1772620365.319215,0.000000
28.000000,10619.738474,-22939.975314,-2829.887310,-736.445276,-21743.464082,-14549.935108,-19537.838642,-22842.879336,-3457.121963,1836.352269,-8890.071081,3106.177223,-12794.831430,-17239.498167,2256.699175,-29342.118423,0.008625,-0.011500,1.007250,192.000000,0.000000,0.000000,0.000000,0.000000,0.000000,0.000000,0.000000,0.000000,0.000000,1772620365.319225,0.000000
30.000000,10664.240797,-22894.154238,-2785.832022,-687.584363,-21693.195008,-14510.417224,-19489.178895,-22801.036871,-3429.115227,1871.712729,-8857.012851,3129.825369,-12755.738229,-17205.568219,2282.850716,-29308.791972,0.008313,-0.010750,1.006625,192.000000,0.000000,32.000000,127.500000,88.000000,15.500000,56.000000,0.000000,0.000000,0.000000,1772620365.319236,0.000000
32.000000,10609.121395,-22952.402884,-2841.219645,-740.692108,-21752.427131,-14565.067239,-19545.840567,-22859.978421,-3442.816847,1856.066508,-8874.335453,3116.637840,-12783.566151,-17215.961780,2271.898362,-29320.593693,0.008313,-0.010750,1.006625,192.000000,0.000000,0.000000,0.000000,0.000000,0.000000,0.000000,0.000000,0.000000,0.000000,1772620365.319246,0.000000
34.000000,10632.076637,-22927.704206,-2816.275098,-715.233471,-21726.543811,-14538.580422,-19515.889229,-22838.051359,-3467.470821,1825.623432,-8911.171128,3087.982903,-12808.354236,-17257.983060,2256.498010,-29348.019284,0.008313,-0.010750,1.006625,192.000000,0.000000,0.000000,0.000000,0.000000,0.000000,0.000000,0.000000,0.000000,0.000000,1772620365.319256,0.000000
36.000000,10617.033913,-22942.523413,-2831.183711,-725.202349,-21730.500070,-14547.766989,-19526.685122,-22852.334124,-3449.075335,1855.038328,-8874.670729,3114.313258,-12766.444715,-17223.181394,2288.148080,-29297.124362,0.008313,-0.010750,1.006625,192.000000,0.000000,0.000000,0.000000,0.000000,0.000000,0.000000,0.000000,0.000000,0.000000,1772620365.319266,0.000000
38.000000,10585.786174,-22973.882910,-2861.090346,-756.070108,-21762.016030,-14573.650309,-19559.922166,-22886.509941,-3485.463975,1806.356228,-8932.427637,3072.068461,-12829.409579,-17268.734249,2253.882856,-29341.425519,0.008313,-0.010750,1.006625,192.000000,0.000000,0.000000,0.000000,0.000000,0.000000,0.000000,0.000000,0.000000,0.000000,1772620365.319276,0.000000
40.000000,10632.031933,-22925.603142,-2814.397551,-706.762160,-21708.908285,-14520.766082,-19512.000026,-22841.985266,-3463.380452,1835.100572,-8901.582229,3090.821575,-12798.899448,-17239.565222,2278.737995,-29304.075754,0.008156,-0.012375,1.007313,192.000000,0.000000,32.000000,127.500000,72.000000,15.500000,64.000000,0.000000,0.000000,0.000000,1772620365.319286,0.000000
42.000000,10601.499450,-22958.661373,-2855.502409,-748.157590,-21749.856681,-14555.076010,-19557.284660,-22878.686831,-3464.900370,1834.139447,-8905.247915,3091.223906,-12792.350387,-17239.431112,2276.212248,-29306.646205,0.008156,-0.012375,1.007313,192.000000,0.000000,0.000000,0.000000,0.000000,0.000000,0.000000,0.000000,0.000000,0.000000,1772620365.319297,0.000000
44.000000,10636.636393,-22924.709073,-2819.672563,-714.853491,-21714.987959,-14523.783567,-19518.034997,-22838.632505,-3468.677815,1822.829464,-8920.715323,3081.478546,-12801.738119,-17255.323202,2264.164658,-29329.087356,0.008156,-0.012375,1.007313,192.000000,0.000000,0.000000,0.000000,0.000000,0.000000,0.000000,0.000000,0.000000,0.000000,1772620365.319307,0.000000
46.000000,10646.068829,-22913.287331,-2815.492787,-709.310259,-21718.653645,-14532.120768,-19512.089433,-22822.047510,-3427.908233,1868.471726,-8863.472505,3127.143160,-12752.094895,-17204.025949,2291.143214,-29283.780370,0.008156,-0.012375,1.007313,192.000000,0.000000,0.000000,0.000000,0.000000,0.000000,0.000000,0.000000,0.000000,0.000000,1772620365.319317,0.000000
48.000000,10625.013486,-22934.543840,-2835.139970,-734.634785,-21746.056884,-14553.846664,-19538.263325,-22844.734531,-3457.233722,1838.699202,-8901.403415,3099.806976,-12816.065588,-17243.141501,2257.213266,-29335.390548,0.008156,-0.012375,1.007313,192.000000,0.000000,0.000000,0.000000,0.000000,0.000000,0.000000,0.000000,0.000000,0.000000,1772620365.319327,0.000000
50.000000,10678.300044,-22882.218406,-2781.674597,-687.450252,-21698.894703,-14508.852602,-19486.116706,-22794.756030,-3429.696373,1868.024691,-8864.523037,3127.612546,-12771.473857,-17213.324274,2277.553353,-29306.959129,0.007078,-0.011187,1.007656,192.000000,0.000000,24.000000,127.500000,88.000000,15.500000,64.000000,0.000000,0.000000,0.000000,1772620365.319337,0.000000
52.000000,10632.031933,-22929.134718,-2830.155531,-740.043907,-21735.328047,-14553.243167,-19536.609296,-22840.957086,-3427.885881,1858.324034,-8864.143057,3121.242299,-12774.468991,-17216.766443,2279.833231,-29313.575246,0.007078,-0.011187,1.007656,192.000000,0.000000,0.000000,0.000000,0.000000,0.000000,0.000000,0.000000,0.000000,0.000000,1772620365.319347,0.000000
54.000000,10652.461428,-22906.224180,-2804.093397,-711.456026,-21710.674073,-14527.784530,-19505.540372,-22817.085423,-3460.787649,1833.088915,-8903.660942,3095.560145,-12807.527221,-17254.719705,2263.337644,-29347.035807,0.007078,-0.011187,1.007656,192.000000,0.000000,0.000000,0.000000,0.000000,0.000000,0.000000,0.000000,0.000000,0.000000,1772620365.319357,0.000000
56.000000,10637.664573,-22920.350483,-2817.750313,-722.162512,-21731.282381,-14546.649402,-19515.218677,-22824.170926,-3433.183245,1865.700110,-8862.019642,3128.551320,-12768.165799,-17217.235830,2296.887612,-29299.471295,0.007078,-0.011187,1.007656,192.000000,0.000000,0.000000,0.000000,0.000000,0.000000,0.000000,0.000000,0.000000,0.000000,1772620365.319367,0.000000
58.000000,10610.954238,-22949.631268,-2849.489790,-750.303358,-21763.290079,-14573.002109,-19546.198195,-22850.344819,-3477.350292,1814.089932,-8913.026322,3086.530040,-12818.814852,-17269.069525,2263.449402,-29345.627647,0.007078,-0.011187,1.007656,192.000000,0.000000,0.000000,0.000000,0.000000,0.000000,0.000000,0.000000,0.000000,0.000000,1772620365.319379,0.000000
60.000000,10645.957070,-22911.633302,-2816.208043,-710.003163,-21723.593381,-14535.674695,-19505.518020,-22815.006711,-3454.663271,1842.633109,-8886.338340,3111.139311,-12777.531180,-17241.576879,2282.850716,-29311.787106,0.007078,-0.011187,1.007656,192.000000,0.000000,0.000000,0.000000,0.000000,0.000000,0.000000,0.000000,0.000000,0.000000,1772620365.319389,0.000000
62.000000,10609.456671,-22952.648753,-2859.123392,-751.152724,-21768.788608,-14573.046812,-19553.596622,-22855.172796,-3469.929513,1834.720592,-8897.760081,3100.343418,-12811.796404,-17247.164815,2275.675806,-29318.023243,0.006000,-0.006000,1.006000,192.000000,0.000000,24.000000,127.500000,104.000000,15.500000,56.000000,0.000000,0.000000,0.000000,1772620365.319400,0.000000
64.000000,10647.924024,-22913.399090,-2820.656040,-710.897232,-21726.923791,-14531.181995,-19514.324607,-22816.392519,-3480.323074,1818.381467,-8915.037979,3088.251124,-12826.392093,-17260.419400,2260.320158,-29340.754967,0.006000,-0.006000,1.006000,192.000000,0.000000,0.000000,0.000000,0.000000,0.000000,0.000000,0.000000,0.000000,0.000000,1772620365.319410,0.000000
66.000000,10647.119361,-22913.242628,-2818.353810,-711.210157,-21729.918925,-14539.072161,-19515.621008,-22814.984359,-3444.068544,1869.298741,-8857.146961,3132.954613,-12775.877151,-17209.010388,2298.742807,-29286.216710,0.006000,-0.006000,1.006000,192.000000,0.000000,0.000000,0.000000,0.000000,0.000000,0.000000,0.000000,0.000000,0.000000,1772620365.319421,0.000000
68.000000,10626.578108,-22935.616724,-2841.241996,-735.193579,-21757.165701,-14563.949652,-19541.996067,-22839.839499,-3467.247303,1826.495150,-8902.409244,3093.816709,-12822.793463,-17260.464103,2264.924617,-29338.005702,0.006000,-0.006000,1.006000,192.000000,0.000000,0.000000,0.000000,0.000000,0.000000,0.000000,0.000000,0.000000,0.000000,1772620365.319431,0.000000
70.000000,10680.088184,-22882.844255,-2791.688179,-690.601848,-21700.548732,-14516.362788,-19489.871799,-22790.397440,-3436.848931,1863.688453,-8863.606615,3126.606718,-12773.329052,-17217.794623,2289.511536,-29300.387716,0.006000,-0.006000,1.006000,192.000000,0.000000,0.000000,0.000000,0.000000,0.000000,0.000000,0.000000,0.000000,0.000000,1772620365.319441,0.000000
72.000000,10637.776332,-22922.697416,-2837.956290,-735.439448,-21749.610811,-14559.680469,-19537.413959,-22829.892973,-3432.110361,1862.816735,-8865.886493,3123.544529,-12740.583747,-17227.674094,2280.906115,-29313.172914,0.010000,-0.012000,1.002000,192.000000,0.000000,40.000000,127.500000,80.000000,15.500000,40.000000,0.000000,0.000000,0.000000,1772620365.319452,0.000000
74.000000,10662.475009,-22896.657633,-2807.692028,-706.784511,-21717.200782,-14532.456044,-19504.623950,-22801.170981,-3452.897483,1843.683641,-8894.384968,3106.020761,-12796.016073,-17252.372772,2260.074289,-29344.733577,0.010000,-0.012000,1.002000,192.000000,0.000000,0.000000,0.000000,0.000000,0.000000,0.000000,0.000000,0.000000,0.000000,1772620365.799382,0.000000
76.000000,10652.439076,-22907.699395,-2810.754217,-717.222776,-21725.493279,-14546.112960,-19511.016549,-22809.821106,-3422.365001,1875.244305,-8847.088676,3134.094552,-12749.211520,-17206.484640,2292.707836,-29299.963033,0.010000,-0.012000,1.002000,192.000000,0.000000,0.000000,0.000000,0.000000,0.000000,0.000000,0.000000,0.000000,0.000000,1772620365.799434,0.000000
78.000000,10618.911459,-22939.908259,-2840.839665,-742.390840,-21756.785721,-14573.225626,-19542.130177,-22843.348723,-3466.263827,1826.696316,-8900.710511,3093.950819,-12807.616628,-17266.856702,2258.666129,-29354.255420,0.010000,-0.012000,1.002000,192.000000,0.000000,0.000000,0.000000,0.000000,0.000000,0.000000,0.000000,0.000000,0.000000,1772620365.799471,0.000000
80.000000,10654.674250,-22901.575017,-2801.366484,-700.011933,-21714.429166,-14527.538660,-19497.896075,-22805.507219,-3449.678832,1857.698185,-8876.771793,3116.660192,-12782.068584,-17225.997713,2279.520307,-29315.966882,0.010000,-0.012000,1.002000,192.000000,0.000000,0.000000,0.000000,0.000000,0.000000,0.000000,0.000000,0.000000,0.000000,1772620365.799508,0.000000
82.000000,10594.056319,-22962.796445,-2858.832819,-751.376242,-21772.029611,-14580.512295,-19554.915375,-22859.754903,-3465.928550,1844.644766,-8892.574476,3103.159738,-12795.390224,-17235.474853,2273.798260,-29320.124307,0.010000,-0.012000,1.006000,192.000000,0.000000,40.000000,127.500000,80.000000,15.500000,56.000000,0.000000,0.000000,0.000000,1772620365.799545,0.000000
84.000000,10627.963916,-22927.391282,-2823.986450,-708.304430,-21729.628352,-14541.061466,-19514.302255,-22821.064034,-3486.536859,1817.889728,-8925.744465,3081.679712,-12826.950887,-17262.676926,2257.816763,-29346.946400,0.010000,-0.012000,1.006000,192.000000,0.000000,0.000000,0.000000,0.000000,0.000000,0.000000,0.000000,0.000000,0.000000,1772620365.799582,0.000000
86.000000,10628.433302,-22927.480689,-2823.427656,-709.958459,-21729.784814,-14536.546413,-19516.693892,-22818.895914,-3444.627338,1863.375528,-8866.735860,3124.192729,-12762.399049,-17212.027873,2294.786548,-29289.636527,0.010000,-0.012000,1.006000,192.000000,0.000000,0.000000,0.000000,0.000000,0.000000,0.000000,0.000000,0.000000,0.000000,1772620365.799608,0.000000
88.000000,10605.075729,-22948.848957,-2847.053450,-738.322823,-21760.674925,-14561.446257,-19543.538337,-22841.448825,-3475.226876,1831.166665,-8906.141985,3097.035360,-12812.757529,-17252.931565,2264.634045,-29335.502307,0.010000,-0.012000,1.006000,192.000000,0.000000,0.000000,0.000000,0.000000,0.000000,0.000000,0.000000,0.000000,0.000000,1772620365.799619,0.000000
90.000000,10656.909425,-22896.411764,-2788.961266,-690.735959,-21707.298959,-14509.500803,-19485.557912,-22782.350812,-3439.441733,1858.547551,-8867.384060,3127.277270,-12782.850895,-17215.984132,2282.336626,-29305.014527,0.010000,-0.012000,1.006000,192.000000,0.000000,0.000000,0.000000,0.000000,0.000000,0.000000,0.000000,0.000000,0.000000,1772620365.799636,0.000000
92.000000,10625.929907,-22932.107500,-2834.290604,-734.590082,-21748.560279,-14552.684373,-19535.156433,-22822.785118,-3434.010259,1861.140354,-8862.936063,3129.870073,-12772.323224,-17217.436995,2275.541696,-29308.233179,0.008000,-0.010000,1.004000,192.000000,0.000000,32.000000,127.500000,88.000000,15.500000,48.000000,0.000000,0.000000,0.000000,1772620365.799647,0.000000
94.000000,10656.171817,-22900.032747,-2807.513214,-705.197538,-21713.445689,-14519.693198,-19502.567590,-22795.001900,-3447.622472,1843.303662,-8890.495764,3108.792378,-12796.574866,-17233.284382,2253.815800,-29335.390548,0.008000,-0.010000,1.004000,192.000000,0.000000,0.000000,0.000000,0.000000,0.000000,0.000000,0.000000,0.000000,0.000000,1772620365.799657,0.000000
96.000000,10643.163102,-22906.760622,-2815.090455,-705.756331,-21722.028759,-14524.498823,-19505.830944,-22801.841533,-3425.494245,1889.616476,-8847.334546,3150.299567,-12753.748924,-17182.612977,2282.694254,-29290.552949,0.008000,-0.010000,1.004000,192.000000,0.000000,0.000000,0.000000,0.000000,0.000000,0.000000,0.000000,0.000000,0.000000,1772620365.799668,0.000000
98.000000,10607.199145,-22947.664314,-2848.483962,-738.903968,-21752.225966,-14561.356850,-19541.034942,-22841.225307,-3466.800269,1841.917854,-8902.342189,3109.977020,-12805.627323,-17240.816920,2255.603940,-29342.051368,0.008000,-0.010000,1.004000,192.000000,0.000000,0.000000,0.000000,0.000000,0.000000,0.000000,0.000000,0.000000,0.000000,1772620365.799678,0.000000
100.000000,10637.999849,-22910.292198,-2806.887365,-699.676657,-21711.545791,-14518.016817,-19495.683252,-22807.004786,-3457.278425,1862.526162,-8885.868953,3120.459988,-12777.508828,-17206.685806,2274.222943,-29315.832772,0.008000,-0.010000,1.004000,192.000000,0.000000,0.000000,0.000000,0.000000,0.000000,0.000000,0.000000,0.000000,0.000000,1772620365.799689,0.000000
102.000000,10579.907665,-22976.207492,-2861.045642,-757.813544,-21766.866358,-14577.383051,-19554.758913,-22866.393371,-3472.812888,1845.985871,-8896.150755,3105.059636,-12796.150183,-17223.919001,2274.245295,-29319.923141,0.004000,-0.004000,1.002000,192.000000,0.000000,16.000000,127.500000,112.000000,15.500000,40.000000,0.000000,0.000000,0.000000,1772620365.799699,0.000000
104.000000,10607.735587,-22953.431064,-2831.831912,-729.382125,-21739.083140,-14547.029382,-19523.310008,-22844.376903,-3498.718560,1802.399969,-8936.093323,3062.881894,-12834.751646,-17272.489342,2249.971300,-29355.596525,0.004000,-0.004000,1.002000,192.000000,0.000000,0.000000,0.000000,0.000000,0.000000,0.000000,0.000000,0.000000,0.000000,1772620365.799710,0.000000
106.000000,10605.612171,-22958.013172,-2837.889235,-732.958404,-21738.725512,-14549.778646,-19529.121462,-22844.421607,-3461.346443,1836.955766,-8882.851467,3099.002313,-12771.786782,-17228.232888,2289.779757,-29298.130190,0.004000,-0.004000,1.002000,192.000000,0.000000,0.000000,0.000000,0.000000,0.000000,0.000000,0.000000,0.000000,0.000000,1772620365.799720,0.000000
108.000000,10585.942636,-22977.079210,-2863.817258,-755.444259,-21766.352268,-14574.611434,-19559.497483,-22872.741267,-3489.062606,1797.907269,-8933.142892,3064.155944,-12822.994628,-17274.433944,2250.887722,-29350.455624,0.004000,-0.004000,1.002000,192.000000,0.000000,0.000000,0.000000,0.000000,0.000000,0.000000,0.000000,0.000000,0.000000,1772620365.799730,0.000000
110.000000,10631.160215,-22925.513735,-2814.598717,-701.308334,-21705.041433,-14521.526041,-19507.999063,-22828.283647,-3461.547609,1829.490284,-8903.862107,3091.134499,-12777.978215,-17239.900498,2271.630141,-29306.892074,0.004000,-0.004000,1.002000,192.000000,0.000000,0.000000,0.000000,0.000000,0.000000,0.000000,0.000000,0.000000,0.000000,1772620365.799741,0.000000
112.000000,10601.678264,-22955.040390,-2851.166171,-739.619224,-21754.192919,-14556.350059,-19550.266212,-22859.531386,-3454.663271,1837.179284,-8897.335398,3101.908040,-12787.120078,-17233.619658,2271.652492,-29304.343975,0.004000,-0.008000,1.006000,192.000000,0.000000,16.000000,127.500000,96.000000,15.500000,56.000000,0.000000,0.000000,0.000000,1772620365.799752,0.000000
114.000000,10632.277803,-22924.060872,-2825.975755,-718.854453,-21729.673055,-14535.786454,-19521.901849,-22831.256429,-3467.157896,1817.755618,-8921.475282,3084.697197,-12820.290067,-17263.660403,2245.299786,-29338.430385,0.004000,-0.008000,1.006000,192.000000,0.000000,0.000000,0.000000,0.000000,0.000000,0.000000,0.000000,0.000000,0.000000,1772620365.799762,0.000000
116.000000,10635.116474,-22917.802384,-2826.154569,-715.367581,-21727.907268,-14537.440483,-19519.510212,-22825.132051,-3440.045230,1867.197677,-8868.747517,3127.657250,-12763.851912,-17205.903495,2278.156850,-29289.413010,0.004000,-0.008000,1.006000,192.000000,0.000000,0.000000,0.000000,0.000000,0.000000,0.000000,0.000000,0.000000,0.000000,1772620365.799772,0.000000
118.000000,10610.373093,-22940.623515,-2850.339156,-744.938939,-21757.769198,-14564.463742,-19546.645230,-22847.081464,-3472.052928,1834.139447,-8912.087549,3096.811843,-12791.076337,-17251.903385,2249.434858,-29341.805499,0.004000,-0.008000,1.006000,192.000000,0.000000,0.000000,0.000000,0.000000,0.000000,0.000000,0.000000,0.000000,0.000000,1772620365.799783,0.000000
120.000000,10657.244701,-22893.707203,-2797.544336,-702.090645,-21700.928712,-14518.597963,-19496.242046,-22805.238999,-3450.930530,1863.353177,-8880.482183,3120.303526,-12801.224029,-17213.346626,2271.786603,-29312.815286,0.004000,-0.008000,1.006000,192.000000,0.000000,0.000000,0.000000,0.000000,0.000000,0.000000,0.000000,0.000000,0.000000,1772620365.799793,0.000000
122.000000,10606.372131,-22944.959753,-2845.175903,-753.410250,-21759.244413,-14570.856341,-19547.852224,-22856.156272,-3455.020899,1857.340557,-8884.796069,3112.011029,-12797.915971,-17222.510841,2277.910981,-29316.548028,0.006000,-0.012000,1.006000,192.000000,0.000000,24.000000,127.500000,80.000000,15.500000,56.000000,0.000000,0.000000,0.000000,1772620365.799804,0.000000
124.000000,10625.549927,-22926.251343,-2824.031153,-731.438486,-21730.969457,-14548.526949,-19522.550049,-22836.240868,-3476.657388,1824.416438,-8919.307163,3088.429938,-12827.040294,-17265.917929,2257.995577,-29350.455624,0.006000,-0.012000,1.006000,192.000000,0.000000,0.000000,0.000000,0.000000,0.000000,0.000000,0.000000,0.000000,0.000000,1772620365.799814,0.000000
126.000000,10613.077654,-22943.775111,-2829.686145,-738.389878,-21740.915983,-14557.221777,-19528.249744,-22849.920136,-3453.411574,1849.070412,-8880.035148,3111.385180,-12781.800363,-17224.366036,2290.651475,-29299.538350,0.006000,-0.012000,1.006000,192.000000,0.000000,0.000000,0.000000,0.000000,0.000000,0.000000,0.000000,0.000000,0.000000,1772620365.799825,0.000000
128.000000,10583.193372,-22980.007288,-2866.633578,-772.006902,-21776.142332,-14595.398557,-19566.717096,-22887.314604,-3489.397882,1787.647818,-8938.261442,3058.053918,-12837.456207,-17291.108345,2253.592283,-29353.830737,0.006000,-0.012000,1.006000,192.000000,0.000000,0.000000,0.000000,0.000000,0.000000,0.000000,0.000000,0.000000,0.000000,1772620365.799835,0.000000
130.000000,10633.283631,-22928.911201,-2823.338249,-719.055619,-21722.162869,-14540.234451,-19518.325569,-22843.594592,-3464.632149,1816.123940,-8910.388817,3078.483412,-12802.743948,-17258.206577,2279.967341,-29317.576208,0.006000,-0.012000,1.006000,192.000000,0.000000,0.000000,0.000000,0.000000,0.000000,0.000000,0.000000,0.000000,0.000000,1772620365.799845,0.000000
132.000000,10601.186526,-22960.673030,-2862.990244,-751.286835,-21768.252166,-14575.594911,-19559.206910,-22873.635337,-3465.079184,1822.315374,-8910.411168,3081.165621,-12803.190983,-17251.858682,2274.625274,-29313.932873,0.007000,-0.013000,1.006000,192.000000,0.000000,32.000000,127.500000,72.000000,15.500000,56.000000,0.000000,0.000000,0.000000,1772620365.799856,0.000000
134.000000,10633.149521,-22920.372834,-2832.815389,-714.317049,-21740.513651,-14539.966230,-19524.695817,-22830.943505,-3476.657388,1816.682734,-8927.107921,3074.080118,-12822.279372,-17258.832426,2248.205513,-29338.989179,0.007000,-0.013000,1.006000,192.000000,0.000000,0.000000,0.000000,0.000000,0.000000,0.000000,0.000000,0.000000,0.000000,1772620365.799866,0.000000
136.000000,10646.426457,-22899.541008,-2826.981583,-702.872956,-21730.969457,-14520.319047,-19518.034997,-22812.346853,-3441.587501,1875.691339,-8868.769868,3123.499825,-12752.139598,-17204.472983,2272.971245,-29284.450923,0.007000,-0.013000,1.006000,192.000000,0.000000,0.000000,0.000000,0.000000,0.000000,0.000000,0.000000,0.000000,0.000000,1772620365.799876,0.000000
138.000000,10626.399294,-22915.678968,-2849.065107,-731.684355,-21748.225003,-14549.443370,-19546.645230,-22834.184508,-3468.767222,1858.681662,-8902.431596,3108.747674,-12818.345465,-17237.665324,2247.289091,-29324.840525,0.007000,-0.013000,1.006000,192.000000,0.000000,0.000000,0.000000,0.000000,0.000000,0.000000,0.000000,0.000000,0.000000,1772620365.799887,0.000000
140.000000,10679.529390,-22863.889976,-2794.102167,-684.589229,-21692.971491,-14500.090718,-19491.883456,-22788.654004,-3438.458257,1894.757377,-8866.869970,3134.720401,-12784.169648,-17194.481754,2273.932370,-29298.420763,0.007000,-0.013000,1.006000,192.000000,0.000000,0.000000,0.000000,0.000000,0.000000,0.000000,0.000000,0.000000,0.000000,1772620365.799897,0.000000
142.000000,10634.065942,-22911.543895,-2836.078743,-736.937015,-21738.546698,-14552.483207,-19538.330381,-22832.955162,-3437.340669,1892.321037,-8867.004081,3132.060544,-12782.426212,-17198.773289,2277.910981,-29303.584016,0.004500,-0.015500,1.007000,192.000000,0.000000,8.000000,127.500000,56.000000,15.500000,64.000000,0.000000,0.000000,0.000000,1772620365.799908,0.000000
144.000000,10648.639279,-22902.290273,-2811.447121,-720.933166,-21721.201744,-14538.066332,-19514.279904,-22818.359473,-3457.881922,1848.355156,-8901.135194,3098.197651,-12810.187079,-17246.024876,2259.426088,-29343.973618,0.004500,-0.015500,1.007000,192.000000,0.000000,0.000000,0.000000,0.000000,0.000000,0.000000,0.000000,0.000000,0.000000,1772620365.799918,0.000000
146.000000,10638.625698,-22916.193058,-2821.840682,-730.767933,-21726.566163,-14550.560957,-19523.242953,-22832.329313,-3433.831445,1867.912932,-8861.997290,3119.476511,-12750.731438,-17213.368978,2294.987714,-29299.963033,0.004500,-0.015500,1.007000,192.000000,0.000000,0.000000,0.000000,0.000000,0.000000,0.000000,0.000000,0.000000,0.000000,1772620365.799928,0.000000
148.000000,10598.504317,-22958.571966,-2864.845439,-766.083689,-21764.966460,-14588.134240,-19563.498445,-22871.869549,-3474.399862,1808.457292,-8921.207061,3070.079156,-12813.025750,-17277.987871,2259.582550,-29352.444929,0.004500,-0.015500,1.007000,192.000000,0.000000,0.000000,0.000000,0.000000,0.000000,0.000000,0.000000,0.000000,0.000000,1772620365.799939,0.000000
150.000000,10642.537253,-22912.281503,-2819.761970,-714.853491,-21715.412642,-14542.916661,-19512.111784,-22827.926019,-3462.531085,1829.155008,-8900.665808,3086.887668,-12800.575829,-17251.903385,2279.922638,-29319.677272,0.004500,-0.015500,1.007000,192.000000,0.000000,0.000000,0.000000,0.000000,0.000000,0.000000,0.000000,0.000000,0.000000,1772620365.799949,0.000000
152.000000,10590.524744,-22960.695381,-2869.718119,-757.902951,-21768.721553,-14585.384975,-19561.486788,-22876.295194,-3459.133620,1826.763371,-8902.610410,3086.194764,-12800.061738,-17250.070542,2274.312350,-29316.659786,0.003250,-0.013750,1.006500,192.000000,0.000000,8.000000,127.500000,80.000000,15.500000,56.000000,0.000000,0.000000,0.000000,1772620365.799959,0.000000
154.000000,10621.258392,-22927.614799,-2841.599624,-723.145988,-21746.906250,-14552.997297,-19531.043712,-22843.795758,-3490.806042,1798.153138,-8941.278927,3060.043223,-12820.245364,-17283.352290,2245.635062,-29350.857955,0.003250,-0.013750,1.006500,192.000000,0.000000,0.000000,0.000000,0.000000,0.000000,0.000000,0.000000,0.000000,0.000000,1772620365.799972,0.000000
156.000000,10647.007602,-22902.849067,-2831.094304,-716.440465,-21729.427186,-14535.898213,-19525.411072,-22826.115528,-3433.026783,1868.136450,-8871.653244,3116.928413,-12775.072488,-17213.659550,2280.995522,-29288.720106,0.003250,-0.013750,1.006500,192.000000,0.000000,0.000000,0.000000,0.000000,0.000000,0.000000,0.000000,0.000000,0.000000,1772620365.799982,0.000000
158.000000,10629.528538,-22918.472936,-2851.970834,-739.574521,-21752.695352,-14556.238300,-19552.344924,-22844.131034,-3446.214312,1845.471781,-8901.582229,3098.823500,-12805.403805,-17235.877184,2253.100545,-29331.702510,0.003250,-0.013750,1.006500,192.000000,0.000000,0.000000,0.000000,0.000000,0.000000,0.000000,0.000000,0.000000,0.000000,1772620365.799992,0.000000
160.000000,10681.608103,-22862.280650,-2796.627915,-687.517308,-21698.671186,-14503.175259,-19495.638549,-22785.345946,-3423.527291,1885.168479,-8869.663938,3128.797189,-12769.685718,-17204.271818,2270.914885,-29302.242911,0.003250,-0.013750,1.006500,192.000000,0.000000,0.000000,0.000000,0.000000,0.000000,0.000000,0.000000,0.000000,0.000000,1772620365.800002,0.000000
162.000000,10637.396352,-22904.994834,-2834.581177,-731.371430,-21741.273611,-14548.661059,-19537.637477,-22822.025159,-3423.326126,1889.817642,-8857.191665,3135.837988,-12755.090029,-17197.700405,2277.866277,-29299.180722,0.003625,-0.013875,1.010250,192.000000,0.000000,16.000000,127.500000,72.000000,15.500000,88.000000,0.000000,0.000000,0.000000,1772620365.800013,0.000000
164.000000,10657.669384,-22879.670308,-2810.910679,-714.272346,-21716.418471,-14532.880727,-19514.279904,-22801.975644,-3458.597178,1857.944054,-8894.228505,3109.440578,-12816.222050,-17237.419455,2256.363899,-29340.509098,0.003625,-0.013875,1.010250,192.000000,0.000000,0.000000,0.000000,0.000000,0.000000,0.000000,0.000000,0.000000,0.000000,1772620365.800030,0.000000
166.000000,10651.008564,-22887.135790,-2811.089493,-718.362715,-21721.514669,-14536.904041,-19514.168145,-22806.155420,-3423.884919,1898.490119,-8842.975955,3145.426887,-12761.482628,-17197.163963,2291.724359,-29291.044687,0.003625,-0.013875,1.010250,192.000000,0.000000,0.000000,0.000000,0.000000,0.000000,0.000000,0.000000,0.000000,0.000000,1772620365.800040,0.000000
168.000000,10609.523727,-22931.235782,-2840.929072,-751.599759,-21757.679791,-14577.628920,-19544.097131,-22843.907516,-3463.894542,1840.487342,-8894.027340,3100.946915,-12811.841108,-17253.982097,2260.610731,-29351.394397,0.003625,-0.013875,1.010250,192.000000,0.000000,0.000000,0.000000,0.000000,0.000000,0.000000,0.000000,0.000000,0.000000,1772620365.800050,0.000000
170.000000,10630.891994,-22909.196962,-2810.150720,-711.254860,-21717.558410,-14545.822387,-19502.992273,-22818.471231,-3455.602045,1845.918816,-8878.314063,3107.831253,-12771.853837,-17239.386408,2279.944990,-29324.102917,0.003625,-0.013875,1.010250,192.000000,0.000000,0.000000,0.000000,0.000000,0.000000,0.000000,0.000000,0.000000,0.000000,1772620365.800061,0.000000
172.000000,10588.088404,-22958.817835,-2857.804639,-756.964178,-21763.915928,-14573.784420,-19552.724904,-22866.393371,-3466.755565,1828.819731,-8892.172145,3097.460043,-12802.296913,-17260.307641,2280.637894,-29325.332263,0.002812,-0.011938,1.011125,192.000000,0.000000,8.000000,127.500000,88.000000,15.500000,80.000000,0.000000,0.000000,0.000000,1772620365.800071,0.000000
174.000000,10608.473195,-22939.438872,-2843.678337,-734.411268,-21738.904326,-14563.368507,-19534.038846,-22853.541118,-3486.983894,1793.906306,-8929.477206,3064.714738,-12815.506794,-17287.330900,2257.190914,-29353.003723,0.002812,-0.011938,1.011125,192.000000,0.000000,0.000000,0.000000,0.000000,0.000000,0.000000,0.000000,0.000000,0.000000,1772620365.800081,0.000000
176.000000,10609.791948,-22937.695436,-2842.896026,-733.539550,-21744.291096,-14556.305356,-19530.820195,-22849.406046,-3462.195809,1835.927586,-8888.439404,3098.197651,-12786.494230,-17240.883975,2280.257914,-29301.997042,0.002812,-0.011938,1.011125,192.000000,0.000000,0.000000,0.000000,0.000000,0.000000,0.000000,0.000000,0.000000,0.000000,1772620365.800092,0.000000
178.000000,10595.218610,-22957.990820,-2861.135049,-755.176038,-21773.035440,-14585.273216,-19554.691858,-22865.141674,-3479.116080,1804.456330,-8920.312991,3069.162735,-12835.779826,-17277.496133,2242.550521,-29344.912391,0.002812,-0.011938,1.011125,192.000000,0.000000,0.000000,0.000000,0.000000,0.000000,0.000000,0.000000,0.000000,0.000000,1772620365.800102,0.000000
180.000000,10650.874454,-22897.730517,-2806.105054,-701.129520,-21724.688616,-14529.192690,-19499.818325,-22803.339100,-3452.808076,1840.889673,-8882.851467,3104.120863,-12802.632189,-17240.839272,2257.280321,-29322.158315,0.002812,-0.011938,1.011125,192.000000,0.000000,0.000000,0.000000,0.000000,0.000000,0.000000,0.000000,0.000000,0.000000,1772620365.800112,0.000000
182.000000,10618.084445,-22931.481651,-2843.119543,-739.127486,-21757.724495,-14566.900082,-19541.996067,-22834.855060,-3443.397992,1861.922665,-8870.334491,3119.163587,-12789.243494,-17224.947181,2261.571856,-29309.998966,0.003406,-0.011969,1.006563,192.000000,0.000000,16.000000,127.500000,80.000000,15.500000,40.000000,0.000000,0.000000,0.000000,1772620365.800122,0.000000
184.000000,10642.425494,-22906.648863,-2812.162377,-719.837930,-21720.106509,-14544.436579,-19517.006817,-22810.558714,-3460.698242,1837.805133,-8897.536564,3096.767139,-12798.072433,-17250.294060,2251.871199,-29341.783147,0.003406,-0.011969,1.006563,192.000000,0.000000,0.000000,0.000000,0.000000,0.000000,0.000000,0.000000,0.000000,0.000000,1772620365.800133,0.000000
186.000000,10646.448808,-22902.290273,-2806.060351,-716.261651,-21707.947160,-14533.595983,-19512.156488,-22805.507219,-3420.755675,1879.133508,-8847.088676,3128.774837,-12739.846139,-17202.908361,2290.584420,-29293.682193,0.003406,-0.011969,1.006563,192.000000,0.000000,0.000000,0.000000,0.000000,0.000000,0.000000,0.000000,0.000000,0.000000,1772620365.800144,0.000000
188.000000,10605.165136,-22942.746930,-2842.471342,-752.002090,-21745.609849,-14569.828161,-19548.276907,-22842.074673,-3453.322167,1838.632147,-8890.741633,3092.699122,-12795.479631,-17245.264917,2268.635007,-29340.799670,0.003406,-0.011969,1.006563,192.000000,0.000000,0.000000,0.000000,0.000000,0.000000,0.000000,0.000000,0.000000,0.000000,1772620365.800155,0.000000
190.000000,10640.167968,-22900.323319,-2798.416054,-705.957497,-21699.364090,-14520.654323,-19495.057403,-22799.941635,-3454.998547,1863.554342,-8876.525924,3109.552337,-12765.505942,-17223.874298,2287.254010,-29318.537333,0.003406,-0.011969,1.006563,192.000000,0.000000,0.000000,0.000000,0.000000,0.000000,0.000000,0.000000,0.000000,0.000000,1772620365.800165,0.000000
192.000000,10582.723985,-22962.908204,-2852.328462,-759.244056,-21752.695352,-14575.907835,-19550.176805,-22859.285517,-3463.201638,1846.902293,-8884.684311,3100.008142,-12794.429099,-17231.943277,2289.690350,-29314.603426,0.003703,-0.010984,1.007281,192.000000,0.000000,16.000000,127.500000,88.000000,15.500000,64.000000,0.000000,0.000000,0.000000,1772620365.800176,0.000000
194.000000,10592.603456,-22952.693457,-2838.269214,-736.914663,-21737.250297,-14561.558016,-19527.735654,-22849.249583,-3501.177251,1808.166719,-8934.483997,3058.478601,-12829.923669,-17279.083106,2261.214228,-29361.385627,0.003703,-0.010984,1.007281,192.000000,0.000000,0.000000,0.000000,0.000000,0.000000,0.000000,0.000000,0.000000,0.000000,1772620366.280787,0.000000
196.000000,10589.496564,-22954.682762,-2842.672508,-733.696012,-21742.525308,-14558.495827,-19527.623895,-22852.088255,-3477.372644,1837.447505,-8896.374273,3086.977075,-12793.043291,-17230.848042,2287.455176,-29304.075754,0.003703,-0.010984,1.007281,192.000000,0.000000,0.000000,0.000000,0.000000,0.000000,0.000000,0.000000,0.000000,0.000000,1772620366.280854,0.000000
198.000000,10562.875636,-22981.951890,-2877.183602,-761.635692,-21775.896463,-14590.347062,-19563.319631,-22885.034726,-3512.084903,1802.109397,-8944.743448,3054.835266,-12838.819663,-17270.254167,2252.206475,-29346.298199,0.003703,-0.010984,1.007281,192.000000,0.000000,0.000000,0.000000,0.000000,0.000000,0.000000,0.000000,0.000000,0.000000,1772620366.280902,0.000000
200.000000,10625.527576,-22920.216372,-2819.337287,-706.248070,-21713.848020,-14529.393855,-19503.707529,-22826.853135,-3482.670007,1835.279385,-8913.093378,3080.025682,-12802.587486,-17241.822748,2264.835210,-29312.681176,0.003703,-0.010984,1.007281,192.000000,0.000000,0.000000,0.000000,0.000000,0.000000,0.000000,0.000000,0.000000,0.000000,1772620366.280951,0.000000
202.000000,10604.159308,-22944.825643,-2851.255578,-740.803866,-21752.516538,-14557.914681,-19541.884308,-22851.596517,-3464.587446,1855.418307,-8891.501593,3098.085892,-12767.204674,-17230.423359,2266.086908,-29305.595673,0.003703,-0.010984,1.007281,192.000000,0.000000,0.000000,0.000000,0.000000,0.000000,0.000000,0.000000,0.000000,0.000000,1772620366.281000,0.000000
204.000000,10640.503244,-22913.197924,-2818.689086,-719.323840,-21721.469965,-14532.165472,-19514.212848,-22820.192316,-3472.745833,1835.502903,-8910.634686,3084.227810,-12819.328942,-17246.538966,2241.477637,-29337.290446,-0.002000,-0.010000,1.012000,192.000000,127.500000,120.000000,127.500000,88.000000,15.500000,80.000000,0.000000,0.000000,0.000000,1772620366.281034,0.000000
206.000000,10646.471160,-22908.526410,-2811.447121,-717.692163,-21713.021006,-14532.746617,-19512.156488,-22817.107775,-3427.282384,1879.357026,-8853.257758,3124.505654,-12768.724593,-17207.244600,2287.432824,-29284.942661,-0.002000,-0.010000,1.012000,192.000000,0.000000,0.000000,0.000000,0.000000,0.000000,0.000000,0.000000,0.000000,0.000000,1772620366.281057,0.000000
208.000000,10619.492605,-22932.666294,-2838.157456,-744.871884,-21743.419378,-14560.194559,-19543.761855,-22844.555717,-3449.432963,1848.690432,-8892.373311,3095.493090,-12799.234724,-17249.556452,2263.002367,-29337.245743,-0.002000,-0.010000,1.012000,192.000000,0.000000,0.000000,0.000000,0.000000,0.000000,0.000000,0.000000,0.000000,0.000000,1772620366.281079,0.000000
210.000000,10655.769486,-22891.740250,-2796.985542,-702.045942,-21695.877218,-14515.312256,-19498.968959,-22808.278836,-3444.090896,1869.879886,-8874.558970,3109.641744,-12772.770259,-17215.782966,2277.955684,-29315.542199,-0.002000,-0.010000,1.012000,192.000000,0.000000,0.000000,0.000000,0.000000,0.000000,0.000000,0.000000,0.000000,0.000000,1772620366.281101,0.000000
212.000000,10617.883279,-22933.493308,-2840.325575,-746.660024,-21742.301791,-14568.531760,-19543.068951,-22848.400217,-3443.934434,1871.086880,-8872.949645,3109.887613,-12774.491343,-17219.225135,2288.952743,-29314.625778,-0.002000,-0.010000,1.012000,192.000000,0.000000,0.000000,0.000000,0.000000,0.000000,0.000000,0.000000,0.000000,0.000000,1772620366.281124,0.000000
214.000000,10638.737457,-22910.582770,-2823.271194,-725.001183,-21726.432052,-14547.655230,-19521.365407,-22831.211726,-3470.287141,1836.844008,-8910.411168,3079.869220,-12805.426157,-17247.142464,2265.081080,-29351.930839,0.004000,-0.012000,1.004000,192.000000,0.000000,16.000000,127.500000,80.000000,15.500000,48.000000,0.000000,0.000000,0.000000,1772620366.281147,0.000000
216.000000,10629.774407,-22918.070605,-2826.713363,-726.521102,-21730.231849,-14550.717419,-19522.840622,-22838.163118,-3446.862512,1878.462956,-8869.283959,3109.798206,-12776.592407,-17208.138670,2297.759330,-29300.298309,0.004000,-0.012000,1.004000,192.000000,0.000000,0.000000,0.000000,0.000000,0.000000,0.000000,0.000000,0.000000,0.000000,1772620366.281169,0.000000
218.000000,10585.495601,-22960.695381,-2870.343968,-766.530724,-21774.488303,-14583.194504,-19566.627689,-22883.715973,-3492.616533,1829.557339,-8925.208023,3069.006272,-12815.797367,-17266.163798,2263.002367,-29344.532412,0.004000,-0.012000,1.004000,192.000000,0.000000,0.000000,0.000000,0.000000,0.000000,0.000000,0.000000,0.000000,0.000000,1772620366.281202,0.000000
220.000000,10627.248660,-22914.494325,-2824.902871,-718.586232,-21730.544773,-14532.545451,-19514.525773,-22837.716083,-3488.839089,1844.175380,-8911.372293,3081.009159,-12813.808061,-17238.112359,2273.395929,-29316.413917,0.004000,-0.012000,1.004000,192.000000,0.000000,0.000000,0.000000,0.000000,0.000000,0.000000,0.000000,0.000000,0.000000,1772620366.281224,0.000000
222.000000,10594.503354,-22948.714846,-2866.208895,-756.740660,-21776.790533,-14576.645443,-19555.652983,-22866.952165,-3477.104423,1847.796362,-8901.693988,3089.301656,-12799.704111,-17238.984077,2270.557257,-29307.987309,0.004000,-0.012000,1.004000,192.000000,0.000000,0.000000,0.000000,0.000000,0.000000,0.000000,0.000000,0.000000,0.000000,1772620366.281247,0.000000
224.000000,10627.226308,-22917.623570,-2834.290604,-730.119733,-21745.743960,-14546.917623,-19523.354712,-22833.826880,-3492.549478,1820.527234,-8928.650192,3070.995578,-12838.059704,-17274.098667,2237.834303,-29340.017359,0.006000,-0.012000,1.006000,192.000000,0.000000,24.000000,127.500000,80.000000,15.500000,56.000000,0.000000,0.000000,0.000000,1772620366.281270,0.000000
226.000000,10645.487683,-22900.725651,-2819.963136,-721.000221,-21733.226983,-14539.854472,-19512.938799,-22820.616999,-3446.415478,1873.724386,-8864.187761,3117.487206,-12788.774108,-17211.916114,2274.424109,-29285.568510,0.006000,-0.012000,1.006000,192.000000,0.000000,0.000000,0.000000,0.000000,0.000000,0.000000,0.000000,0.000000,0.000000,1772620366.281292,0.000000
228.000000,10620.453730,-22928.173593,-2847.768706,-751.555056,-21762.016030,-14570.968100,-19547.114616,-22845.293325,-3468.208428,1846.812886,-8898.609447,3094.107281,-12820.670047,-17251.433999,2251.178295,-29331.993083,0.006000,-0.012000,1.006000,192.000000,0.000000,0.000000,0.000000,0.000000,0.000000,0.000000,0.000000,0.000000,0.000000,1772620366.281314,0.000000
230.000000,10668.085297,-22878.128037,-2797.521984,-703.208232,-21705.689634,-14520.475509,-19494.632720,-22797.035908,-3449.120039,1867.018863,-8870.423898,3115.252032,-12792.149221,-17229.730455,2271.719548,-29318.537333,0.006000,-0.012000,1.006000,192.000000,0.000000,0.000000,0.000000,0.000000,0.000000,0.000000,0.000000,0.000000,0.000000,1772620366.281336,0.000000
232.000000,10626.220480,-22918.785860,-2837.933938,-747.464686,-21748.962611,-14563.815542,-19540.632610,-22834.318618,-3445.767277,1869.678720,-8865.662976,3119.118884,-12778.492305,-17228.434053,2280.146155,-29317.576208,0.006000,-0.012000,1.006000,192.000000,0.000000,0.000000,0.000000,0.000000,0.000000,0.000000,0.000000,0.000000,0.000000,1772620366.281359,0.000000
234.000000,10640.726762,-22904.860724,-2814.509310,-724.531797,-21727.482584,-14542.290812,-19518.280866,-22822.628656,-3469.795402,1834.385316,-8904.912639,3090.061616,-12815.707960,-17257.446618,2265.773984,-29350.209755,0.004000,-0.010000,1.012000,192.000000,0.000000,16.000000,127.500000,88.000000,15.500000,80.000000,0.000000,0.000000,0.000000,1772620366.281382,0.000000
236.000000,10639.273899,-22909.509886,-2816.029229,-724.397686,-21721.827593,-14547.185844,-19520.806613,-22831.994037,-3438.726477,1872.785613,-8862.712546,3116.369619,-12770.646843,-17208.406890,2301.089740,-29300.387716,0.004000,-0.010000,1.012000,192.000000,0.000000,0.000000,0.000000,0.000000,0.000000,0.000000,0.000000,0.000000,0.000000,1772620366.281404,0.000000
238.000000,10603.198183,-22946.524375,-2850.853247,-754.751355,-21751.309544,-14578.098306,-19553.708381,-22870.729610,-3473.684606,1829.512635,-8912.244011,3080.092738,-12816.803195,-17257.021935,2276.771042,-29344.778281,0.004000,-0.010000,1.012000,192.000000,0.000000,0.000000,0.000000,0.000000,0.000000,0.000000,0.000000,0.000000,0.000000,1772620366.281427,0.000000
240.000000,10639.966803,-22907.654692,-2815.716304,-713.199462,-21714.004483,-14541.463797,-19508.222581,-22836.576144,-3465.570923,1847.237569,-8898.788261,3092.341494,-12798.631227,-17240.235775,2292.864298,-29320.504286,0.004000,-0.010000,1.012000,192.000000,0.000000,0.000000,0.000000,0.000000,0.000000,0.000000,0.000000,0.000000,0.000000,1772620366.281448,0.000000
242.000000,10587.171982,-22959.622498,-2871.193334,-763.468535,-21773.393068,-14596.560847,-19560.637422,-22883.425401,-3476.456222,1841.649633,-8903.616238,3086.798261,-12796.217238,-17244.214385,2285.443519,-29317.866781,0.004000,-0.010000,1.012000,192.000000,0.000000,0.000000,0.000000,0.000000,0.000000,0.000000,0.000000,0.000000,0.000000,1772620366.281471,0.000000
244.000000,10605.992151,-22938.410692,-2853.647215,-740.513294,-21754.304678,-14565.514274,-19536.452834,-22856.782121,-3508.910955,1805.775083,-8944.475227,3058.612711,-12847.447437,-17287.576769,2243.221074,-29351.841432,0.006000,-0.010000,1.012000,192.000000,0.000000,24.000000,127.500000,88.000000,15.500000,80.000000,0.000000,0.000000,0.000000,1772620366.281494,0.000000
246.000000,10618.240907,-22925.491384,-2839.811485,-730.343250,-21745.319276,-14555.590100,-19523.622933,-22840.733569,-3470.421251,1848.131639,-8887.411223,3102.265668,-12799.704111,-17248.148292,2269.730242,-29292.609309,0.006000,-0.010000,1.012000,192.000000,0.000000,0.000000,0.000000,0.000000,0.000000,0.000000,0.000000,0.000000,0.000000,1772620366.281516,0.000000
248.000000,10590.703558,-22952.112311,-2871.841535,-764.072032,-21779.025707,-14584.468554,-19559.497483,-22872.003659,-3499.456167,1818.984964,-8925.386837,3076.471755,-12827.800253,-17275.305662,2249.010175,-29337.469260,0.006000,-0.010000,1.012000,192.000000,0.000000,0.000000,0.000000,0.000000,0.000000,0.000000,0.000000,0.000000,0.000000,1772620366.281538,0.000000
250.000000,10651.813227,-22888.856875,-2808.049656,-704.929317,-21712.775137,-14523.649457,-19497.113764,-22813.062109,-3468.342539,1852.624339,-8892.060386,3104.478491,-12801.872230,-17235.787777,2267.025681,-29309.060193,0.006000,-0.010000,1.012000,192.000000,0.000000,0.000000,0.000000,0.000000,0.000000,0.000000,0.000000,0.000000,0.000000,1772620366.281564,0.000000
252.000000,10618.196203,-22924.865535,-2842.985433,-750.504524,-21757.344515,-14570.431658,-19542.532509,-22845.874470,-3456.920797,1867.398842,-8877.308235,3115.117921,-12779.364023,-17228.769330,2270.937237,-29307.517923,0.006000,-0.010000,1.012000,192.000000,0.000000,0.000000,0.000000,0.000000,0.000000,0.000000,0.000000,0.000000,0.000000,1772620366.281586,0.000000
254.000000,10643.386619,-22900.882113,-2812.430598,-726.521102,-21718.273666,-14544.727152,-19515.710415,-22817.577162,-3471.225914,1837.022822,-8902.699817,3091.358017,-12818.747797,-17271.751734,2257.369728,-29346.097034,0.008000,-0.008000,1.010000,192.000000,0.000000,32.000000,127.500000,96.000000,15.500000,72.000000,0.000000,0.000000,0.000000,1772620366.281608,0.000000
0.000000,10649.689811,-22891.583787,-2810.754217,-722.073105,-21721.358206,-14536.546413,-19513.519944,-22811.676301,-3440.805190,1883.246229,-8849.994403,3132.596985,-12759.381564,-17206.082309,2301.000333,-29299.046612,0.008000,-0.008000,1.010000,192.000000,0.000000,0.000000,0.000000,0.000000,0.000000,0.000000,0.000000,0.000000,0.000000,1772620366.281630,0.000000
2.000000,10606.059206,-22935.415558,-2852.306110,-758.595855,-21759.356172,-14574.611434,-19554.803616,-22853.988153,-3476.590333,1839.615624,-8896.798956,3091.805052,-12817.160823,-17267.929586,2271.406623,-29346.722883,0.008000,-0.008000,1.010000,192.000000,0.000000,0.000000,0.000000,0.000000,0.000000,0.000000,0.000000,0.000000,0.000000,1772620366.281652,0.000000
4.000000,10647.946375,-22893.416630,-2807.714380,-707.320953,-21708.058918,-14530.109111,-19502.299369,-22811.452784,-3465.727385,1854.121906,-8881.845639,3102.220965,-12802.945114,-17240.794568,2288.215135,-29328.394452,0.008000,-0.008000,1.010000,192.000000,0.000000,0.000000,0.000000,0.000000,0.000000,0.000000,0.000000,0.000000,0.000000,1772620366.281676,0.000000
6.000000,10594.570410,-22950.927669,-2862.923189,-758.685262,-21773.638937,-14574.790248,-19552.456683,-22862.012429,-3474.466917,1849.405688,-8886.070119,3098.085892,-12801.916933,-17242.336839,2286.158775,-29316.324510,0.008000,-0.008000,1.010000,192.000000,0.000000,0.000000,0.000000,0.000000,0.000000,0.000000,0.000000,0.000000,0.000000,1772620366.281706,0.000000
8.000000,10600.627732,-22943.931573,-2852.708441,-742.390840,-21765.167626,-14565.737792,-19532.407168,-22852.579993,-3516.264679,1799.673057,-8937.076800,3056.533999,-12857.617480,-17290.996586,2254.598111,-29357.876403,0.008000,-0.008000,1.010000,192.000000,0.000000,32.000000,127.500000,96.000000,15.500000,72.000000,0.000000,0.000000,0.000000,1772620366.281737,0.000000
10.000000,10604.785157,-22939.036541,-2850.942654,-739.820390,-21770.397934,-14573.583254,-19529.300276,-22849.741322,-3488.392054,1838.676851,-8893.088566,3091.693293,-12803.883887,-17245.041400,2278.045091,-29304.142809,0.008000,-0.008000,1.010000,192.000000,0.000000,0.000000,0.000000,0.000000,0.000000,0.000000,0.000000,0.000000,0.000000,1772620366.281785,0.000000
12.000000,10585.294436,-22958.929593,-2875.708386,-764.653178,-21797.532952,-14596.717310,-19558.670468,-22870.148464,-3520.802083,1809.172548,-8936.495654,3061.764307,-12867.452248,-17285.453354,2236.694364,-29346.477013,0.008000,-0.008000,1.010000,192.000000,0.000000,0.000000,0.000000,0.000000,0.000000,0.000000,0.000000,0.000000,0.000000,1772620366.281800,0.000000
14.000000,10647.208768,-22898.870456,-2816.297450,-708.125616,-21730.008332,-14529.975001,-19499.885380,-22809.999920,-3483.564077,1850.433868,-8896.106052,3096.230697,-12825.520375,-17237.218289,2256.095678,-29309.306062,0.008000,-0.008000,1.010000,192.000000,0.000000,0.000000,0.000000,0.000000,0.000000,0.000000,0.000000,0.000000,0.000000,1772620366.281816,0.000000
16.000000,10605.746282,-22941.606991,-2854.407174,-747.777611,-21763.424189,-14565.961309,-19544.454759,-22848.288458,-3465.079184,1860.961540,-8882.225619,3107.987715,-12800.061738,-17222.823766,2267.204495,-29298.331356,0.008000,-0.008000,1.010000,192.000000,0.000000,0.000000,0.000000,0.000000,0.000000,0.000000,0.000000,0.000000,0.000000,1772620366.281828,0.000000
18.000000,10629.930869,-22914.896657,-2828.143874,-724.062410,-21730.120090,-14537.261669,-19521.119537,-22824.081519,-3485.218106,1839.593272,-8917.161395,3084.853659,-12825.587431,-17251.858682,2247.400850,-29335.770528,0.006000,-0.010000,1.008000,192.000000,0.000000,16.000000,127.500000,80.000000,15.500000,56.000000,0.000000,0.000000,0.000000,1772620366.281839,0.000000
20.000000,10639.072733,-22907.341767,-2816.431560,-713.467683,-21711.746956,-14523.940030,-19509.407223,-22811.944522,-3436.580710,1887.805985,-8857.258720,3126.852587,-12761.102648,-17195.599341,2291.232621,-29282.506321,0.006000,-0.010000,1.008000,192.000000,0.000000,0.000000,0.000000,0.000000,0.000000,0.000000,0.000000,0.000000,0.000000,1772620366.281852,0.000000
22.000000,10600.717139,-22950.145358,-2851.322633,-748.448163,-21749.297887,-14558.205254,-19547.293430,-22849.316639,-3465.973254,1845.292967,-8898.430633,3091.626238,-12801.715768,-17234.692542,2267.942103,-29333.892981,0.006000,-0.010000,1.008000,192.000000,0.000000,0.000000,0.000000,0.000000,0.000000,0.000000,0.000000,0.000000,0.000000,1772620366.281863,0.000000
24.000000,10649.041611,-22898.289311,-2803.042865,-699.631953,-21700.995767,-14513.881745,-19495.169162,-22804.836667,-3454.551513,1862.436755,-8877.799973,3105.461968,-12778.738174,-17218.934562,2286.561106,-29313.776411,0.006000,-0.010000,1.008000,192.000000,0.000000,0.000000,0.000000,0.000000,0.000000,0.000000,0.000000,0.000000,0.000000,1772620366.281874,0.000000
26.000000,10595.106851,-22952.894622,-2853.200180,-748.291701,-21752.047152,-14567.436524,-19546.555823,-22855.083389,-3457.613702,1862.414403,-8877.196476,3104.769064,-12782.314453,-17214.374806,2294.697141,-29310.311891,0.006000,-0.010000,1.008000,192.000000,0.000000,0.000000,0.000000,0.000000,0.000000,0.000000,0.000000,0.000000,0.000000,1772620366.281888,0.000000
28.000000,10604.271067,-22941.338771,-2839.655023,-729.315070,-21739.977210,-14554.584271,-19526.036921,-22837.783138,-3501.445472,1818.649688,-8925.722113,3068.782755,-12839.713733,-17277.697298,2264.254065,-29354.925973,0.004000,-0.009000,1.009000,192.000000,0.000000,8.000000,127.500000,96.000000,15.500000,72.000000,0.000000,0.000000,0.000000,1772620366.281899,0.000000
30.000000,10601.946485,-22947.172576,-2841.532569,-729.784456,-21742.033570,-14548.661059,-19521.410110,-22832.061092,-3464.542742,1861.162706,-8873.955473,3108.859433,-12783.633206,-17216.207649,2302.408493,-29296.744382,0.004000,-0.009000,1.009000,192.000000,0.000000,0.000000,0.000000,0.000000,0.000000,0.000000,0.000000,0.000000,0.000000,1772620366.281909,0.000000
32.000000,10561.847456,-22990.803181,-2887.845384,-769.391748,-21795.476591,-14592.984568,-19563.677259,-22874.417648,-3510.386170,1798.555469,-8933.165244,3054.812915,-12835.422198,-17277.697298,2250.127763,-29348.712188,0.004000,-0.009000,1.009000,192.000000,0.000000,0.000000,0.000000,0.000000,0.000000,0.000000,0.000000,0.000000,0.000000,1772620366.281920,0.000000
34.000000,10625.549927,-22927.614799,-2826.623956,-711.456026,-21732.914058,-14529.237393,-19504.869819,-22814.313807,-3480.345426,1831.926624,-8901.381064,3081.187973,-12824.201623,-17246.136635,2255.223960,-29317.911484,0.004000,-0.009000,1.009000,192.000000,0.000000,0.000000,0.000000,0.000000,0.000000,0.000000,0.000000,0.000000,0.000000,1772620366.281932,0.000000
36.000000,10586.501430,-22959.331925,-2862.252636,-745.318919,-21767.872187,-14564.664908,-19546.667581,-22849.696618,-3470.912989,1844.756525,-8884.885476,3092.810880,-12804.107404,-17232.345609,2254.911036,-29307.942606,0.004000,-0.009000,1.009000,192.000000,0.000000,0.000000,0.000000,0.000000,0.000000,0.000000,0.000000,0.000000,0.000000,1772620366.281943,0.000000
38.000000,10614.955201,-22928.106538,-2835.005860,-717.602756,-21740.066617,-14537.507538,-19520.896020,-22825.221458,-3487.341522,1836.396973,-8913.741578,3082.551430,-12824.335733,-17243.834405,2236.582605,-29334.272961,0.004000,-0.009000,1.009000,192.000000,0.000000,0.000000,127.500000,88.000000,15.500000,64.000000,0.000000,0.000000,0.000000,1772620366.281954,0.000000
40.000000,10624.968782,-22921.311608,-2820.231357,-706.583346,-21723.056939,-14532.120768,-19507.999063,-22810.223438,-3446.348422,1879.334674,-8860.834999,3123.231604,-12768.188151,-17191.017233,2277.441594,-29282.305155,0.004000,-0.009000,1.009000,192.000000,0.000000,0.000000,0.000000,0.000000,0.000000,0.000000,0.000000,0.000000,0.000000,1772620366.281964,0.000000
42.000000,10589.116584,-22956.806178,-2855.457706,-742.413192,-21757.545681,-14564.888425,-19547.226375,-22841.739397,-3466.219123,1851.193828,-8896.396625,3097.236526,-12805.403805,-17232.055036,2262.175353,-29328.260342,0.004000,-0.009000,1.009000,192.000000,0.000000,0.000000,0.000000,0.000000,0.000000,0.000000,0.000000,0.000000,0.000000,1772620366.281975,0.000000
44.000000,10642.134922,-22903.631378,-2801.657057,-689.551316,-21703.566218,-14510.104300,-19492.084621,-22788.542245,-3457.390184,1866.974159,-8879.185781,3108.680619,-12785.533105,-17211.536135,2278.425071,-29314.134039,0.004000,-0.009000,1.009000,192.000000,0.000000,0.000000,0.000000,0.000000,0.000000,0.000000,0.000000,0.000000,0.000000,1772620366.281986,0.000000
46.000000,10602.214706,-22947.150224,-2842.873674,-735.662965,-21748.023838,-14554.003126,-19538.844471,-22832.999865,-3447.801286,1875.020787,-8865.081831,3118.269517,-12766.578825,-17201.902533,2293.847775,-29306.221522,0.004000,-0.009000,1.009000,192.000000,0.000000,0.000000,0.000000,0.000000,0.000000,0.000000,0.000000,0.000000,0.000000,1772620366.281997,0.000000
48.000000,10609.791948,-22936.242573,-2827.875653,-719.212081,-21731.550602,-14541.620259,-19520.046654,-22829.356531,-3477.305588,1833.155970,-8909.807671,3086.798261,-12809.114195,-17252.417475,2272.188934,-29347.929877,0.001000,-0.011500,1.007500,192.000000,127.500000,120.000000,127.500000,72.000000,15.500000,56.000000,0.000000,0.000000,0.000000,1772620366.282008,0.000000
50.000000,10601.544154,-22942.769282,-2834.536473,-722.184863,-21737.227945,-14541.352039,-19518.102052,-22833.178679,-3464.967425,1864.381357,-8873.195514,3113.441540,-12786.136602,-17213.011350,2301.827347,-29298.890149,0.001000,-0.011500,1.007500,192.000000,0.000000,0.000000,0.000000,0.000000,0.000000,0.000000,0.000000,0.000000,0.000000,1772620366.282018,0.000000
52.000000,10556.170113,-22987.740992,-2881.095157,-767.536553,-21782.132600,-14577.315995,-19562.716134,-22878.776238,-3505.826414,1816.302754,-8927.756122,3071.867296,-12841.278355,-17267.795475,2267.852696,-29345.895868,0.001000,-0.011500,1.007500,192.000000,0.000000,0.000000,0.000000,0.000000,0.000000,0.000000,0.000000,0.000000,0.000000,1772620366.282029,0.000000
54.000000,10593.899857,-22951.218242,-2834.134142,-721.961346,-21748.247355,-14543.743675,-19510.033072,-22832.955162,-3501.579583,1822.605946,-8918.055465,3071.532020,-12826.235631,-17253.199786,2270.758423,-29326.427499,0.001000,-0.011500,1.007500,192.000000,0.000000,0.000000,0.000000,0.000000,0.000000,0.000000,0.000000,0.000000,0.000000,1772620366.282040,0.000000
56.000000,10562.294491,-22986.243425,-2872.668549,-763.200314,-21793.487286,-14591.956388,-19551.428503,-22860.716028,-3499.813795,1822.047153,-8905.404378,3078.349302,-12813.830413,-17255.054981,2264.656396,-29316.659786,0.001000,-0.011500,1.007500,192.000000,0.000000,0.000000,0.000000,0.000000,0.000000,0.000000,0.000000,0.000000,0.000000,1772620366.282050,0.000000
58.000000,10590.144764,-22956.448550,-2847.187560,-739.663928,-21762.239547,-14563.077934,-19526.975695,-22836.442034,-3512.755455,1793.369865,-8931.891195,3056.802220,-12863.563044,-17282.905255,2235.465018,-29352.847261,0.003500,-0.010750,1.008750,192.000000,0.000000,24.000000,127.500000,88.000000,15.500000,72.000000,0.000000,0.000000,0.000000,1772620366.762904,0.000000
60.000000,10611.311866,-22933.985047,-2831.653098,-723.928299,-21744.984000,-14542.871957,-19515.442194,-22825.288513,-3468.990739,1843.437772,-8877.308235,3100.186956,-12795.904314,-17227.472928,2266.824516,-29291.983460,0.003500,-0.010750,1.008750,192.000000,0.000000,0.000000,0.000000,0.000000,0.000000,0.000000,0.000000,0.000000,0.000000,1772620366.762970,0.000000
62.000000,10576.778421,-22967.065628,-2864.666625,-759.758146,-21777.170512,-14579.282949,-19556.591756,-22865.409895,-3483.966408,1823.209443,-8912.266363,3078.975150,-12817.250230,-17256.463141,2248.138457,-29329.534391,0.003500,-0.010750,1.008750,192.000000,0.000000,0.000000,0.000000,0.000000,0.000000,0.000000,0.000000,0.000000,0.000000,1772620366.763020,0.000000
64.000000,10631.540195,-22912.594427,-2805.903888,-706.672753,-21713.803317,-14522.665980,-19499.728918,-22809.865810,-3476.545629,1848.243397,-8895.323741,3092.363845,-12794.585561,-17232.792644,2269.059690,-29312.167086,0.003500,-0.010750,1.008750,192.000000,0.000000,0.000000,0.000000,0.000000,0.000000,0.000000,0.000000,0.000000,0.000000,1772620366.763066,0.000000
66.000000,10604.472232,-22941.294067,-2842.203121,-749.029308,-21746.235698,-14559.524007,-19543.672448,-22839.303057,-3450.952882,1859.642787,-8869.216903,3110.088779,-12776.927683,-17219.359245,2288.192783,-29305.640376,0.003500,-0.010750,1.008750,192.000000,0.000000,0.000000,0.000000,0.000000,0.000000,0.000000,0.000000,0.000000,0.000000,1772620366.763111,0.000000
68.000000,10626.309887,-22917.087128,-2821.438351,-726.588157,-21719.815936,-14537.820463,-19523.108843,-22820.080557,-3470.041271,1838.587444,-8902.342189,3083.467851,-12813.897468,-17252.573937,2270.892533,-29344.487708,0.004750,-0.009375,1.009375,192.000000,0.000000,24.000000,127.500000,96.000000,15.500000,72.000000,0.000000,0.000000,0.000000,1772620366.763162,0.000000
70.000000,10635.563509,-22903.094936,-2813.905813,-710.807825,-21712.506916,-14526.577535,-19512.111784,-22808.167077,-3435.530178,1889.951752,-8851.983708,3127.880767,-12760.342689,-17191.508972,2312.533833,-29290.865873,0.004750,-0.009375,1.009375,192.000000,0.000000,0.000000,0.000000,0.000000,0.000000,0.000000,0.000000,0.000000,0.000000,1772620366.763202,0.000000
72.000000,10591.217648,-22946.412617,-2861.671491,-753.767878,-21757.322163,-14573.627958,-19560.257442,-22851.194185,-3463.022824,1851.909083,-8897.022473,3097.527098,-12809.784747,-17236.771254,2284.124766,-29334.898810,0.004750,-0.009375,1.009375,192.000000,0.000000,0.000000,0.000000,0.000000,0.000000,0.000000,0.000000,0.000000,0.000000,1772620366.763214,0.000000
74.000000,10628.366247,-22905.486572,-2816.096284,-707.946802,-21704.572046,-14527.337495,-19508.066119,-22813.553847,-3470.622417,1854.792458,-8894.474375,3099.002313,-12804.174459,-17229.104606,2294.138347,-29321.398356,0.004750,-0.009375,1.009375,192.000000,0.000000,0.000000,0.000000,0.000000,0.000000,0.000000,0.000000,0.000000,0.000000,1772620366.763227,0.000000
76.000000,10568.664738,-22965.433951,-2871.841535,-762.730928,-21759.691448,-14577.025423,-19563.945480,-22874.797627,-3468.342539,1849.897426,-8892.149793,3099.225831,-12799.257076,-17230.848042,2301.335609,-29307.741440,0.004750,-0.009375,1.009375,192.000000,0.000000,0.000000,0.000000,0.000000,0.000000,0.000000,0.000000,0.000000,0.000000,1772620366.763239,0.000000
78.000000,10584.199200,-22952.000553,-2853.870732,-742.547303,-21750.840157,-14562.385030,-19542.688971,-22863.487645,-3508.575679,1800.343609,-8946.799808,3056.489296,-12850.196701,-17280.223045,2259.739013,-29347.684008,0.005375,-0.009687,1.008687,192.000000,0.000000,24.000000,127.500000,88.000000,15.500000,64.000000,0.000000,0.000000,0.000000,1772620366.763252,0.000000
80.000000,10596.425604,-22940.958791,-2840.102057,-732.600776,-21747.777968,-14556.350059,-19529.032055,-22849.942487,-3471.270617,1845.225912,-8892.641532,3097.102415,-12793.602084,-17229.529289,2287.499879,-29290.575301,0.005375,-0.009687,1.008687,192.000000,0.000000,0.000000,0.000000,0.000000,0.000000,0.000000,0.000000,0.000000,0.000000,1772620366.763264,0.000000
82.000000,10572.039851,-22966.730352,-2869.628712,-770.643445,-21783.674870,-14586.971949,-19564.101942,-22877.748058,-3491.633057,1805.328048,-8931.578270,3061.563142,-12811.684646,-17273.584577,2253.480524,-29338.139813,0.005375,-0.009687,1.008687,192.000000,0.000000,0.000000,0.000000,0.000000,0.000000,0.000000,0.000000,0.000000,0.000000,1772620366.763277,0.000000
84.000000,10637.038724,-22901.798535,-2807.982601,-715.121712,-21722.364035,-14521.101358,-19505.093337,-22814.649083,-3461.279388,1836.620490,-8895.524907,3088.966380,-12801.671064,-17243.163853,2269.909056,-29314.245798,0.005375,-0.009687,1.008687,192.000000,0.000000,0.000000,0.000000,0.000000,0.000000,0.000000,0.000000,0.000000,0.000000,1772620366.763289,0.000000
86.000000,10611.669494,-22930.431119,-2835.877578,-747.643500,-21750.460178,-14569.850513,-19541.079645,-22841.270011,-3440.984004,1857.429964,-8867.808743,3110.133482,-12773.843142,-17233.932583,2283.118937,-29300.991213,0.005375,-0.009687,1.008687,192.000000,0.000000,0.000000,0.000000,0.000000,0.000000,0.000000,0.000000,0.000000,0.000000,1772620366.763301,0.000000
88.000000,10634.222404,-22905.218352,-2815.403380,-725.671735,-21713.043357,-14544.928318,-19521.030131,-22820.907571,-3455.378527,1833.491246,-8895.502555,3088.988732,-12799.480593,-17255.680830,2267.137440,-29344.510060,0.005375,-0.009687,1.008687,192.000000,0.000000,0.000000,0.000000,0.000000,0.000000,0.000000,0.000000,0.000000,0.000000,1772620366.763313,0.000000
90.000000,10645.130056,-22895.204770,-2810.664810,-715.836968,-21706.606055,-14535.607640,-19513.229372,-22812.480964,-3413.938393,1879.491136,-8844.831150,3129.825369,-12751.804322,-17196.426355,2305.761255,-29293.212806,0.008000,-0.008000,1.002000,192.000000,0.000000,32.000000,127.500000,96.000000,15.500000,40.000000,0.000000,0.000000,0.000000,1772620366.763335,0.000000
92.000000,10600.963009,-22936.130814,-2859.816296,-759.020538,-21751.957745,-14576.488981,-19558.446951,-22858.369095,-3452.293986,1842.096668,-8895.994293,3096.588325,-12796.150183,-17242.560356,2275.832269,-29337.916295,0.008000,-0.008000,1.002000,192.000000,0.000000,0.000000,0.000000,0.000000,0.000000,0.000000,0.000000,0.000000,0.000000,1772620366.763347,0.000000
94.000000,10643.654840,-22888.812171,-2811.313011,-714.339401,-21703.677977,-14530.131463,-19504.601598,-22812.413909,-3451.556379,1851.573807,-8889.802860,3103.271497,-12787.902390,-17227.115301,2288.952743,-29324.080565,0.008000,-0.008000,1.002000,192.000000,0.000000,0.000000,0.000000,0.000000,0.000000,0.000000,0.000000,0.000000,0.000000,1772620366.763359,0.000000
96.000000,10603.622866,-22932.576887,-2852.462572,-758.595855,-21750.571936,-14574.611434,-19549.595660,-22851.194185,-3449.678832,1860.738022,-8877.643511,3110.938145,-12770.959767,-17217.436995,2300.352132,-29311.451830,0.008000,-0.008000,1.002000,192.000000,0.000000,0.000000,0.000000,0.000000,0.000000,0.000000,0.000000,0.000000,0.000000,1772620366.763372,0.000000
98.000000,10614.217593,-22924.150279,-2842.560749,-748.403460,-21741.363018,-14565.961309,-19538.397436,-22839.906554,-3482.044158,1815.989830,-8919.284811,3076.158831,-12831.980030,-17277.630243,2280.168507,-29353.428406,0.008000,-0.008000,1.002000,192.000000,0.000000,0.000000,0.000000,0.000000,0.000000,0.000000,0.000000,0.000000,0.000000,1772620366.763384,0.000000
100.000000,10625.572279,-22911.208619,-2829.641441,-739.529817,-21735.059826,-14552.214986,-19524.762872,-22824.819127,-3450.639957,1847.326976,-8870.043918,3108.211232,-12772.367927,-17236.324219,2311.393894,-29300.834751,0.010000,-0.006000,1.008000,192.000000,0.000000,40.000000,127.500000,104.000000,15.500000,64.000000,0.000000,0.000000,0.000000,1772620366.763396,0.000000
102.000000,10590.681206,-22943.842166,-2868.712290,-773.772690,-21777.416382,-14592.358719,-19563.252576,-22863.152368,-3478.266713,1813.397028,-8908.935953,3081.545601,-12798.675930,-17264.398010,2275.452289,-29334.474127,0.010000,-0.006000,1.008000,192.000000,0.000000,0.000000,0.000000,0.000000,0.000000,0.000000,0.000000,0.000000,0.000000,1772620366.763408,0.000000
104.000000,10648.952204,-22884.319470,-2813.481130,-718.675639,-21713.423337,-14532.120768,-19507.283808,-22815.297284,-3460.765298,1838.252167,-8894.608485,3097.437691,-12798.340654,-17247.589498,2274.535868,-29320.347824,0.010000,-0.006000,1.008000,192.000000,0.000000,0.000000,0.000000,0.000000,0.000000,0.000000,0.000000,0.000000,0.000000,1772620366.763420,0.000000
106.000000,10621.347799,-22913.086166,-2844.795924,-748.314053,-21753.656477,-14560.373373,-19546.444064,-22847.908479,-3444.962614,1856.044156,-8877.956435,3109.306468,-12771.451506,-17218.889859,2281.464908,-29304.567493,0.010000,-0.006000,1.008000,192.000000,0.000000,0.000000,0.000000,0.000000,0.000000,0.000000,0.000000,0.000000,0.000000,1772620366.763432,0.000000
108.000000,10646.538215,-22885.504113,-2828.881482,-729.270366,-21737.809090,-14539.049809,-19527.713302,-22823.053339,-3448.293024,1830.451409,-8904.063273,3089.771043,-12818.948963,-17259.994717,2251.893550,-29334.585885,0.010000,-0.006000,1.008000,192.000000,0.000000,0.000000,0.000000,0.000000,0.000000,0.000000,0.000000,0.000000,0.000000,1772620366.763444,0.000000
110.000000,10666.654785,-22862.615927,-2812.832929,-713.512387,-21715.434994,-14527.695123,-19507.864953,-22795.426583,-3405.109454,1888.655351,-8841.970127,3140.621262,-12758.822770,-17194.392347,2289.265667,-29280.449960,0.004000,-0.014000,1.006000,192.000000,0.000000,16.000000,127.500000,72.000000,15.500000,56.000000,0.000000,0.000000,0.000000,1772620366.763456,0.000000
112.000000,10631.964878,-22896.389412,-2853.758973,-752.672643,-21757.053942,-14569.269367,-19550.087398,-22833.469252,-3432.311527,1856.021804,-8877.822325,3117.576613,-12794.607913,-17239.095836,2265.014024,-29333.401243,0.004000,-0.014000,1.006000,192.000000,0.000000,0.000000,0.000000,0.000000,0.000000,0.000000,0.000000,0.000000,0.000000,1772620366.763468,0.000000
114.000000,10679.037652,-22844.175737,-2803.244031,-702.023590,-21697.397136,-14514.708759,-19496.510267,-22792.431449,-3426.254204,1874.193773,-8867.696985,3128.327802,-12780.772183,-17216.900553,2279.252086,-29321.532467,0.004000,-0.014000,1.006000,192.000000,0.000000,0.000000,0.000000,0.000000,0.000000,0.000000,0.000000,0.000000,0.000000,1772620366.763480,0.000000
116.000000,10629.461483,-22892.477857,-2846.539360,-745.743602,-21735.506861,-14550.583309,-19545.281773,-22846.701485,-3421.247413,1890.108215,-8859.337432,3137.424962,-12760.365040,-17199.399137,2296.641743,-29303.695775,0.004000,-0.014000,1.006000,192.000000,0.000000,0.000000,0.000000,0.000000,0.000000,0.000000,0.000000,0.000000,0.000000,1772620366.763492,0.000000
118.000000,10632.300154,-22890.041517,-2838.872712,-734.075991,-21730.343608,-14549.912757,-19536.162262,-22845.494490,-3467.828449,1839.973252,-8916.580250,3091.179203,-12807.281352,-17249.802321,2276.502821,-29350.232106,0.004000,-0.014000,1.006000,192.000000,0.000000,0.000000,0.000000,0.000000,0.000000,0.000000,0.000000,0.000000,0.000000,1772620366.763505,0.000000
120.000000,10640.167968,-22881.972537,-2826.132217,-724.978831,-21731.438843,-14539.966230,-19520.560744,-22828.216592,-3439.933472,1879.401729,-8868.680461,3126.807884,-12784.571980,-17208.764518,2309.203423,-29297.236120,0.008000,-0.016000,1.006000,192.000000,0.000000,32.000000,127.500000,64.000000,15.500000,56.000000,0.000000,0.000000,0.000000,1772620366.763517,0.000000
122.000000,10595.933866,-22927.771262,-2869.226380,-771.001073,-21779.428039,-14588.625978,-19561.911471,-22865.879281,-3475.763318,1833.111266,-8910.768796,3090.061616,-12805.873192,-17255.278499,2271.764251,-29341.581981,0.008000,-0.016000,1.006000,192.000000,0.000000,0.000000,0.000000,0.000000,0.000000,0.000000,0.000000,0.000000,0.000000,1772620366.763531,0.000000
124.000000,10654.786009,-22867.622717,-2815.001048,-719.703820,-21724.889782,-14539.295678,-19506.903828,-22812.637426,-3461.279388,1842.901330,-8891.903924,3099.806976,-12808.957733,-17250.562280,2268.344434,-29323.946455,0.008000,-0.016000,1.006000,192.000000,0.000000,0.000000,0.000000,0.000000,0.000000,0.000000,0.000000,0.000000,0.000000,1772620366.763544,0.000000
126.000000,10620.431378,-22899.809229,-2848.774534,-748.246997,-21754.125864,-14565.357812,-19545.371180,-22848.444921,-3441.296928,1859.754546,-8872.413203,3115.050866,-12796.999550,-17224.790719,2273.664149,-29307.137943,0.008000,-0.016000,1.006000,192.000000,0.000000,0.000000,0.000000,0.000000,0.000000,0.000000,0.000000,0.000000,0.000000,1772620366.763556,0.000000
128.000000,10635.518805,-22884.811209,-2833.508293,-733.584253,-21731.863526,-14544.034248,-19531.803671,-22840.398293,-3466.599103,1832.127790,-8915.440311,3087.289999,-12825.542727,-17265.984984,2250.194818,-29339.324455,0.008000,-0.016000,1.006000,192.000000,0.000000,0.000000,0.000000,0.000000,0.000000,0.000000,0.000000,0.000000,0.000000,1772620366.763569,0.000000
130.000000,10658.786971,-22863.062961,-2814.174034,-717.267480,-21713.758613,-14527.158681,-19511.217715,-22815.252580,-3427.640012,1878.306494,-8859.829171,3126.584366,-12769.082221,-17210.798527,2289.377426,-29283.914481,0.010000,-0.012000,1.010000,192.000000,0.000000,40.000000,127.500000,80.000000,15.500000,72.000000,0.000000,0.000000,0.000000,1772620366.763582,0.000000
132.000000,10628.902689,-22894.221293,-2854.340119,-755.466611,-21757.188053,-14570.990452,-19551.495558,-22841.337066,-3453.456277,1852.199656,-8888.640569,3105.998410,-12802.296913,-17249.310583,2263.985844,-29327.768603,0.010000,-0.012000,1.010000,192.000000,0.000000,0.000000,0.000000,0.000000,0.000000,0.000000,0.000000,0.000000,0.000000,1772620366.763593,0.000000
134.000000,10680.803440,-22840.353589,-2803.556955,-703.968192,-21712.171639,-14526.868108,-19494.766831,-22782.261405,-3438.055925,1874.551400,-8862.176104,3127.679602,-12786.226009,-17222.756710,2276.167545,-29312.770583,0.010000,-0.012000,1.010000,192.000000,0.000000,0.000000,0.000000,0.000000,0.000000,0.000000,0.000000,0.000000,0.000000,1772620366.763606,0.000000
136.000000,10641.017335,-22882.196055,-2845.220607,-742.189675,-21761.077256,-14567.235359,-19534.217660,-22818.627693,-3434.479646,1883.715616,-8850.352031,3137.335555,-12787.812983,-17217.057016,2279.207382,-29309.194304,0.010000,-0.012000,1.010000,192.000000,0.000000,0.000000,0.000000,0.000000,0.000000,0.000000,0.000000,0.000000,0.000000,1772620366.763618,0.000000
138.000000,10651.276785,-22870.170816,-2833.284775,-730.075029,-21738.434939,-14547.923451,-19522.035959,-22814.246752,-3465.056832,1845.225912,-8896.463680,3104.389084,-12823.687532,-17261.581690,2255.313367,-29353.853089,0.010000,-0.012000,1.010000,192.000000,0.000000,0.000000,0.000000,0.000000,0.000000,0.000000,0.000000,0.000000,0.000000,1772620366.763630,0.000000
140.000000,10650.852102,-22867.868587,-2823.829988,-722.229567,-21722.922829,-14535.250012,-19514.883401,-22817.331292,-3437.318318,1882.687435,-8855.135304,3135.458009,-12768.165799,-17208.518649,2296.574688,-29298.510170,0.004000,-0.012000,1.006000,192.000000,0.000000,16.000000,127.500000,80.000000,15.500000,56.000000,0.000000,0.000000,0.000000,1772620366.763643,0.000000
142.000000,10610.238982,-22916.036596,-2868.846401,-771.872791,-21772.275480,-14587.530743,-19566.158303,-22869.410857,-3474.846897,1838.252167,-8906.879593,3094.017874,-12815.685608,-17259.078295,2267.964455,-29342.252534,0.004000,-0.012000,1.006000,192.000000,0.000000,0.000000,0.000000,0.000000,0.000000,0.000000,0.000000,0.000000,0.000000,1772620366.763654,0.000000
144.000000,10665.693660,-22865.588709,-2815.716304,-720.664945,-21722.073462,-14531.003181,-19508.423747,-22812.793888,-3456.719632,1845.740002,-8890.920447,3096.163642,-12785.488401,-17249.355286,2269.663187,-29327.120403,0.004000,-0.012000,1.006000,192.000000,0.000000,0.000000,0.000000,0.000000,0.000000,0.000000,0.000000,0.000000,0.000000,1772620366.763667,0.000000
146.000000,10631.361381,-22899.652767,-2851.277930,-764.362605,-21761.993678,-14573.851475,-19550.847358,-22843.214612,-3440.939300,1856.804115,-8868.300482,3107.697142,-12789.377605,-17235.608963,2270.020815,-29309.551932,0.004000,-0.012000,1.006000,192.000000,0.000000,0.000000,0.000000,0.000000,0.000000,0.000000,0.000000,0.000000,0.000000,1772620366.763680,0.000000
148.000000,10645.353573,-22881.369040,-2830.021421,-740.289776,-21740.625410,-14554.114885,-19532.407168,-22825.959066,-3460.564132,1827.433923,-8904.309142,3081.903229,-12823.665181,-17268.823656,2242.304652,-29350.120348,0.004000,-0.012000,1.006000,192.000000,0.000000,0.000000,0.000000,0.000000,0.000000,0.000000,0.000000,0.000000,0.000000,1772620366.763692,0.000000
150.000000,10663.905521,-22861.118360,-2813.659944,-720.240262,-21720.620599,-14538.155739,-19517.140927,-22808.971740,-3413.848986,1878.239438,-8847.423953,3127.389029,-12759.426267,-17210.910286,2280.526135,-29292.922234,0.010000,-0.012000,1.004000,192.000000,0.000000,40.000000,127.500000,80.000000,15.500000,48.000000,0.000000,0.000000,0.000000,1772620366.763705,0.000000
152.000000,10628.835634,-22894.869494,-2855.658872,-759.132297,-21769.749733,-14576.623091,-19559.788055,-22848.064941,-3433.272652,1855.217142,-8884.103165,3103.673828,-12793.512677,-17249.355286,2250.217170,-29332.842449,0.010000,-0.012000,1.004000,192.000000,0.000000,0.000000,0.000000,0.000000,0.000000,0.000000,0.000000,0.000000,0.000000,1772620366.763717,0.000000
154.000000,10679.551742,-22842.275839,-2800.718284,-708.550299,-21711.299921,-14524.565878,-19501.159430,-22796.119487,-3420.263937,1870.393976,-8869.596883,3112.636878,-12776.681814,-17230.736283,2263.471754,-29318.738499,0.010000,-0.012000,1.004000,192.000000,0.000000,0.000000,0.000000,0.000000,0.000000,0.000000,0.000000,0.000000,0.000000,1772620366.763731,0.000000
156.000000,10637.821035,-22881.659613,-2835.832874,-747.040003,-21745.274573,-14557.177074,-19540.185576,-22833.670418,-3413.156082,1883.849726,-8851.983708,3126.606718,-12750.463218,-17218.331065,2284.415339,-29306.087411,0.010000,-0.012000,1.004000,192.000000,0.000000,0.000000,0.000000,0.000000,0.000000,0.000000,0.000000,0.000000,0.000000,1772620366.763743,0.000000
158.000000,10640.212672,-22873.568281,-2829.306165,-733.204273,-21725.850907,-14554.852492,-19528.920296,-22827.076653,-3457.121963,1850.702089,-8902.141023,3094.017874,-12804.241515,-17256.351382,2262.354167,-29353.204888,0.010000,-0.012000,1.004000,192.000000,0.000000,0.000000,0.000000,0.000000,0.000000,0.000000,0.000000,0.000000,0.000000,1772620366.763756,0.000000
160.000000,10648.996907,-22861.520691,-2816.677429,-716.328706,-21714.540924,-14538.468664,-19511.418880,-22812.503316,-3427.483550,1897.126662,-8856.185836,3138.162570,-12762.488456,-17198.706233,2302.319086,-29298.778391,0.007000,-0.012000,1.004000,192.000000,0.000000,16.000000,127.500000,80.000000,15.500000,48.000000,0.000000,0.000000,0.000000,1772620366.763768,0.000000
162.000000,10597.453785,-22914.360215,-2865.314825,-761.412175,-21767.425152,-14577.874789,-19560.682125,-22863.554700,-3467.314359,1847.572845,-8905.694950,3098.845851,-12810.656465,-17252.104551,2268.433841,-29343.191307,0.007000,-0.012000,1.004000,192.000000,0.000000,0.000000,0.000000,0.000000,0.000000,0.000000,0.000000,0.000000,0.000000,1772620366.763780,0.000000
164.000000,10642.313736,-22870.349630,-2813.950516,-710.986639,-21710.964645,-14527.739826,-19506.277979,-22820.304074,-3460.854704,1854.211313,-8899.816442,3103.316200,-12790.361081,-17239.654629,2274.960551,-29322.806516,0.007000,-0.012000,1.004000,192.000000,0.000000,0.000000,0.000000,0.000000,0.000000,0.000000,0.000000,0.000000,0.000000,1772620366.763794,0.000000
166.000000,10609.881355,-22907.811154,-2850.294453,-753.723175,-21759.646745,-14572.577426,-19548.656887,-22856.692714,-3454.819733,1858.458144,-8883.365558,3113.374485,-12770.445677,-17227.361170,2279.766176,-29307.182647,0.007000,-0.012000,1.004000,192.000000,0.000000,0.000000,0.000000,0.000000,0.000000,0.000000,0.000000,0.000000,0.000000,1772620366.763807,0.000000
168.000000,10626.578108,-22890.466200,-2834.759991,-737.629919,-21740.714817,-14556.662983,-19532.876555,-22842.678171,-3473.215219,1830.093781,-8915.596773,3086.954723,-12812.936343,-17268.644842,2250.351280,-29349.494499,0.007000,-0.012000,1.004000,192.000000,0.000000,0.000000,0.000000,0.000000,0.000000,0.000000,0.000000,0.000000,0.000000,1772620366.763821,0.000000
170.000000,10647.544044,-22869.164988,-2811.558880,-720.173206,-21717.245485,-14534.691219,-19510.614218,-22817.733624,-3433.987908,1879.714653,-8860.097392,3126.226738,-12767.607006,-17212.541963,2283.007179,-29295.179760,0.004500,-0.008000,1.003000,192.000000,0.000000,8.000000,127.500000,112.000000,15.500000,40.000000,0.000000,0.000000,0.000000,1772620366.763833,0.000000
172.000000,10609.926058,-22906.738270,-2852.015537,-758.282931,-21763.982983,-14575.349042,-19556.368238,-22855.910403,-3453.903312,1855.194790,-8890.965151,3102.757407,-12798.474765,-17246.986001,2257.973225,-29332.775394,0.004500,-0.008000,1.003000,192.000000,0.000000,0.000000,0.000000,0.000000,0.000000,0.000000,0.000000,0.000000,0.000000,1772620366.763846,0.000000
174.000000,10652.170855,-22864.337011,-2796.806728,-714.473512,-21704.996729,-14531.070236,-19504.020453,-22811.832763,-3440.067582,1867.175325,-8879.275188,3110.558165,-12777.039442,-17222.868469,2269.350263,-29316.302158,0.004500,-0.008000,1.003000,192.000000,0.000000,0.000000,0.000000,0.000000,0.000000,0.000000,0.000000,0.000000,0.000000,1772620366.763858,0.000000
176.000000,10627.785102,-22889.505075,-2833.955328,-748.112887,-21740.983038,-14565.536626,-19543.538337,-22840.107720,-3432.110361,1878.217087,-8866.400584,3117.375447,-12759.247453,-17219.761577,2280.727301,-29307.853199,0.004500,-0.008000,1.003000,192.000000,0.000000,0.000000,0.000000,0.000000,0.000000,0.000000,0.000000,0.000000,0.000000,1772620366.763870,0.000000
178.000000,10645.822960,-22874.127075,-2821.639517,-735.506503,-21720.195916,-14544.458931,-19529.143814,-22824.081519,-3440.961652,1856.200618,-8895.547258,3099.315238,-12785.801326,-17261.358173,2262.532981,-29349.829775,0.004500,-0.008000,1.003000,192.000000,0.000000,0.000000,0.000000,0.000000,0.000000,0.000000,0.000000,0.000000,0.000000,1772620367.242587,0.000000
180.000000,10659.055192,-22859.330220,-2810.128368,-718.697991,-21700.660491,-14532.456044,-19513.408186,-22810.804583,-3394.939410,1900.367665,-8840.405505,3140.330689,-12719.528403,-17206.171716,2308.398760,-29295.157408,0.003250,-0.009000,1.000500,192.000000,0.000000,8.000000,127.500000,88.000000,15.500000,24.000000,0.000000,0.000000,0.000000,1772620367.242673,0.000000
182.000000,10616.184546,-22906.246532,-2856.083555,-757.075936,-21748.269707,-14572.398612,-19557.619936,-22852.579993,-3430.232815,1870.662197,-8883.589075,3110.424055,-12777.531180,-17234.312562,2282.090757,-29338.385682,0.003250,-0.009000,1.000500,192.000000,0.000000,0.000000,0.000000,0.000000,0.000000,0.000000,0.000000,0.000000,0.000000,1772620367.242736,0.000000
184.000000,10662.117381,-22856.446845,-2809.122540,-705.935145,-21688.031755,-14514.731111,-19506.702662,-22806.110717,-3419.056942,1881.011055,-8876.905903,3116.414322,-12769.797477,-17213.547792,2289.511536,-29320.414879,0.003250,-0.009000,1.000500,192.000000,0.000000,0.000000,0.000000,0.000000,0.000000,0.000000,0.000000,0.000000,0.000000,1772620367.242795,0.000000
186.000000,10605.411006,-22905.173648,-2850.965005,-749.856323,-21741.921811,-14560.440428,-19549.997991,-22847.103816,-3422.454408,1895.919668,-8866.489991,3129.311279,-12761.907311,-17200.516725,2295.658266,-29303.852237,0.003250,-0.009000,1.000500,192.000000,0.000000,0.000000,0.000000,0.000000,0.000000,0.000000,0.000000,0.000000,0.000000,1772620367.242863,0.000000
188.000000,10610.618962,-22906.671215,-2840.437334,-745.922416,-21734.456329,-14550.672716,-19539.649134,-22843.929868,-3470.108327,1843.951862,-8916.334381,3085.434805,-12814.724483,-17255.725533,2257.325024,-29350.388569,0.003250,-0.009000,1.000500,192.000000,0.000000,0.000000,0.000000,0.000000,0.000000,0.000000,0.000000,0.000000,0.000000,1772620367.242901,0.000000
190.000000,10622.554794,-22894.534218,-2822.511235,-729.113904,-21713.579799,-14524.275306,-19519.845488,-22828.194240,-3432.512693,1875.825450,-8864.076002,3119.655325,-12741.611927,-17206.909324,2283.722434,-29293.928062,0.003625,-0.007500,1.002250,192.000000,0.000000,16.000000,127.500000,104.000000,15.500000,48.000000,0.000000,0.000000,0.000000,1772620367.242928,0.000000
192.000000,10585.361491,-22933.470957,-2863.504334,-768.810602,-21756.316335,-14570.431658,-19562.582023,-22868.516787,-3472.611722,1844.465952,-8910.165299,3086.887668,-12801.626361,-17245.779007,2253.189952,-29334.362368,0.003625,-0.007500,1.002250,192.000000,0.000000,0.000000,0.000000,0.000000,0.000000,0.000000,0.000000,0.000000,0.000000,1772620367.242953,0.000000
194.000000,10632.926003,-22887.493418,-2808.094359,-715.926375,-21700.369918,-14512.652399,-19505.339206,-22816.973664,-3456.965501,1858.502848,-8890.115784,3101.237488,-12790.964579,-17227.718798,2267.651530,-29315.273978,0.003625,-0.007500,1.002250,192.000000,0.000000,0.000000,0.000000,0.000000,0.000000,0.000000,0.000000,0.000000,0.000000,1772620367.242979,0.000000
196.000000,10593.497526,-22930.185250,-2844.527703,-756.338329,-21741.742997,-14551.365620,-19545.572346,-22855.418665,-3444.336765,1863.777860,-8875.900075,3109.664096,-12768.232854,-17213.503088,2281.733129,-29296.409106,0.003625,-0.007500,1.002250,192.000000,0.000000,0.000000,0.000000,0.000000,0.000000,0.000000,0.000000,0.000000,0.000000,1772620367.243005,0.000000
198.000000,10602.192354,-22921.579828,-2830.222586,-746.235340,-21726.096776,-14545.621222,-19533.345942,-22843.795758,-3473.639902,1822.516539,-8918.770721,3074.303636,-12807.661332,-17258.519502,2256.542713,-29345.560592,0.003625,-0.007500,1.002250,192.000000,0.000000,0.000000,0.000000,0.000000,0.000000,0.000000,0.000000,0.000000,0.000000,1772620367.243031,0.000000
200.000000,10619.157329,-22906.648863,-2810.173072,-729.650346,-21705.041433,-14531.204347,-19514.503421,-22828.529516,-3434.680812,1871.802136,-8861.483200,3115.609660,-12751.804322,-17208.429242,2298.027551,-29299.851274,0.003812,-0.008750,1.001125,192.000000,0.000000,16.000000,127.500000,88.000000,15.500000,32.000000,0.000000,0.000000,0.000000,1772620367.243057,0.000000
202.000000,10574.923226,-22953.855747,-2857.290549,-773.392710,-21753.365904,-14582.434545,-19563.207872,-22879.402087,-3459.312434,1832.217196,-8897.961247,3084.473680,-12781.286273,-17248.863548,2277.441594,-29345.180612,0.003812,-0.008750,1.001125,192.000000,0.000000,0.000000,0.000000,0.000000,0.000000,0.000000,0.000000,0.000000,0.000000,1772620367.243083,0.000000
204.000000,10630.377904,-22898.378718,-2809.189595,-716.038134,-21695.318424,-14530.109111,-19507.574380,-22830.876449,-3447.130733,1844.689470,-8893.736767,3088.809918,-12775.944206,-17239.051132,2279.833231,-29335.479955,0.003812,-0.008750,1.001125,192.000000,0.000000,0.000000,0.000000,0.000000,0.000000,0.000000,0.000000,0.000000,0.000000,1772620367.243109,0.000000
206.000000,10585.786174,-22938.030712,-2859.413965,-754.103154,-21751.242489,-14566.698917,-19551.428503,-22870.126113,-3434.233777,1864.180191,-8878.358767,3105.014933,-12766.176494,-17216.587629,2289.310371,-29314.178743,0.003812,-0.008750,1.001125,192.000000,0.000000,0.000000,0.000000,0.000000,0.000000,0.000000,0.000000,0.000000,0.000000,1772620367.243135,0.000000
208.000000,10598.660779,-22919.054081,-2852.417869,-743.955462,-21736.825614,-14554.561920,-19539.716189,-22854.859871,-3480.926571,1826.517502,-8929.924241,3068.559238,-12819.798329,-17268.398973,2254.151077,-29352.757854,0.003812,-0.008750,1.001125,192.000000,0.000000,0.000000,0.000000,0.000000,0.000000,0.000000,0.000000,0.000000,0.000000,1772620367.243160,0.000000
210.000000,10617.257430,-22903.698433,-2833.664755,-729.002145,-21718.206610,-14538.155739,-19520.448985,-22829.557697,-3444.806152,1874.104366,-8870.066270,3112.525119,-12769.998642,-17210.150327,2279.989693,-29292.989289,0.002906,-0.012375,1.000563,192.000000,0.000000,8.000000,127.500000,64.000000,15.500000,32.000000,0.000000,0.000000,0.000000,1772620367.243186,0.000000
212.000000,10583.819221,-22941.003494,-2867.281779,-769.302341,-21754.170567,-14581.920455,-19559.966869,-22866.929813,-3467.917856,1839.615624,-8901.895154,3086.194764,-12801.872230,-17254.496188,2254.240484,-29330.070833,0.002906,-0.012375,1.000563,192.000000,0.000000,0.000000,0.000000,0.000000,0.000000,0.000000,0.000000,0.000000,0.000000,1772620367.243212,0.000000
214.000000,10634.065942,-22889.035689,-2812.564708,-723.682430,-21701.845134,-14529.460910,-19507.261456,-22822.539249,-3455.356175,1849.450391,-8889.869915,3092.475604,-12765.483590,-17239.118187,2264.991673,-29325.153449,0.002906,-0.012375,1.000563,192.000000,0.000000,0.000000,0.000000,0.000000,0.000000,0.000000,0.000000,0.000000,0.000000,1772620367.243238,0.000000
216.000000,10597.431433,-22924.865535,-2841.510217,-759.177000,-21746.213346,-14560.842760,-19543.694799,-22856.916232,-3444.850855,1868.292912,-8869.753345,3109.306468,-12774.044308,-17215.760614,2280.459080,-29303.651071,0.002906,-0.012375,1.000563,192.000000,0.000000,0.000000,0.000000,0.000000,0.000000,0.000000,0.000000,0.000000,0.000000,1772620367.243263,0.000000
218.000000,10606.394482,-22919.434061,-2831.966022,-751.175076,-21732.087044,-14550.560957,-19534.262363,-22850.121301,-3475.696263,1818.783798,-8912.489881,3072.739014,-12821.854689,-17264.845045,2251.915902,-29349.136871,0.002906,-0.012375,1.000563,192.000000,0.000000,0.000000,0.000000,0.000000,0.000000,0.000000,0.000000,0.000000,0.000000,1772620367.243293,0.000000
220.000000,10629.886166,-22897.574055,-2818.264403,-733.494846,-21714.809145,-14530.623201,-19515.173973,-22830.407063,-3440.268748,1862.660272,-8863.338395,3109.552337,-12764.164837,-17218.487527,2287.477528,-29292.966937,0.004453,-0.013188,1.003281,192.000000,0.000000,24.000000,127.500000,72.000000,15.500000,56.000000,0.000000,0.000000,0.000000,1772620367.243319,0.000000
