Sample_index,EXG Channel 0,EXG Channel 1,EXG Channel 2,EXG Channel 3,EXG Channel 4,EXG Channel 5,EXG Channel 6,EXG Channel 7,EXG Channel 8,EXG Channel 9,EXG Channel 10,EXG Channel 11,EXG Channel 12,EXG Channel 13,EXG Channel 14,EXG Channel 15,Accel Channel 0,Accel Channel 1,Accel Channel 2,Not Used,Digital Channel 0 (D11),Digital Channel 1 (D12),Digital Channel 2 (D13),Digital Channel 3 (D17),Not Used,Digital Channel 4 (D18),Analog Channel 0,Analog Channel 1,Analog Channel 2,Timestamp,Marker Channel
210.000000,12402.781833,-36668.662628,639.326947,-3037.333851,-16553.992516,-5336.233120,-19704.180325,-27439.381473,1922.339430,165.581723,-9368.554874,-6021.694067,-9640.486198,-14576.734850,555.977292,-29244.374245,-0.004000,-0.008000,1.000000,192.000000,0.000000,0.000000,0.000000,0.000000,0.000000,0.000000,0.000000,0.000000,0.000000,1772618416.334708,101.000000
212.000000,12406.469870,-36662.158270,636.980013,-3033.444647,-16555.020697,-5324.766675,-19701.743984,-27435.402862,1919.076075,157.021005,-9379.551933,-6025.918546,-9649.605709,-14585.630844,536.955957,-29247.369378,-0.004000,-0.008000,1.000000,192.000000,0.000000,0.000000,0.000000,0.000000,0.000000,0.000000,0.000000,0.000000,0.000000,1772618416.334776,0.000000
214.000000,12403.050053,-36664.885183,635.884778,-3035.568063,-16565.257795,-5322.822073,-19701.811040,-27437.794499,1914.404561,166.878124,-9369.672462,-6024.622145,-9643.906014,-14571.593949,536.061887,-29228.325692,-0.004000,-0.008000,1.000000,192.000000,0.000000,0.000000,0.000000,0.000000,0.000000,0.000000,0.000000,0.000000,0.000000,1772618416.334821,0.000000
216.000000,12393.461155,-36673.222384,627.122894,-3044.441705,-16571.203360,-5328.633526,-19709.477688,-27447.495156,1911.565889,153.355319,-9381.764755,-6030.433599,-9656.713564,-14585.899065,526.361230,-29236.193506,-0.004000,-0.008000,1.000000,192.000000,0.000000,0.000000,0.000000,0.000000,15.500000,48.000000,0.000000,0.000000,0.000000,1772618416.334867,0.000000
218.000000,12400.166678,-36668.260296,634.476618,-3042.094772,-16535.954659,-5322.978535,-19702.191019,-27443.494194,1903.474558,153.757650,-9380.937741,-6035.261576,-9651.997346,-14580.109963,533.625547,-29225.151745,-0.004000,-0.008000,1.000000,192.000000,0.000000,0.000000,0.000000,0.000000,0.000000,0.000000,0.000000,0.000000,0.000000,1772618416.334912,0.000000
220.000000,12398.579705,-36670.406064,630.050973,-3048.979109,-16545.342391,-5329.572300,-19712.159897,-27454.223031,1906.380285,150.784868,-9381.898866,-6036.870901,-9648.868102,-14584.893237,535.547797,-29222.000149,-0.004000,-0.008000,1.000000,192.000000,0.000000,0.000000,0.000000,0.000000,0.000000,0.000000,0.000000,0.000000,0.000000,1772618416.334955,0.000000
222.000000,12391.851830,-36678.609154,627.458170,-3054.164714,-16552.472598,-5341.016393,-19713.880982,-27462.202604,1904.078055,142.358260,-9394.996988,-6041.855340,-9658.836980,-14601.835859,531.211559,-29232.304303,-0.004000,-0.008000,1.000000,192.000000,0.000000,0.000000,0.000000,0.000000,0.000000,0.000000,0.000000,0.000000,0.000000,1772618416.334984,0.000000
224.000000,12395.338702,-36676.865718,634.901301,-3050.767249,-16553.634888,-5340.524654,-19707.331921,-27458.671028,1900.099444,142.671185,-9384.916351,-6044.604605,-9650.276262,-14593.096327,547.483629,-29227.811602,-0.004000,-0.008000,1.000000,192.000000,0.000000,0.000000,0.000000,0.000000,0.000000,0.000000,0.000000,0.000000,0.000000,1772618416.334996,0.000000
226.000000,12395.495164,-36674.719951,639.885740,-3051.370746,-16550.125664,-5347.476047,-19706.795479,-27457.642848,1904.927421,141.173618,-9392.024206,-6040.313070,-9649.717468,-14604.696882,551.708108,-29247.436434,-0.002000,0.000000,1.002000,192.000000,127.500000,120.000000,0.000000,0.000000,15.500000,40.000000,0.000000,0.000000,0.000000,1772618416.335010,0.000000
228.000000,12408.302713,-36664.661666,649.295825,-3042.094772,-16545.297688,-5339.652936,-19694.971406,-27445.192927,1900.971162,147.745031,-9381.474183,-6037.273233,-9650.902110,-14595.420908,556.580789,-29249.895126,-0.002000,0.000000,1.002000,192.000000,0.000000,0.000000,0.000000,0.000000,0.000000,0.000000,0.000000,0.000000,0.000000,1772618416.335021,0.000000
230.000000,12414.024760,-36660.236020,645.294862,-3041.424220,-16545.632964,-5340.234082,-19697.586560,-27444.611781,1907.095540,155.501086,-9373.785183,-6025.270346,-9647.392887,-14585.586141,562.012263,-29248.308152,-0.002000,0.000000,1.002000,192.000000,0.000000,0.000000,0.000000,0.000000,0.000000,0.000000,0.000000,0.000000,0.000000,1772618416.335034,0.000000
232.000000,12416.483452,-36658.313770,640.802162,-3040.060763,-16546.482330,-5335.763733,-19697.228932,-27443.561249,1915.991535,152.640063,-9382.278846,-6023.996296,-9651.706773,-14591.218780,555.351443,-29254.544288,-0.002000,0.000000,1.002000,192.000000,0.000000,0.000000,0.000000,0.000000,0.000000,0.000000,0.000000,0.000000,0.000000,1772618416.335047,0.000000
234.000000,12414.628257,-36659.990151,637.941138,-3039.457266,-16555.758304,-5332.008640,-19695.776069,-27440.208488,1907.296706,155.881066,-9373.494610,-6025.538567,-9647.147017,-14579.350004,551.305777,-29239.590971,-0.002000,0.000000,1.002000,192.000000,0.000000,0.000000,0.000000,0.000000,0.000000,0.000000,0.000000,0.000000,0.000000,1772618416.335059,0.000000
236.000000,12406.648684,-36665.667494,629.402772,-3044.888740,-16564.296670,-5339.719992,-19703.979159,-27446.221107,1903.541613,149.019080,-9383.709357,-6023.772779,-9659.753401,-14593.208086,532.306794,-29246.765881,0.000000,-0.003000,1.003000,192.000000,0.000000,8.000000,127.500000,104.000000,15.500000,48.000000,0.000000,0.000000,0.000000,1772618416.335071,0.000000
238.000000,12413.242449,-36658.626695,632.017926,-3037.445609,-16555.512435,-5332.433323,-19696.021938,-27435.827546,1900.278258,150.159019,-9380.513058,-6027.416113,-9659.328718,-14583.306263,528.529349,-29236.841707,0.000000,-0.003000,1.003000,192.000000,0.000000,0.000000,0.000000,0.000000,0.000000,0.000000,0.000000,0.000000,0.000000,1772618416.335083,0.000000
240.000000,12409.062673,-36657.620866,623.591319,-3038.786714,-16580.255816,-5337.283652,-19703.688586,-27441.415482,1901.194680,152.885932,-9377.428517,-6023.102227,-9659.976919,-14584.334443,524.394277,-29229.689149,0.000000,-0.003000,1.003000,192.000000,0.000000,0.000000,0.000000,0.000000,0.000000,0.000000,0.000000,0.000000,0.000000,1772618416.335095,0.000000
242.000000,12406.782795,-36662.806471,622.205510,-3044.486409,-16576.187799,-5342.804532,-19705.163801,-27447.696322,1900.613535,146.470981,-9390.705453,-6027.527872,-9673.611483,-14598.080766,521.265032,-29234.025387,0.000000,-0.003000,1.003000,192.000000,0.000000,0.000000,0.000000,0.000000,0.000000,0.000000,0.000000,0.000000,0.000000,1772618416.335107,0.000000
244.000000,12408.190955,-36661.912401,624.105409,-3046.453362,-16564.095505,-5346.269053,-19706.169630,-27454.446549,1897.417235,141.933577,-9386.659787,-6037.072067,-9666.101297,-14598.661911,537.000661,-29223.922399,0.000000,-0.003000,1.003000,192.000000,0.000000,0.000000,0.000000,0.000000,0.000000,0.000000,0.000000,0.000000,0.000000,1772618416.335119,0.000000
246.000000,12400.300789,-36669.087311,622.451380,-3052.376575,-16563.469656,-5348.660689,-19710.975255,-27461.979087,1899.272430,139.117257,-9396.293389,-6033.205215,-9670.862218,-14608.474327,540.264015,-29237.936942,0.001000,-0.005500,1.005500,192.000000,0.000000,8.000000,127.500000,96.000000,15.500000,64.000000,0.000000,0.000000,0.000000,1772618416.335132,0.000000
248.000000,12414.292981,-36656.950314,637.292938,-3043.257063,-16546.661144,-5342.245739,-19697.340691,-27446.623438,1900.077093,140.905397,-9388.157354,-6034.635727,-9666.436573,-14603.579295,552.780992,-29240.686207,0.001000,-0.005500,1.005500,192.000000,0.000000,0.000000,0.000000,0.000000,0.000000,0.000000,0.000000,0.000000,0.000000,1772618416.335144,0.000000
250.000000,12411.409606,-36657.307942,632.241444,-3049.493200,-16558.306403,-5350.359422,-19706.527258,-27446.310514,1902.267564,142.022984,-9380.513058,-6027.349058,-9664.983709,-14602.640522,552.892751,-29250.968009,0.001000,-0.005500,1.005500,192.000000,0.000000,0.000000,0.000000,0.000000,0.000000,0.000000,0.000000,0.000000,0.000000,1772618416.335157,0.000000
252.000000,12421.534946,-36647.741395,641.383307,-3042.653566,-16556.786484,-5345.665556,-19698.614740,-27432.832412,1907.855500,141.933577,-9379.730747,-6021.828177,-9669.096430,-14604.585124,542.767411,-29264.602573,0.001000,-0.005500,1.005500,192.000000,0.000000,0.000000,0.000000,0.000000,0.000000,0.000000,0.000000,0.000000,0.000000,1772618416.335169,0.000000
254.000000,12443.573766,-36629.256502,648.155886,-3035.836284,-16554.730124,-5333.014468,-19691.015147,-27418.236723,1916.147997,162.765403,-9356.104953,-6008.193613,-9647.437590,-14580.177019,554.502076,-29247.615248,0.001000,-0.005500,1.005500,192.000000,0.000000,0.000000,0.000000,0.000000,0.000000,0.000000,0.000000,0.000000,0.000000,1772618416.335181,0.000000
0.000000,12447.708839,-36626.618996,640.712755,-3041.670089,-16552.830226,-5336.255471,-19698.905313,-27416.113307,1930.363706,167.548676,-9358.161313,-5997.174203,-9649.248081,-14586.882542,537.894730,-29256.265373,-0.000500,-0.008750,1.005750,192.000000,127.500000,120.000000,127.500000,80.000000,15.500000,56.000000,0.000000,0.000000,0.000000,1772618416.335193,0.000000
2.000000,12465.277310,-36607.888235,652.648586,-3026.672068,-16533.920650,-5319.670477,-19682.834409,-27398.701298,1944.244140,179.953895,-9342.962127,-5988.300561,-9639.212148,-14574.611434,537.604158,-29243.346064,-0.000500,-0.008750,1.005750,192.000000,0.000000,0.000000,0.000000,0.000000,0.000000,0.000000,0.000000,0.000000,0.000000,1772618416.335205,0.000000
4.000000,12451.218063,-36621.254578,642.523246,-3031.701211,-16548.002249,-5329.102913,-19692.870342,-27412.537028,1943.260663,180.982075,-9339.765828,-5985.238372,-9636.418180,-14570.364603,537.715916,-29240.283875,-0.000500,-0.008750,1.005750,192.000000,0.000000,0.000000,0.000000,0.000000,0.000000,0.000000,0.000000,0.000000,0.000000,1772618416.335217,0.000000
6.000000,12445.026630,-36631.491677,639.773982,-3033.131723,-16562.441476,-5324.319640,-19693.831467,-27419.488420,1938.969128,164.866467,-9355.412049,-5999.856412,-9648.018735,-14584.692071,531.837408,-29240.306227,-0.000500,-0.008750,1.005750,192.000000,0.000000,0.000000,0.000000,0.000000,0.000000,0.000000,0.000000,0.000000,0.000000,1772618416.335229,0.000000
8.000000,12445.496016,-36628.988281,641.629176,-3030.538920,-16551.690287,-5321.458616,-19694.345557,-27422.036519,1934.364669,169.068595,-9347.991270,-6002.963305,-9642.676668,-14573.829123,542.990928,-29217.842724,-0.000500,-0.008750,1.005750,192.000000,0.000000,0.000000,0.000000,0.000000,0.000000,0.000000,0.000000,0.000000,0.000000,1772618416.335240,0.000000
10.000000,12433.694295,-36637.392537,630.587415,-3036.685650,-16550.818569,-5332.992117,-19707.041348,-27436.632208,1928.575567,158.362109,-9366.878494,-6008.707703,-9655.238349,-14588.380109,540.442829,-29226.872829,-0.001250,-0.009375,1.007875,192.000000,127.500000,120.000000,127.500000,88.000000,15.500000,72.000000,0.000000,0.000000,0.000000,1772618416.335252,0.000000
12.000000,12439.103417,-36633.168058,634.230749,-3036.708002,-16548.449284,-5335.249643,-19704.783822,-27436.386339,1920.841863,155.255217,-9371.013566,-6019.481244,-9657.160599,-14586.502562,547.371870,-29228.660968,-0.001250,-0.009375,1.007875,192.000000,0.000000,0.000000,0.000000,0.000000,0.000000,0.000000,0.000000,0.000000,0.000000,1772618416.335264,0.000000
14.000000,12443.953746,-36631.826953,637.538807,-3040.731316,-16557.881720,-5347.788971,-19707.130755,-27438.353293,1923.658183,160.440822,-9368.241950,-6016.642572,-9653.561968,-14588.581275,557.228989,-29238.093405,-0.001250,-0.009375,1.007875,192.000000,0.000000,0.000000,0.000000,0.000000,0.000000,0.000000,0.000000,0.000000,0.000000,1772618416.335276,0.000000
16.000000,12449.429923,-36623.735621,645.361918,-3033.645813,-16545.007115,-5334.109704,-19698.391223,-27425.590447,1928.799084,161.089022,-9367.750212,-6011.993410,-9655.327756,-14593.722176,558.994777,-29253.069073,-0.001250,-0.009375,1.007875,192.000000,0.000000,0.000000,0.000000,0.000000,0.000000,0.000000,0.000000,0.000000,0.000000,1772618416.335288,0.000000
18.000000,12456.537778,-36612.157418,644.646662,-3028.728429,-16549.142188,-5331.315736,-19695.574903,-27416.761508,1931.324831,171.192011,-9352.707488,-6005.891383,-9647.035259,-14574.879655,561.252303,-29243.726044,-0.001250,-0.009375,1.007875,192.000000,0.000000,0.000000,0.000000,0.000000,0.000000,0.000000,0.000000,0.000000,0.000000,1772618416.335299,0.000000
20.000000,12450.703973,-36616.493656,634.141342,-3031.745914,-16555.266566,-5332.433323,-19703.442717,-27424.897543,1943.037145,180.199764,-9358.161313,-5993.083834,-9645.560044,-14577.450106,541.918044,-29253.091425,0.001375,-0.008688,1.009937,192.000000,0.000000,16.000000,127.500000,96.000000,15.500000,80.000000,0.000000,0.000000,0.000000,1772618416.335311,0.000000
22.000000,12459.845836,-36609.139932,640.198665,-3025.487426,-16541.676705,-5321.436265,-19695.843124,-27422.081223,1937.583320,177.517554,-9358.496589,-5999.856412,-9643.414276,-14570.543417,537.626509,-29239.836841,0.001375,-0.008688,1.009937,192.000000,0.000000,0.000000,0.000000,0.000000,0.000000,0.000000,0.000000,0.000000,0.000000,1772618416.335323,0.000000
24.000000,12449.273461,-36616.247787,634.498970,-3034.428124,-16550.438589,-5330.823997,-19707.063700,-27432.474784,1941.494875,178.053996,-9360.575302,-6000.169337,-9642.050820,-14573.985585,536.084239,-29238.473384,0.001375,-0.008688,1.009937,192.000000,0.000000,0.000000,0.000000,0.000000,0.000000,0.000000,0.000000,0.000000,0.000000,1772618416.335345,0.000000
26.000000,12452.894444,-36616.538360,634.364859,-3032.215301,-16551.869101,-5328.566471,-19704.247380,-27428.295008,1938.633852,173.293075,-9369.247779,-6000.616372,-9646.543520,-14580.087612,528.998736,-29242.675512,0.001375,-0.008688,1.009937,192.000000,0.000000,0.000000,0.000000,0.000000,0.000000,0.000000,0.000000,0.000000,0.000000,1772618416.335358,0.000000
28.000000,12454.414362,-36615.666642,634.096638,-3032.349412,-16559.982784,-5319.089332,-19705.610836,-27431.379548,1930.989555,175.394139,-9360.575302,-6005.556107,-9638.765113,-14570.051678,535.704259,-29224.101213,0.001375,-0.008688,1.009937,192.000000,0.000000,0.000000,0.000000,0.000000,0.000000,0.000000,0.000000,0.000000,0.000000,1772618416.335370,0.000000
30.000000,12435.705952,-36629.904703,625.491217,-3042.027717,-16559.826322,-5328.231195,-19717.099633,-27450.065607,1934.409372,166.788717,-9377.048537,-6012.306334,-9656.512398,-14582.814525,529.848102,-29233.176021,0.002687,-0.007344,1.010969,192.000000,0.000000,16.000000,127.500000,104.000000,15.500000,80.000000,0.000000,0.000000,0.000000,1772618416.335382,0.000000
32.000000,12434.409551,-36632.229284,631.772057,-3040.574853,-16533.294801,-5334.176759,-19714.126851,-27448.590392,1923.836997,161.893685,-9378.523753,-6021.112921,-9652.734953,-14579.506466,539.302890,-29216.568675,0.002687,-0.007344,1.010969,192.000000,0.000000,0.000000,0.000000,0.000000,0.000000,0.000000,0.000000,0.000000,0.000000,1772618416.335394,0.000000
34.000000,12431.079141,-36635.962026,635.594205,-3045.827513,-16537.943964,-5343.966823,-19717.703130,-27451.831395,1923.591128,156.886894,-9378.546104,-6023.973945,-9651.527959,-14594.795060,549.517637,-29237.892239,0.002687,-0.007344,1.010969,192.000000,0.000000,0.000000,0.000000,0.000000,0.000000,0.000000,0.000000,0.000000,0.000000,1772618416.335406,0.000000
36.000000,12435.504786,-36631.648139,641.830342,-3045.246368,-16539.352124,-5341.597538,-19712.673987,-27445.349389,1926.519206,157.088060,-9380.557761,-6019.347134,-9651.550311,-14598.818374,555.262036,-29253.940791,0.002687,-0.007344,1.010969,192.000000,0.000000,0.000000,0.000000,0.000000,0.000000,0.000000,0.000000,0.000000,0.000000,1772618416.335419,0.000000
38.000000,12450.614566,-36617.857113,643.931406,-3037.065630,-16544.805949,-5331.963936,-19706.974293,-27433.994703,1930.654279,164.374729,-9362.832828,-6015.323820,-9644.084828,-14583.798001,568.293103,-29243.279009,0.002687,-0.007344,1.010969,192.000000,0.000000,0.000000,0.000000,0.000000,0.000000,0.000000,0.000000,0.000000,0.000000,1772618416.335431,0.000000
40.000000,12459.555263,-36607.262386,634.543673,-3040.507798,-16542.011981,-5336.121361,-19711.154069,-27429.502002,1948.446268,175.371787,-9358.004851,-5999.208212,-9647.683459,-14580.802868,557.452507,-29253.381998,0.004344,-0.006672,1.011484,192.000000,0.000000,24.000000,127.500000,104.000000,15.500000,80.000000,0.000000,0.000000,0.000000,1772618416.335442,0.000000
42.000000,12464.003261,-36603.753162,634.387211,-3035.344545,-16544.314211,-5329.482893,-19702.503944,-27422.237685,1940.869026,176.824650,-9354.607386,-6001.555145,-9647.214073,-14574.142048,546.164876,-29248.039931,0.004344,-0.006672,1.011484,192.000000,0.000000,0.000000,0.000000,0.000000,0.000000,0.000000,0.000000,0.000000,0.000000,1772618416.335455,0.000000
44.000000,12453.341479,-36607.910586,629.335717,-3037.378554,-16557.859368,-5335.137884,-19708.628322,-27428.205601,1935.303442,176.288209,-9359.524770,-5999.789357,-9654.947776,-14576.578388,532.977347,-29247.771710,0.004344,-0.006672,1.011484,192.000000,0.000000,0.000000,0.000000,0.000000,0.000000,0.000000,0.000000,0.000000,0.000000,1772618416.335468,0.000000
46.000000,12453.699106,-36607.754124,633.761362,-3036.551539,-16558.105237,-5335.271995,-19705.633188,-27427.020958,1930.788390,174.187145,-9369.337186,-5998.738825,-9655.730087,-14585.183809,524.349573,-29253.247887,0.004344,-0.006672,1.011484,192.000000,0.000000,0.000000,0.000000,0.000000,0.000000,0.000000,0.000000,0.000000,0.000000,1772618416.335479,0.000000
48.000000,12463.511522,-36604.490769,639.751630,-3032.930557,-16553.143150,-5329.169968,-19701.945150,-27423.310569,1931.794218,178.568086,-9354.629738,-5997.911811,-9648.197549,-14570.968100,536.263053,-29233.980684,0.004344,-0.006672,1.011484,192.000000,0.000000,0.000000,0.000000,0.000000,0.000000,0.000000,0.000000,0.000000,0.000000,1772618416.335492,0.000000
50.000000,12453.564996,-36613.744392,626.631156,-3038.317327,-16560.452170,-5339.228253,-19711.355235,-27429.814926,1930.766038,170.655569,-9368.934854,-5997.777700,-9659.284015,-14587.798964,522.427323,-29244.933038,0.004344,-0.006672,1.011484,192.000000,0.000000,0.000000,0.000000,0.000000,0.000000,0.000000,0.000000,0.000000,0.000000,1772618416.335505,0.000000
52.000000,12456.805999,-36612.895025,634.454266,-3033.399944,-16555.333621,-5336.948375,-19700.402880,-27421.433022,1927.972070,169.873258,-9365.403279,-5998.448252,-9656.288881,-14583.976815,529.781047,-29232.349006,0.004000,-0.006000,1.010000,192.000000,0.000000,16.000000,127.500000,104.000000,15.500000,72.000000,0.000000,0.000000,0.000000,1772618416.335517,0.000000
54.000000,12445.540720,-36624.406174,627.145246,-3046.051031,-16569.884607,-5351.655823,-19711.087014,-27435.604028,1921.825340,159.524400,-9369.381889,-6006.785453,-9661.765058,-14588.201295,537.559454,-29232.304303,0.004000,-0.006000,1.010000,192.000000,0.000000,0.000000,0.000000,0.000000,0.000000,0.000000,0.000000,0.000000,0.000000,1772618416.335529,0.000000
56.000000,12446.658307,-36623.310938,632.487313,-3051.102525,-16563.871987,-5355.097992,-19709.231819,-27433.994703,1923.702887,152.394194,-9378.367290,-6012.082817,-9665.386041,-14603.802813,537.380640,-29251.839727,0.004000,-0.006000,1.010000,192.000000,0.000000,0.000000,0.000000,0.000000,0.000000,0.000000,0.000000,0.000000,0.000000,1772618416.335541,0.000000
58.000000,12457.521255,-36611.285700,644.400793,-3050.186104,-16549.142188,-5353.890998,-19703.107441,-27425.724557,1919.925442,156.506915,-9363.391622,-6012.239279,-9656.668861,-14595.286798,549.763507,-29250.252754,0.004000,-0.006000,1.010000,192.000000,0.000000,0.000000,0.000000,0.000000,0.000000,0.000000,0.000000,0.000000,0.000000,1772618416.335553,0.000000
60.000000,12464.807923,-36602.836740,644.870179,-3047.794467,-16546.303516,-5346.738439,-19704.560304,-27423.042348,1938.164465,167.503973,-9361.044688,-5999.990523,-9652.734953,-14592.314016,551.126963,-29263.440283,0.004000,-0.006000,1.010000,192.000000,0.000000,0.000000,0.000000,0.000000,0.000000,0.000000,0.000000,0.000000,0.000000,1772618416.335564,0.000000
62.000000,12478.241322,-36589.202176,651.151019,-3034.137551,-16541.430836,-5334.422628,-19691.730403,-27408.401955,1941.316061,182.457290,-9353.422743,-5993.262648,-9644.285994,-14575.706670,556.804306,-29253.694922,0.004000,-0.008000,1.010000,192.000000,0.000000,16.000000,127.500000,96.000000,15.500000,72.000000,0.000000,0.000000,0.000000,1772618416.335576,0.000000
64.000000,12476.117906,-36587.414037,642.545598,-3035.746877,-16551.131493,-5338.624756,-19697.564208,-27410.301853,1938.052706,188.805185,-9350.896996,-5982.444403,-9638.765113,-14573.516199,549.696451,-29251.146823,0.004000,-0.008000,1.010000,192.000000,0.000000,0.000000,0.000000,0.000000,0.000000,0.000000,0.000000,0.000000,0.000000,1772618416.335588,0.000000
66.000000,12468.227740,-36594.186615,641.964453,-3034.137551,-16544.381266,-5334.847311,-19695.351386,-27412.917008,1951.955492,186.055921,-9357.580168,-5977.884648,-9644.263642,-14581.249902,535.056059,-29253.314943,0.004000,-0.008000,1.010000,192.000000,0.000000,0.000000,0.000000,0.000000,0.000000,0.000000,0.000000,0.000000,0.000000,1772618416.335600,0.000000
68.000000,12468.317147,-36598.187578,642.679708,-3038.786714,-16551.176196,-5338.065963,-19699.151182,-27419.399013,1938.812666,181.071482,-9352.394563,-5989.462851,-9641.268509,-14576.980719,536.643033,-29243.837803,0.004000,-0.008000,1.010000,192.000000,0.000000,0.000000,0.000000,0.000000,0.000000,0.000000,0.000000,0.000000,0.000000,1772618416.335612,0.000000
70.000000,12459.756429,-36604.513121,633.604900,-3045.782810,-16558.909900,-5343.653899,-19709.030653,-27433.525316,1942.456000,172.354301,-9361.826999,-5991.183936,-9646.834093,-14587.039004,526.093009,-29249.179870,0.004000,-0.008000,1.010000,192.000000,0.000000,0.000000,0.000000,0.000000,0.000000,0.000000,0.000000,0.000000,0.000000,1772618416.335624,0.000000
72.000000,12469.166514,-36598.656964,642.411487,-3035.903339,-16548.583394,-5331.382791,-19700.268769,-27426.752737,1940.734916,170.789679,-9364.017470,-5998.805880,-9649.091619,-14580.534647,527.925852,-29240.462689,-0.002000,0.000000,1.008000,192.000000,127.500000,120.000000,0.000000,0.000000,15.500000,64.000000,0.000000,0.000000,0.000000,1772618416.335636,0.000000
74.000000,12455.040211,-36609.408153,633.090810,-3044.888740,-16560.005136,-5343.653899,-19713.255133,-27441.907220,1940.109067,183.463118,-9360.463543,-5991.116880,-9645.068305,-14573.225626,541.694527,-29231.633750,-0.002000,0.000000,1.008000,192.000000,0.000000,0.000000,0.000000,0.000000,0.000000,0.000000,0.000000,0.000000,0.000000,1772618416.815506,0.000000
76.000000,12449.720496,-36609.452857,637.181179,-3047.414487,-16550.550348,-5338.423590,-19712.115194,-27442.600124,1938.723259,166.051110,-9377.629683,-6005.757273,-9658.211131,-14589.497696,541.873341,-29240.507393,-0.002000,0.000000,1.008000,192.000000,0.000000,0.000000,0.000000,0.000000,0.000000,0.000000,0.000000,0.000000,0.000000,1772618416.815587,0.000000
78.000000,12446.948880,-36618.237092,641.673880,-3051.527208,-16548.695153,-5338.557701,-19712.159897,-27440.722578,1930.587224,170.432051,-9370.834752,-6008.551241,-9648.354012,-14583.373318,558.033652,-29233.332483,-0.002000,0.000000,1.008000,192.000000,0.000000,0.000000,0.000000,0.000000,0.000000,0.000000,0.000000,0.000000,0.000000,1772618416.815638,0.000000
80.000000,12445.898348,-36622.618034,641.249197,-3054.410583,-16550.639755,-5342.066925,-19714.730348,-27440.029674,1941.181951,170.364996,-9371.259436,-5999.163508,-9650.388020,-14587.910722,556.960768,-29252.532631,-0.002000,0.000000,1.008000,192.000000,0.000000,0.000000,0.000000,0.000000,0.000000,0.000000,0.000000,0.000000,0.000000,1772618416.815684,0.000000
82.000000,12463.690336,-36605.340136,646.233636,-3045.581644,-16537.251060,-5332.835654,-19707.913066,-27425.836316,1944.065326,171.728453,-9361.603482,-5996.749520,-9641.760247,-14581.115792,563.688643,-29254.186661,0.002000,-0.004000,1.014000,192.000000,0.000000,8.000000,127.500000,112.000000,15.500000,88.000000,0.000000,0.000000,0.000000,1772618416.815735,0.000000
84.000000,12454.749638,-36612.783267,640.131609,-3045.067554,-16536.982839,-5337.842445,-19712.472822,-27430.977217,1951.039070,188.581668,-9355.546159,-5987.585305,-9635.769979,-14571.258673,565.052100,-29251.169175,0.002000,-0.004000,1.014000,192.000000,0.000000,0.000000,0.000000,0.000000,0.000000,0.000000,0.000000,0.000000,0.000000,1772618416.815770,0.000000
86.000000,12450.569862,-36619.242921,637.874083,-3040.351336,-16549.924499,-5329.661707,-19709.500040,-27427.110365,1943.126552,177.674017,-9366.699680,-5990.848659,-9647.102314,-14577.472458,552.333957,-29256.690056,0.002000,-0.004000,1.014000,192.000000,0.000000,0.000000,0.000000,0.000000,0.000000,0.000000,0.000000,0.000000,0.000000,1772618416.815781,0.000000
88.000000,12452.112133,-36610.034002,639.014022,-3030.091885,-16552.405542,-5325.280765,-19703.129793,-27422.684720,1940.399640,190.056883,-9360.038860,-5984.880744,-9639.860349,-14558.093495,542.745059,-29242.362588,0.002000,-0.004000,1.014000,192.000000,0.000000,0.000000,0.000000,0.000000,0.000000,0.000000,0.000000,0.000000,0.000000,1772618416.815791,0.000000
90.000000,12432.152025,-36628.988281,628.665165,-3039.300804,-16549.455112,-5339.138846,-19713.232781,-27438.241534,1936.532788,182.680807,-9372.600540,-5980.812726,-9650.164503,-14567.727097,530.250434,-29248.956352,0.002000,-0.004000,1.014000,192.000000,0.000000,0.000000,0.000000,0.000000,0.000000,0.000000,0.000000,0.000000,0.000000,1772618416.815802,0.000000
92.000000,12449.340516,-36613.565578,642.746764,-3031.410638,-16535.485272,-5323.604384,-19699.911141,-27423.556438,1936.197512,179.193935,-9368.018433,-5987.808822,-9643.794256,-14570.006975,532.038573,-29242.183774,0.004000,-0.008000,1.010000,192.000000,0.000000,16.000000,127.500000,96.000000,15.500000,72.000000,0.000000,0.000000,0.000000,1772618416.815814,0.000000
94.000000,12441.003316,-36624.808505,637.292938,-3039.278452,-16547.354048,-5327.158311,-19708.695377,-27435.358159,1945.540541,180.713854,-9359.703584,-5983.897267,-9634.451227,-14567.816504,540.845161,-29232.214896,0.004000,-0.008000,1.010000,192.000000,0.000000,0.000000,0.000000,0.000000,0.000000,0.000000,0.000000,0.000000,0.000000,1772618416.815825,0.000000
96.000000,12428.285173,-36640.007691,629.492179,-3047.436839,-16554.663069,-5340.167027,-19715.400900,-27449.551517,1938.656204,165.872296,-9379.484878,-5996.928334,-9650.812703,-14583.619187,530.786876,-29242.764919,0.004000,-0.008000,1.010000,192.000000,0.000000,0.000000,0.000000,0.000000,0.000000,0.000000,0.000000,0.000000,0.000000,1772618416.815835,0.000000
98.000000,12414.360036,-36655.005712,631.168560,-3050.163752,-16550.550348,-5340.345840,-19714.328017,-27456.257040,1918.785503,160.396118,-9378.903732,-6007.567764,-9649.851578,-14581.361661,544.980233,-29231.589047,0.004000,-0.008000,1.010000,192.000000,0.000000,0.000000,0.000000,0.000000,0.000000,0.000000,0.000000,0.000000,0.000000,1772618416.815846,0.000000
100.000000,12403.139460,-36669.444939,621.914938,-3059.238560,-16559.692211,-5351.521713,-19726.219145,-27466.114159,1905.240346,141.978281,-9397.478032,-6015.457930,-9666.950663,-14600.539458,542.119210,-29242.228477,0.004000,-0.008000,1.010000,192.000000,0.000000,0.000000,0.000000,0.000000,0.000000,0.000000,0.000000,0.000000,0.000000,1772618416.815857,0.000000
102.000000,12426.385275,-36649.216610,637.874083,-3050.521380,-16544.604784,-5340.010564,-19712.092842,-27447.472804,1915.633907,152.930636,-9386.816250,-6010.182918,-9657.182951,-14584.557961,555.619664,-29243.860155,0.002000,-0.012000,1.008000,192.000000,0.000000,8.000000,127.500000,80.000000,15.500000,64.000000,0.000000,0.000000,0.000000,1772618416.815868,0.000000
104.000000,12420.529118,-36653.396386,635.325984,-3053.561217,-16542.727237,-5343.989175,-19718.619551,-27453.418369,1924.842826,162.564237,-9377.473221,-6001.152814,-9645.023602,-14577.852437,564.694472,-29249.872774,0.002000,-0.012000,1.008000,192.000000,0.000000,0.000000,0.000000,0.000000,0.000000,0.000000,0.000000,0.000000,0.000000,1772618416.815879,0.000000
106.000000,12429.358057,-36648.099023,643.886703,-3042.430048,-16520.554307,-5325.593689,-19709.634150,-27443.941229,1936.890416,168.755671,-9382.032976,-5997.330665,-9644.084828,-14577.315995,565.052100,-29257.517070,0.002000,-0.012000,1.008000,192.000000,0.000000,0.000000,0.000000,0.000000,0.000000,0.000000,0.000000,0.000000,0.000000,1772618416.815890,0.000000
108.000000,12429.715685,-36652.882296,642.299729,-3042.117124,-16526.186946,-5323.872605,-19707.644845,-27442.086034,1939.751439,169.873258,-9362.519903,-5994.112014,-9625.219956,-14558.898158,578.083167,-29236.260561,0.002000,-0.012000,1.008000,192.000000,0.000000,0.000000,0.000000,0.000000,0.000000,0.000000,0.000000,0.000000,0.000000,1772618416.815900,0.000000
110.000000,12429.670981,-36652.301151,633.716659,-3043.972319,-16540.402656,-5323.067942,-19716.518488,-27447.048121,1947.462791,160.887857,-9376.914427,-5993.977904,-9637.781636,-14573.180923,554.524428,-29251.169175,0.002000,-0.012000,1.008000,192.000000,0.000000,0.000000,0.000000,0.000000,0.000000,0.000000,0.000000,0.000000,0.000000,1772618416.815911,0.000000
112.000000,12434.275440,-36638.912456,640.623348,-3034.852807,-16527.393940,-5309.880413,-19706.616665,-27437.839203,1939.349108,182.479642,-9374.589845,-5987.026511,-9634.294764,-14554.584271,553.384489,-29233.265428,0.004000,-0.010000,1.008000,192.000000,0.000000,16.000000,127.500000,88.000000,15.500000,64.000000,0.000000,0.000000,0.000000,1772618416.815922,0.000000
114.000000,12417.623391,-36659.721930,635.996537,-3042.810028,-16533.808891,-5322.822073,-19713.299836,-27448.657447,1938.611500,174.745938,-9373.181686,-5992.256819,-9633.579508,-14555.724210,550.434059,-29230.627922,0.004000,-0.010000,1.008000,192.000000,0.000000,0.000000,0.000000,0.000000,0.000000,0.000000,0.000000,0.000000,0.000000,1772618416.815935,0.000000
116.000000,12415.544679,-36668.081482,634.789543,-3047.079211,-16535.217051,-5328.544119,-19712.875153,-27451.116139,1936.555140,157.490391,-9385.832773,-6000.571668,-9645.023602,-14574.969062,545.628434,-29236.394672,0.004000,-0.010000,1.008000,192.000000,0.000000,0.000000,0.000000,0.000000,0.000000,0.000000,0.000000,0.000000,0.000000,1772618416.815946,0.000000
118.000000,12419.277420,-36661.554773,633.962528,-3044.061726,-16542.257850,-5329.058210,-19711.824621,-27447.539860,1932.598881,163.503011,-9377.093241,-6006.517232,-9641.424971,-14566.408344,548.802382,-29226.448146,0.004000,-0.010000,1.008000,192.000000,0.000000,0.000000,0.000000,0.000000,0.000000,0.000000,0.000000,0.000000,0.000000,1772618416.815956,0.000000
120.000000,12397.350359,-36681.403122,621.646717,-3052.309519,-16558.440513,-5342.357497,-19721.190002,-27459.140415,1921.400657,158.116240,-9389.543163,-6004.192651,-9658.077020,-14578.299472,541.649823,-29234.941809,0.004000,-0.010000,1.008000,192.000000,0.000000,0.000000,0.000000,0.000000,0.000000,0.000000,0.000000,0.000000,0.000000,1772618416.815967,0.000000
122.000000,12390.063690,-36691.863739,624.239519,-3053.717679,-16555.735952,-5341.150503,-19715.132679,-27459.721560,1906.760264,145.778077,-9395.824003,-6016.910793,-9661.653300,-14586.591969,550.612873,-29228.102175,0.003000,-0.009000,1.009000,192.000000,0.000000,8.000000,127.500000,96.000000,15.500000,72.000000,0.000000,0.000000,0.000000,1772618416.815978,0.000000
124.000000,12393.841135,-36686.454616,622.496083,-3058.657415,-16547.823435,-5345.620852,-19723.089900,-27466.516491,1905.128587,137.753801,-9397.410977,-6020.934107,-9658.725221,-14590.302359,559.888847,-29233.712463,0.003000,-0.009000,1.009000,192.000000,0.000000,0.000000,0.000000,0.000000,0.000000,0.000000,0.000000,0.000000,0.000000,1772618416.815988,0.000000
126.000000,12394.824612,-36680.889032,624.351278,-3053.561217,-16533.652429,-5337.551872,-19720.273581,-27464.013095,1924.060514,148.035604,-9398.483860,-6012.753369,-9651.773828,-14588.089536,562.392242,-29245.290666,0.003000,-0.009000,1.009000,192.000000,0.000000,0.000000,0.000000,0.000000,0.000000,0.000000,0.000000,0.000000,0.000000,1772618416.815999,0.000000
128.000000,12408.481527,-36667.075654,629.782752,-3046.363955,-16538.100426,-5328.968803,-19714.059796,-27451.160842,1913.465788,165.514668,-9388.447927,-6006.181956,-9645.895320,-14568.688222,577.457318,-29234.047739,0.003000,-0.009000,1.009000,192.000000,0.000000,0.000000,0.000000,0.000000,0.000000,0.000000,0.000000,0.000000,0.000000,1772618416.816009,0.000000
130.000000,12396.188068,-36680.017314,626.497045,-3049.046165,-16550.349182,-5334.377925,-19718.887772,-27452.770168,1923.926404,164.039453,-9386.972712,-5996.213078,-9648.018735,-14570.588120,564.940341,-29247.883469,0.003000,-0.009000,1.009000,192.000000,0.000000,0.000000,0.000000,0.000000,0.000000,0.000000,0.000000,0.000000,0.000000,1772618416.816020,0.000000
132.000000,12422.540775,-36656.637389,642.187970,-3032.707039,-16525.158766,-5317.748227,-19703.442717,-27432.653598,1925.803951,162.564237,-9377.763793,-5992.994427,-9642.207282,-14563.167341,563.263960,-29242.653160,0.003000,-0.009000,1.009000,192.000000,0.000000,0.000000,127.500000,104.000000,15.500000,56.000000,0.000000,0.000000,0.000000,1772618416.816031,0.000000
134.000000,12424.351266,-36651.630599,638.991670,-3035.277490,-16537.139301,-5320.586898,-19711.176421,-27440.432005,1952.111954,184.670113,-9362.922235,-5977.661130,-9622.068360,-14549.063390,557.519562,-29238.026349,0.003000,-0.009000,1.009000,192.000000,0.000000,0.000000,0.000000,0.000000,0.000000,0.000000,0.000000,0.000000,0.000000,1772618416.816042,0.000000
136.000000,12423.591307,-36652.032930,642.344432,-3038.406734,-16521.962466,-5322.039762,-19707.778955,-27440.499060,1940.421991,175.103566,-9377.808497,-5987.786470,-9635.837035,-14566.162475,546.209579,-29248.151690,0.003000,-0.009000,1.009000,192.000000,0.000000,0.000000,0.000000,0.000000,0.000000,0.000000,0.000000,0.000000,0.000000,1772618416.816053,0.000000
138.000000,12423.837176,-36653.910476,640.757458,-3039.770191,-16530.389074,-5325.414875,-19707.108403,-27443.516546,1940.377288,171.259066,-9363.928063,-5991.250991,-9622.090712,-14555.455989,557.273693,-29230.292646,0.003000,-0.009000,1.009000,192.000000,0.000000,0.000000,0.000000,0.000000,0.000000,0.000000,0.000000,0.000000,0.000000,1772618416.816064,0.000000
140.000000,12410.917868,-36663.074692,628.352240,-3053.024775,-16547.555214,-5341.262262,-19720.318284,-27459.654505,1941.718393,169.560333,-9379.887209,-5993.687331,-9636.418180,-14568.442353,542.834466,-29240.127413,0.003000,-0.009000,1.009000,192.000000,0.000000,0.000000,0.000000,0.000000,0.000000,0.000000,0.000000,0.000000,0.000000,1772618416.816075,0.000000
142.000000,12412.504841,-36663.074692,634.610729,-3049.560255,-16534.054760,-5335.808436,-19710.349406,-27453.999514,1928.799084,163.078328,-9383.217619,-6008.059503,-9641.447323,-14571.102210,546.589559,-29236.461727,0.003500,-0.008500,1.011500,192.000000,0.000000,16.000000,127.500000,96.000000,15.500000,88.000000,0.000000,0.000000,0.000000,1772618416.816086,0.000000
144.000000,12393.751728,-36680.777273,616.684630,-3064.290054,-16556.294746,-5350.873512,-19727.672008,-27473.289069,1909.308363,154.629368,-9389.878439,-6013.334514,-9651.215035,-14578.679452,550.679928,-29232.036082,0.003500,-0.008500,1.011500,192.000000,0.000000,0.000000,0.000000,0.000000,0.000000,0.000000,0.000000,0.000000,0.000000,1772618416.816096,0.000000
146.000000,12394.310521,-36683.370076,616.483464,-3072.157868,-16554.059572,-5352.102858,-19728.208450,-27474.920747,1917.198529,137.865560,-9402.574230,-6021.895232,-9664.894302,-14598.572504,546.567207,-29244.284838,0.003500,-0.008500,1.011500,192.000000,0.000000,0.000000,0.000000,0.000000,0.000000,0.000000,0.000000,0.000000,0.000000,1772618416.816108,0.000000
148.000000,12397.350359,-36676.686904,622.540787,-3064.938255,-16544.515377,-5344.860893,-19720.877078,-27468.774017,1906.380285,141.844170,-9398.036825,-6023.705724,-9659.284015,-14590.034138,560.179420,-29238.540439,0.003500,-0.008500,1.011500,192.000000,0.000000,0.000000,0.000000,0.000000,0.000000,0.000000,0.000000,0.000000,0.000000,1772618416.816119,0.000000
150.000000,12390.466021,-36680.352590,615.231766,-3067.709871,-16549.209243,-5348.660689,-19727.694360,-27474.853691,1908.101369,146.739202,-9405.301142,-6013.558032,-9662.882645,-14589.944731,564.225085,-29247.458785,0.003500,-0.008500,1.011500,192.000000,0.000000,0.000000,0.000000,0.000000,0.000000,0.000000,0.000000,0.000000,0.000000,1772618416.816130,0.000000
152.000000,12397.238600,-36671.836575,620.439723,-3058.210380,-16541.520243,-5338.736515,-19719.938304,-27469.176348,1903.094578,149.935502,-9402.641285,-6014.608564,-9661.854465,-14584.245036,564.560361,-29245.223611,0.002750,-0.007250,1.007750,192.000000,0.000000,8.000000,127.500000,104.000000,15.500000,48.000000,0.000000,0.000000,0.000000,1772618416.816141,0.000000
154.000000,12398.780870,-36666.762729,620.685592,-3054.298825,-16546.281164,-5338.445942,-19722.531107,-27470.048066,1908.883680,158.384461,-9398.260343,-6009.490014,-9654.120762,-14576.734850,565.163859,-29241.222649,0.002750,-0.007250,1.007750,192.000000,0.000000,0.000000,0.000000,0.000000,0.000000,0.000000,0.000000,0.000000,0.000000,1772618416.816151,0.000000
156.000000,12407.274533,-36658.783157,626.362935,-3046.207493,-16538.055722,-5335.339050,-19713.925685,-27457.709903,1925.423971,165.335854,-9395.131099,-5998.180032,-9652.958471,-14576.757202,553.652710,-29247.682303,0.002750,-0.007250,1.007750,192.000000,0.000000,0.000000,0.000000,0.000000,0.000000,0.000000,0.000000,0.000000,0.000000,1772618416.816162,0.000000
158.000000,12412.817766,-36651.675302,632.084981,-3041.848903,-16541.274374,-5335.026125,-19708.673025,-27449.842089,1925.803951,169.314464,-9378.344939,-5995.408415,-9639.994459,-14566.162475,554.792649,-29237.288742,0.002750,-0.007250,1.007750,192.000000,0.000000,0.000000,0.000000,0.000000,0.000000,0.000000,0.000000,0.000000,0.000000,1772618416.816173,0.000000
160.000000,12401.507783,-36661.174793,626.586452,-3046.967452,-16546.437627,-5339.630585,-19715.624418,-27461.375590,1928.307346,166.922828,-9385.676311,-5990.759252,-9646.610576,-14573.002109,548.265940,-29243.502527,0.002750,-0.007250,1.007750,192.000000,0.000000,0.000000,0.000000,0.000000,0.000000,0.000000,0.000000,0.000000,0.000000,1772618416.816184,0.000000
162.000000,12406.022835,-36659.140785,636.130647,-3042.899435,-16531.193737,-5330.846349,-19705.946112,-27455.519432,1915.835072,163.771232,-9388.023244,-5997.151851,-9647.303480,-14573.359737,556.379623,-29234.517125,0.002375,-0.006625,1.008875,192.000000,0.000000,8.000000,127.500000,104.000000,15.500000,72.000000,0.000000,0.000000,0.000000,1772618416.816195,0.000000
164.000000,12388.811992,-36671.903631,623.658374,-3057.204551,-16553.813702,-5346.470218,-19720.251229,-27471.165654,1914.225747,153.310615,-9388.112651,-5999.744654,-9648.532826,-14578.143010,560.492344,-29232.572524,0.002375,-0.006625,1.008875,192.000000,0.000000,0.000000,0.000000,0.000000,0.000000,0.000000,0.000000,0.000000,0.000000,1772618416.816206,0.000000
166.000000,12386.800335,-36673.781177,619.992688,-3062.881894,-16551.690287,-5354.785067,-19722.933438,-27472.976145,1904.100407,140.100734,-9409.816195,-6009.534718,-9670.750460,-14600.718272,551.126963,-29249.492794,0.002375,-0.006625,1.008875,192.000000,0.000000,0.000000,0.000000,0.000000,0.000000,0.000000,0.000000,0.000000,0.000000,1772618416.816216,0.000000
168.000000,12388.923751,-36672.752997,620.730295,-3065.273531,-16558.552272,-5358.875437,-19721.748796,-27475.077209,1898.803043,145.509856,-9397.433328,-6011.501671,-9663.977881,-14588.961254,564.806231,-29241.624980,0.002375,-0.006625,1.008875,192.000000,0.000000,0.000000,0.000000,0.000000,0.000000,0.000000,0.000000,0.000000,0.000000,1772618416.816226,0.000000
170.000000,12386.509763,-36673.691770,617.243423,-3068.670996,-16559.088714,-5360.082431,-19726.800290,-27481.782732,1897.394883,144.414621,-9408.363331,-6009.869994,-9666.347166,-14600.762975,557.184286,-29254.968972,0.002375,-0.006625,1.008875,192.000000,0.000000,0.000000,0.000000,0.000000,0.000000,0.000000,0.000000,0.000000,0.000000,1772618416.816237,0.000000
172.000000,12402.267742,-36661.443014,626.184121,-3062.323101,-16548.270470,-5346.179646,-19716.831412,-27468.952831,1903.608668,151.366013,-9400.607276,-6008.998276,-9662.457962,-14589.564751,564.046271,-29251.459748,0.003188,-0.006313,1.008437,192.000000,0.000000,16.000000,127.500000,104.000000,15.500000,64.000000,0.000000,0.000000,0.000000,1772618416.816248,0.000000
174.000000,12400.703120,-36660.392482,622.697249,-3058.858580,-16555.691249,-5349.800628,-19718.664255,-27469.668087,1906.670857,157.199819,-9393.253552,-5999.498784,-9663.843770,-14582.591007,566.996702,-29251.347989,0.003188,-0.006313,1.008437,192.000000,0.000000,0.000000,0.000000,0.000000,0.000000,0.000000,0.000000,0.000000,0.000000,1772618416.816259,0.000000
176.000000,12405.195821,-36658.693750,623.166635,-3052.465982,-16552.517301,-5344.346803,-19716.429081,-27464.638944,1908.950735,156.171639,-9400.115538,-5995.207250,-9673.075041,-14586.793135,553.362137,-29260.512204,0.003188,-0.006313,1.008437,192.000000,0.000000,0.000000,0.000000,0.000000,0.000000,0.000000,0.000000,0.000000,0.000000,1772618416.816269,0.000000
178.000000,12411.677827,-36651.384729,630.520359,-3045.559293,-16548.024601,-5340.569358,-19712.986912,-27457.039351,1908.861328,169.940313,-9385.095165,-5988.859354,-9658.166427,-14570.811638,554.367966,-29245.961219,0.003188,-0.006313,1.008437,192.000000,0.000000,0.000000,0.000000,0.000000,0.000000,0.000000,0.000000,0.000000,0.000000,1772618416.816281,0.000000
180.000000,12412.683655,-36653.664607,627.122894,-3051.348394,-16552.807874,-5345.509093,-19718.150165,-27458.223994,1909.218956,164.754708,-9392.113613,-5987.719415,-9660.066326,-14580.936978,547.975367,-29256.935925,0.003188,-0.006313,1.008437,192.000000,0.000000,0.000000,0.000000,0.000000,0.000000,0.000000,0.000000,0.000000,0.000000,1772618416.816292,0.000000
182.000000,12428.084007,-36638.063090,640.377479,-3040.843074,-16540.268545,-5328.946451,-19703.867400,-27441.482537,1921.579471,175.684711,-9376.601502,-5980.946837,-9648.488122,-14567.436524,554.435021,-29243.927210,0.002594,-0.005156,1.008219,192.000000,0.000000,8.000000,127.500000,112.000000,15.500000,64.000000,0.000000,0.000000,0.000000,1772618416.816302,0.000000
184.000000,12415.879955,-36645.394462,631.816761,-3045.894569,-16549.902147,-5337.618928,-19714.372720,-27451.943153,1918.025543,173.963627,-9377.830848,-5981.483278,-9651.505608,-14568.755277,549.249417,-29240.641503,0.002594,-0.005156,1.008219,192.000000,0.000000,0.000000,0.000000,0.000000,0.000000,0.000000,0.000000,0.000000,0.000000,1772618416.816313,0.000000
186.000000,12417.533984,-36641.348796,634.476618,-3042.541807,-16545.252984,-5331.628660,-19713.053967,-27447.361046,1915.768017,170.119127,-9390.392529,-5980.119822,-9657.406468,-14574.812600,549.025899,-29248.442262,0.002594,-0.005156,1.008219,192.000000,0.000000,0.000000,0.000000,0.000000,0.000000,0.000000,0.000000,0.000000,0.000000,1772618416.816324,0.000000
188.000000,12422.294905,-36637.750165,637.337641,-3042.720621,-16532.937173,-5330.376962,-19713.322188,-27449.685627,1909.733046,178.478679,-9380.893037,-5980.164526,-9645.895320,-14562.005050,564.582713,-29232.930152,0.002594,-0.005156,1.008219,192.000000,0.000000,0.000000,0.000000,0.000000,0.000000,0.000000,0.000000,0.000000,0.000000,1772618416.816334,0.000000
190.000000,12411.051978,-36651.295322,625.491217,-3055.192894,-16549.321002,-5345.419686,-19726.844993,-27466.047104,1915.008058,168.845078,-9391.688930,-5984.992502,-9656.400640,-14579.282949,557.921893,-29245.827108,0.002594,-0.005156,1.008219,192.000000,0.000000,0.000000,0.000000,0.000000,0.000000,0.000000,0.000000,0.000000,0.000000,1772618416.816345,0.000000
192.000000,12416.148176,-36648.903686,630.095676,-3053.807086,-16539.687400,-5342.491608,-19719.401863,-27459.967430,1904.189814,155.076403,-9397.768604,-5998.895287,-9662.234445,-14588.670682,558.905370,-29249.381035,0.002594,-0.005156,1.008219,192.000000,0.000000,0.000000,0.000000,0.000000,0.000000,0.000000,0.000000,0.000000,0.000000,1772618416.816356,0.000000
194.000000,12409.353245,-36647.719043,626.362935,-3057.517476,-16539.329772,-5345.307928,-19724.296895,-27466.114159,1903.966296,161.021967,-9394.549953,-5994.514345,-9660.267491,-14583.999167,567.846068,-29245.156556,0.006000,-0.014000,1.008000,192.000000,0.000000,24.000000,127.500000,72.000000,15.500000,64.000000,0.000000,0.000000,0.000000,1772618417.296412,0.000000
196.000000,12420.126786,-36637.258427,633.113162,-3051.951891,-16539.866214,-5344.324451,-19719.111290,-27458.000476,1906.492043,158.719737,-9400.450814,-5993.977904,-9665.140172,-14591.755222,566.035577,-29257.584126,0.006000,-0.014000,1.008000,192.000000,0.000000,0.000000,0.000000,0.000000,0.000000,0.000000,0.000000,0.000000,0.000000,1772618417.296492,0.000000
198.000000,12431.637935,-36624.674395,635.549502,-3043.838208,-16539.843862,-5336.166064,-19713.143374,-27448.299819,1908.347238,173.740110,-9383.776412,-5988.568781,-9654.277224,-14570.632824,568.404861,-29247.436434,0.006000,-0.014000,1.008000,192.000000,0.000000,0.000000,0.000000,0.000000,0.000000,0.000000,0.000000,0.000000,0.000000,1772618417.296553,0.000000
200.000000,12433.917813,-36620.427563,631.950871,-3038.831417,-16548.628098,-5332.858006,-19712.718691,-27443.695360,1928.732029,182.680807,-9379.283712,-5973.391947,-9654.836017,-14568.487056,550.970501,-29250.476271,0.006000,-0.014000,1.008000,192.000000,0.000000,0.000000,0.000000,0.000000,0.000000,0.000000,0.000000,0.000000,0.000000,1772618417.296614,0.000000
202.000000,12449.049944,-36607.217682,642.143266,-3028.057877,-16540.067379,-5320.139864,-19700.157011,-27426.909200,1929.715506,188.536964,-9369.560703,-5970.240351,-9649.158674,-14557.378239,546.567207,-29240.909724,0.006000,-0.014000,1.008000,192.000000,0.000000,0.000000,0.000000,0.000000,0.000000,0.000000,0.000000,0.000000,0.000000,1772618417.296661,0.000000
204.000000,12448.066467,-36607.865883,639.326947,-3030.874196,-16543.151920,-5320.765712,-19706.527258,-27433.570019,1929.715506,197.723531,-9362.206979,-5963.691290,-9643.168407,-14550.873882,549.852914,-29234.204201,0.002000,-0.014000,1.008000,192.000000,0.000000,8.000000,127.500000,72.000000,15.500000,64.000000,0.000000,0.000000,0.000000,1772618417.296705,0.000000
206.000000,12446.814769,-36610.391630,641.115086,-3032.461170,-16535.909955,-5319.871643,-19704.090918,-27434.754662,1931.816570,188.380502,-9372.958168,-5966.194685,-9648.108142,-14559.300489,547.170704,-29240.708559,0.002000,-0.014000,1.008000,192.000000,0.000000,0.000000,0.000000,0.000000,0.000000,0.000000,0.000000,0.000000,0.000000,1772618417.296729,0.000000
208.000000,12438.142292,-36617.499485,637.181179,-3036.104505,-16543.263679,-5318.776407,-19706.884886,-27442.622476,1924.731067,189.319276,-9368.353709,-5973.347243,-9643.146055,-14557.288832,560.022957,-29230.359701,0.002000,-0.014000,1.008000,192.000000,0.000000,0.000000,0.000000,0.000000,0.000000,0.000000,0.000000,0.000000,0.000000,1772618417.296740,0.000000
210.000000,12422.272554,-36634.352700,622.272566,-3052.823609,-16553.836054,-5332.455675,-19723.827508,-27464.862462,1918.338468,177.159927,-9386.704491,-5980.991540,-9659.932215,-14571.839818,554.099745,-29236.864059,0.002000,-0.014000,1.008000,192.000000,0.000000,0.000000,0.000000,0.000000,0.000000,0.000000,0.000000,0.000000,0.000000,1772618417.296757,0.000000
212.000000,12423.256030,-36635.067956,628.575758,-3053.829438,-16533.920650,-5340.055268,-19715.959694,-27460.749741,1902.558136,161.603112,-9397.634494,-6001.555145,-9667.174180,-14586.994301,557.452507,-29239.702730,0.002000,-0.014000,1.008000,192.000000,0.000000,0.000000,0.000000,0.000000,0.000000,0.000000,0.000000,0.000000,0.000000,1772618417.296768,0.000000
214.000000,12415.745844,-36643.852191,622.205510,-3064.245351,-16553.545481,-5357.467277,-19724.028674,-27469.265755,1903.094578,159.904380,-9394.371139,-6001.376331,-9663.262625,-14588.335405,568.024882,-29245.044797,0.002000,-0.012000,1.006000,192.000000,0.000000,8.000000,127.500000,80.000000,15.500000,56.000000,0.000000,0.000000,0.000000,1772618417.296778,0.000000
216.000000,12415.991714,-36643.271046,621.020868,-3069.699177,-16555.758304,-5367.346748,-19723.961618,-27471.858558,1903.005171,149.086136,-9408.340980,-6009.735883,-9675.623140,-14606.395615,557.296045,-29268.178853,0.002000,-0.012000,1.006000,192.000000,0.000000,0.000000,0.000000,0.000000,0.000000,0.000000,0.000000,0.000000,0.000000,1772618417.296789,0.000000
218.000000,12426.675847,-36633.749203,628.575758,-3062.971301,-16552.137321,-5356.550855,-19714.953865,-27464.728351,1897.260773,155.635197,-9396.606314,-6010.942878,-9665.631910,-14597.052586,569.790670,-29263.127358,0.002000,-0.012000,1.006000,192.000000,0.000000,0.000000,0.000000,0.000000,0.000000,0.000000,0.000000,0.000000,0.000000,1772618417.296800,0.000000
220.000000,12426.921717,-36630.284683,618.293955,-3062.323101,-16564.296670,-5359.881265,-19722.464052,-27463.856633,1910.493006,159.680862,-9400.987256,-6000.012875,-9673.075041,-14602.640522,553.809172,-29269.899937,0.002000,-0.012000,1.006000,192.000000,0.000000,0.000000,0.000000,0.000000,0.000000,0.000000,0.000000,0.000000,0.000000,1772618417.296810,0.000000
222.000000,12455.733115,-36601.249766,634.566025,-3038.026755,-16538.458054,-5322.665611,-19701.855743,-27433.346502,1915.298631,176.489374,-9386.704491,-5986.154793,-9664.715489,-14579.305301,550.165838,-29254.164309,0.002000,-0.012000,1.006000,192.000000,0.000000,0.000000,0.000000,0.000000,0.000000,0.000000,0.000000,0.000000,0.000000,1772618417.296821,0.000000
224.000000,12458.974118,-36596.131217,633.850769,-3038.049106,-16537.005190,-5319.223442,-19706.817830,-27431.781880,1930.967203,196.740055,-9368.890151,-5966.999348,-9647.236424,-14560.574539,555.440850,-29237.065224,0.002000,-0.012000,1.012000,192.000000,0.000000,8.000000,127.500000,80.000000,15.500000,80.000000,0.000000,0.000000,0.000000,1772618417.296831,0.000000
226.000000,12460.181112,-36594.946575,636.980013,-3036.372726,-16541.475539,-5317.144730,-19703.822697,-27427.289179,1940.779619,197.701180,-9371.371194,-5962.707813,-9649.538654,-14569.023498,547.282463,-29244.016617,0.002000,-0.012000,1.012000,192.000000,0.000000,0.000000,0.000000,0.000000,0.000000,0.000000,0.000000,0.000000,0.000000,1772618417.296842,0.000000
228.000000,12450.458103,-36607.910586,636.957662,-3040.977185,-16549.075132,-5331.069867,-19705.655540,-27436.296932,1929.693154,195.108377,-9365.895017,-5966.574665,-9645.694154,-14560.753353,553.473896,-29228.459803,0.002000,-0.012000,1.012000,192.000000,0.000000,0.000000,0.000000,0.000000,0.000000,0.000000,0.000000,0.000000,0.000000,1772618417.296853,0.000000
230.000000,12432.532004,-36625.702575,626.206473,-3054.455287,-16562.732048,-5343.899768,-19719.379511,-27454.468900,1922.384134,174.343607,-9386.995064,-5979.136345,-9661.675651,-14586.100231,543.035632,-29246.721178,0.002000,-0.012000,1.012000,192.000000,0.000000,0.000000,0.000000,0.000000,0.000000,0.000000,0.000000,0.000000,0.000000,1772618417.296864,0.000000
232.000000,12442.344420,-36617.477133,636.465923,-3050.901359,-16542.771941,-5339.787047,-19710.304703,-27444.969409,1917.891433,172.220191,-9385.855125,-5987.741767,-9660.826285,-14584.110926,550.970501,-29243.256658,0.002000,-0.012000,1.012000,192.000000,0.000000,0.000000,0.000000,0.000000,0.000000,0.000000,0.000000,0.000000,0.000000,1772618417.296874,0.000000
234.000000,12434.990696,-36625.143781,633.113162,-3062.904246,-16549.835092,-5353.980405,-19720.117118,-27455.161805,1924.395791,174.656531,-9375.774488,-5984.746633,-9649.940985,-14583.730946,560.559399,-29243.726044,0.004000,-0.012000,1.014000,192.000000,0.000000,16.000000,127.500000,80.000000,15.500000,88.000000,0.000000,0.000000,0.000000,1772618417.296885,0.000000
236.000000,12428.933374,-36634.106831,628.866330,-3067.598113,-16552.204377,-5356.461448,-19721.726444,-27458.805139,1920.908918,158.004482,-9389.856087,-5995.296657,-9663.441439,-14601.210010,555.887885,-29263.887318,0.004000,-0.012000,1.014000,192.000000,0.000000,0.000000,0.000000,0.000000,0.000000,0.000000,0.000000,0.000000,0.000000,1772618417.296895,0.000000
238.000000,12426.608792,-36634.151534,629.805104,-3065.787621,-16551.533824,-5350.582939,-19719.223049,-27458.782787,1908.861328,161.692519,-9384.245799,-5997.554183,-9656.199474,-14590.861153,563.934513,-29254.030198,0.004000,-0.012000,1.014000,192.000000,0.000000,0.000000,0.000000,0.000000,0.000000,0.000000,0.000000,0.000000,0.000000,1772618417.296906,0.000000
240.000000,12405.106414,-36652.368206,615.209414,-3078.952799,-16565.503665,-5364.172800,-19736.098616,-27480.665145,1908.011962,148.594397,-9402.238953,-6005.377293,-9667.867084,-14609.390749,562.146373,-29270.346972,0.004000,-0.012000,1.014000,192.000000,0.000000,0.000000,0.000000,0.000000,0.000000,0.000000,0.000000,0.000000,0.000000,1772618417.296916,0.000000
242.000000,12414.158870,-36644.299226,619.165673,-3069.922694,-16546.683496,-5356.550855,-19727.023807,-27470.293936,1898.244250,145.912188,-9405.636419,-6013.625087,-9668.939968,-14606.887353,561.252303,-29265.317829,0.004000,-0.012000,1.014000,192.000000,0.000000,0.000000,0.000000,0.000000,0.000000,0.000000,0.000000,0.000000,0.000000,1772618417.296929,0.000000
244.000000,12418.763330,-36639.538305,614.896490,-3063.641854,-16551.332659,-5353.712184,-19729.996589,-27468.125816,1901.485253,153.623540,-9399.020302,-6002.896250,-9666.660090,-14595.711481,558.704204,-29259.305210,0.004000,-0.014000,1.010000,192.000000,0.000000,16.000000,127.500000,72.000000,15.500000,72.000000,0.000000,0.000000,0.000000,1772618417.296940,0.000000
246.000000,12435.080103,-36621.880427,624.775961,-3049.046165,-16547.018772,-5338.892977,-19718.261924,-27450.736159,1908.079017,159.837325,-9401.009607,-5990.580438,-9673.030337,-14592.157554,543.057983,-29263.373228,0.004000,-0.014000,1.010000,192.000000,0.000000,0.000000,0.000000,0.000000,0.000000,0.000000,0.000000,0.000000,0.000000,1772618417.296950,0.000000
248.000000,12448.289984,-36607.418848,638.075249,-3038.831417,-16542.704885,-5330.935756,-19707.287217,-27439.515583,1918.740799,181.898496,-9375.573322,-5975.291845,-9650.410372,-14566.453048,557.094879,-29237.981646,0.004000,-0.014000,1.010000,192.000000,0.000000,0.000000,0.000000,0.000000,0.000000,0.000000,0.000000,0.000000,0.000000,1772618417.296961,0.000000
250.000000,12440.869205,-36612.760915,631.883816,-3046.453362,-16549.142188,-5336.635451,-19717.166688,-27451.049084,1927.592090,182.077310,-9383.597599,-5972.028491,-9656.400640,-14577.338347,549.718803,-29248.017579,0.004000,-0.014000,1.010000,192.000000,0.000000,0.000000,0.000000,0.000000,0.000000,0.000000,0.000000,0.000000,0.000000,1772618417.296971,0.000000
252.000000,12462.975080,-36594.276022,646.300691,-3032.774095,-16525.047007,-5320.698657,-19701.185191,-27432.653598,1931.168369,191.755616,-9376.869723,-5970.665034,-9646.945852,-14563.346155,555.709071,-29236.707596,0.004000,-0.014000,1.010000,192.000000,0.000000,0.000000,0.000000,0.000000,0.000000,0.000000,0.000000,0.000000,0.000000,1772618417.296981,0.000000
254.000000,12426.228812,-36633.704499,627.301708,-3056.064612,-16552.383191,-5345.062059,-19720.362988,-27457.821662,1925.356916,173.069557,-9372.265264,-5975.157735,-9645.336526,-14571.996280,562.615760,-29228.929189,0.005000,-0.012000,1.012000,192.000000,0.000000,24.000000,127.500000,88.000000,15.500000,88.000000,0.000000,0.000000,0.000000,1772618417.296992,0.000000
0.000000,12435.974173,-36627.825991,629.514531,-3063.597150,-16553.813702,-5357.422573,-19720.921781,-27459.252174,1919.925442,143.744069,-9396.114575,-5995.363712,-9665.229579,-14604.138089,548.422402,-29255.058379,0.005000,-0.012000,1.012000,192.000000,0.000000,0.000000,0.000000,0.000000,0.000000,0.000000,0.000000,0.000000,0.000000,1772618417.297002,0.000000
2.000000,12434.811882,-36628.563598,635.013060,-3062.188990,-16558.753438,-5360.529466,-19717.367854,-27457.240517,1918.517282,148.527342,-9381.831811,-5994.581401,-9653.360802,-14595.353853,567.779013,-29247.525841,0.005000,-0.012000,1.012000,192.000000,0.000000,0.000000,0.000000,0.000000,0.000000,0.000000,0.000000,0.000000,0.000000,1772618417.297013,0.000000
4.000000,12412.393083,-36650.088328,616.841092,-3077.276418,-16563.559063,-5374.119326,-19736.344485,-27479.391096,1910.560061,140.972452,-9398.461509,-5996.704816,-9670.169314,-14610.754205,558.905370,-29269.788178,0.005000,-0.012000,1.012000,192.000000,0.000000,0.000000,0.000000,0.000000,0.000000,0.000000,0.000000,0.000000,0.000000,1772618417.297024,0.000000
6.000000,12417.332818,-36642.041700,622.004345,-3065.564104,-16555.825359,-5361.267073,-19724.989799,-27466.494139,1900.658238,138.916092,-9402.775395,-6003.231526,-9672.873875,-14608.675493,559.330053,-29268.089446,0.005000,-0.012000,1.012000,192.000000,0.000000,0.000000,0.000000,0.000000,0.000000,0.000000,0.000000,0.000000,0.000000,1772618417.297035,0.000000
8.000000,12405.396987,-36652.569372,606.626345,-3073.230752,-16567.828246,-5367.905541,-19736.456244,-27476.083037,1891.851651,145.509856,-9401.903677,-5998.738825,-9678.931198,-14602.908743,556.513733,-29262.680323,0.005500,-0.011000,1.011000,192.000000,0.000000,24.000000,127.500000,88.000000,15.500000,72.000000,0.000000,0.000000,0.000000,1772618417.297045,0.000000
10.000000,12415.388216,-36642.980473,611.834301,-3062.323101,-16560.519226,-5358.987195,-19727.917877,-27466.292973,1896.098482,138.245539,-9412.610163,-6002.069235,-9688.698910,-14613.235249,532.686774,-29273.275050,0.005500,-0.011000,1.011000,192.000000,0.000000,0.000000,0.000000,0.000000,0.000000,0.000000,0.000000,0.000000,0.000000,1772618417.297056,0.000000
12.000000,12434.029571,-36624.160305,627.033487,-3045.335775,-16551.355010,-5348.191303,-19714.909162,-27451.138491,1902.647543,156.864543,-9386.190401,-5985.819517,-9664.000233,-14585.273216,539.057021,-29249.671608,0.005500,-0.011000,1.011000,192.000000,0.000000,0.000000,0.000000,0.000000,0.000000,0.000000,0.000000,0.000000,0.000000,1772618417.297066,0.000000
14.000000,12430.319182,-36632.341043,623.300746,-3050.901359,-16566.241272,-5357.266111,-19723.492232,-27457.396979,1920.975974,163.167735,-9388.135003,-5975.716528,-9661.318023,-14590.682339,528.976384,-29260.981591,0.005500,-0.011000,1.011000,192.000000,0.000000,0.000000,0.000000,0.000000,0.000000,0.000000,0.000000,0.000000,0.000000,1772618417.297088,0.000000
16.000000,12449.429923,-36617.879464,642.456191,-3036.149208,-16544.738894,-5341.619890,-19705.253208,-27438.397996,1919.433703,154.428202,-9378.859029,-5976.096508,-9653.338451,-14589.073013,537.626509,-29248.643428,0.005500,-0.011000,1.011000,192.000000,0.000000,0.000000,0.000000,0.000000,0.000000,0.000000,0.000000,0.000000,0.000000,1772618417.297099,0.000000
18.000000,12451.151008,-36621.679261,636.689441,-3042.877083,-16546.214109,-5346.291405,-19714.328017,-27445.259982,1938.812666,166.520496,-9364.330395,-5969.390985,-9641.536730,-14578.388879,549.115306,-29236.439375,0.001750,-0.012500,1.010500,192.000000,127.500000,120.000000,127.500000,72.000000,15.500000,72.000000,0.000000,0.000000,0.000000,1772618417.297113,0.000000
20.000000,12443.730228,-36633.279816,636.197702,-3053.516514,-16546.415275,-5350.538236,-19717.569020,-27452.412540,1925.200453,134.378688,-9385.944532,-5988.412319,-9661.139209,-14603.981627,542.968576,-29253.516108,0.001750,-0.012500,1.010500,192.000000,0.000000,0.000000,0.000000,0.000000,0.000000,0.000000,0.000000,0.000000,0.000000,1772618417.297124,0.000000
22.000000,12457.230682,-36620.092287,641.696232,-3052.600092,-16538.145129,-5348.638338,-19712.182249,-27447.741025,1937.180988,149.332005,-9368.264302,-5984.321950,-9639.882700,-14588.156591,563.353367,-29240.015655,0.001750,-0.012500,1.010500,192.000000,0.000000,0.000000,0.000000,0.000000,0.000000,0.000000,0.000000,0.000000,0.000000,1772618417.297134,0.000000
24.000000,12437.963478,-36640.879409,625.670031,-3068.603941,-16549.924499,-5363.368137,-19729.460148,-27467.857595,1933.828227,132.076458,-9383.105860,-5990.423976,-9653.427858,-14609.793080,557.519562,-29261.249812,0.001750,-0.012500,1.010500,192.000000,0.000000,0.000000,0.000000,0.000000,0.000000,0.000000,0.000000,0.000000,0.000000,1772618417.297146,0.000000
26.000000,12441.807978,-36645.752090,637.695269,-3061.294921,-16534.770016,-5354.293329,-19717.457261,-27462.493177,1927.815608,123.158112,-9382.323549,-6000.146985,-9651.103276,-14608.116699,560.112364,-29261.473329,0.001750,-0.012500,1.010500,192.000000,0.000000,0.000000,0.000000,0.000000,0.000000,0.000000,0.000000,0.000000,0.000000,1772618417.297157,0.000000
28.000000,12414.538850,-36679.346762,616.572871,-3078.639874,-16559.245176,-5372.442946,-19737.082092,-27487.795351,1919.880738,108.115388,-9387.978540,-6010.361732,-9653.919596,-14612.274124,568.851896,-29257.494719,0.001750,-0.012500,1.010500,192.000000,0.000000,0.000000,127.500000,80.000000,15.500000,72.000000,0.000000,0.000000,0.000000,1772618417.297168,0.000000
30.000000,12419.411530,-36673.311791,614.963545,-3072.180220,-16554.931290,-5362.608178,-19732.432930,-27479.905186,1914.650430,89.786957,-9411.872555,-6024.845663,-9676.986596,-14630.580202,545.226102,-29275.376114,0.001750,-0.012500,1.010500,192.000000,0.000000,0.000000,0.000000,0.000000,0.000000,0.000000,0.000000,0.000000,0.000000,1772618417.297178,0.000000
32.000000,12426.944068,-36674.451730,623.501912,-3062.099583,-16545.543557,-5355.880303,-19723.916915,-27467.119988,1916.885604,98.973524,-9391.174840,-6014.608564,-9658.434648,-14607.267333,549.160010,-29251.795024,0.001750,-0.012500,1.010500,192.000000,0.000000,0.000000,0.000000,0.000000,0.000000,0.000000,0.000000,0.000000,0.000000,1772618417.297188,0.000000
34.000000,12416.751673,-36672.998866,612.996592,-3071.219095,-16567.694136,-5360.864742,-19737.462072,-27476.775941,1931.302480,91.999780,-9394.706415,-6010.160567,-9663.016756,-14619.985476,526.093009,-29263.194414,0.001750,-0.012500,1.010500,192.000000,0.000000,0.000000,0.000000,0.000000,0.000000,0.000000,0.000000,0.000000,0.000000,1772618417.297199,0.000000
36.000000,12441.249185,-36673.691770,637.605862,-3045.827513,-16538.770978,-5339.921157,-19713.411595,-27451.719636,1946.144038,98.750007,-9381.451831,-6004.639686,-9648.286956,-14607.960237,530.183378,-29250.163347,0.001750,-0.012500,1.010500,192.000000,0.000000,0.000000,0.000000,0.000000,0.000000,0.000000,0.000000,0.000000,0.000000,1772618417.297209,0.000000
38.000000,12424.015990,-36687.885128,629.581586,-3056.042261,-16540.380304,-5345.576149,-19727.560249,-27466.561194,1953.117782,101.700437,-9370.566531,-5996.861279,-9635.702924,-14598.080766,547.103649,-29244.173079,0.001875,-0.011250,1.009250,192.000000,0.000000,8.000000,127.500000,88.000000,15.500000,64.000000,0.000000,0.000000,0.000000,1772618417.297219,0.000000
40.000000,12446.255976,-36670.271953,641.271548,-3044.978147,-16525.337580,-5327.135960,-19717.747833,-27450.780863,1961.410279,96.760702,-9378.747270,-5996.615409,-9639.279203,-14604.048682,540.040498,-29246.989399,0.001875,-0.011250,1.009250,192.000000,0.000000,0.000000,0.000000,0.000000,0.000000,0.000000,0.000000,0.000000,0.000000,1772618417.297230,0.000000
42.000000,12450.413400,-36669.467291,650.525171,-3044.374650,-16515.189888,-5328.030029,-19710.327054,-27447.942191,1973.480221,119.894757,-9352.774543,-5981.975017,-9614.200546,-14578.657100,556.044347,-29218.401518,0.001875,-0.011250,1.009250,192.000000,0.000000,0.000000,0.000000,0.000000,0.000000,0.000000,0.000000,0.000000,0.000000,1772618417.297240,0.000000
44.000000,12423.747769,-36689.829730,633.873121,-3069.609770,-16540.760284,-5363.546951,-19729.728368,-27471.299764,1962.416108,90.390455,-9374.008700,-5999.699950,-9634.697096,-14611.089481,562.235780,-29246.475309,0.001875,-0.011250,1.009250,192.000000,0.000000,0.000000,0.000000,0.000000,0.000000,0.000000,0.000000,0.000000,0.000000,1772618417.297251,0.000000
46.000000,12454.727287,-36662.784119,652.939159,-3054.723508,-16521.493080,-5351.655823,-19710.662330,-27447.450453,1956.694061,85.987161,-9374.120459,-6004.885555,-9635.322945,-14611.760034,565.700300,-29255.863041,0.001875,-0.011250,1.009250,192.000000,0.000000,0.000000,0.000000,0.000000,0.000000,0.000000,0.000000,0.000000,0.000000,1772618417.297261,0.000000
48.000000,12447.641784,-36671.970686,644.132572,-3063.619502,-16523.080054,-5354.718012,-19722.017017,-27459.699209,1978.866992,104.919088,-9355.993194,-5992.726206,-9619.654372,-14599.220705,574.417481,-29252.286762,0.003938,-0.008625,1.009625,192.000000,0.000000,24.000000,127.500000,104.000000,15.500000,72.000000,0.000000,0.000000,0.000000,1772618417.297271,0.000000
50.000000,12443.886691,-36675.479910,640.153961,-3067.955740,-16520.844879,-5351.633471,-19723.626342,-27466.516491,1966.417070,80.510984,-9379.842505,-6007.903040,-9636.127607,-14620.812490,566.080280,-29268.469425,0.003938,-0.008625,1.009625,192.000000,0.000000,0.000000,0.000000,0.000000,0.000000,0.000000,0.000000,0.000000,0.000000,1772618417.297283,0.000000
52.000000,12444.490188,-36672.171852,632.330851,-3064.267703,-16521.671894,-5343.497436,-19724.475709,-27472.327944,1960.806782,94.681990,-9370.320662,-6005.176128,-9624.482348,-14598.930132,574.149260,-29249.313980,0.003938,-0.008625,1.009625,192.000000,0.000000,0.000000,0.000000,0.000000,0.000000,0.000000,0.000000,0.000000,0.000000,1772618417.297294,0.000000
54.000000,12420.082083,-36695.775294,608.973278,-3081.590305,-16546.974069,-5358.830733,-19746.872156,-27496.825456,1959.130402,76.510021,-9397.410977,-6018.140139,-9645.045953,-14620.968952,552.602178,-29261.450977,0.003938,-0.008625,1.009625,192.000000,0.000000,0.000000,0.000000,0.000000,0.000000,0.000000,0.000000,0.000000,0.000000,1772618417.297304,0.000000
56.000000,12450.033420,-36667.209764,632.375554,-3060.534961,-16527.639810,-5337.306003,-19723.089900,-27468.438741,1953.117782,75.079510,-9394.393491,-6020.777645,-9644.129532,-14616.923287,540.331070,-29251.929134,0.003938,-0.008625,1.009625,192.000000,0.000000,0.000000,0.000000,0.000000,0.000000,0.000000,0.000000,0.000000,0.000000,1772618417.297314,0.000000
58.000000,12443.260842,-36675.166985,629.358069,-3064.312406,-16541.788464,-5349.085373,-19726.465014,-27469.802197,1973.256704,88.579963,-9371.862933,-6003.835023,-9625.622287,-14606.015635,539.146428,-29242.072015,0.003969,-0.009313,1.007812,192.000000,0.000000,16.000000,127.500000,88.000000,15.500000,56.000000,0.000000,0.000000,0.000000,1772618417.776892,0.000000
60.000000,12445.630127,-36674.027046,631.146208,-3064.468868,-16539.128606,-5351.454657,-19725.593296,-27466.784712,1965.500649,74.654826,-9385.721014,-6006.696046,-9642.788427,-14626.489833,526.093009,-29258.567602,0.003969,-0.009313,1.007812,192.000000,0.000000,0.000000,0.000000,0.000000,0.000000,0.000000,0.000000,0.000000,0.000000,1772618417.776946,0.000000
62.000000,12470.351156,-36648.747223,644.959586,-3053.628272,-16517.603876,-5335.294346,-19718.954828,-27458.536918,1982.644437,100.426388,-9358.988328,-5994.871973,-9611.518337,-14596.180868,549.227065,-29233.623056,0.003969,-0.009313,1.007812,192.000000,0.000000,0.000000,0.000000,0.000000,0.000000,0.000000,0.000000,0.000000,0.000000,1772618417.777001,0.000000
64.000000,12441.718571,-36677.782140,631.101505,-3070.146211,-16536.915784,-5349.241835,-19735.405712,-27477.357087,1974.866030,100.158167,-9376.690909,-5996.458947,-9623.029485,-14606.216801,542.074507,-29245.022445,0.003969,-0.009313,1.007812,192.000000,0.000000,0.000000,0.000000,0.000000,0.000000,0.000000,0.000000,0.000000,0.000000,1772618417.777052,0.000000
66.000000,12448.692316,-36673.289439,647.977072,-3061.764307,-16523.549440,-5350.314719,-19716.473784,-27461.308534,1963.287826,82.612048,-9374.455735,-6006.338418,-9625.778750,-14615.716292,552.937454,-29244.821280,0.003969,-0.009313,1.007812,192.000000,0.000000,0.000000,0.000000,0.000000,0.000000,0.000000,0.000000,0.000000,0.000000,1772618417.777091,0.000000
68.000000,12444.065505,-36673.624715,640.824514,-3070.101508,-16535.641734,-5364.016338,-19725.168613,-27468.841072,1967.758175,90.569269,-9368.733688,-5999.834061,-9620.593145,-14612.922324,564.448603,-29251.236230,0.003969,-0.009313,1.007812,192.000000,0.000000,0.000000,0.000000,0.000000,0.000000,0.000000,0.000000,0.000000,0.000000,1772618417.777131,0.000000
70.000000,12451.709801,-36665.242811,645.808953,-3063.105412,-16526.343408,-5352.639300,-19719.178345,-27459.095712,1969.345149,83.997856,-9379.820154,-5998.515308,-9633.780674,-14624.701694,556.424326,-29269.966992,0.010000,-0.006000,1.008000,192.000000,0.000000,40.000000,127.500000,104.000000,15.500000,64.000000,0.000000,0.000000,0.000000,1772618417.777158,0.000000
72.000000,12460.359926,-36657.598514,649.653453,-3055.327005,-16522.320094,-5351.052326,-19713.009264,-27453.127796,1970.082756,96.648943,-9359.994156,-5994.804918,-9616.748645,-14607.960237,568.829545,-29253.002018,0.010000,-0.006000,1.008000,192.000000,0.000000,0.000000,0.000000,0.000000,0.000000,0.000000,0.000000,0.000000,0.000000,1772618417.777169,0.000000
74.000000,12434.811882,-36682.945392,626.005307,-3074.147174,-16546.884662,-5371.638283,-19732.723502,-27480.598090,1967.892285,81.494460,-9375.550971,-6003.075064,-9636.552291,-14626.825109,561.542876,-29267.620059,0.010000,-0.006000,1.008000,192.000000,0.000000,0.000000,0.000000,0.000000,0.000000,0.000000,0.000000,0.000000,0.000000,1772618417.777179,0.000000
76.000000,12449.921662,-36668.059131,635.661261,-3056.288130,-16533.451263,-5353.578073,-19713.165726,-27463.208433,1955.665881,70.318588,-9383.910523,-6015.994372,-9646.074134,-14630.468444,554.658539,-29264.200242,0.010000,-0.006000,1.008000,192.000000,0.000000,0.000000,0.000000,0.000000,0.000000,0.000000,0.000000,0.000000,0.000000,1772618417.777190,0.000000
78.000000,12428.888670,-36687.102817,616.215243,-3068.961569,-16561.502702,-5363.703413,-19731.583563,-27484.397886,1962.527867,86.054216,-9373.584017,-6001.242221,-9633.937136,-14614.151670,550.255245,-29250.297457,0.010000,-0.006000,1.008000,192.000000,0.000000,0.000000,0.000000,0.000000,0.000000,0.000000,0.000000,0.000000,0.000000,1772618417.777201,0.000000
80.000000,12422.361961,-36693.942451,614.829435,-3070.593246,-16555.668897,-5363.636358,-19732.656447,-27486.253081,1945.093506,65.624722,-9406.239916,-6015.994372,-9661.720355,-14641.890185,527.121189,-29269.430550,0.006000,-0.008000,1.002000,192.000000,0.000000,24.000000,127.500000,96.000000,15.500000,40.000000,0.000000,0.000000,0.000000,1772618417.777212,0.000000
82.000000,12429.045132,-36688.756846,621.892586,-3069.922694,-16544.962412,-5360.395355,-19728.543726,-27481.738029,1947.507494,77.024111,-9389.699625,-6013.423921,-9640.754418,-14623.338237,540.621643,-29251.504451,0.006000,-0.008000,1.002000,192.000000,0.000000,0.000000,0.000000,0.000000,0.000000,0.000000,0.000000,0.000000,0.000000,1772618417.777231,0.000000
84.000000,12400.636065,-36715.467181,608.503891,-3086.798261,-16565.324851,-5374.141678,-19744.167595,-27499.284148,1936.890416,65.378853,-9404.943514,-6021.492901,-9657.026488,-14639.677362,533.983175,-29268.715294,0.006000,-0.008000,1.002000,192.000000,0.000000,0.000000,0.000000,0.000000,0.000000,0.000000,0.000000,0.000000,0.000000,1772618417.777241,0.000000
86.000000,12415.298809,-36702.614928,623.881891,-3070.392081,-16552.517301,-5360.752983,-19724.498060,-27477.513549,1927.480331,65.468260,-9400.830793,-6024.555090,-9656.870026,-14632.882432,538.542931,-29263.507338,0.006000,-0.008000,1.002000,192.000000,0.000000,0.000000,0.000000,0.000000,0.000000,0.000000,0.000000,0.000000,0.000000,1772618417.777251,0.000000
88.000000,12396.568048,-36718.708184,613.376571,-3081.545601,-16554.618365,-5380.020187,-19736.523299,-27490.701078,1923.032334,67.546972,-9399.333227,-6023.839834,-9657.697041,-14633.798854,545.695489,-29260.109873,0.006000,-0.008000,1.002000,192.000000,0.000000,0.000000,0.000000,0.000000,0.000000,0.000000,0.000000,0.000000,0.000000,1772618417.777262,0.000000
90.000000,12401.217210,-36714.528407,619.009211,-3074.907133,-16546.571737,-5373.940512,-19732.209412,-27485.783694,1918.584337,56.862838,-9416.007628,-6029.360715,-9671.309253,-14649.623889,549.808210,-29277.097199,0.002000,-0.010000,1.000000,192.000000,0.000000,8.000000,127.500000,88.000000,15.500000,32.000000,0.000000,0.000000,0.000000,1772618417.777273,0.000000
92.000000,12420.842042,-36693.428361,630.028621,-3060.222037,-16539.620345,-5360.395355,-19722.508755,-27471.925613,1929.089657,84.355484,-9389.990197,-6011.591078,-9644.017773,-14618.174984,576.898524,-29253.516108,0.002000,-0.010000,1.000000,192.000000,0.000000,0.000000,0.000000,0.000000,0.000000,0.000000,0.000000,0.000000,0.000000,1772618417.777283,0.000000
94.000000,12414.248277,-36696.222329,621.423199,-3066.122897,-16543.889528,-5364.776297,-19735.964505,-27481.939194,1941.763096,91.396283,-9394.594657,-6004.751444,-9646.007078,-14622.354760,570.103594,-29266.703637,0.002000,-0.010000,1.000000,192.000000,0.000000,0.000000,0.000000,0.000000,0.000000,0.000000,0.000000,0.000000,0.000000,1772618417.777294,0.000000
96.000000,12421.534946,-36692.087256,636.421220,-3049.739069,-16519.839051,-5346.336108,-19714.395072,-27466.114159,1936.018698,99.644077,-9390.928971,-6003.477395,-9640.530901,-14615.045740,575.065681,-29258.701713,0.002000,-0.010000,1.000000,192.000000,0.000000,0.000000,0.000000,0.000000,0.000000,0.000000,0.000000,0.000000,0.000000,1772618417.777304,0.000000
98.000000,12403.988827,-36710.549797,619.299784,-3067.016967,-16546.348220,-5360.685928,-19730.734197,-27484.643756,1931.235424,87.350617,-9389.051424,-6010.920526,-9641.536730,-14617.258563,567.309626,-29254.343123,0.002000,-0.010000,1.000000,192.000000,0.000000,0.000000,0.000000,0.000000,0.000000,0.000000,0.000000,0.000000,0.000000,1772618417.777314,0.000000
100.000000,12413.957705,-36699.910367,617.019906,-3065.295883,-16554.148978,-5363.301082,-19727.962581,-27483.414410,1936.868064,77.247629,-9405.010570,-6019.525948,-9660.133381,-14635.609345,537.470047,-29274.146768,0.006000,-0.014000,1.004000,192.000000,0.000000,24.000000,127.500000,72.000000,15.500000,48.000000,0.000000,0.000000,0.000000,1772618417.777325,0.000000
102.000000,12403.541792,-36710.929777,617.824568,-3066.815801,-16562.396772,-5372.062966,-19722.307589,-27486.163674,1929.179064,92.536222,-9388.023244,-6011.635782,-9650.320965,-14616.185679,539.213483,-29254.588992,0.006000,-0.014000,1.004000,192.000000,0.000000,0.000000,0.000000,0.000000,0.000000,0.000000,0.000000,0.000000,0.000000,1772618417.777335,0.000000
104.000000,12375.780925,-36737.081318,600.077283,-3086.842965,-16578.981767,-5391.844260,-19742.200642,-27507.643701,1905.687381,56.572265,-9415.225317,-6030.992392,-9679.333529,-14651.277918,516.660573,-29283.914481,0.006000,-0.014000,1.004000,192.000000,0.000000,0.000000,0.000000,0.000000,0.000000,0.000000,0.000000,0.000000,0.000000,1772618417.777346,0.000000
106.000000,12407.721568,-36710.393335,624.105409,-3064.647682,-16551.936156,-5363.412841,-19720.094767,-27481.156883,1911.722352,68.888076,-9408.408035,-6026.723209,-9667.487105,-14641.309040,522.404971,-29276.761922,0.006000,-0.014000,1.004000,192.000000,0.000000,0.000000,0.000000,0.000000,0.000000,0.000000,0.000000,0.000000,0.000000,1772618417.777358,0.000000
108.000000,12397.529173,-36715.377774,620.059743,-3072.001406,-16558.194644,-5365.513905,-19733.394055,-27489.516436,1925.334564,88.088225,-9394.996988,-6011.144043,-9650.276262,-14624.791101,540.778105,-29260.266335,0.006000,-0.014000,1.004000,192.000000,0.000000,0.000000,0.000000,0.000000,0.000000,0.000000,0.000000,0.000000,0.000000,1772618417.777368,0.000000
110.000000,12396.657455,-36714.751925,627.480522,-3069.721528,-16547.488159,-5363.099916,-19729.907182,-27483.928500,1924.887529,79.773376,-9409.369160,-6014.809729,-9661.765058,-14639.364438,542.409783,-29275.107893,0.006000,-0.014000,1.004000,192.000000,0.000000,0.000000,127.500000,88.000000,15.500000,40.000000,0.000000,0.000000,0.000000,1772618417.777378,0.000000
112.000000,12410.359074,-36700.200939,641.875046,-3057.316310,-16523.460033,-5350.024146,-19718.105461,-27472.260889,1931.235424,98.302972,-9384.268151,-6005.600811,-9637.356953,-14614.062263,570.014187,-29251.415044,0.006000,-0.014000,1.004000,192.000000,0.000000,0.000000,0.000000,0.000000,0.000000,0.000000,0.000000,0.000000,0.000000,1772618417.777388,0.000000
114.000000,12394.221114,-36712.315585,625.602976,-3067.553409,-16537.921612,-5357.064945,-19735.986857,-27487.661241,1932.464770,95.687818,-9392.672407,-6004.036189,-9642.676668,-14618.309095,568.583675,-29263.775559,0.006000,-0.014000,1.004000,192.000000,0.000000,0.000000,0.000000,0.000000,0.000000,0.000000,0.000000,0.000000,0.000000,1772618417.777399,0.000000
116.000000,12418.740978,-36684.152387,639.662223,-3049.046165,-16516.039254,-5333.841483,-19720.273581,-27469.109293,1936.689250,110.752894,-9389.185535,-5999.588191,-9636.731104,-14604.249847,567.957827,-29259.729893,0.006000,-0.014000,1.004000,192.000000,0.000000,0.000000,0.000000,0.000000,0.000000,0.000000,0.000000,0.000000,0.000000,1772618417.777409,0.000000
118.000000,12391.002463,-36705.990041,620.015039,-3062.971301,-16547.666973,-5354.136867,-19735.182194,-27488.935290,1930.319003,121.392324,-9387.263285,-5993.307351,-9637.222843,-14595.823240,575.445661,-29251.057416,0.006000,-0.014000,1.004000,192.000000,0.000000,0.000000,0.000000,0.000000,0.000000,0.000000,0.000000,0.000000,0.000000,1772618417.777419,0.000000
120.000000,12389.728414,-36706.660593,620.707944,-3062.345453,-16550.103313,-5358.920140,-19729.974238,-27489.203511,1913.264622,95.173728,-9414.219488,-6005.287886,-9663.240273,-14625.126377,544.197922,-29276.001963,-0.002000,-0.014000,1.002000,192.000000,127.500000,120.000000,127.500000,72.000000,15.500000,40.000000,0.000000,0.000000,0.000000,1772618417.777442,0.000000
122.000000,12390.980111,-36705.118323,625.513569,-3061.719604,-16555.691249,-5362.719937,-19721.212354,-27485.068439,1908.146072,102.862728,-9397.343921,-5999.923468,-9648.733991,-14607.624961,550.188190,-29254.007847,-0.002000,-0.014000,1.002000,192.000000,0.000000,0.000000,0.000000,0.000000,0.000000,0.000000,0.000000,0.000000,0.000000,1772618417.777453,0.000000
124.000000,12376.876161,-36722.731498,606.760455,-3080.584476,-16574.444362,-5382.031844,-19741.798310,-27505.430878,1906.156767,85.428367,-9413.213660,-6010.451139,-9665.810724,-14632.524804,530.563358,-29275.197300,-0.002000,-0.014000,1.002000,192.000000,0.000000,0.000000,0.000000,0.000000,0.000000,0.000000,0.000000,0.000000,0.000000,1772618417.777463,0.000000
126.000000,12404.480565,-36695.998811,625.848845,-3062.010176,-16550.863272,-5359.903617,-19719.804194,-27482.006250,1905.642677,90.144585,-9413.660695,-6016.977849,-9666.235407,-14630.334333,522.941413,-29273.409161,-0.002000,-0.014000,1.002000,192.000000,0.000000,0.000000,0.000000,0.000000,0.000000,0.000000,0.000000,0.000000,0.000000,1772618417.777474,0.000000
128.000000,12389.661359,-36703.799570,616.550519,-3071.755537,-16560.630984,-5374.141678,-19730.465976,-27488.756476,1911.655296,101.499272,-9396.986293,-6001.733959,-9653.249044,-14614.576353,535.167817,-29260.623963,-0.002000,-0.014000,1.002000,192.000000,0.000000,0.000000,0.000000,0.000000,0.000000,0.000000,0.000000,0.000000,0.000000,1772618417.777484,0.000000
130.000000,12401.418376,-36694.814169,623.300746,-3065.497049,-16558.686383,-5370.028957,-19726.867345,-27475.501892,1908.391942,89.138757,-9412.386645,-6007.992447,-9673.544428,-14638.604479,517.420532,-29287.379001,-0.004000,-0.010000,1.004000,192.000000,127.500000,112.000000,127.500000,88.000000,15.500000,48.000000,0.000000,0.000000,0.000000,1772618417.777494,0.000000
132.000000,12407.788623,-36687.035762,630.699173,-3054.052955,-16553.098447,-5363.658710,-19721.145299,-27468.416389,1919.143131,108.875347,-9384.849296,-5994.894325,-9646.163541,-14612.899973,542.789762,-29254.723102,-0.004000,-0.010000,1.004000,192.000000,0.000000,0.000000,0.000000,0.000000,0.000000,0.000000,0.000000,0.000000,0.000000,1772618417.777505,0.000000
134.000000,12407.252181,-36691.193186,619.880929,-3061.361976,-16558.507569,-5366.363271,-19737.082092,-27482.520340,1919.634869,101.543975,-9398.081529,-5994.871973,-9654.232520,-14620.141938,537.961786,-29268.581184,-0.004000,-0.010000,1.004000,192.000000,0.000000,0.000000,0.000000,0.000000,0.000000,0.000000,0.000000,0.000000,0.000000,1772618417.777515,0.000000
136.000000,12433.180205,-36668.081482,641.942101,-3042.184179,-16517.760339,-5341.485779,-19716.585543,-27459.207470,1929.894320,116.564347,-9387.889133,-5987.920581,-9640.620308,-14602.059376,558.748908,-29263.060303,-0.004000,-0.010000,1.004000,192.000000,0.000000,0.000000,0.000000,0.000000,0.000000,0.000000,0.000000,0.000000,0.000000,1772618417.777525,0.000000
138.000000,12421.713760,-36674.339971,632.911996,-3052.868313,-16519.794347,-5342.670422,-19729.996589,-27471.188005,1939.527922,126.376763,-9375.618026,-5978.175220,-9622.515395,-14590.436469,580.161879,-29249.492794,-0.004000,-0.010000,1.004000,192.000000,0.000000,0.000000,0.000000,0.000000,0.000000,0.000000,0.000000,0.000000,0.000000,1772618417.777535,0.000000
140.000000,12414.851775,-36679.950259,631.213263,-3051.236636,-16516.732158,-5337.015431,-19729.147223,-27475.680706,1930.967203,113.837435,-9397.880363,-5988.144098,-9639.346259,-14608.362568,571.288237,-29266.144844,-0.004000,-0.010000,1.004000,192.000000,127.500000,112.000000,127.500000,88.000000,15.500000,48.000000,0.000000,0.000000,0.000000,1772618417.777545,0.000000
142.000000,12415.097644,-36677.402160,632.867293,-3046.967452,-16518.006208,-5329.795817,-19723.045197,-27473.244366,1927.234462,121.034696,-9383.463488,-5986.333607,-9624.012962,-14587.039004,577.434966,-29236.841707,-0.004000,-0.010000,1.004000,192.000000,0.000000,0.000000,0.000000,0.000000,0.000000,0.000000,0.000000,0.000000,0.000000,1772618417.777555,0.000000
144.000000,12403.765309,-36691.416704,613.801254,-3064.960607,-16548.046952,-5349.286538,-19738.579659,-27491.148113,1921.624174,113.166882,-9400.048482,-5991.161584,-9643.704849,-14604.763938,549.562341,-29255.863041,-0.004000,-0.010000,1.004000,192.000000,0.000000,0.000000,0.000000,0.000000,0.000000,0.000000,0.000000,0.000000,0.000000,1772618417.777565,0.000000
146.000000,12422.786644,-36672.596535,629.648641,-3054.343528,-16535.328810,-5339.541178,-19719.915953,-27466.538843,1914.851596,109.322382,-9400.607276,-5995.475470,-9649.315137,-14605.792118,540.576940,-29256.578297,-0.004000,-0.010000,1.004000,192.000000,0.000000,0.000000,0.000000,0.000000,0.000000,0.000000,0.000000,0.000000,0.000000,1772618417.777577,0.000000
148.000000,12411.543716,-36677.960953,616.461112,-3066.346415,-16561.815627,-5358.473105,-19732.656447,-27476.686534,1920.663049,115.647926,-9388.671444,-5984.210191,-9647.102314,-14602.752281,537.402992,-29253.359646,-0.004000,-0.010000,1.004000,192.000000,0.000000,0.000000,0.000000,0.000000,0.000000,0.000000,0.000000,0.000000,0.000000,1772618417.777589,0.000000
150.000000,12418.673923,-36667.746206,617.154016,-3059.484429,-16560.206301,-5358.048422,-19727.716711,-27472.305593,1917.064418,110.328211,-9407.268096,-5987.250029,-9666.905959,-14621.237173,520.102742,-29276.471350,-0.004000,-0.009000,1.006000,192.000000,127.500000,112.000000,127.500000,96.000000,15.500000,64.000000,0.000000,0.000000,0.000000,1772618417.777599,0.000000
152.000000,12427.569917,-36657.196183,626.787618,-3051.035470,-16561.703868,-5352.795762,-19721.502927,-27465.041276,1923.568776,128.544882,-9386.056290,-5978.018758,-9644.263642,-14596.963179,538.744097,-29255.751283,-0.004000,-0.009000,1.006000,192.000000,0.000000,0.000000,0.000000,0.000000,0.000000,0.000000,0.000000,0.000000,0.000000,1772618417.777609,0.000000
154.000000,12416.371693,-36668.305000,618.897452,-3057.852752,-16556.719429,-5362.518771,-19733.639924,-27476.842997,1921.825340,114.016248,-9400.406110,-5983.003197,-9659.976919,-14612.743510,530.786876,-29273.207995,-0.004000,-0.009000,1.006000,192.000000,0.000000,0.000000,0.000000,0.000000,0.000000,0.000000,0.000000,0.000000,0.000000,1772618417.777620,0.000000
156.000000,12446.814769,-36637.236075,644.870179,-3031.835321,-16515.435757,-5334.579090,-19707.868362,-27446.355217,1936.957471,133.685784,-9383.552895,-5970.866200,-9640.016811,-14598.505449,550.881094,-29260.556908,-0.004000,-0.009000,1.006000,192.000000,0.000000,0.000000,0.000000,0.000000,0.000000,0.000000,0.000000,0.000000,0.000000,1772618417.777630,0.000000
158.000000,12435.460083,-36648.747223,630.028621,-3043.547636,-16529.763225,-5341.239910,-19725.705054,-27462.403770,1946.926349,145.308691,-9371.929988,-5958.282168,-9625.756398,-14582.702766,559.218295,-29250.185698,-0.004000,-0.009000,1.006000,192.000000,0.000000,0.000000,0.000000,0.000000,0.000000,0.000000,0.000000,0.000000,0.000000,1772618417.777640,0.000000
160.000000,12433.984868,-36650.848287,631.034449,-3042.564159,-16521.984818,-5337.954204,-19728.029636,-27469.221052,1943.484180,130.869464,-9396.069872,-5969.882723,-9644.844788,-14601.321769,555.060870,-29270.257565,-0.005000,-0.008500,1.007000,192.000000,127.500000,104.000000,127.500000,96.000000,15.500000,64.000000,0.000000,0.000000,0.000000,1772618417.777650,0.000000
162.000000,12438.745789,-36641.885238,640.422182,-3033.064667,-16515.256943,-5322.643259,-19717.680778,-27460.794444,1945.048803,150.986034,-9374.165162,-5961.791392,-9619.341447,-14570.454010,580.608914,-29235.277085,-0.005000,-0.008500,1.007000,192.000000,0.000000,0.000000,0.000000,0.000000,0.000000,0.000000,0.000000,0.000000,0.000000,1772618417.777661,0.000000
164.000000,12408.369769,-36672.462424,614.315345,-3060.669072,-16550.595051,-5351.767582,-19743.787616,-27489.069401,1932.978860,130.802409,-9396.047520,-5973.503706,-9646.632927,-14596.136164,557.899542,-29256.824166,-0.005000,-0.008500,1.007000,192.000000,0.000000,0.000000,0.000000,0.000000,0.000000,0.000000,0.000000,0.000000,0.000000,1772618417.777671,0.000000
166.000000,12422.160795,-36661.621828,632.442609,-3048.465019,-16532.758359,-5338.848274,-19722.776976,-27470.696267,1921.445360,116.765513,-9401.233125,-5983.405528,-9650.991517,-14604.562772,551.596350,-29256.444187,-0.005000,-0.008500,1.007000,192.000000,0.000000,0.000000,0.000000,0.000000,0.000000,0.000000,0.000000,0.000000,0.000000,1772618417.777681,0.000000
168.000000,12411.968400,-36672.685942,618.495121,-3063.440688,-16549.857444,-5353.890998,-19738.825528,-27483.481465,1925.111046,121.101751,-9391.107785,-5978.063462,-9643.503683,-14600.606513,552.088088,-29249.269277,-0.005000,-0.008500,1.007000,192.000000,0.000000,0.000000,0.000000,0.000000,0.000000,0.000000,0.000000,0.000000,0.000000,1772618417.777691,0.000000
170.000000,12410.649647,-36673.825881,621.713772,-3062.166639,-16544.493025,-5350.873512,-19733.975200,-27481.827436,1922.741762,109.881176,-9408.832718,-5988.457023,-9663.709660,-14620.790138,530.675117,-29274.124417,-0.000500,-0.008250,1.003500,192.000000,0.000000,16.000000,127.500000,96.000000,15.500000,32.000000,0.000000,0.000000,0.000000,1772618417.777701,0.000000
172.000000,12420.953801,-36664.438148,628.016964,-3056.444592,-16539.597993,-5343.631547,-19727.694360,-27477.021811,1925.379267,126.667336,-9388.559686,-5982.198534,-9640.709715,-14592.805754,543.236797,-29252.264411,-0.000500,-0.008250,1.003500,192.000000,0.000000,0.000000,0.000000,0.000000,0.000000,0.000000,0.000000,0.000000,0.000000,1772618417.777712,0.000000
174.000000,12407.967437,-36674.205860,612.303688,-3066.435822,-16569.146999,-5358.450754,-19740.412502,-27483.995555,1918.740799,114.463283,-9404.272962,-5982.556162,-9660.446305,-14612.296475,531.457428,-29266.457768,-0.000500,-0.008250,1.003500,192.000000,0.000000,0.000000,0.000000,0.000000,0.000000,0.000000,0.000000,0.000000,0.000000,1772618417.777724,0.000000
176.000000,12434.275440,-36649.864811,633.649604,-3046.699231,-16542.347257,-5340.815227,-19717.837240,-27458.782787,1919.567814,123.068705,-9397.768604,-5979.561028,-9660.379250,-14609.636618,531.837408,-29261.316867,-0.000500,-0.008250,1.003500,192.000000,0.000000,0.000000,0.000000,0.000000,0.000000,0.000000,0.000000,0.000000,0.000000,1772618417.777734,0.000000
178.000000,12418.182184,-36666.919192,621.333792,-3061.809011,-16552.785522,-5355.410916,-19735.495119,-27480.106351,1924.261680,129.148379,-9383.798764,-5972.140249,-9645.738857,-14597.343158,551.328129,-29249.358684,-0.000500,-0.008250,1.003500,192.000000,0.000000,0.000000,0.000000,0.000000,0.000000,0.000000,0.000000,0.000000,0.000000,1772618417.777745,0.000000
180.000000,12429.067484,-36659.051378,628.776923,-3055.036432,-16524.957600,-5347.476047,-19730.108348,-27473.803159,1922.272375,113.256289,-9405.099977,-5983.629046,-9663.776715,-14615.179850,543.952053,-29275.286707,0.001750,-0.008125,1.005750,192.000000,0.000000,16.000000,127.500000,96.000000,15.500000,64.000000,0.000000,0.000000,0.000000,1772618418.257825,0.000000
182.000000,12448.379391,-36638.733642,644.713717,-3036.819760,-16507.702054,-5324.565509,-19715.780880,-27459.565098,1934.029392,141.039508,-9377.205000,-5964.250083,-9630.494968,-14578.992376,571.735271,-29248.285800,0.001750,-0.008125,1.005750,192.000000,0.000000,0.000000,0.000000,0.000000,0.000000,0.000000,0.000000,0.000000,0.000000,1772618418.257926,0.000000
184.000000,12420.082083,-36666.092177,618.159845,-3060.512610,-16536.915784,-5345.956128,-19744.078188,-27488.041221,1933.649413,129.237786,-9394.281732,-5971.335586,-9647.258776,-14594.437432,566.884943,-29261.942716,0.001750,-0.008125,1.005750,192.000000,0.000000,0.000000,0.000000,0.000000,0.000000,0.000000,0.000000,0.000000,0.000000,1772618418.258009,0.000000
186.000000,12444.780760,-36637.079613,644.512551,-3036.171560,-16512.351216,-5318.351724,-19716.697301,-27458.760435,1931.168369,133.954005,-9390.705453,-5970.150944,-9642.922538,-14586.681376,571.131774,-29251.638562,0.001750,-0.008125,1.005750,192.000000,0.000000,0.000000,0.000000,0.000000,0.000000,0.000000,0.000000,0.000000,0.000000,1772618418.258093,0.000000
188.000000,12427.100531,-36656.749148,630.833284,-3054.678804,-16534.434740,-5336.791913,-19733.282296,-27476.798293,1933.247081,141.955929,-9378.881380,-5966.597017,-9631.791369,-14580.601702,570.550629,-29237.691073,0.001750,-0.008125,1.005750,192.000000,0.000000,0.000000,0.000000,0.000000,0.000000,0.000000,0.000000,0.000000,0.000000,1772618418.258177,0.000000
190.000000,12424.150100,-36662.158270,631.973223,-3062.859543,-16526.835147,-5339.652936,-19732.745854,-27478.295860,1933.492951,121.593490,-9398.461509,-5984.836040,-9649.806875,-14609.122528,546.656614,-29265.206071,0.002875,-0.009063,1.007875,192.000000,0.000000,16.000000,127.500000,88.000000,15.500000,72.000000,0.000000,0.000000,0.000000,1772618418.258261,0.000000
192.000000,12427.681676,-36658.581991,645.697194,-3049.672013,-16517.358007,-5328.298250,-19714.171554,-27462.917860,1936.353974,134.781019,-9376.847372,-5977.549371,-9624.459997,-14585.697900,566.728481,-29238.875716,0.002875,-0.009063,1.007875,192.000000,0.000000,0.000000,0.000000,0.000000,0.000000,0.000000,0.000000,0.000000,0.000000,1772618418.258346,0.000000
194.000000,12404.592324,-36682.408951,621.132627,-3068.603941,-16545.163577,-5350.180608,-19737.842052,-27485.783694,1929.469637,116.989030,-9393.991160,-5982.489107,-9643.973070,-14605.456842,551.551646,-29259.171100,0.002875,-0.009063,1.007875,192.000000,0.000000,0.000000,0.000000,0.000000,0.000000,0.000000,0.000000,0.000000,0.000000,1772618418.258370,0.000000
196.000000,12425.982943,-36659.386654,640.422182,-3043.614691,-16524.734083,-5325.861910,-19715.289142,-27462.806101,1929.737858,122.129932,-9393.611180,-5983.696101,-9643.727200,-14598.527801,549.942321,-29256.175966,0.002875,-0.009063,1.007875,192.000000,0.000000,0.000000,0.000000,0.000000,0.000000,0.000000,0.000000,0.000000,0.000000,1772618418.258394,0.000000
198.000000,12405.195821,-36675.949296,627.793447,-3055.684633,-16538.011019,-5344.704431,-19729.013113,-27477.290032,1936.242215,140.592473,-9380.781279,-5969.882723,-9629.690305,-14578.187713,561.520524,-29242.474346,0.002875,-0.009063,1.007875,192.000000,0.000000,0.000000,0.000000,0.000000,0.000000,0.000000,0.000000,0.000000,0.000000,1772618418.258417,0.000000
200.000000,12407.274533,-36676.195166,631.392077,-3052.622444,-16536.111121,-5339.898806,-19724.319246,-27470.539805,1917.444398,118.106618,-9405.994046,-5984.634874,-9659.239311,-14605.523897,544.600254,-29273.431513,0.003438,-0.010531,1.011937,192.000000,0.000000,16.000000,127.500000,80.000000,15.500000,96.000000,0.000000,0.000000,0.000000,1772618418.258442,0.000000
202.000000,12421.959629,-36664.438148,641.495066,-3039.881949,-16528.913859,-5326.934794,-19713.992740,-27459.095712,1927.726201,133.685784,-9378.255532,-5974.196610,-9636.082904,-14576.421926,566.929646,-29244.709521,0.003438,-0.010531,1.011937,192.000000,0.000000,0.000000,0.000000,0.000000,0.000000,0.000000,0.000000,0.000000,0.000000,1772618418.258467,0.000000
204.000000,12406.961609,-36676.865718,621.579662,-3057.986862,-16541.676705,-5342.625718,-19738.914935,-27481.849787,1924.865177,124.342754,-9393.566477,-5979.985712,-9650.678593,-14595.823240,556.960768,-29259.461672,0.003438,-0.010531,1.011937,192.000000,0.000000,0.000000,0.000000,0.000000,0.000000,0.000000,0.000000,0.000000,0.000000,1772618418.258490,0.000000
206.000000,12433.448426,-36644.880372,648.513514,-3037.400906,-16498.314321,-5316.138901,-19713.657464,-27451.362008,1929.156712,135.250406,-9386.905657,-5972.609636,-9639.882700,-14586.413155,563.710995,-29252.823204,0.003438,-0.010531,1.011937,192.000000,0.000000,0.000000,0.000000,0.000000,0.000000,0.000000,0.000000,0.000000,0.000000,1772618418.258513,0.000000
208.000000,12419.992676,-36661.755939,632.956699,-3061.026700,-16520.554307,-5333.394448,-19734.086959,-27472.618517,1931.280128,144.146400,-9374.947473,-5966.060575,-9628.304497,-14579.729984,575.490364,-29244.620114,0.003438,-0.010531,1.011937,192.000000,0.000000,0.000000,0.000000,0.000000,0.000000,0.000000,0.000000,0.000000,0.000000,1772618418.258536,0.000000
210.000000,12418.606868,-36666.203936,631.839112,-3062.479563,-16524.555269,-5331.740419,-19732.924668,-27475.524244,1922.518244,120.900586,-9399.936724,-5984.992502,-9652.153808,-14607.557906,552.892751,-29267.240079,0.003438,-0.010531,1.011937,192.000000,0.000000,0.000000,0.000000,0.000000,0.000000,0.000000,0.000000,0.000000,0.000000,1772618418.258571,0.000000
212.000000,12432.107321,-36653.575200,642.523246,-3046.363955,-16515.502812,-5319.804587,-19717.636075,-27461.889680,1925.669840,144.660490,-9375.886247,-5973.347243,-9630.182043,-14576.801905,559.821792,-29237.758128,-0.002000,-0.016000,1.010000,192.000000,127.500000,120.000000,127.500000,64.000000,15.500000,72.000000,0.000000,0.000000,0.000000,1772618418.258595,0.000000
214.000000,12405.955780,-36678.899727,618.562176,-3066.547581,-16543.576603,-5343.452733,-19742.200642,-27486.118971,1922.920575,129.975394,-9390.526639,-5975.202438,-9644.777732,-14595.487964,547.729498,-29252.800852,-0.002000,-0.016000,1.010000,192.000000,0.000000,0.000000,0.000000,0.000000,0.000000,0.000000,0.000000,0.000000,0.000000,1772618418.258619,0.000000
216.000000,12422.741940,-36661.286552,634.834246,-3051.683670,-16528.288010,-5329.192320,-19723.201659,-27468.192872,1914.695134,126.644984,-9399.109709,-5985.439537,-9652.533788,-14596.940827,540.174608,-29258.165271,-0.002000,-0.016000,1.010000,192.000000,0.000000,0.000000,0.000000,0.000000,0.000000,0.000000,0.000000,0.000000,0.000000,1772618418.258642,0.000000
218.000000,12406.179298,-36674.518785,620.216205,-3064.290054,-16549.768037,-5350.337070,-19737.462072,-27481.067476,1913.622250,137.262063,-9386.100994,-5977.527020,-9646.252948,-14588.044833,547.774201,-29246.542364,-0.002000,-0.016000,1.010000,192.000000,0.000000,0.000000,0.000000,0.000000,0.000000,0.000000,0.000000,0.000000,0.000000,1772618418.258665,0.000000
220.000000,12411.856641,-36669.824918,619.143321,-3059.484429,-16548.739856,-5347.341937,-19735.785691,-27477.021811,1904.011000,115.916147,-9409.033884,-5989.127575,-9670.281073,-14616.990342,525.601271,-29273.744437,-0.002000,-0.016000,1.010000,192.000000,0.000000,0.000000,0.000000,0.000000,0.000000,0.000000,0.000000,0.000000,0.000000,1772618418.258688,0.000000
222.000000,12432.599060,-36649.462479,631.928519,-3041.893606,-16532.937173,-5330.600480,-19721.882906,-27461.755569,1916.595032,148.639101,-9381.943569,-5968.608674,-9643.235462,-14585.161458,549.182361,-29248.822242,0.002000,-0.012000,1.014000,192.000000,0.000000,8.000000,127.500000,80.000000,15.500000,88.000000,0.000000,0.000000,0.000000,1772618418.258712,0.000000
224.000000,12425.670019,-36660.057206,616.952850,-3054.254121,-16546.079999,-5338.736515,-19738.266735,-27477.379439,1924.753419,145.263987,-9391.957151,-5966.194685,-9651.952642,-14594.750356,545.606082,-29264.423760,0.002000,-0.012000,1.014000,192.000000,0.000000,0.000000,0.000000,0.000000,0.000000,0.000000,0.000000,0.000000,0.000000,1772618418.258736,0.000000
226.000000,12461.321051,-36625.590816,643.797296,-3027.119103,-16501.555324,-5306.125320,-19709.120060,-27440.834336,1936.801009,150.494295,-9379.194305,-5961.098488,-9640.799122,-14586.077879,550.255245,-29248.911649,0.002000,-0.012000,1.014000,192.000000,0.000000,0.000000,0.000000,0.000000,0.000000,0.000000,0.000000,0.000000,0.000000,1772618418.258760,0.000000
228.000000,12454.548473,-36631.066994,634.856598,-3042.608862,-16516.553344,-5315.736570,-19724.900392,-27451.540822,1945.920521,172.376653,-9359.636528,-5941.384249,-9615.854575,-14563.904949,561.207600,-29243.591934,0.002000,-0.012000,1.014000,192.000000,0.000000,0.000000,0.000000,0.000000,0.000000,0.000000,0.000000,0.000000,0.000000,1772618418.258783,0.000000
230.000000,12451.978022,-36633.168058,637.337641,-3044.195836,-16514.049949,-5316.205956,-19725.615648,-27455.653543,1947.351032,159.390290,-9379.730747,-5948.559159,-9635.211186,-14585.407327,568.538972,-29263.529690,0.002000,-0.012000,1.014000,192.000000,0.000000,0.000000,0.000000,0.000000,0.000000,0.000000,0.000000,0.000000,0.000000,1772618418.258808,0.000000
232.000000,12458.504731,-36626.104906,644.959586,-3034.182255,-16503.052891,-5314.954259,-19715.646769,-27452.412540,1942.232483,171.795508,-9362.899883,-5946.569854,-9619.967296,-14562.072106,578.932533,-29228.280989,0.002000,-0.012000,1.014000,192.000000,0.000000,0.000000,127.500000,88.000000,15.500000,80.000000,0.000000,0.000000,0.000000,1772618418.258832,0.000000
234.000000,12427.011124,-36655.497450,622.943118,-3059.283264,-16540.603821,-5338.557701,-19739.697247,-27484.084962,1937.583320,152.483601,-9384.491668,-5960.629101,-9638.273375,-14578.411231,556.178457,-29237.601666,0.002000,-0.012000,1.014000,192.000000,0.000000,0.000000,0.000000,0.000000,0.000000,0.000000,0.000000,0.000000,0.000000,1772618418.258856,0.000000
236.000000,12439.908080,-36642.958122,638.924615,-3049.314386,-16527.081016,-5328.901747,-19719.133642,-27466.024752,1926.966241,140.547769,-9390.817212,-5973.280188,-9642.788427,-14592.604589,549.383527,-29244.821280,0.002000,-0.012000,1.014000,192.000000,0.000000,0.000000,0.000000,0.000000,0.000000,0.000000,0.000000,0.000000,0.000000,1772618418.258880,0.000000
238.000000,12417.779853,-36664.348741,616.192891,-3071.844944,-16558.060534,-5358.830733,-19740.099578,-27492.735087,1915.835072,140.301900,-9389.476107,-5975.180087,-9645.113009,-14599.824202,548.981196,-29246.721178,0.002000,-0.012000,1.014000,192.000000,0.000000,0.000000,0.000000,0.000000,0.000000,0.000000,0.000000,0.000000,0.000000,1772618418.258903,0.000000
240.000000,12413.287152,-36669.444939,615.276470,-3074.415395,-16561.078019,-5366.609140,-19739.585488,-27498.345375,1902.602840,116.474940,-9421.327343,-5995.654284,-9676.360747,-14633.552984,534.273748,-29276.918385,0.002000,-0.012000,1.014000,192.000000,0.000000,0.000000,0.000000,0.000000,0.000000,0.000000,0.000000,0.000000,0.000000,1772618418.258926,0.000000
242.000000,12430.408589,-36644.947427,628.642813,-3060.981996,-16537.720446,-5358.540160,-19725.950924,-27480.352221,1903.675724,132.724659,-9400.853145,-5984.590171,-9652.220863,-14608.273161,554.591483,-29255.684227,0.002000,-0.012000,1.014000,192.000000,0.000000,0.000000,127.500000,88.000000,15.500000,48.000000,0.000000,0.000000,0.000000,1772618418.258952,0.000000
244.000000,12415.298809,-36658.447881,609.509720,-3074.862429,-16569.884607,-5372.688815,-19745.374590,-27496.423125,1905.217994,134.311632,-9411.604334,-5982.936142,-9664.089640,-14620.007827,541.873341,-29278.773579,0.002000,-0.012000,1.014000,192.000000,0.000000,0.000000,0.000000,0.000000,0.000000,0.000000,0.000000,0.000000,0.000000,1772618418.258975,0.000000
246.000000,12442.791455,-36633.682148,635.996537,-3046.028679,-16534.568850,-5342.469256,-19717.010226,-27465.667124,1909.241308,140.681880,-9406.619895,-5978.465793,-9658.993442,-14614.933981,551.037556,-29271.173986,0.002000,-0.012000,1.014000,192.000000,0.000000,0.000000,0.000000,0.000000,0.000000,0.000000,0.000000,0.000000,0.000000,1772618418.258998,0.000000
248.000000,12447.462970,-36630.351738,631.682650,-3050.454325,-16523.907068,-5341.530483,-19728.342560,-27470.852729,1926.742724,158.384461,-9384.894000,-5959.198589,-9637.334602,-14590.838801,565.297969,-29257.427663,0.002000,-0.012000,1.014000,192.000000,0.000000,0.000000,0.000000,0.000000,0.000000,0.000000,0.000000,0.000000,0.000000,1772618418.259022,0.000000
250.000000,12458.974118,-36618.997052,636.130647,-3041.155999,-16525.270525,-5330.399314,-19726.330903,-27461.040313,1931.235424,156.573970,-9395.555782,-5955.734069,-9648.175198,-14596.963179,555.530257,-29271.553966,0.002000,-0.012000,1.014000,192.000000,0.000000,0.000000,0.000000,0.000000,0.000000,0.000000,0.000000,0.000000,0.000000,1772618418.259046,0.000000
252.000000,12474.173304,-36602.657926,649.318176,-3029.086057,-16513.491155,-5315.468349,-19712.651636,-27447.696322,1942.679518,181.697331,-9367.750212,-5936.712734,-9621.733084,-14563.949652,574.529239,-29238.875716,-0.002000,-0.008000,1.002000,192.000000,127.500000,120.000000,127.500000,96.000000,15.500000,40.000000,0.000000,0.000000,0.000000,1772618418.259069,0.000000
254.000000,12450.212234,-36626.484886,625.915900,-3051.795429,-16541.006153,-5340.725820,-19737.104444,-27472.082075,1933.045916,163.771232,-9386.302160,-5948.156827,-9640.754418,-14585.429679,554.636187,-29255.237193,-0.002000,-0.008000,1.002000,192.000000,0.000000,0.000000,0.000000,0.000000,0.000000,0.000000,0.000000,0.000000,0.000000,1772618418.259092,0.000000
0.000000,12471.692261,-36607.061220,647.306519,-3031.008307,-16517.626228,-5321.033933,-19710.304703,-27448.098653,1933.582358,163.547714,-9383.016453,-5953.454191,-9641.156750,-14588.201295,550.165838,-29247.369378,-0.002000,-0.008000,1.002000,192.000000,0.000000,0.000000,0.000000,0.000000,0.000000,0.000000,0.000000,0.000000,0.000000,1772618418.259115,0.000000
2.000000,12456.336612,-36622.550979,631.302670,-3048.487371,-16534.032408,-5336.233120,-19728.566078,-27470.651563,1931.615404,169.046243,-9371.550008,-5949.520284,-9629.869119,-14580.199370,564.113327,-29230.963198,-0.002000,-0.008000,1.002000,192.000000,0.000000,0.000000,0.000000,0.000000,0.000000,0.000000,0.000000,0.000000,0.000000,1772618418.259138,0.000000
4.000000,12450.458103,-36630.329386,629.246310,-3055.550522,-16533.697132,-5340.256434,-19732.634095,-27479.994593,1921.802988,146.605092,-9399.646151,-5968.586322,-9652.243215,-14610.776557,542.834466,-29265.295478,-0.002000,-0.008000,1.002000,192.000000,0.000000,0.000000,0.000000,0.000000,0.000000,0.000000,0.000000,0.000000,0.000000,1772618418.259161,0.000000
6.000000,12452.179188,-36628.049508,636.443572,-3053.896493,-16532.691304,-5344.995003,-19723.693397,-27475.926575,1925.848654,155.590493,-9384.245799,-5966.172333,-9630.159692,-14594.996225,563.196905,-29241.535573,0.002000,-0.006000,1.010000,192.000000,0.000000,8.000000,127.500000,104.000000,15.500000,72.000000,0.000000,0.000000,0.000000,1772618418.259184,0.000000
8.000000,12427.011124,-36651.764709,612.840129,-3074.191877,-16562.955566,-5377.896771,-19745.396941,-27499.798238,1912.549366,135.697441,-9406.396378,-5974.867162,-9655.461866,-14622.220650,545.136696,-29267.932983,0.002000,-0.006000,1.010000,192.000000,0.000000,0.000000,0.000000,0.000000,0.000000,0.000000,0.000000,0.000000,0.000000,1772618418.259207,0.000000
10.000000,12457.834179,-36621.031060,638.611691,-3047.123915,-16543.040161,-5351.946396,-19716.160860,-27465.354200,1906.737913,134.445743,-9405.658770,-5975.537714,-9662.100334,-14624.098197,547.327166,-29271.397504,0.002000,-0.006000,1.010000,192.000000,0.000000,0.000000,0.000000,0.000000,0.000000,0.000000,0.000000,0.000000,0.000000,1772618418.259230,0.000000
12.000000,12449.698144,-36630.999938,625.424162,-3054.164714,-16556.741781,-5362.697585,-19731.181232,-27478.966412,1917.958488,156.126935,-9381.787107,-5954.638833,-9644.643622,-14603.847516,559.240646,-29257.695884,0.002000,-0.006000,1.010000,192.000000,0.000000,0.000000,0.000000,0.000000,0.000000,0.000000,0.000000,0.000000,0.000000,1772618418.259254,0.000000
14.000000,12454.235548,-36623.825028,629.581586,-3046.051031,-16543.196624,-5349.398297,-19727.761415,-27468.081113,1914.002229,141.307728,-9404.809404,-5962.327833,-9661.876817,-14619.001999,544.600254,-29282.506321,0.002000,-0.006000,1.010000,192.000000,0.000000,0.000000,0.000000,0.000000,0.000000,0.000000,0.000000,0.000000,0.000000,1772618418.259277,0.000000
16.000000,12474.441525,-36600.154531,642.970281,-3029.935423,-16513.111176,-5331.740419,-19712.159897,-27447.785729,1927.390924,172.287246,-9373.762831,-5937.338583,-9631.679610,-14576.399574,568.516620,-29251.660913,0.002000,-0.006000,1.010000,192.000000,0.000000,0.000000,127.500000,80.000000,15.500000,64.000000,0.000000,0.000000,0.000000,1772618418.259301,0.000000
18.000000,12461.902197,-36611.956252,625.267699,-3042.698269,-16543.263679,-5347.006660,-19728.297857,-27461.397941,1935.884587,172.846040,-9379.730747,-5930.118970,-9639.413314,-14586.010824,560.805268,-29266.368361,0.002000,-0.006000,1.010000,192.000000,0.000000,0.000000,0.000000,0.000000,0.000000,0.000000,0.000000,0.000000,0.000000,1772618418.259328,0.000000
20.000000,12483.091650,-36591.526758,644.378441,-3020.413580,-16522.767129,-5322.442093,-19705.208505,-27436.721615,1935.705773,175.662360,-9378.523753,-5930.320135,-9642.542558,-14579.148838,554.636187,-29258.657009,0.002000,-0.006000,1.010000,192.000000,0.000000,0.000000,0.000000,0.000000,0.000000,0.000000,0.000000,0.000000,0.000000,1772618418.259352,0.000000
22.000000,12473.368642,-36600.936842,633.448438,-3034.159903,-16532.043103,-5332.433323,-19719.021883,-27446.042293,1943.953567,190.682732,-9362.743421,-5917.512586,-9627.857462,-14566.184827,561.274655,-29238.920419,0.002000,-0.006000,1.010000,192.000000,0.000000,0.000000,0.000000,0.000000,0.000000,0.000000,0.000000,0.000000,0.000000,1772618418.259375,0.000000
24.000000,12470.731136,-36603.551996,628.195778,-3038.943176,-16530.701999,-5333.439151,-19723.939267,-27452.390188,1940.801971,175.371787,-9386.615084,-5931.974164,-9646.968203,-14591.107022,541.426306,-29258.500547,0.002000,-0.006000,1.010000,192.000000,0.000000,0.000000,0.000000,0.000000,0.000000,0.000000,0.000000,0.000000,0.000000,1772618418.259399,0.000000
26.000000,12478.084860,-36595.371258,640.288072,-3030.874196,-16506.316245,-5320.721009,-19712.249304,-27448.031598,1944.288843,189.922773,-9367.012604,-5926.721505,-9620.704904,-14563.703783,566.504963,-29226.649311,0.002000,-0.006000,1.010000,192.000000,0.000000,0.000000,127.500000,88.000000,15.500000,80.000000,0.000000,0.000000,0.000000,1772618418.259423,0.000000
28.000000,12447.127694,-36626.820162,615.947022,-3058.322139,-16541.967278,-5348.437172,-19738.847880,-27481.983898,1937.024526,170.074424,-9390.258418,-5940.736048,-9638.496892,-14587.374280,556.357271,-29250.945658,0.002000,-0.006000,1.010000,192.000000,0.000000,0.000000,0.000000,0.000000,0.000000,0.000000,0.000000,0.000000,0.000000,1772618418.259440,0.000000
30.000000,12454.257900,-36623.087421,630.632118,-3047.414487,-16528.869156,-5344.167989,-19720.228877,-27471.702095,1918.092599,154.875237,-9399.892020,-5956.002290,-9648.711639,-14595.733833,556.133754,-29254.767806,0.002000,-0.006000,1.010000,192.000000,0.000000,0.000000,0.000000,0.000000,0.000000,0.000000,0.000000,0.000000,0.000000,1772618418.259450,0.000000
32.000000,12432.867281,-36640.722947,610.090865,-3063.977130,-16559.334583,-5370.744213,-19738.043217,-27491.058706,1911.185910,150.360185,-9399.065006,-5962.014909,-9652.779657,-14600.807679,555.485553,-29254.879565,0.002000,-0.006000,1.010000,192.000000,0.000000,0.000000,0.000000,0.000000,0.000000,0.000000,0.000000,0.000000,0.000000,1772618418.259465,0.000000
34.000000,12439.863377,-36635.358529,615.455284,-3059.707947,-16552.562005,-5367.369100,-19732.455281,-27482.140360,1906.648506,137.642042,-9417.371084,-5968.005177,-9673.052689,-14622.108891,538.341765,-29280.785236,0.002000,-0.006000,1.010000,192.000000,0.000000,0.000000,0.000000,0.000000,0.000000,0.000000,0.000000,0.000000,0.000000,1772618418.259477,0.000000
36.000000,12463.846798,-36612.827970,637.158827,-3038.317327,-16527.997437,-5343.139809,-19711.735214,-27459.051008,1919.858386,159.189124,-9384.692834,-5949.900264,-9639.256852,-14589.721214,564.292141,-29254.588992,-0.001000,-0.008000,1.010000,192.000000,127.500000,112.000000,127.500000,88.000000,15.500000,72.000000,0.000000,0.000000,0.000000,1772618418.259488,0.000000
38.000000,12446.434789,-36628.653005,620.059743,-3055.505819,-16549.030429,-5357.534332,-19733.237592,-27476.954755,1927.368573,162.810107,-9390.571343,-5942.814761,-9645.113009,-14597.119641,557.363100,-29265.295478,-0.001000,-0.008000,1.010000,192.000000,0.000000,0.000000,0.000000,0.000000,0.000000,0.000000,0.000000,0.000000,0.000000,1772618418.259498,0.000000
40.000000,12471.826371,-36603.261423,649.474639,-3030.605975,-16518.944981,-5330.064038,-19704.448546,-27442.577772,1922.205320,163.324197,-9387.240933,-5943.150037,-9646.208244,-14593.230437,560.402937,-29267.195376,-0.001000,-0.008000,1.010000,192.000000,0.000000,0.000000,0.000000,0.000000,0.000000,0.000000,0.000000,0.000000,0.000000,1772618418.259517,0.000000
42.000000,12459.465856,-36615.778400,637.739973,-3041.737144,-16530.992571,-5338.960032,-19719.066586,-27453.708941,1937.471561,181.585572,-9364.531560,-5926.006249,-9625.264660,-14566.855379,574.328074,-29247.078806,-0.001000,-0.008000,1.010000,192.000000,0.000000,0.000000,0.000000,0.000000,0.000000,0.000000,0.000000,0.000000,0.000000,1772618418.259528,0.000000
44.000000,12461.164589,-36614.124371,640.869217,-3036.328022,-16519.012036,-5327.918271,-19715.222086,-27445.863479,1931.771866,167.503973,-9384.044633,-5930.610708,-9641.000288,-14589.587103,551.171667,-29264.423760,-0.001000,-0.008000,1.010000,192.000000,0.000000,0.000000,0.000000,0.000000,0.000000,0.000000,0.000000,0.000000,0.000000,1772618418.738009,0.000000
46.000000,12473.905083,-36604.200197,649.385232,-3030.091885,-16510.048987,-5317.100026,-19709.187115,-27440.946095,1939.416163,188.201688,-9359.390659,-5917.467882,-9615.228726,-14559.300489,572.539934,-29231.454936,-0.001500,-0.006000,1.008000,192.000000,127.500000,120.000000,127.500000,112.000000,15.500000,56.000000,0.000000,0.000000,0.000000,1772618418.738077,0.000000
48.000000,12433.202557,-36643.651026,619.210377,-3058.813877,-16539.150958,-5342.268091,-19739.026694,-27479.189930,1934.610538,167.123993,-9381.317721,-5930.320135,-9632.327811,-14581.607530,559.106536,-29248.151690,-0.001500,-0.006000,1.008000,192.000000,0.000000,0.000000,0.000000,0.000000,0.000000,0.000000,0.000000,0.000000,0.000000,1772618418.738131,0.000000
50.000000,12446.926528,-36629.077688,638.902264,-3037.669127,-16516.195716,-5317.122378,-19713.478650,-27460.123892,1918.249061,158.362109,-9394.572305,-5940.624290,-9641.536730,-14584.110926,556.066699,-29245.245963,-0.001500,-0.006000,1.008000,192.000000,0.000000,0.000000,0.000000,0.000000,0.000000,0.000000,0.000000,0.000000,0.000000,1772618418.738195,0.000000
52.000000,12420.171490,-36654.648084,616.952850,-3063.172467,-16538.614516,-5346.961957,-19737.015037,-27490.946947,1913.801064,160.686691,-9390.660750,-5939.394944,-9635.546462,-14575.729022,572.048196,-29232.751338,-0.001500,-0.006000,1.008000,192.000000,0.000000,0.000000,0.000000,0.000000,0.000000,0.000000,0.000000,0.000000,0.000000,1772618418.738245,0.000000
54.000000,12410.783757,-36668.707331,607.632173,-3071.666130,-16541.542595,-5366.050347,-19742.625325,-27501.094639,1889.191793,122.196987,-9431.609146,-5970.128592,-9674.393794,-14620.857194,543.370908,-29275.443170,-0.001500,-0.006000,1.008000,192.000000,0.000000,0.000000,0.000000,0.000000,0.000000,0.000000,0.000000,0.000000,0.000000,1772618418.738269,0.000000
56.000000,12433.850757,-36642.734604,619.880929,-3054.790563,-16541.319077,-5359.993024,-19727.090863,-27485.046087,1902.759302,144.481676,-9404.742349,-5957.857485,-9649.583358,-14595.756185,568.427213,-29253.538460,-0.001500,-0.006000,1.008000,192.000000,0.000000,0.000000,127.500000,104.000000,15.500000,40.000000,0.000000,0.000000,0.000000,1772618418.738293,0.000000
58.000000,12417.958667,-36653.150517,602.044237,-3065.988787,-16566.934176,-5377.941475,-19742.267697,-27494.746744,1890.108215,143.364089,-9421.282640,-5955.689365,-9673.387965,-14609.033121,546.522504,-29277.141902,-0.001500,-0.006000,1.008000,192.000000,0.000000,0.000000,0.000000,0.000000,0.000000,0.000000,0.000000,0.000000,0.000000,1772618418.738320,0.000000
60.000000,12455.174322,-36616.225435,632.241444,-3039.792542,-16529.673818,-5353.779239,-19711.176421,-27452.725464,1901.060569,150.069612,-9406.552840,-5942.770057,-9661.832113,-14602.439356,557.787783,-29270.995172,-0.001500,-0.006000,1.008000,192.000000,0.000000,0.000000,0.000000,0.000000,0.000000,0.000000,0.000000,0.000000,0.000000,1772618418.738346,0.000000
62.000000,12456.515426,-36615.040793,622.630194,-3047.526246,-16542.302554,-5355.097992,-19727.314380,-27462.470825,1923.211148,170.454403,-9380.066023,-5925.089827,-9638.452189,-14581.004033,565.186210,-29258.701713,-0.001500,-0.006000,1.008000,192.000000,0.000000,0.000000,0.000000,0.000000,0.000000,0.000000,0.000000,0.000000,0.000000,1772618418.738369,0.000000
64.000000,12460.628147,-36608.268214,630.922691,-3041.692441,-16532.736007,-5347.453695,-19720.519450,-27453.775996,1924.261680,165.604075,-9394.393491,-5928.062609,-9653.137285,-14594.325673,547.438925,-29271.084579,-0.001500,-0.006000,1.008000,192.000000,0.000000,0.000000,0.000000,0.000000,0.000000,0.000000,0.000000,0.000000,0.000000,1772618418.738380,0.000000
66.000000,12478.643653,-36590.342115,647.552389,-3026.157978,-16512.865306,-5326.733628,-19704.940284,-27439.627342,1937.248044,186.570011,-9367.593749,-5913.109292,-9627.633944,-14564.955481,567.399033,-29240.999131,0.000250,-0.008000,1.006000,192.000000,0.000000,8.000000,127.500000,88.000000,15.500000,48.000000,0.000000,0.000000,0.000000,1772618418.738392,0.000000
68.000000,12459.935243,-36611.129238,629.738048,-3040.328984,-16531.908993,-5345.956128,-19725.280371,-27461.934383,1938.790314,179.752729,-9377.942607,-5915.299763,-9633.914785,-14577.003071,557.094879,-29250.968009,0.000250,-0.008000,1.006000,192.000000,0.000000,0.000000,0.000000,0.000000,0.000000,0.000000,0.000000,0.000000,0.000000,1772618418.738405,0.000000
70.000000,12482.577560,-36589.313935,649.362880,-3023.162845,-16511.412443,-5322.017410,-19705.476726,-27440.454357,1934.856407,179.104528,-9381.161258,-5918.429007,-9631.679610,-14576.466629,556.513733,-29247.794062,0.000250,-0.008000,1.006000,192.000000,0.000000,0.000000,0.000000,0.000000,0.000000,0.000000,0.000000,0.000000,0.000000,1772618418.738416,0.000000
72.000000,12462.796266,-36611.509217,636.309461,-3041.848903,-16523.951772,-5333.461503,-19723.313418,-27464.035447,1941.293709,188.738130,-9369.940683,-5915.590336,-9620.168462,-14565.737792,568.181344,-29232.058434,0.000250,-0.008000,1.006000,192.000000,0.000000,0.000000,0.000000,0.000000,0.000000,0.000000,0.000000,0.000000,0.000000,1772618418.738427,0.000000
74.000000,12446.233624,-36626.641348,628.419295,-3053.248293,-16516.709807,-5342.737477,-19730.421273,-27478.474674,1925.491026,156.082232,-9403.892982,-5941.205435,-9648.242253,-14600.204182,561.475821,-29257.338257,0.000250,-0.008000,1.006000,192.000000,0.000000,0.000000,0.000000,0.000000,0.000000,0.000000,0.000000,0.000000,0.000000,1772618418.738438,0.000000
76.000000,12443.238490,-36628.764764,631.146208,-3051.258987,-16520.844879,-5352.035803,-19721.838203,-27478.228805,1913.577546,160.977264,-9396.271038,-5943.015926,-9639.569776,-14590.011786,578.574905,-29240.172117,0.002125,-0.010000,1.005000,192.000000,0.000000,16.000000,127.500000,80.000000,15.500000,48.000000,0.000000,0.000000,0.000000,1772618418.738449,0.000000
78.000000,12417.265763,-36652.211744,601.060760,-3072.180220,-16559.334583,-5380.109594,-19746.738046,-27503.441573,1898.959505,138.603167,-9423.115483,-5958.706851,-9668.962320,-14617.862060,558.704204,-29268.625887,0.002125,-0.010000,1.005000,192.000000,0.000000,0.000000,0.000000,0.000000,0.000000,0.000000,0.000000,0.000000,0.000000,1772618418.738460,0.000000
80.000000,12442.299717,-36625.255540,620.953813,-3046.922749,-16537.631039,-5360.305948,-19718.619551,-27473.043200,1891.471671,139.676051,-9424.434236,-5956.896360,-9671.085736,-14613.749339,552.311605,-29269.207033,0.002125,-0.010000,1.005000,192.000000,0.000000,0.000000,0.000000,0.000000,0.000000,0.000000,0.000000,0.000000,0.000000,1772618418.738471,0.000000
82.000000,12439.393990,-36628.764764,612.035467,-3056.310482,-16558.954604,-5374.834582,-19729.773072,-27478.742895,1901.686418,152.975339,-9404.719997,-5940.981917,-9662.480314,-14603.355778,553.205675,-29262.970896,0.002125,-0.010000,1.005000,192.000000,0.000000,0.000000,0.000000,0.000000,0.000000,0.000000,0.000000,0.000000,0.000000,1772618418.738483,0.000000
84.000000,12455.084915,-36613.252653,624.127760,-3045.402830,-16554.014868,-5362.876399,-19720.117118,-27466.002401,1909.241308,147.834438,-9412.990142,-5938.120894,-9674.572608,-14614.621057,537.067716,-29286.373173,0.002125,-0.010000,1.005000,192.000000,0.000000,0.000000,0.000000,0.000000,0.000000,0.000000,0.000000,0.000000,0.000000,1772618418.738494,0.000000
86.000000,12483.158706,-36585.290621,648.535865,-3024.727467,-16522.498908,-5340.792875,-19700.939322,-27440.186136,1926.675669,182.837270,-9376.623854,-5916.797330,-9639.033334,-14576.109001,558.614797,-29251.549155,0.002063,-0.014000,1.005500,192.000000,0.000000,8.000000,127.500000,56.000000,15.500000,56.000000,0.000000,0.000000,0.000000,1772618418.738505,0.000000
88.000000,12477.235493,-36593.203138,637.292938,-3036.484484,-16538.033371,-5352.102858,-19717.904296,-27450.780863,1937.560968,181.429110,-9376.959130,-5914.740970,-9642.073171,-14585.675548,550.210542,-29263.619097,0.002063,-0.014000,1.005500,192.000000,0.000000,0.000000,0.000000,0.000000,0.000000,0.000000,0.000000,0.000000,0.000000,1772618418.738516,0.000000
90.000000,12500.838935,-36570.806691,659.979959,-3012.724580,-16508.305551,-5321.369209,-19694.479667,-27425.791612,1950.055593,193.633162,-9362.944587,-5907.744873,-9624.348238,-14569.358774,559.397108,-29252.175004,0.002063,-0.014000,1.005500,192.000000,0.000000,0.000000,0.000000,0.000000,0.000000,0.000000,0.000000,0.000000,0.000000,1772618418.738527,0.000000
92.000000,12491.071223,-36582.608412,650.748688,-3025.040391,-16511.971237,-5329.237024,-19711.221124,-27440.968447,1957.610483,199.176395,-9354.003889,-5904.302705,-9609.841956,-14556.305356,574.439833,-29228.705672,0.002063,-0.014000,1.005500,192.000000,0.000000,0.000000,0.000000,0.000000,0.000000,0.000000,0.000000,0.000000,0.000000,1772618418.738539,0.000000
