Sample_index,EXG Channel 0,EXG Channel 1,EXG Channel 2,EXG Channel 3,EXG Channel 4,EXG Channel 5,EXG Channel 6,EXG Channel 7,EXG Channel 8,EXG Channel 9,EXG Channel 10,EXG Channel 11,EXG Channel 12,EXG Channel 13,EXG Channel 14,EXG Channel 15,Accel Channel 0,Accel Channel 1,Accel Channel 2,Not Used,Digital Channel 0 (D11),Digital Channel 1 (D12),Digital Channel 2 (D13),Digital Channel 3 (D17),Not Used,Digital Channel 4 (D18),Analog Channel 0,Analog Channel 1,Analog Channel 2,Timestamp,Marker Channel
90.000000,10728.144434,-26750.098377,-1819.141426,-939.846151,-21370.391115,-13115.310742,-19820.387044,-23617.903723,-1319.602289,2959.572132,-10662.631471,2538.085286,-12322.695532,-15247.644812,4175.708196,-28465.013619,0.008000,-0.006000,1.002000,192.000000,0.000000,0.000000,0.000000,0.000000,0.000000,0.000000,0.000000,0.000000,0.000000,1772619950.368084,101.000000
92.000000,10739.476769,-26736.441462,-1807.853795,-929.094962,-21349.201661,-13093.182515,-19812.496878,-23610.527648,-1282.453690,2996.966600,-10636.301117,2574.049243,-12310.580887,-15209.624494,4203.111434,-28424.266389,0.008000,-0.006000,1.002000,192.000000,0.000000,0.000000,0.000000,0.000000,0.000000,0.000000,0.000000,0.000000,0.000000,1772619950.368159,0.000000
94.000000,10707.267905,-26771.511349,-1838.945072,-962.913151,-21382.014022,-13124.296144,-19845.108073,-23647.385674,-1314.193167,2967.417594,-10662.765582,2538.509970,-12357.318384,-15226.857689,4191.376769,-28442.505412,0.002000,-0.012000,0.996000,192.000000,0.000000,8.000000,127.500000,80.000000,15.500000,16.000000,0.000000,0.000000,0.000000,1772619950.368216,0.000000
96.000000,10734.402923,-26740.017741,-1808.524347,-935.286395,-21353.247327,-13094.143640,-19813.770928,-23613.858058,-1312.963821,2970.077451,-10659.234006,2543.539112,-12353.004498,-15223.482576,4197.903478,-28437.029235,0.002000,-0.012000,0.996000,192.000000,0.000000,0.000000,0.000000,0.000000,0.000000,0.000000,0.000000,0.000000,0.000000,1772619950.368269,0.000000
98.000000,10714.621629,-26765.543433,-1832.396010,-962.443765,-21379.354165,-13124.497309,-19836.234431,-23637.193279,-1303.173757,2979.822812,-10648.147541,2558.268912,-12338.028829,-15215.234782,4202.172661,-28429.295531,0.002000,-0.012000,0.996000,192.000000,0.000000,0.000000,0.000000,0.000000,0.000000,0.000000,0.000000,0.000000,0.000000,1772619950.368297,0.000000
100.000000,10723.048237,-26754.076988,-1828.327993,-953.815991,-21373.162731,-13118.909373,-19828.634838,-23626.620904,-1336.455504,2951.145524,-10670.901617,2526.372972,-12369.254216,-15241.296916,4175.417623,-28462.800796,0.002000,-0.012000,0.996000,192.000000,0.000000,0.000000,0.000000,0.000000,0.000000,0.000000,0.000000,0.000000,0.000000,1772619950.368322,0.000000
102.000000,10733.575908,-26739.593058,-1815.431036,-941.366069,-21361.942156,-13115.087225,-19814.307370,-23611.399366,-1305.207766,2979.196963,-10644.124227,2558.380670,-12332.373838,-15231.328038,4192.136728,-28434.928171,0.002000,-0.012000,0.996000,192.000000,0.000000,0.000000,0.000000,0.000000,0.000000,0.000000,0.000000,0.000000,0.000000,1772619950.368346,0.000000
104.000000,10720.187213,-26760.111959,-1838.833313,-969.506916,-21386.841999,-13140.076475,-19840.145986,-23634.712235,-1321.904519,2957.739289,-10657.892902,2532.542054,-12356.670184,-15253.098637,4179.753861,-28467.874642,0.003000,-0.010000,1.001000,192.000000,0.000000,16.000000,127.500000,96.000000,15.500000,56.000000,0.000000,0.000000,0.000000,1772619950.368371,0.000000
106.000000,10750.630289,-26724.438575,-1810.267783,-938.885026,-21354.856653,-13114.148452,-19809.479393,-23602.592779,-1309.320487,2967.104669,-10650.069791,2543.628519,-12317.487576,-15237.251250,4182.369015,-28462.063189,0.003000,-0.010000,1.001000,192.000000,0.000000,0.000000,0.000000,0.000000,0.000000,0.000000,0.000000,0.000000,0.000000,1772619950.368395,0.000000
108.000000,10735.118179,-26742.319970,-1829.222063,-958.621616,-21383.489237,-13140.568214,-19828.053692,-23619.088366,-1290.030931,2988.785862,-10636.837558,2566.449650,-12318.739273,-15235.731332,4193.567239,-28453.413064,0.003000,-0.010000,1.001000,192.000000,0.000000,0.000000,0.000000,0.000000,0.000000,0.000000,0.000000,0.000000,0.000000,1772619950.368419,0.000000
110.000000,10738.940327,-26736.687331,-1822.248318,-949.211532,-21384.495066,-13130.644039,-19820.945838,-23612.136973,-1320.630469,2958.476896,-10656.372983,2537.548845,-12377.054975,-15255.154998,4166.901608,-28480.928061,0.003000,-0.010000,1.001000,192.000000,0.000000,0.000000,0.000000,0.000000,0.000000,0.000000,0.000000,0.000000,0.000000,1772619950.368443,0.000000
112.000000,10747.724563,-26726.450232,-1808.814920,-933.788828,-21361.182196,-13111.332132,-19808.361805,-23600.581122,-1285.113547,2986.237763,-10631.964878,2570.048281,-12336.486558,-15217.246439,4188.873373,-28440.292590,0.003000,-0.010000,1.001000,192.000000,0.000000,0.000000,0.000000,0.000000,0.000000,0.000000,0.000000,0.000000,0.000000,1772619950.368468,0.000000
114.000000,10723.741141,-26755.172223,-1838.296871,-964.097794,-21386.640833,-13138.198929,-19838.737826,-23635.539250,-1307.912327,2959.102745,-10651.545006,2538.644080,-12323.231974,-15239.598184,4181.050263,-28455.558831,0.002500,-0.008000,1.006500,192.000000,0.000000,8.000000,127.500000,104.000000,15.500000,80.000000,0.000000,0.000000,0.000000,1772619950.368492,0.000000
116.000000,10748.059839,-26727.098432,-1807.876147,-930.011383,-21351.570946,-13100.893867,-19808.205343,-23606.839610,-1302.123225,2965.450640,-10651.656765,2543.650871,-12312.637247,-15237.541823,4186.526440,-28439.622037,0.002500,-0.008000,1.006500,192.000000,0.000000,0.000000,0.000000,0.000000,0.000000,0.000000,0.000000,0.000000,0.000000,1772619950.368516,0.000000
118.000000,10730.044333,-26751.260668,-1830.809037,-954.933578,-21370.927557,-13120.272830,-19833.663980,-23633.169965,-1292.042588,2976.335940,-10644.772428,2555.653758,-12311.989047,-15221.135643,4199.110472,-28426.568619,0.002500,-0.008000,1.006500,192.000000,0.000000,0.000000,0.000000,0.000000,0.000000,0.000000,0.000000,0.000000,0.000000,1772619950.368541,0.000000
120.000000,10739.186196,-26740.688293,-1823.187092,-947.535151,-21366.993650,-13123.580888,-19824.566820,-23622.016444,-1323.245623,2951.391393,-10667.235931,2523.869577,-12360.782905,-15245.431989,4184.894763,-28452.161366,0.002500,-0.008000,1.006500,192.000000,0.000000,0.000000,0.000000,0.000000,0.000000,0.000000,0.000000,0.000000,0.000000,1772619950.368565,0.000000
122.000000,10749.736220,-26723.365691,-1812.078275,-933.989994,-21356.756551,-13114.528431,-19809.166468,-23603.956235,-1294.545984,2981.901524,-10642.157274,2563.633330,-12330.898622,-15228.221146,4209.168757,-28429.787270,0.002500,-0.008000,1.006500,192.000000,0.000000,0.000000,0.000000,0.000000,0.000000,0.000000,0.000000,0.000000,0.000000,1772619950.368589,0.000000
124.000000,10723.003533,-26752.333552,-1843.348365,-963.717814,-21395.514476,-13146.692592,-19837.955515,-23631.627695,-1321.770408,2960.510905,-10662.854989,2539.225225,-12375.289187,-15247.555405,4180.089138,-28460.409160,0.002500,-0.008000,1.006500,192.000000,0.000000,0.000000,127.500000,80.000000,15.500000,80.000000,0.000000,0.000000,0.000000,1772619950.368613,0.000000
126.000000,10746.696382,-26723.119822,-1810.536004,-933.073572,-21355.281336,-13113.500251,-19806.528962,-23598.770630,-1317.143597,2967.261132,-10657.825846,2548.590606,-12365.856751,-15242.570966,4181.944332,-28457.704599,0.002500,-0.008000,1.006500,192.000000,0.000000,0.000000,0.000000,0.000000,0.000000,0.000000,0.000000,0.000000,0.000000,1772619950.368637,0.000000
128.000000,10729.329077,-26747.840851,-1831.256071,-957.861657,-21381.611691,-13133.102731,-19827.226678,-23621.994093,-1295.998847,2981.901524,-10642.514901,2560.973473,-12341.023963,-15225.315419,4194.237792,-28445.053511,0.002500,-0.008000,1.006500,192.000000,0.000000,0.000000,0.000000,0.000000,0.000000,0.000000,0.000000,0.000000,0.000000,1772619950.368661,0.000000
130.000000,10740.370839,-26740.174203,-1826.584557,-954.553599,-21379.577682,-13129.124120,-19822.868088,-23615.534439,-1321.524539,2952.978367,-10663.726707,2526.596490,-12363.755687,-15256.741972,4172.087213,-28475.049552,0.002500,-0.008000,1.006500,192.000000,0.000000,0.000000,0.000000,0.000000,0.000000,0.000000,0.000000,0.000000,0.000000,1772619950.368684,0.000000
132.000000,10760.420353,-26719.185915,-1808.904327,-933.900587,-21360.824568,-13111.265077,-19804.137326,-23595.283758,-1279.659722,2988.115309,-10631.786064,2563.141592,-12320.683875,-15218.766358,4189.119242,-28446.595782,0.002500,-0.008000,1.006500,192.000000,0.000000,0.000000,0.000000,0.000000,0.000000,0.000000,0.000000,0.000000,0.000000,1772619950.368708,0.000000
134.000000,10727.049199,-26757.340343,-1841.940205,-965.550657,-21395.089793,-13146.245557,-19835.608582,-23631.404177,-1307.018257,2962.656672,-10652.997870,2533.726696,-12320.594468,-15242.459207,4172.914228,-28467.025276,0.000250,-0.008000,1.009250,192.000000,127.500000,120.000000,127.500000,96.000000,15.500000,80.000000,0.000000,0.000000,0.000000,1772619950.368732,0.000000
136.000000,10763.124915,-26714.782621,-1806.803263,-923.082343,-21357.985897,-13104.336036,-19798.437631,-23589.025270,-1300.871527,2971.820888,-10647.678154,2542.577987,-12332.575003,-15229.741064,4178.971550,-28455.268258,0.000250,-0.008000,1.009250,192.000000,0.000000,0.000000,0.000000,0.000000,0.000000,0.000000,0.000000,0.000000,0.000000,1772619950.368756,0.000000
138.000000,10737.688629,-26742.029398,-1830.786685,-948.429221,-21378.460095,-13124.698475,-19825.237373,-23618.306055,-1280.173812,2993.256210,-10629.886166,2566.315540,-12325.757721,-15226.835338,4189.946257,-28433.341197,0.000250,-0.008000,1.009250,192.000000,0.000000,0.000000,0.000000,0.000000,0.000000,0.000000,0.000000,0.000000,0.000000,1772619950.368780,0.000000
140.000000,10743.790656,-26734.765081,-1821.913042,-939.063840,-21371.128723,-13122.709170,-19815.737881,-23607.912494,-1319.736400,2960.734422,-10658.675213,2532.206778,-12369.656547,-15246.259003,4176.758728,-28455.715293,0.000250,-0.008000,1.009250,192.000000,0.000000,0.000000,0.000000,0.000000,0.000000,0.000000,0.000000,0.000000,0.000000,1772619950.368804,0.000000
142.000000,10753.558368,-26721.354034,-1807.786740,-929.229072,-21356.957717,-13105.498326,-19803.846753,-23593.339156,-1283.615981,2992.965638,-10629.975573,2568.304845,-12314.827718,-15219.056930,4199.021065,-28424.355796,0.000250,-0.008000,1.009250,192.000000,0.000000,0.000000,0.000000,0.000000,0.000000,0.000000,0.000000,0.000000,0.000000,1772619950.368827,0.000000
144.000000,10724.948135,-26755.753369,-1835.525255,-964.455422,-21395.827400,-13137.081341,-19834.803919,-23625.548020,-1317.165949,2958.633358,-10654.562492,2532.251481,-12361.855788,-15252.696306,4184.671245,-28449.702674,0.001125,-0.009000,1.007625,192.000000,0.000000,8.000000,127.500000,88.000000,15.500000,56.000000,0.000000,0.000000,0.000000,1772619950.368852,0.000000
146.000000,10761.113258,-26715.162601,-1802.087045,-928.849093,-21347.435873,-13102.950228,-19798.772907,-23588.310014,-1310.862757,2968.579885,-10644.817131,2547.361260,-12340.442817,-15232.177404,4192.293190,-28446.506375,0.001125,-0.009000,1.007625,192.000000,0.000000,0.000000,0.000000,0.000000,0.000000,0.000000,0.000000,0.000000,0.000000,1772619950.368876,0.000000
148.000000,10733.732371,-26748.354941,-1834.362964,-959.962721,-21380.069420,-13133.929745,-19829.819480,-23623.804584,-1289.673303,2982.862649,-10632.389561,2561.152287,-12310.491480,-15218.967523,4199.088120,-28436.649255,0.001125,-0.009000,1.007625,192.000000,0.000000,0.000000,0.000000,0.000000,0.000000,0.000000,0.000000,0.000000,0.000000,1772619950.368900,0.000000
150.000000,10737.018077,-26745.806843,-1825.086990,-950.105602,-21380.136476,-13133.348600,-19820.454099,-23615.601494,-1323.759714,2949.692661,-10660.463352,2523.824873,-12374.126896,-15257.367820,4174.724719,-28473.976669,0.001125,-0.009000,1.007625,192.000000,0.000000,0.000000,0.000000,0.000000,0.000000,0.000000,0.000000,0.000000,0.000000,1772619950.368924,0.000000
152.000000,10749.222129,-26729.758290,-1810.223080,-933.587662,-21365.674897,-13113.410844,-19802.706814,-23599.374127,-1290.254449,2982.303856,-10635.183529,2557.464249,-12328.127006,-15225.740102,4191.712045,-28448.294514,0.001125,-0.009000,1.007625,192.000000,0.000000,0.000000,0.000000,0.000000,0.000000,0.000000,0.000000,0.000000,0.000000,1772619950.368948,0.000000
154.000000,10713.638152,-26771.265479,-1842.275481,-967.294093,-21399.604845,-13149.330097,-19833.909849,-23631.895915,-1310.952164,2959.058041,-10653.221387,2533.033792,-12358.413620,-15245.074361,4175.194106,-28469.707485,0.001563,-0.008500,1.008812,192.000000,0.000000,8.000000,127.500000,96.000000,15.500000,72.000000,0.000000,0.000000,0.000000,1772619950.368971,0.000000
156.000000,10738.158016,-26744.152813,-1811.184205,-934.951119,-21370.078191,-13116.115405,-19801.790393,-23599.150610,-1317.121246,2946.116381,-10650.896806,2533.994917,-12364.515646,-15243.800312,4178.636274,-28464.231308,0.001563,-0.008500,1.008812,192.000000,0.000000,0.000000,0.000000,0.000000,0.000000,0.000000,0.000000,0.000000,0.000000,1772619950.368995,0.000000
158.000000,10719.270792,-26764.179976,-1836.396973,-957.593436,-21392.161714,-13142.870443,-19825.751463,-23623.134032,-1294.255411,2967.484649,-10637.105779,2552.278644,-12347.774189,-15233.429102,4186.526440,-28447.355741,0.001563,-0.008500,1.008812,192.000000,0.000000,0.000000,0.000000,0.000000,0.000000,0.000000,0.000000,0.000000,0.000000,1772619950.369019,0.000000
160.000000,10720.187213,-26758.949668,-1831.837217,-951.804334,-21386.417316,-13131.716923,-19821.012893,-23615.735604,-1335.404972,2940.774314,-10663.458486,2520.762684,-12357.452495,-15260.497065,4172.869524,-28469.305154,0.001563,-0.008500,1.008812,192.000000,0.000000,0.000000,0.000000,0.000000,0.000000,0.000000,0.000000,0.000000,0.000000,1772619950.369043,0.000000
162.000000,10736.146359,-26740.643590,-1810.915984,-928.469113,-21357.382400,-13101.966751,-19803.109146,-23595.753145,-1307.018257,2976.939437,-10641.643183,2556.726641,-12325.891832,-15216.754701,4194.662475,-28432.245962,0.001563,-0.008500,1.008812,192.000000,0.000000,0.000000,0.000000,0.000000,0.000000,0.000000,0.000000,0.000000,0.000000,1772619950.369067,0.000000
164.000000,10709.413673,-26773.880634,-1836.419324,-961.683805,-21388.674842,-13131.225184,-19834.289829,-23628.587857,-1329.817036,2953.335995,-10657.289405,2530.843321,-12356.089038,-15250.662297,4186.414681,-28446.349912,0.005781,-0.010250,1.012406,192.000000,0.000000,40.000000,127.500000,80.000000,15.500000,96.000000,0.000000,0.000000,0.000000,1772619950.369091,0.000000
166.000000,10745.087057,-26736.240296,-1802.042341,-929.944328,-21344.820719,-13104.201925,-19799.801087,-23591.461610,-1315.713086,2958.253379,-10647.231120,2540.566330,-12318.448701,-15240.872233,4213.303830,-28442.527764,0.005781,-0.010250,1.012406,192.000000,0.000000,0.000000,0.000000,0.000000,0.000000,0.000000,0.000000,0.000000,0.000000,1772619950.369115,0.000000
168.000000,10732.055990,-26756.558032,-1823.343554,-955.671186,-21374.950871,-13131.538109,-19821.594038,-23610.728813,-1292.400216,2979.778109,-10630.377904,2561.241694,-12348.735314,-15225.248364,4216.455426,-28436.895125,0.005781,-0.010250,1.012406,192.000000,0.000000,0.000000,0.000000,0.000000,0.000000,0.000000,0.000000,0.000000,0.000000,1772619950.369134,0.000000
170.000000,10740.303783,-26745.270401,-1814.738132,-947.110468,-21367.440685,-13122.932687,-19811.245181,-23599.999976,-1323.111513,2948.418611,-10652.796704,2525.389496,-12377.792582,-15257.837207,4184.984170,-28476.278898,0.005781,-0.010250,1.012406,192.000000,0.000000,0.000000,0.000000,0.000000,0.000000,0.000000,0.000000,0.000000,0.000000,1772619950.369146,0.000000
172.000000,10750.585586,-26730.831174,-1803.517557,-932.872407,-21354.879004,-13114.439024,-19798.996425,-23586.007784,-1286.745225,2990.886926,-10623.784140,2571.434089,-12328.752855,-15221.917954,4207.760597,-28442.214840,0.005781,-0.010250,1.012406,192.000000,0.000000,0.000000,0.000000,0.000000,0.000000,0.000000,0.000000,0.000000,0.000000,1772619950.369157,0.000000
174.000000,10714.196946,-26771.980735,-1838.207464,-970.579799,-21397.973168,-13147.877234,-19833.284001,-23624.721006,-1327.917138,2952.374870,-10656.395335,2533.681993,-12368.628367,-15250.639945,4186.481736,-28474.043724,0.005781,-0.010250,1.012406,192.000000,0.000000,0.000000,0.000000,0.000000,0.000000,0.000000,0.000000,0.000000,0.000000,1772619950.369168,0.000000
176.000000,10747.836321,-26729.713587,-1801.729417,-931.039564,-21366.233691,-13112.583829,-19794.548427,-23586.521874,-1320.921042,2962.120230,-10650.963861,2543.561464,-12355.709059,-15245.230823,4188.247524,-28463.560756,0.008000,-0.010000,1.010000,192.000000,0.000000,32.000000,127.500000,88.000000,15.500000,72.000000,0.000000,0.000000,0.000000,1772619950.369179,0.000000
178.000000,10717.326190,-26762.101264,-1837.693374,-961.929674,-21397.950816,-13149.978298,-19825.796166,-23619.580104,-1307.308830,2978.191135,-10640.704410,2560.459383,-12329.579869,-15235.396056,4193.857812,-28452.094311,0.008000,-0.010000,1.010000,192.000000,0.000000,0.000000,0.000000,0.000000,0.000000,0.000000,0.000000,0.000000,0.000000,1772619950.369190,0.000000
180.000000,10726.043370,-26751.774758,-1832.284252,-951.379651,-21391.424107,-13141.149359,-19817.950704,-23613.455726,-1343.719821,2943.501227,-10669.739326,2525.769475,-12383.916960,-15265.593262,4166.186353,-28476.524767,0.008000,-0.010000,1.010000,192.000000,0.000000,0.000000,0.000000,0.000000,0.000000,0.000000,0.000000,0.000000,0.000000,1772619950.369201,0.000000
182.000000,10745.534092,-26726.696101,-1811.832406,-929.206720,-21362.255080,-13118.216469,-19798.661148,-23592.489790,-1302.950240,2983.019112,-10641.039686,2565.756746,-12330.831567,-15232.244460,4191.510879,-28440.896087,0.008000,-0.010000,1.010000,192.000000,0.000000,0.000000,0.000000,0.000000,0.000000,0.000000,0.000000,0.000000,0.000000,1772619950.369212,0.000000
184.000000,10722.780016,-26757.876785,-1840.464990,-964.276608,-21391.982900,-13146.513778,-19831.518213,-23620.720043,-1327.850083,2957.314605,-10658.004660,2536.319499,-12364.403887,-15260.720582,4178.591571,-28462.510224,0.008000,-0.010000,1.010000,192.000000,0.000000,0.000000,0.000000,0.000000,0.000000,0.000000,0.000000,0.000000,0.000000,1772619950.369223,0.000000
186.000000,10761.917920,-26715.184953,-1798.734283,-927.038601,-21343.233745,-13106.079472,-19795.196628,-23581.090400,-1311.801530,2971.351501,-10640.615003,2548.680013,-12353.429181,-15240.648716,4193.857812,-28446.931058,0.006000,-0.010000,1.016000,192.000000,0.000000,24.000000,127.500000,88.000000,15.500000,96.000000,0.000000,0.000000,0.000000,1772619950.369234,0.000000
188.000000,10733.397094,-26745.560973,-1825.489321,-956.811125,-21372.223958,-13131.515757,-19823.940971,-23614.506258,-1295.082425,2988.070606,-10626.108721,2565.443822,-12303.584791,-15229.495195,4210.174586,-28433.072976,0.006000,-0.010000,1.016000,192.000000,0.000000,0.000000,0.000000,0.000000,0.000000,0.000000,0.000000,0.000000,0.000000,1772619950.369245,0.000000
190.000000,10736.816911,-26737.179069,-1814.894595,-949.569160,-21363.193853,-13125.436083,-19815.223791,-23608.583046,-1330.398182,2956.889922,-10654.741306,2528.854016,-12370.818838,-15258.820684,4188.694559,-28465.483006,0.006000,-0.010000,1.016000,192.000000,0.000000,0.000000,0.000000,0.000000,0.000000,0.000000,0.000000,0.000000,0.000000,1772619950.369256,0.000000
192.000000,10747.433990,-26723.924485,-1800.343609,-933.341793,-21352.219147,-13116.853013,-19801.410413,-23595.350813,-1296.803510,2988.271771,-10630.556718,2563.141592,-12338.252346,-15226.723579,4211.202766,-28440.136127,0.006000,-0.010000,1.016000,192.000000,0.000000,0.000000,0.000000,0.000000,0.000000,0.000000,0.000000,0.000000,0.000000,1772619950.369267,0.000000
194.000000,10723.607030,-26754.456968,-1833.848874,-966.623541,-21385.456191,-13145.284432,-19832.255820,-23626.062110,-1326.508978,2962.924893,-10652.394373,2530.239824,-12368.583664,-15252.517492,4185.855888,-28466.868814,0.006000,-0.010000,1.016000,192.000000,0.000000,0.000000,0.000000,0.000000,0.000000,0.000000,0.000000,0.000000,0.000000,1772619950.369278,0.000000
196.000000,10756.508798,-26717.576589,-1804.858661,-931.039564,-21355.773074,-13107.957018,-19797.498858,-23593.786191,-1314.595498,2976.470050,-10644.370096,2542.153304,-12324.997762,-15244.247346,4190.214478,-28460.252697,0.002000,-0.008000,1.012000,192.000000,0.000000,8.000000,127.500000,96.000000,15.500000,80.000000,0.000000,0.000000,0.000000,1772619950.369289,0.000000
198.000000,10723.338809,-26751.797110,-1835.234682,-962.332006,-21386.774944,-13145.709115,-19825.080910,-23627.313808,-1304.850138,2992.518603,-10639.832692,2555.206723,-12335.927765,-15234.189061,4191.868507,-28450.954372,0.002000,-0.008000,1.012000,192.000000,0.000000,0.000000,0.000000,0.000000,0.000000,0.000000,0.000000,0.000000,0.000000,1772619950.369299,0.000000
200.000000,10730.446664,-26742.275267,-1830.853740,-954.330081,-21392.206418,-13139.830606,-19819.157698,-23619.267180,-1340.814095,2957.761640,-10666.185399,2517.342868,-12391.114222,-15260.295899,4163.548847,-28483.990250,0.002000,-0.008000,1.012000,192.000000,0.000000,0.000000,0.000000,0.000000,0.000000,0.000000,0.000000,0.000000,0.000000,1772619950.369310,0.000000
202.000000,10740.549653,-26727.389005,-1817.107417,-937.968604,-21369.765266,-13119.468167,-19805.344320,-23604.067994,-1310.482777,2991.713940,-10639.408009,2553.575045,-12358.525379,-15230.188099,4184.470079,-28449.076825,0.002000,-0.008000,1.012000,192.000000,0.000000,0.000000,0.000000,0.000000,0.000000,0.000000,0.000000,0.000000,0.000000,1772619950.369321,0.000000
204.000000,10710.799481,-26759.955497,-1850.702089,-968.858715,-21404.186953,-13147.698420,-19837.262611,-23636.142747,-1344.256263,2961.673196,-10669.024070,2524.651888,-12382.777021,-15260.497065,4168.443879,-28469.953355,0.002000,-0.008000,1.012000,192.000000,0.000000,0.000000,0.000000,0.000000,0.000000,0.000000,0.000000,0.000000,0.000000,1772619950.369332,0.000000
206.000000,10744.237690,-26721.443441,-1812.346496,-932.693593,-21366.993650,-13116.003646,-19801.499820,-23596.624863,-1332.521597,2972.491440,-10659.032841,2539.895778,-12363.442762,-15249.432951,4181.899629,-28455.268258,0.002000,-0.010000,1.008000,192.000000,0.000000,8.000000,127.500000,88.000000,15.500000,64.000000,0.000000,0.000000,0.000000,1772619950.369343,0.000000
208.000000,10732.637135,-26738.497822,-1829.669098,-957.012291,-21389.948891,-13134.957926,-19825.572649,-23618.753090,-1306.146539,2994.373798,-10639.698582,2560.727604,-12356.536073,-15230.568079,4196.897649,-28439.242058,0.002000,-0.010000,1.008000,192.000000,0.000000,0.000000,0.000000,0.000000,0.000000,0.000000,0.000000,0.000000,0.000000,1772619950.369354,0.000000
210.000000,10740.370839,-26731.054691,-1817.710914,-950.262064,-21368.178292,-13125.369027,-19817.570724,-23614.774479,-1330.912272,2965.428289,-10660.664518,2523.981336,-12373.612806,-15256.786675,4184.023045,-28463.761921,0.002000,-0.010000,1.008000,192.000000,0.000000,0.000000,0.000000,0.000000,0.000000,0.000000,0.000000,0.000000,0.000000,1772619950.846967,0.000000
212.000000,10753.893644,-26714.380290,-1804.635144,-936.716907,-21346.474748,-13104.716015,-19804.606712,-23599.307072,-1289.181565,2998.486519,-10630.355552,2558.626540,-12293.839430,-15218.721654,4213.683809,-28430.726043,0.002000,-0.010000,1.008000,192.000000,0.000000,0.000000,0.000000,0.000000,0.000000,0.000000,0.000000,0.000000,0.000000,1772619950.847023,0.000000
214.000000,10732.458321,-26740.598886,-1835.100572,-964.723642,-21380.382345,-13130.241708,-19833.529870,-23624.318674,-1312.628545,2979.711053,-10647.476989,2536.431257,-12331.412713,-15246.862501,4195.713007,-28457.302267,0.002000,-0.010000,1.008000,192.000000,0.000000,0.000000,0.000000,0.000000,0.000000,0.000000,0.000000,0.000000,0.000000,1772619950.847068,0.000000
216.000000,10768.154057,-26701.639795,-1795.470929,-926.524511,-21342.093807,-13092.579018,-19796.716547,-23584.241996,-1293.160175,2991.512774,-10633.730666,2549.842304,-12348.936480,-15224.264887,4197.881126,-28451.267296,0.002000,-0.010000,1.008000,192.000000,0.000000,0.000000,127.500000,88.000000,15.500000,72.000000,0.000000,0.000000,0.000000,1772619950.847109,0.000000
218.000000,10740.951984,-26732.060520,-1824.014106,-955.984110,-21371.195778,-13128.431216,-19823.918620,-23614.506258,-1276.374015,3011.383475,-10621.191337,2568.550714,-12318.761625,-15210.138584,4206.598306,-28437.744491,0.002000,-0.010000,1.008000,192.000000,0.000000,0.000000,0.000000,0.000000,0.000000,0.000000,0.000000,0.000000,0.000000,1772619950.847159,0.000000
220.000000,10745.757609,-26724.639741,-1821.488359,-950.686747,-21370.614632,-13127.000705,-19818.397739,-23608.918322,-1321.099856,2971.150335,-10656.194169,2527.155283,-12369.388326,-15245.029657,4179.485640,-28478.692887,0.002000,-0.010000,1.008000,192.000000,0.000000,0.000000,0.000000,0.000000,0.000000,0.000000,0.000000,0.000000,0.000000,1772619950.847200,0.000000
222.000000,10759.168656,-26705.484296,-1813.285269,-929.899625,-21363.171502,-13111.980332,-19801.209247,-23587.482999,-1291.215574,3007.583679,-10628.701523,2570.942351,-12339.034657,-15220.934477,4201.926792,-28445.746415,0.002000,-0.010000,1.008000,192.000000,0.000000,0.000000,0.000000,0.000000,0.000000,0.000000,0.000000,0.000000,0.000000,1772619950.847218,0.000000
224.000000,10725.909260,-26743.348151,-1850.523275,-964.745994,-21402.711737,-13153.308708,-19834.535698,-23621.345892,-1332.521597,2974.950132,-10658.630509,2538.755839,-12367.242559,-15251.534015,4176.758728,-28474.177834,0.002000,-0.010000,1.008000,192.000000,0.000000,0.000000,0.000000,0.000000,0.000000,0.000000,0.000000,0.000000,0.000000,1772619950.847230,0.000000
226.000000,10752.150208,-26709.284092,-1815.788664,-929.765514,-21368.334755,-13118.819966,-19799.666977,-23585.292528,-1325.190225,2985.254286,-10650.561529,2551.630444,-12359.553559,-15248.158902,4188.091062,-28467.248794,0.004000,-0.012000,1.006000,192.000000,0.000000,16.000000,127.500000,80.000000,15.500000,56.000000,0.000000,0.000000,0.000000,1772619950.847243,0.000000
228.000000,10728.435007,-26737.693159,-1842.364888,-958.465154,-21407.427956,-13144.658583,-19829.305390,-23614.506258,-1311.600365,2999.738216,-10640.167968,2565.868505,-12353.853864,-15226.142433,4191.220306,-28445.902878,0.004000,-0.012000,1.006000,192.000000,0.000000,0.000000,0.000000,0.000000,0.000000,0.000000,0.000000,0.000000,0.000000,1772619950.847255,0.000000
230.000000,10744.438856,-26721.130517,-1830.809037,-948.451572,-21382.014022,-13132.231013,-19820.141175,-23600.603473,-1341.998737,2965.383585,-10665.000756,2531.670336,-12364.940329,-15263.380440,4172.958931,-28472.546157,0.004000,-0.012000,1.006000,192.000000,0.000000,0.000000,0.000000,0.000000,0.000000,0.000000,0.000000,0.000000,0.000000,1772619950.847267,0.000000
232.000000,10774.233732,-26692.095601,-1807.920850,-927.798561,-21351.660353,-13104.067815,-19802.662111,-23577.536473,-1291.796719,3014.713885,-10627.762750,2576.686749,-12329.937497,-15224.801329,4206.017161,-28435.330502,0.004000,-0.012000,1.006000,192.000000,0.000000,0.000000,0.000000,0.000000,0.000000,0.000000,0.000000,0.000000,0.000000,1772619950.847279,0.000000
234.000000,10761.850865,-26715.319063,-1832.261900,-955.604131,-21373.274490,-13127.134815,-19831.071178,-23603.263331,-1296.624696,3000.073493,-10635.630564,2558.090098,-12360.626443,-15226.768282,4198.305809,-28451.356703,0.004000,-0.012000,1.006000,192.000000,0.000000,0.000000,0.000000,0.000000,0.000000,0.000000,0.000000,0.000000,0.000000,1772619950.847291,0.000000
236.000000,10801.793432,-26671.263775,-1794.398045,-920.064857,-21335.522394,-13087.952207,-19794.034337,-23561.465569,-1273.557696,3012.702228,-10619.067922,2574.742147,-12335.525433,-15215.458300,4206.151272,-28445.858174,0.006000,-0.010000,1.012000,192.000000,0.000000,24.000000,127.500000,88.000000,15.500000,80.000000,0.000000,0.000000,0.000000,1772619950.847310,0.000000
238.000000,10768.288168,-26703.673804,-1823.656478,-951.089078,-21369.988784,-13123.178556,-19823.516288,-23595.954310,-1259.297283,3031.209473,-10610.708369,2590.075444,-12319.879212,-15203.969503,4212.275650,-28436.604552,0.006000,-0.010000,1.012000,192.000000,0.000000,0.000000,0.000000,0.000000,0.000000,0.000000,0.000000,0.000000,0.000000,1772619950.847323,0.000000
240.000000,10773.741993,-26697.325909,-1816.012182,-942.014270,-21363.439722,-13113.634361,-19816.430785,-23591.193389,-1297.608173,2995.781958,-10639.162140,2549.954063,-12343.281489,-15246.057838,4188.783966,-28468.522843,0.006000,-0.010000,1.012000,192.000000,0.000000,0.000000,0.000000,0.000000,0.000000,0.000000,0.000000,0.000000,0.000000,1772619950.847335,0.000000
242.000000,10785.074328,-26683.758400,-1803.450501,-926.189235,-21350.609821,-13102.860821,-19801.410413,-23581.112752,-1263.544114,3032.237653,-10614.619924,2586.901496,-12313.710131,-15212.239648,4208.207632,-28440.203183,0.006000,-0.010000,1.012000,192.000000,0.000000,0.000000,0.000000,0.000000,0.000000,0.000000,0.000000,0.000000,0.000000,1772619950.847347,0.000000
244.000000,10748.752743,-26724.125650,-1844.577711,-959.247465,-21392.496990,-13140.903490,-19837.664942,-23621.301189,-1300.759769,2999.760568,-10643.721896,2554.647929,-12358.815951,-15231.752721,4185.498260,-28464.074846,0.006000,-0.010000,1.012000,192.000000,0.000000,0.000000,0.000000,0.000000,0.000000,0.000000,0.000000,0.000000,0.000000,1772619950.847359,0.000000
246.000000,10775.954816,-26691.022717,-1811.899461,-924.736372,-21366.323098,-13104.805422,-19802.215076,-23584.800790,-1306.347705,3002.934516,-10642.112570,2562.336929,-12359.754724,-15230.813948,4183.955989,-28457.771654,0.006000,-0.010000,1.012000,192.000000,0.000000,0.000000,127.500000,96.000000,15.500000,80.000000,0.000000,0.000000,0.000000,1772619950.847371,0.000000
248.000000,10746.964603,-26723.052767,-1842.856627,-958.174581,-21395.313310,-13141.998725,-19830.713550,-23615.668549,-1292.936658,3009.684743,-10630.512015,2573.803374,-12328.283468,-15224.935439,4188.336931,-28451.334351,0.006000,-0.010000,1.012000,192.000000,0.000000,0.000000,0.000000,0.000000,0.000000,0.000000,0.000000,0.000000,0.000000,1772619950.847383,0.000000
250.000000,10752.485484,-26714.782621,-1831.792513,-950.418526,-21380.516455,-13137.617783,-19819.448271,-23610.639407,-1327.559510,2975.173649,-10659.345765,2535.693650,-12321.130910,-15255.579681,4168.287416,-28474.356648,0.006000,-0.010000,1.012000,192.000000,0.000000,0.000000,0.000000,0.000000,0.000000,0.000000,0.000000,0.000000,0.000000,1772619950.847397,0.000000
252.000000,10764.533074,-26697.482371,-1818.873205,-934.571139,-21368.312403,-13115.176632,-19807.266570,-23597.764802,-1296.065902,3009.394170,-10637.642221,2568.953045,-12345.740181,-15231.551556,4194.170737,-28444.807642,0.006000,-0.010000,1.012000,192.000000,0.000000,0.000000,0.000000,0.000000,0.000000,0.000000,0.000000,0.000000,0.000000,1772619950.847409,0.000000
254.000000,10755.905301,-26714.134421,-1837.425153,-957.347567,-21385.322080,-13135.382609,-19832.501689,-23619.177773,-1312.874414,2992.809176,-10651.969689,2551.228112,-12381.614731,-15242.101579,4182.033739,-28461.124416,0.006000,-0.010000,1.012000,192.000000,0.000000,0.000000,0.000000,0.000000,0.000000,0.000000,0.000000,0.000000,0.000000,1772619950.847421,0.000000
0.000000,10792.249238,-26674.549481,-1798.331952,-921.361258,-21343.189042,-13095.484745,-19799.555218,-23584.912549,-1293.048417,3009.997667,-10635.943489,2565.175601,-12349.919957,-15229.852823,4202.485586,-28448.853308,0.004000,-0.010000,1.012000,192.000000,0.000000,8.000000,127.500000,88.000000,15.500000,80.000000,0.000000,0.000000,0.000000,1772619950.847432,0.000000
2.000000,10772.713813,-26696.454191,-1822.427132,-944.361203,-21369.385286,-13124.810234,-19824.455061,-23606.347872,-1265.913399,3032.304708,-10618.665590,2583.459328,-12324.014285,-15215.391244,4217.952993,-28432.022444,0.004000,-0.010000,1.012000,192.000000,0.000000,0.000000,0.000000,0.000000,0.000000,0.000000,0.000000,0.000000,0.000000,1772619950.847444,0.000000
4.000000,10779.799316,-26687.915824,-1814.201690,-937.610976,-21354.811949,-13112.181498,-19817.794242,-23597.362470,-1296.579992,2999.894679,-10642.336088,2550.311691,-12352.177483,-15236.960678,4194.573068,-28463.784273,0.004000,-0.010000,1.012000,192.000000,0.000000,0.000000,0.000000,0.000000,0.000000,0.000000,0.000000,0.000000,0.000000,1772619950.847456,0.000000
6.000000,10795.177316,-26665.586432,-1796.052074,-919.260194,-21341.065626,-13092.377852,-19800.851619,-23574.764857,-1254.893989,3036.260967,-10608.517898,2595.037531,-12306.468166,-15208.328093,4214.667286,-28430.301360,0.004000,-0.010000,1.012000,192.000000,0.000000,0.000000,0.000000,0.000000,0.000000,0.000000,0.000000,0.000000,0.000000,1772619950.847468,0.000000
8.000000,10763.527246,-26704.120839,-1831.568996,-953.123087,-21380.091772,-13133.952097,-19833.239297,-23608.739508,-1290.232097,3006.443740,-10632.590727,2567.164906,-12324.595430,-15236.267774,4193.366074,-28462.376113,0.004000,-0.010000,1.012000,192.000000,0.000000,0.000000,0.000000,0.000000,0.000000,0.000000,0.000000,0.000000,0.000000,1772619950.847480,0.000000
10.000000,10787.980054,-26671.956679,-1803.271687,-920.444837,-21349.894565,-13103.017283,-19802.125669,-23579.861054,-1295.194184,3011.137606,-10635.138826,2570.942351,-12324.394265,-15227.394131,4193.857812,-28458.755131,0.004000,-0.010000,1.011000,192.000000,0.000000,16.000000,127.500000,88.000000,15.500000,72.000000,0.000000,0.000000,0.000000,1772619950.847492,0.000000
12.000000,10760.845037,-26700.321043,-1830.362002,-949.032718,-21384.651528,-13128.453568,-19826.310256,-23605.319691,-1285.605286,3025.576833,-10625.460520,2583.638142,-12329.870442,-15218.565192,4200.965667,-28441.924267,0.004000,-0.010000,1.011000,192.000000,0.000000,0.000000,0.000000,0.000000,0.000000,0.000000,0.000000,0.000000,0.000000,1772619950.847503,0.000000
14.000000,10756.911130,-26701.326871,-1831.121961,-947.736317,-21387.624310,-13129.325286,-19824.388006,-23604.313863,-1325.726667,2988.450585,-10654.808361,2544.567292,-12391.024815,-15249.343544,4171.148440,-28476.569471,0.004000,-0.010000,1.011000,192.000000,0.000000,0.000000,0.000000,0.000000,0.000000,0.000000,0.000000,0.000000,0.000000,1772619950.847515,0.000000
16.000000,10762.141438,-26690.575682,-1819.364943,-934.325270,-21368.088885,-13117.590620,-19810.351111,-23593.406212,-1297.317600,3017.507853,-10632.076637,2580.263028,-12320.594468,-15223.750797,4191.600286,-28445.165270,0.004000,-0.010000,1.011000,192.000000,0.000000,0.000000,0.000000,0.000000,0.000000,0.000000,0.000000,0.000000,0.000000,1772619950.847527,0.000000
18.000000,10739.230900,-26720.236447,-1845.382374,-959.068651,-21393.011080,-13148.637193,-19835.519175,-23622.195258,-1329.772333,2982.549725,-10659.591634,2545.640176,-12378.574893,-15258.261890,4173.271856,-28468.366381,0.004000,-0.010000,1.011000,192.000000,0.000000,0.000000,0.000000,0.000000,0.000000,0.000000,0.000000,0.000000,0.000000,1772619950.847538,0.000000
20.000000,10772.847923,-26683.914862,-1811.430074,-922.054162,-21361.204548,-13111.935629,-19802.505648,-23584.443162,-1310.192205,2998.486519,-10644.414800,2563.745089,-12369.522437,-15243.129759,4183.955989,-28454.284782,0.006000,-0.010000,1.009500,192.000000,0.000000,32.000000,127.500000,88.000000,15.500000,64.000000,0.000000,0.000000,0.000000,1772619950.847550,0.000000
22.000000,10750.362068,-26711.005176,-1831.770162,-953.815991,-21382.192836,-13135.762588,-19828.098396,-23610.795869,-1290.343856,3015.362086,-10628.053323,2581.313560,-12344.063800,-15229.606954,4195.154213,-28440.896087,0.006000,-0.010000,1.009500,192.000000,0.000000,0.000000,0.000000,0.000000,0.000000,0.000000,0.000000,0.000000,0.000000,1772619950.847562,0.000000
24.000000,10761.068554,-26696.744763,-1822.069505,-944.092982,-21375.286147,-13129.258231,-19819.023588,-23598.010671,-1316.271879,2983.667312,-10646.895843,2546.824818,-12361.676974,-15255.445570,4182.369015,-28478.223500,0.006000,-0.010000,1.009500,192.000000,0.000000,0.000000,0.000000,0.000000,0.000000,0.000000,0.000000,0.000000,0.000000,1772619950.847574,0.000000
26.000000,10774.345490,-26680.942080,-1804.053998,-925.921014,-21359.394057,-13113.924934,-19801.991558,-23581.090400,-1276.910457,3025.353316,-10614.821090,2590.589534,-12329.624573,-15223.884907,4207.157100,-28439.689093,0.006000,-0.010000,1.009500,192.000000,0.000000,0.000000,0.000000,0.000000,0.000000,0.000000,0.000000,0.000000,0.000000,1772619950.847587,0.000000
28.000000,10743.768304,-26717.889514,-1837.603967,-957.615788,-21390.217112,-13146.491426,-19832.501689,-23613.679244,-1309.052266,2992.228030,-10638.759808,2558.514781,-12343.236785,-15246.057838,4186.079405,-28467.360552,0.006000,-0.010000,1.009500,192.000000,0.000000,0.000000,0.000000,0.000000,0.000000,0.000000,0.000000,0.000000,0.000000,1772619950.847598,0.000000
30.000000,10777.161810,-26678.416333,-1804.925717,-921.808293,-21359.796388,-13113.209678,-19797.320044,-23571.255633,-1302.078521,2998.911202,-10632.926003,2571.344682,-12358.525379,-15237.854748,4190.437995,-28461.012657,0.007000,-0.010000,1.007750,192.000000,0.000000,32.000000,127.500000,88.000000,15.500000,56.000000,0.000000,0.000000,0.000000,1772619950.847610,0.000000
32.000000,10749.311536,-26707.183028,-1832.239548,-948.317462,-21387.914883,-13133.370952,-19825.170317,-23602.570427,-1287.952219,3018.446626,-10619.827881,2589.963685,-12338.520567,-15223.817852,4198.641085,-28445.388787,0.007000,-0.010000,1.007750,192.000000,0.000000,0.000000,0.000000,0.000000,0.000000,0.000000,0.000000,0.000000,0.000000,1772619950.847622,0.000000
34.000000,10750.049144,-26706.624235,-1831.032554,-943.713003,-21384.360955,-13130.532280,-19820.722320,-23602.235151,-1332.722763,2975.732443,-10654.696602,2548.232978,-12382.128821,-15250.751704,4174.881181,-28474.781331,0.007000,-0.010000,1.007750,192.000000,0.000000,0.000000,0.000000,0.000000,0.000000,0.000000,0.000000,0.000000,0.000000,1772619950.847634,0.000000
36.000000,10757.514627,-26695.470714,-1820.996621,-933.230034,-21373.565063,-13123.111501,-19808.853544,-23592.176866,-1305.073655,3009.684743,-10634.736494,2579.324255,-12346.701306,-15231.372742,4199.244583,-28446.551078,0.007000,-0.010000,1.007750,192.000000,0.000000,0.000000,0.000000,0.000000,0.000000,0.000000,0.000000,0.000000,0.000000,1772619950.847646,0.000000
38.000000,10720.746007,-26735.122709,-1856.915874,-966.757651,-21408.053804,-13161.400039,-19845.443350,-23633.259372,-1334.130923,2981.163917,-10660.441001,2548.165923,-12369.097754,-15274.198684,4178.122184,-28470.914480,0.007000,-0.010000,1.007750,192.000000,0.000000,0.000000,0.000000,0.000000,0.000000,0.000000,0.000000,0.000000,0.000000,1772619950.847658,0.000000
40.000000,10753.379554,-26694.777810,-1822.583595,-930.927805,-21367.172464,-13123.200908,-19808.562971,-23594.501447,-1333.013336,2983.734367,-10661.402126,2553.373880,-12377.144382,-15259.602995,4181.050263,-28465.751227,0.004500,-0.011000,1.005875,192.000000,0.000000,8.000000,127.500000,80.000000,15.500000,48.000000,0.000000,0.000000,0.000000,1772619950.847670,0.000000
42.000000,10739.320307,-26715.989615,-1841.202598,-955.850000,-21385.322080,-13145.552653,-19830.601791,-23618.440165,-1303.620792,3008.678914,-10641.978460,2577.402005,-12357.519550,-15236.446588,4191.287362,-28443.444186,0.004500,-0.011000,1.005875,192.000000,0.000000,0.000000,0.000000,0.000000,0.000000,0.000000,0.000000,0.000000,0.000000,1772619950.847682,0.000000
44.000000,10746.048182,-26708.479429,-1832.686583,-947.937482,-21377.901301,-13130.375818,-19823.002198,-23612.382843,-1328.431228,2980.850992,-10664.777239,2542.868560,-12366.750820,-15262.575777,4180.469117,-28474.177834,0.004500,-0.011000,1.005875,192.000000,0.000000,0.000000,0.000000,0.000000,0.000000,0.000000,0.000000,0.000000,0.000000,1772619950.847694,0.000000
46.000000,10771.462115,-26682.841978,-1808.770217,-931.173674,-21356.309516,-13113.276734,-19805.746651,-23591.282796,-1287.572239,3020.167711,-10632.970707,2581.581781,-12325.109521,-15228.422311,4204.899574,-28439.175002,0.004500,-0.011000,1.005875,192.000000,0.000000,0.000000,0.000000,0.000000,0.000000,0.000000,0.000000,0.000000,0.000000,1772619950.847706,0.000000
48.000000,10748.618632,-26716.369595,-1837.894540,-964.567180,-21386.730240,-13146.402019,-19836.793224,-23619.311883,-1297.004676,3004.186214,-10640.883224,2558.335967,-12361.654623,-15245.901376,4193.053149,-28463.538404,0.004500,-0.011000,1.005875,192.000000,0.000000,0.000000,0.000000,0.000000,0.000000,0.000000,0.000000,0.000000,0.000000,1772619950.847717,0.000000
50.000000,10779.285226,-26679.198644,-1800.433016,-923.261156,-21353.582603,-13109.387530,-19798.258817,-23574.630746,-1299.441016,3003.470958,-10633.328334,2567.097851,-12352.333945,-15245.946079,4193.947219,-28464.924212,0.003250,-0.011500,1.004938,192.000000,0.000000,8.000000,127.500000,80.000000,15.500000,48.000000,0.000000,0.000000,0.000000,1772619950.847730,0.000000
52.000000,10757.246406,-26704.567874,-1822.851816,-945.545846,-21372.223958,-13122.329190,-19822.868088,-23601.341081,-1277.558658,3027.342621,-10614.508166,2591.036569,-12333.558480,-15214.094843,4204.340780,-28441.387825,0.003250,-0.011500,1.004938,192.000000,0.000000,0.000000,0.000000,0.000000,0.000000,0.000000,0.000000,0.000000,0.000000,1772619950.847742,0.000000
54.000000,10759.056897,-26702.600921,-1820.303717,-940.449648,-21365.138455,-13118.976428,-19818.174221,-23599.508238,-1315.735437,2996.899545,-10649.063963,2552.368051,-12347.863596,-15248.874158,4183.352492,-28472.255584,0.003250,-0.011500,1.004938,192.000000,0.000000,0.000000,0.000000,0.000000,0.000000,0.000000,0.000000,0.000000,0.000000,1772619950.847754,0.000000
56.000000,10764.331909,-26695.269548,-1803.584612,-924.781075,-21344.753664,-13103.441966,-19800.784564,-23585.404287,-1287.348722,3022.469940,-10626.309887,2587.884973,-12335.078399,-15210.406805,4207.470025,-28438.415043,0.003250,-0.011500,1.004938,192.000000,0.000000,0.000000,0.000000,0.000000,0.000000,0.000000,0.000000,0.000000,0.000000,1772619950.847765,0.000000
58.000000,10724.366990,-26743.482261,-1842.208426,-966.243561,-21388.853656,-13147.676068,-19840.816538,-23628.431395,-1318.283536,2981.901524,-10650.561529,2549.708194,-12366.750820,-15252.204567,4189.365112,-28464.633639,0.003250,-0.011500,1.004938,192.000000,0.000000,0.000000,0.000000,0.000000,0.000000,0.000000,0.000000,0.000000,0.000000,1772619950.847778,0.000000
60.000000,10746.741086,-26718.425956,-1815.654554,-934.504084,-21359.975202,-13113.813175,-19808.585323,-23596.446049,-1313.835539,2983.868478,-10650.047439,2549.887007,-12364.493294,-15246.571928,4191.533231,-28457.905764,0.003250,-0.011500,1.004938,192.000000,0.000000,0.000000,0.000000,0.000000,0.000000,0.000000,0.000000,0.000000,0.000000,1772619950.847790,0.000000
62.000000,10719.404902,-26753.205270,-1840.643804,-958.845134,-21387.110220,-13139.450626,-19831.115881,-23625.302151,-1303.643144,2989.322303,-10644.638317,2558.470077,-12353.809160,-15241.051047,4191.689693,-28441.834860,0.008000,-0.014000,1.004000,192.000000,0.000000,32.000000,127.500000,72.000000,15.500000,48.000000,0.000000,0.000000,0.000000,1772619950.847802,0.000000
64.000000,10720.544841,-26760.268421,-1835.055868,-957.191105,-21376.783714,-13132.119254,-19826.086739,-23620.205953,-1333.862702,2945.401126,-10669.627567,2520.047429,-12379.446611,-15277.037356,4172.936579,-28469.126340,0.008000,-0.014000,1.004000,192.000000,0.000000,0.000000,0.000000,0.000000,0.000000,0.000000,0.000000,0.000000,0.000000,1772619950.847814,0.000000
66.000000,10741.689592,-26740.755348,-1814.738132,-942.215436,-21350.855690,-13098.412823,-19807.333625,-23598.167133,-1282.878373,2981.767414,-10638.938622,2563.543923,-12314.984180,-15238.838224,4198.506975,-28436.537497,0.008000,-0.014000,1.004000,192.000000,0.000000,0.000000,0.000000,0.000000,0.000000,0.000000,0.000000,0.000000,0.000000,1772619950.847826,0.000000
68.000000,10725.730446,-26767.041000,-1837.223987,-975.139555,-21381.969319,-13139.316516,-19836.256783,-23623.782232,-1302.547908,2945.356422,-10654.584843,2532.340888,-12343.639117,-15264.162751,4191.801452,-28455.089445,0.008000,-0.014000,1.004000,192.000000,0.000000,0.000000,0.000000,0.000000,0.000000,0.000000,0.000000,0.000000,0.000000,1772619950.847838,0.000000
70.000000,10749.825627,-26740.800052,-1802.869356,-937.387459,-21343.345504,-13111.086263,-19802.483297,-23591.461610,-1285.761748,2955.571169,-10640.838521,2541.058068,-12320.438006,-15256.473751,4193.500184,-28463.694866,0.008000,-0.014000,1.004000,192.000000,0.000000,0.000000,0.000000,0.000000,0.000000,0.000000,0.000000,0.000000,0.000000,1772619950.847849,0.000000
72.000000,10734.022943,-26763.352962,-1822.494188,-953.011328,-21369.899377,-13136.120216,-19821.549335,-23612.896933,-1262.426527,2972.178515,-10621.861890,2564.236827,-12312.324323,-15249.120027,4207.425321,-28450.753206,0.010000,-0.012000,1.004000,192.000000,0.000000,40.000000,127.500000,80.000000,15.500000,48.000000,0.000000,0.000000,0.000000,1772619950.847861,0.000000
74.000000,10737.174539,-26761.855395,-1816.593327,-948.317462,-21365.786656,-13129.526452,-19817.906000,-23608.381880,-1296.088254,2939.500265,-10643.878358,2532.452647,-12372.271701,-15267.806085,4184.425376,-28472.389695,0.010000,-0.012000,1.004000,192.000000,0.000000,0.000000,0.000000,0.000000,0.000000,0.000000,0.000000,0.000000,0.000000,1772619951.327943,0.000000
76.000000,10758.743973,-26738.587229,-1796.163833,-928.066782,-21346.251231,-13112.069739,-19799.331701,-23589.092325,-1260.258408,2970.993873,-10621.727779,2565.890856,-12336.955945,-15234.926669,4201.345647,-28444.695883,0.010000,-0.012000,1.004000,192.000000,0.000000,0.000000,0.000000,0.000000,0.000000,0.000000,0.000000,0.000000,0.000000,1772619951.328050,0.000000
78.000000,10725.641039,-26781.435523,-1831.524292,-971.004483,-21376.560196,-13147.117275,-19835.787396,-23631.806509,-1279.726777,2945.646995,-10638.670401,2536.252443,-12346.477788,-15253.858597,4192.941391,-28465.706523,0.010000,-0.012000,1.004000,192.000000,0.000000,0.000000,0.000000,0.000000,0.000000,0.000000,0.000000,0.000000,0.000000,1772619951.328098,0.000000
80.000000,10749.378592,-26751.126558,-1803.294039,-937.298052,-21346.452397,-13112.896754,-19804.293788,-23603.710366,-1284.778271,2934.292309,-10644.750076,2529.681030,-12338.677029,-15260.474713,4195.064806,-28462.979610,0.010000,-0.012000,1.004000,192.000000,0.000000,0.000000,0.000000,0.000000,0.000000,0.000000,0.000000,0.000000,0.000000,1772619951.328143,0.000000
82.000000,10723.964658,-26786.017631,-1833.178322,-969.082233,-21377.275452,-13142.401057,-19833.507518,-23639.316695,-1266.203972,2947.010451,-10633.753018,2545.573121,-12320.616820,-15245.767265,4205.033684,-28442.103081,0.010000,-0.012000,1.004000,192.000000,0.000000,0.000000,127.500000,104.000000,15.500000,56.000000,0.000000,0.000000,0.000000,1772619951.328190,0.000000
84.000000,10724.836376,-26786.866997,-1832.820694,-975.899515,-21377.834246,-13136.187272,-19833.395759,-23642.669456,-1299.083388,2904.720951,-10666.878303,2495.907545,-12361.006422,-15287.766193,4173.495373,-28476.010677,0.010000,-0.012000,1.004000,192.000000,0.000000,0.000000,0.000000,0.000000,0.000000,0.000000,0.000000,0.000000,0.000000,1772619951.328251,0.000000
86.000000,10760.755630,-26749.964267,-1809.932507,-953.815991,-21350.431007,-13119.244649,-19812.720396,-23617.255523,-1255.877466,2938.695602,-10634.714143,2530.172769,-12330.049256,-15252.897472,4195.534193,-28444.584125,0.010000,-0.012000,1.004000,192.000000,0.000000,0.000000,0.000000,0.000000,0.000000,0.000000,0.000000,0.000000,0.000000,1772619951.328271,0.000000
88.000000,10733.553557,-26782.731924,-1838.185112,-986.874221,-21384.472714,-13145.642060,-19843.878727,-23649.732608,-1270.227286,2924.256375,-10650.852102,2509.653867,-12334.966640,-15272.432896,4184.090100,-28463.694866,0.010000,-0.012000,1.004000,192.000000,0.000000,0.000000,0.000000,0.000000,0.000000,0.000000,0.000000,0.000000,0.000000,1772619951.328288,0.000000
90.000000,10764.935406,-26743.325799,-1805.797435,-952.161962,-21350.520414,-13108.784033,-19812.340416,-23612.963988,-1268.617960,2929.576091,-10648.527521,2519.108655,-12347.394210,-15270.711812,4194.684827,-28459.828014,0.010000,-0.012000,1.004000,192.000000,0.000000,0.000000,0.000000,0.000000,0.000000,0.000000,0.000000,0.000000,0.000000,1772619951.328313,0.000000
92.000000,10741.935461,-26772.025439,-1828.551510,-975.877163,-21365.361972,-13133.236841,-19836.323838,-23638.757901,-1246.556788,2949.536198,-10634.423570,2537.079458,-12325.400093,-15248.136550,4208.609963,-28446.372264,0.002000,-0.004000,1.012000,192.000000,0.000000,8.000000,127.500000,112.000000,15.500000,80.000000,0.000000,0.000000,0.000000,1772619951.328327,0.000000
94.000000,10752.083153,-26759.061427,-1813.240565,-960.320349,-21349.581641,-13119.065835,-19821.079948,-23616.070880,-1275.591704,2926.558605,-10649.198073,2509.050370,-12346.857768,-15276.523265,4191.376769,-28475.630698,0.002000,-0.004000,1.012000,192.000000,0.000000,0.000000,0.000000,0.000000,0.000000,0.000000,0.000000,0.000000,0.000000,1772619951.328339,0.000000
96.000000,10777.072403,-26728.417185,-1793.883955,-934.302918,-21328.325132,-13094.970655,-19798.459983,-23588.287662,-1240.454762,2963.908370,-10613.569392,2554.335005,-12290.978407,-15235.999553,4210.465158,-28448.115700,0.002000,-0.004000,1.012000,192.000000,0.000000,0.000000,0.000000,0.000000,0.000000,0.000000,0.000000,0.000000,0.000000,1772619951.328351,0.000000
98.000000,10744.751781,-26766.012820,-1826.450446,-969.462212,-21364.445551,-13131.627516,-19833.663980,-23625.972703,-1262.962969,2950.251454,-10631.160215,2534.263138,-12317.979314,-15253.568024,4195.154213,-28467.651125,0.002000,-0.004000,1.012000,192.000000,0.000000,0.000000,0.000000,0.000000,0.000000,0.000000,0.000000,0.000000,0.000000,1772619951.328364,0.000000
100.000000,10762.119086,-26743.258744,-1795.917963,-933.587662,-21336.751740,-13097.384643,-19799.890494,-23598.703575,-1262.918265,2944.931739,-10630.042628,2534.486656,-12330.697457,-15250.148207,4198.618734,-28461.884375,0.002000,-0.004000,1.012000,192.000000,0.000000,0.000000,0.000000,0.000000,0.000000,0.000000,0.000000,0.000000,0.000000,1772619951.328376,0.000000
102.000000,10736.727504,-26775.959346,-1829.087952,-961.706157,-21368.602975,-13128.565327,-19830.646495,-23635.919229,-1255.877466,2955.593521,-10629.573241,2546.936577,-12295.180535,-15239.151149,4205.793644,-28449.300343,0.002000,-0.014000,1.010000,192.000000,0.000000,8.000000,127.500000,72.000000,15.500000,72.000000,0.000000,0.000000,0.000000,1772619951.328388,0.000000
104.000000,10741.533129,-26771.265479,-1825.578728,-963.494296,-21362.947984,-13123.446777,-19829.014817,-23632.499413,-1294.769501,2920.702448,-10662.005623,2502.613068,-12368.650719,-15277.640853,4181.072614,-28474.669573,0.002000,-0.014000,1.010000,192.000000,0.000000,0.000000,0.000000,0.000000,0.000000,0.000000,0.000000,0.000000,0.000000,1772619951.328400,0.000000
106.000000,10741.667240,-26764.671715,-1819.431999,-954.061860,-21356.421275,-13113.746120,-19818.554201,-23620.183601,-1264.684053,2943.344765,-10636.412875,2532.609109,-12323.343733,-15255.579681,4200.161004,-28440.761976,0.002000,-0.014000,1.010000,192.000000,0.000000,0.000000,0.000000,0.000000,0.000000,0.000000,0.000000,0.000000,0.000000,1772619951.328413,0.000000
108.000000,10717.750873,-26798.087573,-1850.299758,-987.164794,-21391.357051,-13148.816007,-19849.354905,-23652.571279,-1293.718969,2910.286535,-10659.926910,2500.400245,-12358.391268,-15290.381347,4181.363187,-28462.174948,0.002000,-0.014000,1.010000,192.000000,0.000000,0.000000,0.000000,0.000000,0.000000,0.000000,0.000000,0.000000,0.000000,1772619951.328425,0.000000
110.000000,10757.626385,-26754.389912,-1811.921813,-949.211532,-21355.124874,-13120.853975,-19813.815631,-23614.416851,-1278.497431,2919.093122,-10651.410896,2510.682048,-12356.916053,-15283.251141,4181.050263,-28459.917421,0.002000,-0.014000,1.010000,192.000000,0.000000,0.000000,0.000000,0.000000,0.000000,0.000000,0.000000,0.000000,0.000000,1772619951.328438,0.000000
112.000000,10749.780923,-26764.984639,-1826.897481,-964.790698,-21368.178292,-13131.605164,-19830.892364,-23630.644218,-1244.098096,2950.922006,-10626.801625,2539.694612,-12319.521584,-15254.663259,4195.355379,-28442.036026,0.004000,-0.014000,1.016000,192.000000,0.000000,16.000000,127.500000,72.000000,15.500000,96.000000,0.000000,0.000000,0.000000,1772619951.328450,0.000000
114.000000,10752.306670,-26757.563860,-1816.928603,-955.984110,-21362.590356,-13126.710132,-19818.800070,-23617.948427,-1277.312789,2924.010506,-10646.068829,2509.832681,-12334.184329,-15274.690422,4178.703329,-28472.456750,0.004000,-0.014000,1.016000,192.000000,0.000000,0.000000,0.000000,0.000000,0.000000,0.000000,0.000000,0.000000,0.000000,1772619951.328463,0.000000
116.000000,10768.221112,-26739.190726,-1799.449539,-936.985128,-21347.726446,-13108.605219,-19797.878837,-23596.960139,-1246.176809,2959.214504,-10617.279782,2551.786906,-12315.051236,-15238.815873,4201.256240,-28443.354779,0.004000,-0.014000,1.016000,192.000000,0.000000,0.000000,0.000000,0.000000,0.000000,0.000000,0.000000,0.000000,0.000000,1772619951.328475,0.000000
118.000000,10747.568100,-26765.834006,-1829.132656,-964.880105,-21377.543673,-13138.333039,-19826.354960,-23626.173869,-1273.222419,2934.381716,-10635.630564,2528.228167,-12336.531262,-15264.609786,4180.782042,-28469.372209,0.004000,-0.014000,1.016000,192.000000,0.000000,0.000000,0.000000,0.000000,0.000000,0.000000,0.000000,0.000000,0.000000,1772619951.328488,0.000000
120.000000,10782.325063,-26723.186877,-1793.280458,-928.692630,-21331.946115,-13099.239838,-19795.040166,-23587.684165,-1259.520800,2956.308777,-10625.460520,2544.097906,-12311.944343,-15251.645774,4185.744129,-28464.164253,0.004000,-0.014000,1.016000,192.000000,0.000000,0.000000,0.000000,0.000000,0.000000,0.000000,0.000000,0.000000,0.000000,1772619951.328500,0.000000
122.000000,10755.592377,-26753.764064,-1815.051057,-954.732413,-21355.996592,-13120.094016,-19820.722320,-23616.048529,-1237.258463,2978.615818,-10609.367264,2565.779098,-12317.331113,-15232.222108,4213.504996,-28444.785290,0.002000,-0.014000,1.008000,192.000000,0.000000,8.000000,127.500000,72.000000,15.500000,64.000000,0.000000,0.000000,0.000000,1772619951.328514,0.000000
124.000000,10747.836321,-26760.782511,-1816.235699,-955.470020,-21355.214281,-13122.150376,-19821.772852,-23621.904686,-1278.922114,2933.241777,-10644.593614,2517.499330,-12349.942309,-15266.152056,4192.650818,-28474.177834,0.002000,-0.014000,1.008000,192.000000,0.000000,0.000000,0.000000,0.000000,0.000000,0.000000,0.000000,0.000000,0.000000,1772619951.328527,0.000000
126.000000,10750.473827,-26751.081854,-1805.305696,-944.428258,-21341.870289,-13106.906486,-19808.093585,-23615.489735,-1251.384765,2962.410803,-10625.237003,2548.635310,-12316.347637,-15250.662297,4215.874280,-28441.588991,0.002000,-0.014000,1.008000,192.000000,0.000000,0.000000,0.000000,0.000000,0.000000,0.000000,0.000000,0.000000,0.000000,1772619951.328539,0.000000
128.000000,10708.251382,-26796.545302,-1850.411516,-988.058864,-21386.462019,-13145.686763,-19849.086684,-23660.617907,-1293.137824,2927.966765,-10660.195131,2510.011495,-12344.868463,-15279.808972,4191.913210,-28460.297401,0.002000,-0.014000,1.008000,192.000000,0.000000,0.000000,0.000000,0.000000,0.000000,0.000000,0.000000,0.000000,0.000000,1772619951.328552,0.000000
130.000000,10742.270737,-26756.334514,-1819.096722,-950.887913,-21357.740028,-13111.063911,-19814.597942,-23619.669511,-1291.416739,2930.313698,-10661.156256,2515.264155,-12349.741143,-15278.199646,4190.549754,-28451.937849,0.002000,-0.014000,1.008000,192.000000,0.000000,0.000000,0.000000,0.000000,0.000000,0.000000,0.000000,0.000000,0.000000,1772619951.328564,0.000000
132.000000,10724.992839,-26781.122599,-1843.102496,-976.525364,-21375.397906,-13139.383571,-19837.441425,-23641.887145,-1270.584914,2947.949224,-10644.079524,2536.341850,-12316.906430,-15253.277451,4196.428263,-28440.247886,0.002000,-0.017000,1.008000,192.000000,0.000000,8.000000,127.500000,48.000000,15.500000,64.000000,0.000000,0.000000,0.000000,1772619951.328576,0.000000
134.000000,10740.929632,-26767.108055,-1830.250243,-964.366015,-21372.156903,-13131.068722,-19824.946800,-23620.809450,-1292.646085,2915.159215,-10659.815152,2505.764664,-12354.703230,-15284.189914,4175.797603,-28473.104951,0.002000,-0.017000,1.008000,192.000000,0.000000,0.000000,0.000000,0.000000,0.000000,0.000000,0.000000,0.000000,0.000000,1772619951.328588,0.000000
136.000000,10768.444630,-26735.949723,-1802.534080,-942.193084,-21349.492234,-13097.317588,-19800.941026,-23592.288624,-1252.792925,2958.029861,-10620.811358,2553.664452,-12286.038671,-15251.623422,4203.558469,-28433.654122,0.002000,-0.017000,1.008000,192.000000,0.000000,0.000000,0.000000,0.000000,0.000000,0.000000,0.000000,0.000000,0.000000,1772619951.328600,0.000000
138.000000,10743.947118,-26760.849567,-1827.948013,-968.366977,-21386.998461,-13138.377743,-19829.484204,-23619.758918,-1274.340007,2944.730573,-10635.071771,2533.637289,-12355.932576,-15261.324079,4184.067748,-28459.559793,0.002000,-0.017000,1.008000,192.000000,0.000000,0.000000,0.000000,0.000000,0.000000,0.000000,0.000000,0.000000,0.000000,1772619951.328613,0.000000
140.000000,10776.982996,-26719.498839,-1791.112338,-932.023040,-21350.252193,-13105.051292,-19790.815686,-23580.241034,-1268.170925,2964.020129,-10623.582974,2554.133839,-12332.999686,-15251.757533,4189.633332,-28459.828014,0.002000,-0.017000,1.008000,192.000000,0.000000,0.000000,0.000000,0.000000,0.000000,0.000000,0.000000,0.000000,0.000000,1772619951.328624,0.000000
142.000000,10759.034545,-26741.112976,-1813.978173,-953.659529,-21369.541749,-13133.482711,-19814.463832,-23605.342043,-1244.656890,2983.756719,-10608.607305,2574.317464,-12318.091073,-15233.853785,4193.075501,-28454.351837,0.005000,-0.015500,1.006000,192.000000,0.000000,32.000000,127.500000,72.000000,15.500000,48.000000,0.000000,0.000000,0.000000,1772619951.328636,0.000000
144.000000,10772.534999,-26727.634874,-1805.015123,-941.813104,-21357.740028,-13119.110539,-19806.350148,-23594.657909,-1273.624751,2958.365137,-10632.478968,2541.616862,-12341.605108,-15261.055858,4180.469117,-28484.169064,0.005000,-0.015500,1.006000,192.000000,0.000000,0.000000,0.000000,0.000000,0.000000,0.000000,0.000000,0.000000,0.000000,1772619951.328648,0.000000
146.000000,10788.672958,-26708.434726,-1789.681827,-924.825779,-21335.544745,-13100.491536,-19791.866218,-23576.955328,-1238.420753,2999.179423,-10604.114604,2582.408796,-12309.597410,-15223.683742,4209.727551,-28446.416968,0.005000,-0.015500,1.006000,192.000000,0.000000,0.000000,0.000000,0.000000,0.000000,0.000000,0.000000,0.000000,0.000000,1772619951.328661,0.000000
148.000000,10747.344583,-26754.278154,-1832.798342,-969.104584,-21379.532978,-13141.127007,-19834.379236,-23624.005750,-1267.343911,2966.948207,-10629.796759,2548.992938,-12338.721733,-15253.210396,4195.914173,-28464.320715,0.005000,-0.015500,1.006000,192.000000,0.000000,0.000000,0.000000,0.000000,0.000000,0.000000,0.000000,0.000000,0.000000,1772619951.328673,0.000000
150.000000,10765.203627,-26731.054691,-1808.569051,-938.862674,-21350.676876,-13107.398225,-19804.941989,-23600.961101,-1275.211725,2956.174666,-10639.944451,2541.058068,-12344.935518,-15263.559254,4194.371902,-28458.308096,0.005000,-0.015500,1.006000,192.000000,0.000000,0.000000,0.000000,0.000000,0.000000,0.000000,0.000000,0.000000,0.000000,1772619951.328685,0.000000
152.000000,10736.369876,-26764.179976,-1841.001432,-971.920904,-21379.376516,-13135.516719,-19835.094492,-23635.002808,-1259.073765,2971.060928,-10629.215614,2554.066784,-12323.299029,-15247.734219,4201.792681,-28432.491831,0.008500,-0.014750,1.007000,192.000000,0.000000,48.000000,127.500000,72.000000,15.500000,64.000000,0.000000,0.000000,0.000000,1772619951.328698,0.000000
154.000000,10745.087057,-26756.893308,-1836.128752,-966.936465,-21368.602975,-13131.985144,-19830.534736,-23629.996017,-1298.882222,2926.469198,-10662.586768,2507.418693,-12337.648849,-15291.007196,4173.160097,-28471.093294,0.008500,-0.014750,1.007000,192.000000,0.000000,0.000000,0.000000,0.000000,0.000000,0.000000,0.000000,0.000000,0.000000,1772619951.328712,0.000000
156.000000,10766.835304,-26731.166450,-1816.369810,-945.881122,-21352.040333,-13113.857879,-19809.837021,-23605.207933,-1261.912437,2966.814097,-10635.250585,2548.322385,-12327.948192,-15253.344506,4197.478795,-28436.895125,0.008500,-0.014750,1.007000,192.000000,0.000000,0.000000,0.000000,0.000000,0.000000,0.000000,0.000000,0.000000,0.000000,1772619951.328724,0.000000
158.000000,10753.290147,-26750.254840,-1837.380449,-969.976302,-21384.718583,-13132.141606,-19831.249992,-23623.782232,-1276.910457,2952.240759,-10643.118399,2531.379763,-12349.651736,-15260.832341,4184.626542,-28455.536479,0.008500,-0.014750,1.007000,192.000000,0.000000,0.000000,0.000000,0.000000,0.000000,0.000000,0.000000,0.000000,0.000000,1772619951.328736,0.000000
160.000000,10787.018929,-26710.222865,-1798.108434,-931.061915,-21351.146263,-13101.184440,-19793.117916,-23582.677374,-1265.868695,2967.797574,-10630.936698,2546.400135,-12337.492387,-15250.036448,4190.437995,-28450.395578,0.008500,-0.014750,1.007000,192.000000,0.000000,0.000000,0.000000,0.000000,0.000000,0.000000,0.000000,0.000000,0.000000,1772619951.328748,0.000000
162.000000,10767.081173,-26736.039130,-1815.587499,-956.855828,-21369.251176,-13129.258231,-19817.369558,-23608.538343,-1241.751163,2987.377702,-10610.082520,2570.137688,-12319.275715,-15236.334829,4203.938449,-28442.818337,0.007250,-0.012375,1.003500,192.000000,0.000000,24.000000,127.500000,88.000000,15.500000,32.000000,0.000000,0.000000,0.000000,1772619951.328760,0.000000
164.000000,10777.608845,-26723.991540,-1801.997638,-942.863636,-21356.242461,-13116.964771,-19805.634893,-23597.362470,-1271.411928,2956.331129,-10631.853119,2538.353507,-12341.873329,-15266.062649,4186.817013,-28475.071904,0.007250,-0.012375,1.003500,192.000000,0.000000,0.000000,0.000000,0.000000,0.000000,0.000000,0.000000,0.000000,0.000000,1772619951.328772,0.000000
166.000000,10782.436822,-26716.101374,-1793.235754,-933.051221,-21346.072417,-13117.724731,-19796.291863,-23590.209912,-1236.967890,2990.261077,-10604.539288,2576.306769,-12304.501212,-15231.953887,4213.370885,-28450.999075,0.007250,-0.012375,1.003500,192.000000,0.000000,0.000000,0.000000,0.000000,0.000000,0.000000,0.000000,0.000000,0.000000,1772619951.328784,0.000000
168.000000,10749.803275,-26751.685351,-1826.472798,-963.918980,-21373.699173,-13147.005516,-19826.869050,-23626.285628,-1272.507164,2950.720841,-10634.356515,2538.845246,-12331.837396,-15266.442629,4195.847117,-28480.503378,0.007250,-0.012375,1.003500,192.000000,0.000000,0.000000,0.000000,0.000000,0.000000,0.000000,0.000000,0.000000,0.000000,1772619951.328796,0.000000
170.000000,10767.103525,-26727.321950,-1803.428150,-934.660546,-21346.050065,-13111.399187,-19800.941026,-23602.369261,-1273.982379,2956.621701,-10635.787026,2541.415696,-12309.798576,-15259.357126,4201.390350,-28464.611288,0.007250,-0.012375,1.003500,192.000000,0.000000,0.000000,0.000000,0.000000,0.000000,0.000000,0.000000,0.000000,0.000000,1772619951.328809,0.000000
172.000000,10736.481635,-26761.497767,-1831.099609,-965.081270,-21378.750667,-13134.510891,-19829.394797,-23634.891049,-1263.499411,2966.411765,-10630.601422,2550.356394,-12307.898677,-15247.264832,4206.933583,-28440.069072,0.005625,-0.012188,1.000750,192.000000,0.000000,16.000000,127.500000,80.000000,15.500000,24.000000,0.000000,0.000000,0.000000,1772619951.328821,0.000000
174.000000,10742.158978,-26754.121691,-1828.350345,-960.812087,-21371.911034,-13125.592545,-19825.147966,-23630.107776,-1303.710199,2928.346745,-10662.027974,2508.223356,-12342.722695,-15279.630158,4188.158117,-28463.046666,0.005625,-0.012188,1.000750,192.000000,0.000000,0.000000,0.000000,0.000000,0.000000,0.000000,0.000000,0.000000,0.000000,1772619951.328833,0.000000
176.000000,10751.770228,-26738.877802,-1813.374676,-946.059936,-21357.002420,-13111.645056,-19809.188820,-23611.734642,-1270.115527,2959.773297,-10632.680134,2542.868560,-12349.942309,-15245.655506,4210.487510,-28429.541401,0.005625,-0.012188,1.000750,192.000000,0.000000,0.000000,0.000000,0.000000,0.000000,0.000000,0.000000,0.000000,0.000000,1772619951.328845,0.000000
178.000000,10731.452493,-26766.504558,-1844.197732,-974.916038,-21387.445496,-13142.468112,-19841.129463,-23640.881317,-1296.490585,2933.867625,-10654.406030,2515.398266,-12370.617672,-15269.437762,4190.393292,-28457.794006,0.005625,-0.012188,1.000750,192.000000,0.000000,0.000000,0.000000,0.000000,0.000000,0.000000,0.000000,0.000000,0.000000,1772619951.328857,0.000000
180.000000,10769.517513,-26723.276284,-1804.299868,-932.783000,-21346.139472,-13095.104765,-19801.186896,-23601.028156,-1276.888105,2955.057079,-10642.559605,2534.017269,-12345.159035,-15252.495140,4194.438958,-28451.602572,0.005625,-0.012188,1.000750,192.000000,0.000000,0.000000,0.000000,0.000000,0.000000,0.000000,0.000000,0.000000,0.000000,1772619951.328870,0.000000
182.000000,10747.746914,-26746.186822,-1826.718667,-952.586645,-21370.704039,-13125.704303,-19822.823384,-23621.815279,-1257.196219,2980.627475,-10628.075675,2556.547827,-12321.734407,-15235.731332,4212.812091,-28430.726043,0.004812,-0.012094,1.003375,192.000000,0.000000,16.000000,127.500000,80.000000,15.500000,56.000000,0.000000,0.000000,0.000000,1772619951.328882,0.000000
184.000000,10743.388324,-26749.003142,-1821.175435,-953.033680,-21365.183159,-13127.492443,-19817.995407,-23614.081575,-1295.328295,2950.229102,-10653.243739,2524.048391,-12352.713925,-15264.498027,4192.740225,-28467.919346,0.004812,-0.012094,1.003375,192.000000,0.000000,0.000000,0.000000,0.000000,0.000000,0.000000,0.000000,0.000000,0.000000,1772619951.328894,0.000000
186.000000,10765.091868,-26727.813688,-1796.633219,-932.246558,-21343.054932,-13104.313684,-19794.727241,-23590.388726,-1257.866771,2974.525449,-10623.225346,2556.905455,-12315.230050,-15236.334829,4213.080312,-28445.478194,0.004812,-0.012094,1.003375,192.000000,0.000000,0.000000,0.000000,0.000000,0.000000,0.000000,0.000000,0.000000,0.000000,1772619951.328907,0.000000
188.000000,10744.818836,-26757.362694,-1825.198749,-967.629369,-21373.833284,-13134.488539,-19827.338437,-23622.686997,-1267.187448,2955.615873,-10631.875471,2532.407943,-12326.696494,-15249.432951,4201.032722,-28468.701657,0.004812,-0.012094,1.003375,192.000000,0.000000,0.000000,0.000000,0.000000,0.000000,0.000000,0.000000,0.000000,0.000000,1772619951.328920,0.000000
190.000000,10769.718679,-26726.159659,-1795.940315,-932.246558,-21331.834356,-13095.305931,-19792.983805,-23587.639461,-1268.103870,2959.214504,-10629.707352,2540.946310,-12277.656767,-15257.434876,4210.867490,-28458.330447,0.004812,-0.012094,1.003375,192.000000,0.000000,0.000000,0.000000,0.000000,0.000000,0.000000,0.000000,0.000000,0.000000,1772619951.328932,0.000000
192.000000,10739.186196,-26754.479319,-1821.756580,-956.341738,-21363.663240,-13126.061931,-19820.275285,-23612.695767,-1250.825971,2980.783937,-10615.245773,2565.712043,-12298.890924,-15233.853785,4221.931603,-28446.327561,0.004812,-0.012094,1.003375,192.000000,0.000000,0.000000,127.500000,96.000000,15.500000,48.000000,0.000000,0.000000,0.000000,1772619951.328943,0.000000
194.000000,10733.799426,-26757.787378,-1819.052019,-953.078384,-21364.065571,-13120.138719,-19817.078986,-23611.242904,-1300.223327,2941.333108,-10651.790875,2525.098923,-12370.349451,-15270.890626,4191.287362,-28477.240023,0.004812,-0.012094,1.003375,192.000000,0.000000,0.000000,0.000000,0.000000,0.000000,0.000000,0.000000,0.000000,0.000000,1772619951.809559,0.000000
196.000000,10749.982089,-26740.263610,-1807.250298,-939.242654,-21345.200699,-13103.285504,-19806.551314,-23600.245845,-1260.571332,2970.010396,-10629.059151,2560.638197,-12320.326247,-15241.140454,4211.314525,-28436.403386,0.004812,-0.012094,1.003375,192.000000,0.000000,0.000000,0.000000,0.000000,0.000000,0.000000,0.000000,0.000000,0.000000,1772619951.809617,0.000000
198.000000,10719.494309,-26772.628936,-1837.000470,-971.026834,-21373.721525,-13129.861728,-19837.910812,-23634.689884,-1290.299152,2950.497323,-10650.740343,2532.206778,-12335.860710,-15254.327983,4196.137690,-28450.887317,0.004812,-0.012094,1.003375,192.000000,0.000000,0.000000,0.000000,0.000000,0.000000,0.000000,0.000000,0.000000,0.000000,1772619951.809665,0.000000
200.000000,10747.366935,-26739.481299,-1801.505900,-932.090096,-21335.142414,-13096.200001,-19802.259779,-23595.686089,-1286.320542,2961.896713,-10643.163102,2541.639214,-12340.867500,-15248.270660,4202.530289,-28444.695883,0.004812,-0.012094,1.003375,192.000000,0.000000,0.000000,0.000000,0.000000,0.000000,0.000000,0.000000,0.000000,0.000000,1772619951.809707,0.000000
202.000000,10722.422388,-26765.632840,-1824.684659,-958.800430,-21364.892586,-13123.133853,-19827.226678,-23620.340064,-1267.723890,2976.358292,-10627.427474,2560.705252,-12320.661523,-15233.339695,4213.952030,-28429.988436,0.004812,-0.012094,1.003375,192.000000,0.000000,0.000000,0.000000,0.000000,0.000000,0.000000,0.000000,0.000000,0.000000,1772619951.809748,0.000000
204.000000,10733.061818,-26757.429750,-1816.146292,-951.960796,-21356.443626,-13112.226202,-19818.822422,-23612.136973,-1294.255411,2947.725707,-10650.717992,2527.825836,-12346.544844,-15262.441666,4201.367998,-28456.408197,-0.004000,-0.004000,1.002000,192.000000,127.500000,112.000000,127.500000,112.000000,15.500000,40.000000,0.000000,0.000000,0.000000,1772619951.809788,0.000000
206.000000,10750.227958,-26731.702892,-1797.907269,-931.598357,-21335.053007,-13090.969693,-19799.644625,-23591.886293,-1262.627693,2988.316475,-10627.449826,2567.656644,-12314.380683,-15232.356218,4220.746961,-28432.916514,-0.004000,-0.004000,1.002000,192.000000,0.000000,0.000000,0.000000,0.000000,0.000000,0.000000,0.000000,0.000000,0.000000,1772619951.809814,0.000000
208.000000,10722.981182,-26766.705724,-1828.953842,-963.114317,-21366.367801,-13128.185347,-19829.081873,-23620.854154,-1289.114510,2969.965693,-10642.224329,2550.177580,-12301.483727,-15244.537919,4203.983152,-28460.342104,-0.004000,-0.004000,1.002000,192.000000,0.000000,0.000000,0.000000,0.000000,0.000000,0.000000,0.000000,0.000000,0.000000,1772619951.809828,0.000000
210.000000,10763.214322,-26723.455098,-1791.358208,-926.300994,-21326.492289,-13086.678158,-19794.973111,-23583.593796,-1282.118414,2971.753832,-10636.949317,2553.552694,-12317.308762,-15241.095750,4208.319391,-28459.738607,-0.004000,-0.004000,1.002000,192.000000,0.000000,0.000000,0.000000,0.000000,0.000000,0.000000,0.000000,0.000000,0.000000,1772619951.809841,0.000000
212.000000,10736.280469,-26755.351037,-1820.750752,-956.386442,-21354.029638,-13120.473995,-19825.147966,-23618.037834,-1256.838591,2991.468071,-10617.302134,2569.780060,-12316.727616,-15217.201736,4226.446656,-28442.483061,-0.004000,-0.004000,1.002000,192.000000,0.000000,0.000000,0.000000,0.000000,0.000000,0.000000,0.000000,0.000000,0.000000,1772619951.809853,0.000000
214.000000,10744.483560,-26746.097415,-1817.621507,-944.718831,-21349.581641,-13112.226202,-19815.603771,-23610.192372,-1292.556678,2956.554646,-10648.594576,2532.273833,-12348.712963,-15249.969393,4196.629428,-28476.971802,0.002000,-0.002000,1.002000,192.000000,0.000000,8.000000,127.500000,120.000000,15.500000,40.000000,0.000000,0.000000,0.000000,1772619951.809866,0.000000
216.000000,10762.767287,-26725.623217,-1804.791606,-926.613918,-21332.549612,-13088.511001,-19799.868143,-23595.395517,-1254.290492,2993.546783,-10621.236041,2572.283455,-12294.554686,-15210.451509,4224.882033,-28435.978703,0.002000,-0.002000,1.002000,192.000000,0.000000,0.000000,0.000000,0.000000,0.000000,0.000000,0.000000,0.000000,0.000000,1772619951.809879,0.000000
218.000000,10735.811083,-26754.836947,-1839.727383,-961.884971,-21374.168560,-13123.603239,-19836.480300,-23629.146651,-1284.465347,2968.959864,-10643.923061,2544.813161,-12347.617727,-15237.430064,4204.944277,-28448.361569,0.002000,-0.002000,1.002000,192.000000,0.000000,0.000000,0.000000,0.000000,0.000000,0.000000,0.000000,0.000000,0.000000,1772619951.809899,0.000000
220.000000,10765.762420,-26720.325854,-1809.463121,-929.609052,-21344.485443,-13097.362291,-19805.366672,-23591.863941,-1282.006655,2975.196001,-10637.061076,2550.781077,-12351.931614,-15250.394076,4198.305809,-28443.734758,0.002000,-0.002000,1.002000,192.000000,0.000000,0.000000,0.000000,0.000000,0.000000,0.000000,0.000000,0.000000,0.000000,1772619951.809913,0.000000
222.000000,10743.857711,-26747.036188,-1832.664231,-959.985073,-21368.222996,-13125.324324,-19830.758253,-23620.116546,-1273.244771,2984.136699,-10628.478006,2562.851019,-12328.350524,-15234.412579,4208.118225,-28430.927209,0.002000,-0.002000,1.002000,192.000000,0.000000,0.000000,0.000000,0.000000,0.000000,0.000000,0.000000,0.000000,0.000000,1772619951.809927,0.000000
224.000000,10751.881987,-26738.609581,-1823.567071,-951.469058,-21360.757513,-13117.143585,-19822.264591,-23609.119488,-1304.716027,2954.274768,-10649.332184,2529.412810,-12347.617727,-15264.296861,4194.684827,-28453.636581,0.010000,-0.002000,1.012000,192.000000,0.000000,40.000000,127.500000,120.000000,15.500000,80.000000,0.000000,0.000000,0.000000,1772619951.809942,0.000000
226.000000,10771.283301,-26714.447345,-1804.948068,-926.926843,-21338.986914,-13094.836544,-19800.002253,-23585.963081,-1273.892972,2989.009379,-10620.923116,2568.774232,-12306.535221,-15226.053026,4219.696429,-28420.801869,0.010000,-0.002000,1.012000,192.000000,0.000000,0.000000,0.000000,0.000000,0.000000,0.000000,0.000000,0.000000,0.000000,1772619951.809956,0.000000
228.000000,10747.121066,-26742.431729,-1830.943147,-953.905398,-21362.813874,-13125.480786,-19827.003160,-23614.975645,-1294.456577,2973.005530,-10636.032896,2549.551731,-12349.674088,-15242.190986,4206.441844,-28440.404348,0.010000,-0.002000,1.012000,192.000000,0.000000,0.000000,0.000000,0.000000,0.000000,0.000000,0.000000,0.000000,0.000000,1772619951.809968,0.000000
230.000000,10783.062671,-26702.243293,-1791.201745,-918.611994,-21325.978199,-13092.422556,-19790.234541,-23576.843569,-1279.190335,2988.428234,-10627.561584,2561.711080,-12338.632326,-15237.161843,4212.566222,-28449.613267,0.010000,-0.002000,1.012000,192.000000,0.000000,0.000000,0.000000,0.000000,0.000000,0.000000,0.000000,0.000000,0.000000,1772619951.809981,0.000000
232.000000,10760.554464,-26728.797165,-1814.000525,-946.194046,-21354.543728,-13118.887021,-19816.341378,-23603.419793,-1259.498448,3003.605068,-10613.167061,2576.329121,-12320.303896,-15219.951000,4219.025876,-28443.421834,0.010000,-0.002000,1.012000,192.000000,0.000000,0.000000,0.000000,0.000000,0.000000,0.000000,0.000000,0.000000,0.000000,1772619951.809994,0.000000
234.000000,10763.504894,-26724.930313,-1810.781874,-944.204741,-21350.743932,-13112.717940,-19813.100375,-23598.547113,-1285.739396,2975.508925,-10631.674305,2544.232016,-12344.264966,-15245.834320,4208.654667,-28472.657916,0.008000,-0.008000,1.010000,192.000000,0.000000,32.000000,127.500000,96.000000,15.500000,72.000000,0.000000,0.000000,0.000000,1772619951.810007,0.000000
236.000000,10775.239560,-26710.513438,-1799.427187,-931.486598,-21339.568059,-13099.239838,-19799.622273,-23581.448028,-1260.951312,2999.581754,-10613.122358,2574.093947,-12319.879212,-15221.560326,4224.010315,-28443.377130,0.008000,-0.008000,1.010000,192.000000,0.000000,0.000000,0.000000,0.000000,0.000000,0.000000,0.000000,0.000000,0.000000,1772619951.810020,0.000000
238.000000,10751.792580,-26739.682465,-1832.664231,-961.504991,-21371.173426,-13130.219356,-19831.384102,-23613.187505,-1285.292361,2975.933609,-10632.277803,2547.249502,-12322.986105,-15251.578719,4205.279554,-28464.790102,0.008000,-0.008000,1.010000,192.000000,0.000000,0.000000,0.000000,0.000000,0.000000,0.000000,0.000000,0.000000,0.000000,1772619951.810033,0.000000
240.000000,10774.345490,-26709.351147,-1806.691504,-929.094962,-21349.067551,-13104.939533,-19804.405547,-23586.186598,-1285.940562,2982.996760,-10633.373038,2554.469115,-12310.379721,-15248.315364,4200.831556,-28457.257564,0.008000,-0.008000,1.010000,192.000000,0.000000,0.000000,0.000000,0.000000,0.000000,0.000000,0.000000,0.000000,0.000000,1772619951.810046,0.000000
242.000000,10751.434952,-26734.809784,-1826.741019,-953.167791,-21369.228824,-13130.509929,-19825.662056,-23613.969816,-1270.361396,2999.112368,-10619.917288,2571.702310,-12329.512814,-15232.043294,4209.347571,-28432.022444,0.008000,-0.008000,1.010000,192.000000,0.000000,0.000000,0.000000,0.000000,0.000000,0.000000,0.000000,0.000000,0.000000,1772619951.810059,0.000000
244.000000,10753.871292,-26728.707758,-1823.231795,-950.642043,-21370.905205,-13129.951135,-19822.689274,-23611.153497,-1309.387542,2958.767469,-10648.013431,2528.988126,-12377.479658,-15264.006289,4185.364149,-28464.164253,0.008000,-0.008000,1.012000,192.000000,0.000000,32.000000,127.500000,96.000000,15.500000,80.000000,0.000000,0.000000,0.000000,1772619951.810072,0.000000
246.000000,10774.904284,-26701.125705,-1801.058865,-925.943366,-21340.573888,-13101.407957,-19798.862314,-23583.571444,-1271.747204,3000.744045,-10616.855099,2571.657607,-12333.379666,-15235.552518,4211.985077,-28430.569581,0.008000,-0.008000,1.012000,192.000000,0.000000,0.000000,0.000000,0.000000,0.000000,0.000000,0.000000,0.000000,0.000000,1772619951.810091,0.000000
248.000000,10748.529225,-26731.121746,-1832.865397,-955.022985,-21384.942101,-13128.230051,-19829.797128,-23613.142802,-1291.997885,2982.862649,-10632.791893,2551.451630,-12350.098771,-15253.389210,4198.708141,-28448.383921,0.008000,-0.008000,1.012000,192.000000,0.000000,0.000000,0.000000,0.000000,0.000000,0.000000,0.000000,0.000000,0.000000,1772619951.810105,0.000000
250.000000,10783.867333,-26695.805990,-1794.308638,-922.814122,-21333.354274,-13090.299140,-19793.743765,-23574.071953,-1280.710254,2991.177498,-10628.768579,2562.582798,-12334.564308,-15238.435893,4202.887917,-28449.255639,0.008000,-0.008000,1.012000,192.000000,0.000000,0.000000,0.000000,0.000000,0.000000,0.000000,0.000000,0.000000,0.000000,1772619951.810120,0.000000
252.000000,10772.087964,-26713.843848,-1813.151158,-939.890854,-21350.140435,-13112.740292,-19813.033320,-23591.841589,-1252.971739,3010.042371,-10606.752110,2582.677017,-12325.422445,-15213.804270,4212.387408,-28428.669683,0.008000,-0.008000,1.012000,192.000000,0.000000,0.000000,0.000000,0.000000,0.000000,0.000000,0.000000,0.000000,0.000000,1772619951.810133,0.000000
254.000000,10782.973264,-26703.204418,-1806.222118,-932.425372,-21341.043275,-13104.760719,-19806.506611,-23584.398459,-1271.657797,2987.087129,-10624.275878,2556.771345,-12318.493404,-15244.940251,4192.159080,-28461.549099,0.004000,-0.012000,1.008000,192.000000,0.000000,16.000000,127.500000,80.000000,15.500000,64.000000,0.000000,0.000000,0.000000,1772619951.810146,0.000000
0.000000,10780.134592,-26705.707813,-1798.153138,-928.089133,-21323.407748,-13092.288446,-19799.801087,-23583.683203,-1243.852227,3018.245461,-10603.645218,2588.644932,-12282.440040,-15216.128852,4233.420400,-28432.804755,0.004000,-0.012000,1.008000,192.000000,0.000000,0.000000,0.000000,0.000000,0.000000,0.000000,0.000000,0.000000,0.000000,1772619951.810158,0.000000
2.000000,10742.918938,-26742.878764,-1832.954804,-964.410718,-21370.882853,-13137.595432,-19834.155719,-23623.089328,-1287.013446,2978.302893,-10639.631526,2546.623653,-12325.780073,-15247.108370,4217.505958,-28454.865927,0.004000,-0.012000,1.008000,192.000000,0.000000,0.000000,0.000000,0.000000,0.000000,0.000000,0.000000,0.000000,0.000000,1772619951.810171,0.000000
4.000000,10766.187104,-26713.307406,-1804.612792,-933.498255,-21344.351333,-13106.928838,-19804.204381,-23594.009709,-1286.968742,2982.370911,-10639.296250,2551.518685,-12335.056047,-15236.491291,4201.032722,-28459.939773,0.004000,-0.012000,1.008000,192.000000,0.000000,0.000000,0.000000,0.000000,0.000000,0.000000,0.000000,0.000000,0.000000,1772619951.810184,0.000000
6.000000,10737.085132,-26745.650380,-1828.506807,-959.359224,-21370.614632,-13137.528376,-19830.132405,-23625.324503,-1276.016387,2993.636190,-10633.305983,2564.259179,-12336.307745,-15237.206547,4205.659533,-28435.375206,0.004000,-0.012000,1.008000,192.000000,0.000000,0.000000,0.000000,0.000000,0.000000,0.000000,0.000000,0.000000,0.000000,1772619951.810198,0.000000
8.000000,10743.768304,-26737.268476,-1822.114208,-954.151267,-21364.467903,-13126.911298,-19823.181012,-23616.428508,-1309.812225,2959.616835,-10657.825846,2527.781132,-12369.433030,-15272.365841,4180.849097,-28470.378038,0.004000,-0.012000,1.008000,192.000000,0.000000,0.000000,127.500000,88.000000,15.500000,40.000000,0.000000,0.000000,0.000000,1772619951.810210,0.000000
10.000000,10760.912092,-26718.515363,-1807.674981,-939.309709,-21349.089903,-13109.432234,-19808.630026,-23596.244883,-1274.228248,2992.719769,-10628.567413,2564.728566,-12322.606125,-15230.881003,4203.089083,-28437.968008,0.004000,-0.012000,1.008000,192.000000,0.000000,0.000000,0.000000,0.000000,0.000000,0.000000,0.000000,0.000000,0.000000,1772619951.810223,0.000000
12.000000,10745.645850,-26739.101319,-1831.993679,-964.924808,-21371.106371,-13133.236841,-19835.072140,-23620.317712,-1292.333161,2972.133812,-10641.151445,2543.606167,-12344.354373,-15256.943137,4196.830594,-28455.871756,0.004000,-0.012000,1.008000,192.000000,0.000000,0.000000,0.000000,0.000000,0.000000,0.000000,0.000000,0.000000,0.000000,1772619951.810236,0.000000
14.000000,10783.465002,-26699.181104,-1792.967533,-929.139665,-21325.486460,-13092.489611,-19800.046957,-23585.426639,-1273.222419,2984.136699,-10627.874509,2555.541999,-12331.636230,-15238.458245,4210.129882,-28448.719197,0.004000,-0.012000,1.008000,192.000000,0.000000,0.000000,0.000000,0.000000,0.000000,0.000000,0.000000,0.000000,0.000000,1772619951.810249,0.000000
16.000000,10776.804182,-26710.401679,-1809.977211,-947.244578,-21342.406731,-13108.024074,-19818.867125,-23600.536418,-1243.516951,3006.868423,-10608.652009,2579.078386,-12291.447793,-15211.792613,4222.155121,-28431.642465,0.004000,-0.012000,1.008000,192.000000,0.000000,0.000000,0.000000,0.000000,0.000000,0.000000,0.000000,0.000000,0.000000,1772619951.810261,0.000000
18.000000,10786.326025,-26699.315214,-1800.812996,-935.912244,-21333.086054,-13103.978408,-19810.976960,-23588.891159,-1257.173867,2984.583734,-10620.096102,2556.279606,-12321.600297,-15245.096713,4204.720760,-28463.560756,0.001000,-0.011000,1.006000,192.000000,127.500000,120.000000,127.500000,88.000000,15.500000,48.000000,0.000000,0.000000,0.000000,1772619951.810275,0.000000
20.000000,10793.724453,-26684.898339,-1781.478737,-916.265060,-21313.997664,-13088.376890,-19792.022680,-23575.055429,-1226.082590,3019.273641,-10597.096157,2592.109453,-12280.204866,-15205.221201,4227.966574,-28434.190563,0.001000,-0.011000,1.006000,192.000000,0.000000,0.000000,0.000000,0.000000,0.000000,0.000000,0.000000,0.000000,0.000000,1772619951.810288,0.000000
22.000000,10754.586548,-26724.952665,-1823.857644,-950.016195,-21358.231766,-13125.078455,-19827.025512,-23611.444069,-1259.900780,2993.367969,-10623.270049,2563.767441,-12294.375872,-15231.193928,4216.075446,-28457.257564,0.001000,-0.011000,1.006000,192.000000,0.000000,0.000000,0.000000,0.000000,0.000000,0.000000,0.000000,0.000000,0.000000,1772619951.810300,0.000000
24.000000,10780.983958,-26689.905130,-1796.029722,-917.941441,-21329.956809,-13086.164068,-19795.531904,-23570.428618,-1263.767632,2998.039484,-10622.152462,2572.194048,-12335.056047,-15231.752721,4213.594403,-28451.937849,0.001000,-0.011000,1.006000,192.000000,0.000000,0.000000,0.000000,0.000000,0.000000,0.000000,0.000000,0.000000,0.000000,1772619951.810313,0.000000
26.000000,10747.724563,-26728.439537,-1829.602042,-949.390346,-21365.183159,-13123.625591,-19823.717454,-23603.173924,-1260.191352,3008.008362,-10616.005733,2584.599267,-12330.585698,-15221.336808,4211.672152,-28437.252752,0.001000,-0.011000,1.006000,192.000000,0.000000,0.000000,0.000000,0.000000,0.000000,0.000000,0.000000,0.000000,0.000000,1772619951.810328,0.000000
28.000000,10747.679859,-26728.037206,-1828.752676,-942.997747,-21361.204548,-13123.893812,-19818.531849,-23604.671491,-1300.357437,2968.311664,-10644.526558,2544.321423,-12361.989899,-15253.635079,4183.844231,-28470.288631,-0.000500,-0.011500,1.008000,192.000000,127.500000,120.000000,127.500000,80.000000,15.500000,72.000000,0.000000,0.000000,0.000000,1772619951.810340,0.000000
30.000000,10757.805199,-26713.910903,-1809.776045,-930.346659,-21342.540841,-13108.672274,-19803.958512,-23592.825066,-1264.929922,2999.291181,-10621.839538,2578.005502,-12326.920012,-15225.047198,4200.809205,-28437.968008,-0.000500,-0.011500,1.008000,192.000000,0.000000,0.000000,0.000000,0.000000,0.000000,0.000000,0.000000,0.000000,0.000000,1772619951.810353,0.000000
32.000000,10717.192080,-26756.848604,-1839.973252,-966.243561,-21379.801199,-13142.401057,-19837.396722,-23631.381825,-1292.735492,2969.585713,-10645.912367,2545.975452,-12349.271756,-15253.500969,4199.758673,-28459.515090,-0.000500,-0.011500,1.008000,192.000000,0.000000,0.000000,0.000000,0.000000,0.000000,0.000000,0.000000,0.000000,0.000000,1772619951.810366,0.000000
34.000000,10744.014173,-26727.947799,-1801.572955,-930.570177,-21334.673027,-13104.917181,-19800.292826,-23592.579197,-1297.138786,2965.361233,-10643.990117,2547.227150,-12338.408809,-15251.265794,4200.876260,-28458.285744,-0.000500,-0.011500,1.008000,192.000000,0.000000,0.000000,0.000000,0.000000,0.000000,0.000000,0.000000,0.000000,0.000000,1772619951.810378,0.000000
36.000000,10736.168711,-26741.403549,-1822.248318,-950.574988,-21358.634097,-13116.383626,-19825.527945,-23613.679244,-1258.000881,2997.100711,-10615.804567,2577.089080,-12269.632491,-15220.241573,4218.668248,-28433.877639,-0.000500,-0.011500,1.008000,192.000000,0.000000,0.000000,0.000000,0.000000,0.000000,0.000000,0.000000,0.000000,0.000000,1772619951.810391,0.000000
38.000000,10747.210472,-26731.278209,-1810.424246,-940.270834,-21348.732275,-13107.621742,-19813.994445,-23599.932921,-1279.525611,2975.687739,-10636.524634,2545.215493,-12346.120160,-15249.723524,4200.786853,-28463.940735,-0.000500,-0.011500,1.008000,192.000000,0.000000,0.000000,127.500000,88.000000,15.500000,56.000000,0.000000,0.000000,0.000000,1772619951.810404,0.000000
40.000000,10766.298862,-26714.089717,-1789.503013,-917.762627,-21324.592391,-13090.343844,-19790.860390,-23573.893139,-1239.426582,3012.322248,-10603.488756,2585.158060,-12290.061985,-15206.294084,4228.637127,-28431.575409,-0.000500,-0.011500,1.008000,192.000000,0.000000,0.000000,0.000000,0.000000,0.000000,0.000000,0.000000,0.000000,0.000000,1772619951.810417,0.000000
42.000000,10729.552594,-26752.512366,-1825.489321,-954.039509,-21361.428065,-13126.285449,-19824.566820,-23611.041738,-1262.515934,2990.551649,-10621.526613,2563.610979,-12329.401056,-15231.886832,4215.449597,-28458.285744,-0.000500,-0.011500,1.008000,192.000000,0.000000,0.000000,0.000000,0.000000,0.000000,0.000000,0.000000,0.000000,0.000000,1772619951.810430,0.000000
44.000000,10745.176464,-26732.440499,-1798.242545,-922.836473,-21330.202678,-13094.322454,-19794.369613,-23586.968909,-1278.788004,2981.007455,-10630.824939,2557.643063,-12333.066742,-15232.467977,4214.622583,-28460.140939,-0.000500,-0.011500,1.008000,192.000000,0.000000,0.000000,0.000000,0.000000,0.000000,0.000000,0.000000,0.000000,0.000000,1772619951.810442,0.000000
46.000000,10716.007437,-26765.811654,-1827.031592,-950.262064,-21362.232728,-13126.196042,-19822.532811,-23623.782232,-1261.979492,2994.977295,-10624.186471,2569.444784,-12320.706227,-15220.599201,4222.155121,-28441.879564,-0.000500,-0.011500,1.008000,192.000000,0.000000,0.000000,0.000000,0.000000,0.000000,0.000000,0.000000,0.000000,0.000000,1772619951.810455,0.000000
48.000000,10707.536126,-26766.012820,-1828.775028,-947.937482,-21364.646717,-13126.598373,-19819.940009,-23626.442090,-1310.728647,2960.153277,-10660.731573,2526.060048,-12349.674088,-15254.372687,4192.069673,-28471.562680,-0.002250,-0.012750,1.009000,192.000000,127.500000,112.000000,127.500000,72.000000,15.500000,72.000000,0.000000,0.000000,0.000000,1772619951.810468,0.000000
50.000000,10716.163899,-26754.747540,-1814.335801,-932.827703,-21348.285240,-13108.873440,-19805.366672,-23611.913456,-1288.734530,2984.159050,-10641.285556,2557.218380,-12340.711038,-15230.255154,4205.994809,-28441.298418,-0.002250,-0.012750,1.009000,192.000000,0.000000,0.000000,0.000000,0.000000,0.000000,0.000000,0.000000,0.000000,0.000000,1772619951.810481,0.000000
52.000000,10692.515754,-26783.760105,-1849.808019,-964.611884,-21379.957662,-13139.540033,-19840.548317,-23641.551869,-1311.153330,2958.968634,-10662.720878,2529.971603,-12358.860655,-15248.270660,4187.800489,-28461.414988,-0.002250,-0.012750,1.009000,192.000000,0.000000,0.000000,0.000000,0.000000,0.000000,0.000000,0.000000,0.000000,0.000000,1772619951.810494,0.000000
54.000000,10730.379609,-26738.520174,-1809.217251,-926.055125,-21338.517527,-13100.603294,-19800.851619,-23596.423697,-1305.766559,2977.095899,-10651.276785,2547.137743,-12354.747934,-15242.436855,4200.965667,-28450.462633,-0.002250,-0.012750,1.009000,192.000000,0.000000,0.000000,0.000000,0.000000,0.000000,0.000000,0.000000,0.000000,0.000000,1772619951.810508,0.000000
56.000000,10706.060911,-26765.521081,-1834.318260,-956.520552,-21365.764304,-13124.966696,-19829.283038,-23626.442090,-1285.873507,2994.731426,-10637.932794,2562.985130,-12338.252346,-15232.691495,4216.813054,-28436.649255,-0.002250,-0.012750,1.009000,192.000000,0.000000,0.000000,0.000000,0.000000,0.000000,0.000000,0.000000,0.000000,0.000000,1772619951.810521,0.000000
58.000000,10723.115292,-26742.409377,-1822.963574,-944.584721,-21346.966487,-13110.661579,-19821.214059,-23615.512087,-1320.496359,2973.631379,-10660.373945,2531.491522,-12367.533132,-15249.567062,4202.619696,-28463.292535,-0.002125,-0.013375,1.009500,192.000000,127.500000,120.000000,127.500000,72.000000,15.500000,72.000000,0.000000,0.000000,0.000000,1772619952.291359,0.000000
60.000000,10744.438856,-26716.682520,-1803.204632,-921.428313,-21327.006379,-13089.740347,-19799.778736,-23592.445087,-1275.748167,3021.531167,-10626.064018,2582.788775,-12309.619762,-15207.188154,4229.017106,-28429.474345,-0.002125,-0.013375,1.009500,192.000000,0.000000,0.000000,0.000000,0.000000,0.000000,0.000000,0.000000,0.000000,0.000000,1772619952.291443,0.000000
62.000000,10718.980219,-26748.220831,-1831.211368,-952.206666,-21366.077228,-13130.979315,-19827.047864,-23619.960084,-1299.239850,2995.312571,-10642.269032,2561.867542,-12337.335925,-15230.746893,4210.800434,-28460.476215,-0.002125,-0.013375,1.009500,192.000000,0.000000,0.000000,0.000000,0.000000,0.000000,0.000000,0.000000,0.000000,0.000000,1772619952.291505,0.000000
64.000000,10755.301804,-26709.306444,-1794.934487,-918.187310,-21334.561269,-13101.318550,-19793.989634,-23582.699726,-1288.220440,3000.364065,-10631.093160,2572.417566,-12337.201814,-15228.846995,4211.783911,-28459.828014,-0.002125,-0.013375,1.009500,192.000000,0.000000,0.000000,0.000000,0.000000,0.000000,0.000000,0.000000,0.000000,0.000000,1772619952.291563,0.000000
66.000000,10740.370839,-26728.953627,-1818.225004,-942.014270,-21357.225938,-13122.128024,-19816.877820,-23599.597645,-1265.153440,3014.266850,-10613.256468,2590.902459,-12316.258230,-15211.926724,4223.228004,-28445.098215,-0.002125,-0.013375,1.009500,192.000000,0.000000,0.000000,0.000000,0.000000,0.000000,0.000000,0.000000,0.000000,0.000000,1772619952.291623,0.000000
68.000000,10750.496179,-26717.062499,-1820.214310,-937.879197,-21355.035467,-13117.970600,-19814.106204,-23594.233226,-1295.261239,2989.054083,-10636.345820,2559.833534,-12349.674088,-15238.480596,4196.428263,-28474.066076,0.000937,-0.012688,1.006750,192.000000,0.000000,16.000000,127.500000,80.000000,15.500000,48.000000,0.000000,0.000000,0.000000,1772619952.291650,0.000000
70.000000,10755.994708,-26705.998386,-1811.787702,-925.183406,-21344.865423,-13104.827774,-19800.918675,-23584.309052,-1263.968797,3019.564214,-10615.245773,2593.875241,-12325.601259,-15215.637114,4210.219289,-28443.310075,0.000937,-0.012688,1.006750,192.000000,0.000000,0.000000,0.000000,0.000000,0.000000,0.000000,0.000000,0.000000,0.000000,1772619952.291677,0.000000
72.000000,10720.053103,-26744.108110,-1849.450391,-965.036567,-21387.624310,-13144.792693,-19837.329666,-23623.916343,-1301.072693,2987.668274,-10643.967765,2560.705252,-12361.922844,-15244.157939,4186.302923,-28464.611288,0.000937,-0.012688,1.006750,192.000000,0.000000,0.000000,0.000000,0.000000,0.000000,0.000000,0.000000,0.000000,0.000000,1772619952.291704,0.000000
74.000000,10751.345545,-26706.870104,-1814.760484,-927.977375,-21350.162786,-13106.638265,-19801.991558,-23585.940729,-1301.832652,2990.328132,-10643.096047,2559.878237,-12348.556501,-15246.013134,4188.180469,-28459.872718,0.000937,-0.012688,1.006750,192.000000,0.000000,0.000000,0.000000,0.000000,0.000000,0.000000,0.000000,0.000000,0.000000,1772619952.291731,0.000000
76.000000,10728.658525,-26733.088700,-1840.621452,-953.726584,-21386.059688,-13134.868519,-19826.131442,-23609.812392,-1280.553792,3012.635173,-10621.750131,2584.554563,-12337.134759,-15219.056930,4198.954010,-28434.592895,0.000937,-0.012688,1.006750,192.000000,0.000000,0.000000,0.000000,0.000000,0.000000,0.000000,0.000000,0.000000,0.000000,1772619952.291757,0.000000
78.000000,10736.503987,-26727.254895,-1828.260938,-948.317462,-21370.502874,-13130.599336,-19819.694140,-23601.877523,-1315.154292,2974.480745,-10646.962899,2547.830647,-12383.604036,-15260.050030,4185.006521,-28472.769674,0.000937,-0.012688,1.006750,192.000000,0.000000,0.000000,0.000000,0.000000,0.000000,0.000000,0.000000,0.000000,0.000000,1772619952.291784,0.000000
80.000000,10752.329022,-26708.501781,-1808.479644,-930.927805,-21344.776016,-13107.420577,-19803.198553,-23587.795924,-1281.336103,3009.215356,-10623.113587,2583.794604,-12332.262079,-15228.198794,4214.622583,-28435.934000,0.004000,-0.014000,1.004000,192.000000,0.000000,16.000000,127.500000,72.000000,15.500000,48.000000,0.000000,0.000000,0.000000,1772619952.291811,0.000000
82.000000,10729.776112,-26738.676636,-1838.878016,-964.187201,-21375.464961,-13135.673181,-19834.714512,-23624.743357,-1300.983286,2986.617742,-10641.889053,2556.413717,-12347.349506,-15245.655506,4207.067693,-28457.995171,0.004000,-0.014000,1.004000,192.000000,0.000000,0.000000,0.000000,0.000000,0.000000,0.000000,0.000000,0.000000,0.000000,1772619952.291837,0.000000
84.000000,10764.980109,-26699.024641,-1804.232812,-925.608090,-21333.823661,-13095.127117,-19801.276302,-23591.439258,-1291.997885,2998.799443,-10637.575166,2563.253351,-12320.236840,-15231.126872,4210.934545,-28455.558831,0.004000,-0.014000,1.004000,192.000000,0.000000,0.000000,0.000000,0.000000,0.000000,0.000000,0.000000,0.000000,0.000000,1772619952.291856,0.000000
86.000000,10749.713868,-26717.822458,-1823.611775,-945.679956,-21358.298821,-13113.612010,-19822.599867,-23609.767688,-1261.934788,3024.034563,-10613.658799,2590.701293,-12327.814082,-15208.551611,4221.685734,-28437.431566,0.004000,-0.014000,1.004000,192.000000,0.000000,0.000000,0.000000,0.000000,0.000000,0.000000,0.000000,0.000000,0.000000,1772619952.291868,0.000000
88.000000,10760.979147,-26700.477505,-1818.001487,-934.369973,-21348.531109,-13105.252457,-19813.301541,-23596.200180,-1294.881260,2990.931629,-10637.083428,2554.692633,-12359.486504,-15239.620535,4198.439920,-28471.026238,0.004000,-0.014000,1.004000,192.000000,0.000000,0.000000,0.000000,0.000000,0.000000,0.000000,0.000000,0.000000,0.000000,1772619952.291880,0.000000
90.000000,10770.165714,-26693.123781,-1810.446597,-924.579909,-21338.808100,-13096.289408,-19802.371538,-23586.790095,-1254.759878,3031.857673,-10608.875526,2598.278534,-12319.901564,-15200.773203,4212.141539,-28438.035064,0.002000,-0.010000,1.006000,192.000000,0.000000,8.000000,127.500000,88.000000,15.500000,56.000000,0.000000,0.000000,0.000000,1772619952.291901,0.000000
92.000000,10740.504949,-26719.007101,-1843.795400,-959.426279,-21374.548539,-13135.740237,-19833.596925,-23622.061148,-1293.338989,2998.888850,-10638.290422,2561.666377,-12356.133742,-15239.911108,4192.047321,-28463.940735,0.002000,-0.010000,1.006000,192.000000,0.000000,0.000000,0.000000,0.000000,0.000000,0.000000,0.000000,0.000000,0.000000,1772619952.291914,0.000000
94.000000,10765.561255,-26691.067420,-1818.694391,-930.726639,-21352.800292,-13107.822908,-19805.031396,-23591.036927,-1289.896821,3001.280487,-10633.596555,2568.684825,-12358.927710,-15227.707056,4197.344684,-28453.994209,0.002000,-0.010000,1.006000,192.000000,0.000000,0.000000,0.000000,0.000000,0.000000,0.000000,0.000000,0.000000,0.000000,1772619952.291925,0.000000
96.000000,10732.748894,-26726.807860,-1846.522313,-959.158058,-21385.590301,-13143.540996,-19832.568745,-23624.609247,-1278.452728,3008.634211,-10628.098026,2581.894706,-12343.572061,-15232.490329,4197.925830,-28441.432529,0.002000,-0.010000,1.006000,192.000000,0.000000,0.000000,0.000000,0.000000,0.000000,0.000000,0.000000,0.000000,0.000000,1772619952.291937,0.000000
98.000000,10742.628365,-26715.229656,-1836.486380,-951.223189,-21373.430952,-13138.713019,-19823.359826,-23612.829877,-1316.137769,2967.305835,-10656.954128,2542.667394,-12387.269722,-15270.376536,4182.659588,-28475.876567,0.002000,-0.010000,1.006000,192.000000,0.000000,0.000000,0.000000,0.000000,0.000000,0.000000,0.000000,0.000000,0.000000,1772619952.291949,0.000000
100.000000,10757.246406,-26697.907054,-1817.599156,-939.868503,-21358.231766,-13124.966696,-19809.233524,-23598.971796,-1275.457594,3007.673086,-10623.247698,2586.007427,-12344.846111,-15240.246384,4209.906365,-28444.517069,0.002000,-0.010000,1.002000,192.000000,0.000000,8.000000,127.500000,88.000000,15.500000,40.000000,0.000000,0.000000,0.000000,1772619952.291961,0.000000
102.000000,10737.845092,-26721.309331,-1842.767220,-973.731395,-21385.746763,-13154.918033,-19841.554146,-23626.553849,-1299.955106,2979.308722,-10644.124227,2553.351528,-12370.461210,-15267.873140,4199.825728,-28471.450921,0.002000,-0.010000,1.002000,192.000000,0.000000,0.000000,0.000000,0.000000,0.000000,0.000000,0.000000,0.000000,0.000000,1772619952.291972,0.000000
104.000000,10784.515534,-26667.039295,-1798.756635,-925.026944,-21335.343580,-13102.302027,-19797.007119,-23576.329479,-1278.653893,2999.894679,-10624.141768,2574.853906,-12349.070591,-15247.734219,4211.806263,-28458.531613,0.002000,-0.010000,1.002000,192.000000,0.000000,0.000000,0.000000,0.000000,0.000000,0.000000,0.000000,0.000000,0.000000,1772619952.291984,0.000000
106.000000,10769.517513,-26685.501836,-1820.370772,-941.120200,-21357.069475,-13121.457472,-19816.564896,-23599.351776,-1249.775439,3033.332888,-10599.599552,2606.526328,-12322.181442,-15211.747910,4227.899519,-28434.369377,0.002000,-0.010000,1.002000,192.000000,0.000000,0.000000,0.000000,0.000000,0.000000,0.000000,0.000000,0.000000,0.000000,1772619952.291996,0.000000
108.000000,10774.613711,-26679.600975,-1820.303717,-937.253348,-21359.885795,-13115.377798,-19814.553239,-23597.675395,-1285.247658,3000.632286,-10630.757884,2566.337891,-12360.715849,-15242.325096,4195.891821,-28470.020410,0.002000,-0.010000,1.002000,192.000000,0.000000,0.000000,0.000000,0.000000,0.000000,0.000000,0.000000,0.000000,0.000000,1772619952.292008,0.000000
110.000000,10793.098604,-26657.830376,-1805.640972,-920.042505,-21340.707998,-13100.245667,-19800.404584,-23579.011688,-1245.238035,3040.440743,-10603.622866,2607.263935,-12323.299029,-15206.562305,4219.204690,-28441.007846,0.002000,-0.006000,1.000000,192.000000,0.000000,8.000000,127.500000,104.000000,15.500000,32.000000,0.000000,0.000000,0.000000,1772619952.292020,0.000000
112.000000,10770.903322,-26684.831284,-1831.926624,-949.524456,-21374.056801,-13131.560461,-19827.249030,-23607.420755,-1264.058204,3021.397057,-10619.134977,2586.208592,-12327.925840,-15217.872288,4200.295115,-28464.477177,0.002000,-0.006000,1.000000,192.000000,0.000000,0.000000,0.000000,0.000000,0.000000,0.000000,0.000000,0.000000,0.000000,1772619952.292032,0.000000
114.000000,10800.564087,-26649.068493,-1800.701237,-915.102770,-21333.823661,-13102.570248,-19792.201494,-23571.970889,-1255.564541,3030.404810,-10609.948410,2596.915078,-12287.983273,-15218.140509,4203.714931,-28457.525785,0.002000,-0.006000,1.000000,192.000000,0.000000,0.000000,0.000000,0.000000,0.000000,0.000000,0.000000,0.000000,0.000000,1772619952.292044,0.000000
116.000000,10768.221112,-26685.188912,-1828.663269,-943.869465,-21367.194816,-13133.773283,-19820.096471,-23604.246808,-1242.153495,3045.916920,-10599.174869,2609.297944,-12320.594468,-15213.916029,4209.593440,-28445.925229,0.002000,-0.006000,1.000000,192.000000,0.000000,0.000000,0.000000,0.000000,0.000000,0.000000,0.000000,0.000000,0.000000,1772619952.292056,0.000000
118.000000,10762.879045,-26690.419220,-1825.914005,-939.376764,-21360.556347,-13129.325286,-19816.542544,-23603.822124,-1286.655818,3003.336847,-10632.344858,2566.092022,-12357.497198,-15253.299803,4189.588629,-28468.165215,0.002000,-0.006000,1.000000,192.000000,0.000000,0.000000,0.000000,0.000000,0.000000,0.000000,0.000000,0.000000,0.000000,1772619952.292068,0.000000
120.000000,10776.982996,-26672.269603,-1805.864490,-918.522587,-21335.745911,-13109.231068,-19794.704890,-23584.689031,-1263.968797,3029.443685,-10611.781253,2600.781930,-12342.610936,-15221.627381,4212.834443,-28439.242058,0.002000,-0.006000,1.000000,192.000000,0.000000,0.000000,127.500000,96.000000,15.500000,32.000000,0.000000,0.000000,0.000000,1772619952.292080,0.000000
122.000000,10741.711943,-26712.234522,-1841.359060,-956.542904,-21372.268662,-13142.043429,-19834.379236,-23628.878430,-1291.729664,3001.571059,-10636.435227,2570.942351,-12352.579815,-15240.112274,4209.749902,-28458.889241,0.002000,-0.006000,1.000000,192.000000,0.000000,0.000000,0.000000,0.000000,0.000000,0.000000,0.000000,0.000000,0.000000,1772619952.292093,0.000000
124.000000,10775.127801,-26671.241423,-1807.876147,-922.300031,-21339.053969,-13108.515812,-19800.851619,-23591.171037,-1292.131995,3003.895641,-10635.451750,2573.311636,-12341.850977,-15239.128797,4213.594403,-28457.257564,0.002000,-0.006000,1.000000,192.000000,0.000000,0.000000,0.000000,0.000000,0.000000,0.000000,0.000000,0.000000,0.000000,1772619952.292105,0.000000
126.000000,10759.191008,-26688.899301,-1828.015069,-941.388421,-21360.444589,-13123.849109,-19821.303466,-23610.371186,-1267.992111,3030.807141,-10616.676285,2597.675037,-12332.820872,-15210.496212,4229.955879,-28436.112813,0.002000,-0.006000,1.000000,192.000000,0.000000,0.000000,0.000000,0.000000,0.000000,0.000000,0.000000,0.000000,0.000000,1772619952.292117,0.000000
128.000000,10769.159886,-26674.281260,-1818.940260,-928.647927,-21355.907185,-13113.433196,-19809.591151,-23592.109810,-1302.436149,3002.331019,-10639.944451,2567.433127,-12361.945195,-15239.888756,4206.777120,-28464.857157,0.002000,-0.006000,1.000000,192.000000,0.000000,0.000000,0.000000,0.000000,0.000000,0.000000,0.000000,0.000000,0.000000,1772619952.292129,0.000000
130.000000,10788.561200,-26653.740007,-1804.813958,-911.235918,-21335.902373,-13094.836544,-19793.095564,-23568.215796,-1262.761803,3043.771153,-10607.936753,2613.321258,-12327.702323,-15206.539954,4220.434036,-28439.242058,-0.002000,-0.008000,1.004000,192.000000,127.500000,120.000000,127.500000,96.000000,15.500000,48.000000,0.000000,0.000000,0.000000,1772619952.292141,0.000000
132.000000,10766.365917,-26685.166560,-1833.804170,-943.623596,-21370.435818,-13125.681952,-19822.599867,-23596.870732,-1274.652931,3024.705115,-10617.615058,2592.914116,-12351.931614,-15226.433006,4203.066731,-28460.118587,-0.002000,-0.008000,1.004000,192.000000,0.000000,0.000000,0.000000,0.000000,0.000000,0.000000,0.000000,0.000000,0.000000,1772619952.292153,0.000000
134.000000,10788.337682,-26657.517452,-1803.808129,-914.409866,-21336.818795,-13098.569286,-19790.703927,-23567.813464,-1268.573257,3025.554481,-10612.854137,2594.478738,-12346.030753,-15228.578774,4199.669266,-28463.828977,-0.002000,-0.008000,1.004000,192.000000,0.000000,0.000000,0.000000,0.000000,0.000000,0.000000,0.000000,0.000000,0.000000,1772619952.292165,0.000000
136.000000,10756.441743,-26689.301633,-1828.260938,-939.667337,-21366.814836,-13126.888946,-19815.067329,-23599.977624,-1255.743355,3039.703135,-10604.874564,2610.326124,-12327.612916,-15213.334884,4208.274687,-28447.668665,-0.002000,-0.008000,1.004000,192.000000,0.000000,0.000000,0.000000,0.000000,0.000000,0.000000,0.000000,0.000000,0.000000,1772619952.292176,0.000000
138.000000,10758.676917,-26684.898339,-1825.712839,-934.079401,-21366.568967,-13125.927821,-19810.239352,-23594.635557,-1304.537213,2998.821795,-10641.889053,2567.433127,-12369.835361,-15252.763361,4184.268914,-28477.105913,-0.002000,-0.008000,1.004000,192.000000,0.000000,0.000000,0.000000,0.000000,0.000000,0.000000,0.000000,0.000000,0.000000,1772619952.292188,0.000000
140.000000,10760.241540,-26678.192816,-1814.984002,-920.020154,-21355.437798,-13115.534260,-19794.235503,-23579.190502,-1272.797736,3034.741048,-10612.965895,2607.263935,-12327.836433,-15215.078320,4203.647876,-28444.181793,-0.002000,-0.008000,1.004000,192.000000,0.000000,0.000000,127.500000,96.000000,15.500000,64.000000,0.000000,0.000000,0.000000,1772619952.292200,0.000000
142.000000,10725.551632,-26719.454136,-1849.472743,-954.799468,-21393.033432,-13149.128932,-19830.378274,-23619.088366,-1309.722818,2999.112368,-10640.123265,2574.183354,-12368.471905,-15251.556367,4187.979303,-28466.466482,-0.002000,-0.008000,1.004000,192.000000,0.000000,0.000000,0.000000,0.000000,0.000000,0.000000,0.000000,0.000000,0.000000,1772619952.292212,0.000000
144.000000,10755.368859,-26684.384249,-1812.860586,-922.367087,-21350.341600,-13111.153318,-19797.632968,-23586.208950,-1303.911365,3004.655600,-10635.719971,2576.932618,-12357.676012,-15245.141416,4197.635257,-28455.335314,-0.002000,-0.008000,1.004000,192.000000,0.000000,0.000000,0.000000,0.000000,0.000000,0.000000,0.000000,0.000000,0.000000,1772619952.292224,0.000000
146.000000,10716.387417,-26728.461889,-1840.263824,-954.508895,-21373.922691,-13139.204757,-19829.171280,-23623.893991,-1291.617905,3014.356257,-10628.030971,2591.505956,-12360.358222,-15228.467015,4217.036571,-28436.515145,-0.002000,-0.008000,1.004000,192.000000,0.000000,0.000000,0.000000,0.000000,0.000000,0.000000,0.000000,0.000000,0.000000,1772619952.292236,0.000000
148.000000,10735.006420,-26714.201476,-1832.641880,-944.249445,-21361.718638,-13126.531318,-19821.102300,-23614.685072,-1324.318507,2973.318454,-10658.742268,2549.931711,-12387.627350,-15263.000460,4197.724664,-28469.975706,-0.002000,-0.008000,1.004000,192.000000,0.000000,0.000000,0.000000,0.000000,0.000000,0.000000,0.000000,0.000000,0.000000,1772619952.292247,0.000000
150.000000,10750.518531,-26692.699098,-1811.765350,-920.981279,-21339.545708,-13102.905524,-19797.275340,-23585.292528,-1281.246696,3018.267813,-10624.633506,2597.026837,-12342.946213,-15221.381512,4222.423342,-28434.369377,0.001000,-0.011000,1.004000,192.000000,0.000000,16.000000,127.500000,72.000000,15.500000,48.000000,0.000000,0.000000,0.000000,1772619952.292259,0.000000
152.000000,10734.022943,-26717.487182,-1838.788609,-949.569160,-21368.982955,-13129.392341,-19823.873916,-23610.684110,-1302.570260,3008.723618,-10635.675268,2578.787813,-12357.452495,-15229.383436,4206.330086,-28456.162328,0.001000,-0.011000,1.004000,192.000000,0.000000,0.000000,0.000000,0.000000,0.000000,0.000000,0.000000,0.000000,0.000000,1772619952.292271,0.000000
154.000000,10756.173522,-26695.314252,-1806.088007,-918.656697,-21340.439777,-13098.301065,-19791.977977,-23583.035002,-1288.511013,3007.918955,-10625.728741,2582.721720,-12351.842207,-15230.232803,4213.616754,-28455.000038,0.001000,-0.011000,1.004000,192.000000,0.000000,0.000000,0.000000,0.000000,0.000000,0.000000,0.000000,0.000000,0.000000,1772619952.292284,0.000000
156.000000,10729.731408,-26727.612523,-1830.071429,-945.523494,-21372.872159,-13128.542975,-19817.213096,-23611.108793,-1273.490640,3016.837301,-10615.648105,2596.669209,-12333.312611,-15220.956829,4215.270783,-28447.378093,0.001000,-0.011000,1.004000,192.000000,0.000000,0.000000,0.000000,0.000000,0.000000,0.000000,0.000000,0.000000,0.000000,1772619952.292296,0.000000
158.000000,10737.331001,-26722.538677,-1826.942185,-938.415639,-21364.445551,-13124.162033,-19811.803974,-23603.173924,-1314.103760,2981.476841,-10644.772428,2560.504086,-12378.709004,-15252.316326,4189.633332,-28480.033991,0.001000,-0.011000,1.004000,192.000000,0.000000,0.000000,0.000000,0.000000,0.000000,0.000000,0.000000,0.000000,0.000000,1772619952.292308,0.000000
160.000000,10756.799371,-26701.840961,-1811.541833,-917.047372,-21348.844033,-13103.687835,-19792.492067,-23581.582139,-1277.849231,3015.496196,-10618.084445,2600.603116,-12347.036582,-15214.251305,4210.398103,-28445.321732,0.001000,-0.011000,1.004000,192.000000,0.000000,0.000000,127.500000,72.000000,15.500000,64.000000,0.000000,0.000000,0.000000,1772619952.292320,0.000000
162.000000,10716.946210,-26743.951648,-1848.712784,-957.995767,-21387.646662,-13144.546824,-19830.557088,-23624.721006,-1312.807359,2989.210545,-10642.872529,2572.976359,-12379.848943,-15254.082114,4185.498260,-28468.366381,0.001000,-0.011000,1.004000,192.000000,0.000000,0.000000,0.000000,0.000000,0.000000,0.000000,0.000000,0.000000,0.000000,1772619952.292332,0.000000
164.000000,10742.047220,-26714.290883,-1810.133673,-927.530340,-21352.442664,-13110.907449,-19796.515381,-23594.613206,-1310.214556,2997.167766,-10640.592651,2576.016197,-12372.629329,-15241.654544,4198.417568,-28458.621020,0.001000,-0.011000,1.004000,192.000000,0.000000,0.000000,0.000000,0.000000,0.000000,0.000000,0.000000,0.000000,0.000000,1772619952.292344,0.000000
166.000000,10714.241649,-26750.210136,-1836.531083,-960.320349,-21375.800237,-13138.958888,-19828.098396,-23628.185526,-1294.881260,2997.167766,-10628.276840,2584.554563,-12356.089038,-15234.926669,4212.454464,-28443.846517,0.001000,-0.011000,1.004000,192.000000,0.000000,0.000000,0.000000,0.000000,0.000000,0.000000,0.000000,0.000000,0.000000,1772619952.292356,0.000000
168.000000,10726.825682,-26734.899191,-1831.054906,-955.492372,-21363.260909,-13129.146472,-19822.152832,-23622.932866,-1327.872435,2961.539085,-10655.724782,2546.981281,-12386.487411,-15267.873140,4196.875298,-28472.635564,0.001000,-0.011000,1.004000,192.000000,0.000000,0.000000,0.000000,0.000000,0.000000,0.000000,0.000000,0.000000,0.000000,1772619952.292368,0.000000
170.000000,10748.015135,-26708.457078,-1813.061751,-934.839360,-21340.998571,-13104.626608,-19803.220904,-23600.581122,-1286.745225,3004.074455,-10629.148558,2583.593438,-12341.470998,-15225.963619,4221.596327,-28438.347988,0.001000,-0.011000,1.004000,192.000000,0.000000,0.000000,127.500000,80.000000,15.500000,56.000000,0.000000,0.000000,0.000000,1772619952.292380,0.000000
172.000000,10721.193042,-26738.698988,-1841.895502,-963.941331,-21372.559234,-13135.539071,-19833.887498,-23631.426529,-1311.354495,2983.689664,-10647.745210,2558.693595,-12362.213416,-15246.191948,4212.677981,-28458.732779,0.001000,-0.011000,1.004000,192.000000,0.000000,0.000000,0.000000,0.000000,0.000000,0.000000,0.000000,0.000000,0.000000,1772619952.292392,0.000000
174.000000,10753.156037,-26700.321043,-1806.020952,-926.926843,-21337.668161,-13104.514850,-19799.108183,-23592.400383,-1302.212632,2991.222202,-10640.212672,2567.969569,-12364.068611,-15248.382419,4224.569109,-28457.034046,0.001000,-0.011000,1.004000,192.000000,0.000000,0.000000,0.000000,0.000000,0.000000,0.000000,0.000000,0.000000,0.000000,1772619952.292404,0.000000
176.000000,10738.694458,-26718.694177,-1829.713801,-947.043413,-21363.998516,-13126.240745,-19822.421053,-23613.567485,-1281.626675,3008.902432,-10621.481910,2591.327142,-12346.634250,-15231.640963,4234.023897,-28440.426700,0.001000,-0.011000,1.004000,192.000000,0.000000,0.000000,0.000000,0.000000,0.000000,0.000000,0.000000,0.000000,0.000000,1772619952.292415,0.000000
178.000000,10746.182292,-26710.647549,-1827.411571,-941.544883,-21360.444589,-13121.412769,-19818.688311,-23607.890142,-1308.493472,2985.746024,-10644.884186,2561.085231,-12371.958777,-15250.170559,4208.632315,-28472.613212,0.001000,-0.011000,1.004000,192.000000,0.000000,0.000000,0.000000,0.000000,0.000000,0.000000,0.000000,0.000000,0.000000,1772619952.770847,0.000000
180.000000,10768.377574,-26687.580548,-1807.272650,-918.790808,-21336.684684,-13103.285504,-19796.783602,-23585.918377,-1271.948370,3020.637097,-10617.458596,2597.585630,-12339.839320,-15221.068587,4224.122074,-28446.193450,-0.000500,-0.011500,1.006000,192.000000,127.500000,120.000000,127.500000,80.000000,15.500000,64.000000,0.000000,0.000000,0.000000,1772619952.770962,0.000000
182.000000,10734.760551,-26725.936142,-1841.962557,-957.012291,-21380.583510,-13143.093961,-19829.908887,-23620.854154,-1290.880298,2998.039484,-10632.993058,2573.915133,-12355.686707,-15244.381457,4203.916097,-28466.019448,-0.000500,-0.011500,1.006000,192.000000,0.000000,0.000000,0.000000,0.000000,0.000000,0.000000,0.000000,0.000000,0.000000,1772619952.771056,0.000000
184.000000,10755.927653,-26697.147095,-1808.390237,-929.385534,-21351.548594,-13112.270905,-19798.012948,-23591.193389,-1295.082425,2994.999647,-10634.132997,2574.585685,-12344.846111,-15245.364934,4201.636219,-28467.449959,-0.000500,-0.011500,1.006000,192.000000,0.000000,0.000000,0.000000,0.000000,0.000000,0.000000,0.000000,0.000000,0.000000,1772619952.771164,0.000000
186.000000,10730.089036,-26719.945874,-1835.391144,-955.380613,-21374.749705,-13130.219356,-19824.678579,-23620.541229,-1284.890030,3011.897565,-10629.640297,2591.416549,-12332.709114,-15234.434931,4212.320353,-28448.205107,-0.000500,-0.011500,1.006000,192.000000,0.000000,0.000000,0.000000,0.000000,0.000000,0.000000,0.000000,0.000000,0.000000,1772619952.771268,0.000000
188.000000,10726.646868,-26725.846735,-1838.051002,-961.661453,-21374.302670,-13138.265984,-19829.126576,-23628.006712,-1318.641164,2976.023016,-10657.155294,2548.635310,-12384.900437,-15260.430009,4196.607077,-28473.104951,-0.000500,-0.011500,1.006000,192.000000,0.000000,0.000000,0.000000,0.000000,0.000000,0.000000,0.000000,0.000000,0.000000,1772619952.771361,0.000000
190.000000,10736.436932,-26714.134421,-1822.605946,-944.160038,-21355.951888,-13121.122196,-19811.312236,-23618.373110,-1297.295248,2993.591487,-10643.856006,2567.008444,-12365.879102,-15247.778922,4219.182339,-28448.361569,-0.000500,-0.011500,1.006000,192.000000,0.000000,0.000000,127.500000,104.000000,15.500000,64.000000,0.000000,0.000000,0.000000,1772619952.771454,0.000000
192.000000,10711.671199,-26742.498784,-1853.719575,-975.094852,-21382.662223,-13148.212510,-19844.281059,-23650.649029,-1319.982269,2969.093975,-10661.916216,2539.672260,-12386.465059,-15265.190931,4209.146405,-28465.035971,-0.000500,-0.011500,1.006000,192.000000,0.000000,0.000000,0.000000,0.000000,0.000000,0.000000,0.000000,0.000000,0.000000,1772619952.771503,0.000000
194.000000,10748.149246,-26699.225807,-1814.648725,-934.660546,-21339.992743,-13108.716978,-19807.110108,-23609.722985,-1310.326315,2982.996760,-10653.154332,2550.535208,-12373.389289,-15253.746838,4216.500129,-28455.536479,-0.000500,-0.011500,1.006000,192.000000,0.000000,0.000000,0.000000,0.000000,0.000000,0.000000,0.000000,0.000000,0.000000,1772619952.771528,0.000000
196.000000,10735.095827,-26716.190781,-1834.877054,-954.084212,-21362.523301,-13129.906431,-19828.031341,-23626.911476,-1285.068844,3010.265888,-10632.456616,2576.865563,-12350.054067,-15227.774111,4235.432057,-28435.956351,-0.000500,-0.011500,1.006000,192.000000,0.000000,0.000000,0.000000,0.000000,0.000000,0.000000,0.000000,0.000000,0.000000,1772619952.771554,0.000000
198.000000,10754.988880,-26693.906092,-1826.696316,-940.404944,-21357.561214,-13119.915202,-19818.353035,-23609.186543,-1312.203862,2983.376739,-10650.516826,2550.177580,-12381.972358,-15260.117085,4214.533176,-28467.405256,-0.000500,-0.011500,1.006000,192.000000,0.000000,0.000000,0.000000,0.000000,0.000000,0.000000,0.000000,0.000000,0.000000,1772619952.771580,0.000000
200.000000,10774.770173,-26666.994592,-1804.858661,-917.114427,-21330.828527,-13094.121289,-19797.342395,-23581.671546,-1268.595608,3031.321231,-10612.049474,2599.686694,-12341.046314,-15210.004474,4235.365002,-28437.073938,0.000750,-0.010750,1.007000,192.000000,0.000000,8.000000,127.500000,88.000000,15.500000,64.000000,0.000000,0.000000,0.000000,1772619952.771606,0.000000
202.000000,10748.305708,-26697.862351,-1838.699202,-946.126991,-21368.267699,-13127.693609,-19830.557088,-23615.355625,-1287.080501,3016.569080,-10627.583936,2583.124051,-12358.547730,-15230.545727,4213.393237,-28459.246869,0.000750,-0.010750,1.007000,192.000000,0.000000,0.000000,0.000000,0.000000,0.000000,0.000000,0.000000,0.000000,0.000000,1772619952.771654,0.000000
204.000000,10774.434897,-26665.653487,-1808.412589,-916.443874,-21344.843071,-13101.452661,-19800.382233,-23584.443162,-1286.499356,3016.367914,-10627.069846,2584.867488,-12360.514684,-15230.299858,4208.945240,-28460.297401,0.000750,-0.010750,1.007000,192.000000,0.000000,0.000000,0.000000,0.000000,0.000000,0.000000,0.000000,0.000000,0.000000,1772619952.771686,0.000000
206.000000,10745.377629,-26698.018813,-1832.574824,-947.557503,-21372.291013,-13127.872423,-19824.879745,-23617.210819,-1271.009597,3030.293051,-10618.084445,2599.597287,-12338.565271,-15214.653637,4217.371847,-28441.477232,0.000750,-0.010750,1.007000,192.000000,0.000000,0.000000,0.000000,0.000000,0.000000,0.000000,0.000000,0.000000,0.000000,1772619952.771712,0.000000
208.000000,10739.700286,-26699.494028,-1829.646746,-948.898607,-21368.982955,-13137.438969,-19823.806861,-23621.882334,-1317.121246,2989.903449,-10654.942471,2551.518685,-12387.515591,-15259.625347,4195.489489,-28478.156445,0.000750,-0.010750,1.007000,192.000000,0.000000,0.000000,0.000000,0.000000,0.000000,0.000000,0.000000,0.000000,0.000000,1772619952.771738,0.000000
210.000000,10750.295013,-26684.987746,-1812.547661,-928.424409,-21351.325077,-13120.004609,-19801.388061,-23601.452840,-1289.025103,3019.363048,-10631.204919,2587.236772,-12359.084172,-15234.010247,4217.975344,-28445.902878,0.000750,-0.010750,1.007000,192.000000,0.000000,0.000000,127.500000,80.000000,15.500000,72.000000,0.000000,0.000000,0.000000,1772619952.771763,0.000000
212.000000,10712.229992,-26729.624180,-1855.619473,-970.199820,-21393.547522,-13158.673127,-19845.756274,-23643.652933,-1314.416684,2987.288295,-10652.886111,2557.620711,-12378.910169,-15258.641870,4202.642048,-28465.974744,0.000750,-0.010750,1.007000,192.000000,0.000000,0.000000,0.000000,0.000000,0.000000,0.000000,0.000000,0.000000,0.000000,1772619952.771787,0.000000
214.000000,10749.915034,-26688.206397,-1818.940260,-927.709154,-21345.446568,-13114.394321,-19806.238390,-23600.648177,-1312.695600,2988.271771,-10651.880282,2561.375804,-12362.548693,-15257.501931,4210.621620,-28460.744436,0.000750,-0.010750,1.007000,192.000000,0.000000,0.000000,0.000000,0.000000,0.000000,0.000000,0.000000,0.000000,0.000000,1772619952.771801,0.000000
216.000000,10736.727504,-26705.618406,-1836.575787,-947.490447,-21366.233691,-13128.610030,-19824.700931,-23616.607322,-1279.279742,3018.223109,-10627.293363,2591.103624,-12354.367954,-15235.038428,4226.558414,-28441.343122,0.000750,-0.010750,1.007000,192.000000,0.000000,0.000000,0.000000,0.000000,0.000000,0.000000,0.000000,0.000000,0.000000,1772619952.771814,0.000000
218.000000,10746.115237,-26699.069345,-1823.745885,-939.242654,-21349.894565,-13122.820928,-19814.799108,-23605.118526,-1302.927888,2992.160975,-10644.347745,2557.553656,-12369.321271,-15256.071419,4212.610926,-28467.695828,0.000750,-0.010750,1.007000,192.000000,0.000000,0.000000,0.000000,0.000000,0.000000,0.000000,0.000000,0.000000,0.000000,1772619952.771830,0.000000
