Sample_index,EXG Channel 0,EXG Channel 1,EXG Channel 2,EXG Channel 3,EXG Channel 4,EXG Channel 5,EXG Channel 6,EXG Channel 7,EXG Channel 8,EXG Channel 9,EXG Channel 10,EXG Channel 11,EXG Channel 12,EXG Channel 13,EXG Channel 14,EXG Channel 15,Accel Channel 0,Accel Channel 1,Accel Channel 2,Not Used,Digital Channel 0 (D11),Digital Channel 1 (D12),Digital Channel 2 (D13),Digital Channel 3 (D17),Not Used,Digital Channel 4 (D18),Analog Channel 0,Analog Channel 1,Analog Channel 2,Timestamp,Marker Channel
90.000000,22821.309903,22402.393508,3916.763236,1700.476015,24802.724994,-8983.814297,9687.648378,-3063.619502,16495.118021,15144.670325,-5774.215552,10726.445702,13801.084614,22714.602675,-4542.679136,16326.764682,0.004000,-0.006000,1.004000,192.000000,0.000000,0.000000,0.000000,0.000000,0.000000,0.000000,0.000000,0.000000,0.000000,1770902965.471874,101.000000
92.000000,22827.099005,22409.367253,3914.595117,1694.619858,24821.075776,-8992.866754,9688.028358,-3067.218133,16584.167371,15163.848122,-5787.760709,10718.332019,13814.495661,22723.386910,-4545.584863,16361.879273,0.004000,-0.006000,1.004000,192.000000,0.000000,0.000000,0.000000,0.000000,0.000000,0.000000,0.000000,0.000000,0.000000,1770902965.471951,0.000000
94.000000,22827.613095,22398.437249,3930.353097,1708.321477,24808.134116,-8982.517896,9697.594905,-3050.387269,16537.854557,15162.328203,-5769.968721,10733.374743,13826.699713,22717.933085,-4539.929872,16326.876441,0.004000,-0.006000,1.004000,192.000000,0.000000,0.000000,127.500000,88.000000,15.500000,64.000000,0.000000,0.000000,0.000000,1770902965.472007,0.000000
96.000000,22845.092159,22431.674293,3921.501806,1699.805462,24827.557782,-8991.011559,9694.957399,-3052.130705,16533.719484,15161.188264,-5767.487677,10737.956850,13819.658914,22718.491878,-4542.120343,16331.905583,0.004000,-0.006000,1.004000,192.000000,0.000000,0.000000,0.000000,0.000000,0.000000,0.000000,0.000000,0.000000,0.000000,1770902965.472060,0.000000
98.000000,22841.694694,22412.183572,3933.415286,1713.931765,24829.323569,-8975.432393,9698.466623,-3043.882912,16608.284904,15180.343709,-5767.085346,10737.308650,13849.163216,22741.692989,-4540.086334,16354.145569,0.004000,-0.006000,1.004000,192.000000,0.000000,0.000000,0.000000,0.000000,0.000000,0.000000,0.000000,0.000000,0.000000,1770902965.472118,0.000000
100.000000,22839.101891,22418.084433,3925.033382,1710.422541,24826.440194,-8978.248713,9694.644474,-3051.840133,16516.285123,15167.334994,-5757.429392,10746.964603,13822.788158,22720.414128,-4537.024145,16319.679179,0.004000,-0.006000,1.004000,192.000000,0.000000,0.000000,0.000000,0.000000,0.000000,0.000000,0.000000,0.000000,0.000000,1770902965.472176,0.000000
102.000000,22838.945429,22419.067910,3923.021725,1699.492538,24841.371160,-8977.600512,9689.682387,-3064.625331,16594.851505,15177.885017,-5777.501259,10731.161920,13833.964030,22734.495727,-4539.192264,16364.583834,0.004000,-0.006000,1.004000,192.000000,0.000000,0.000000,0.000000,0.000000,0.000000,0.000000,0.000000,0.000000,0.000000,1770902965.472197,0.000000
104.000000,22823.120394,22391.977595,3926.039210,1713.194157,24818.505325,-8967.743393,9690.799974,-3062.211342,16549.723333,15161.188264,-5767.934712,10730.290202,13828.331390,22733.288733,-4534.051363,16340.555708,0.004000,-0.006000,1.004000,192.000000,0.000000,0.000000,127.500000,88.000000,15.500000,64.000000,0.000000,0.000000,0.000000,1770902965.472214,0.000000
106.000000,22824.237981,22410.238971,3909.096588,1698.129082,24822.394529,-8975.857076,9685.189686,-3075.510630,16520.420196,15150.414723,-5780.697558,10724.366990,13810.807623,22720.436480,-4545.294290,16352.200967,0.004000,-0.006000,1.004000,192.000000,0.000000,0.000000,0.000000,0.000000,0.000000,0.000000,0.000000,0.000000,0.000000,1770902965.472233,0.000000
108.000000,22818.247714,22389.094220,3916.874995,1709.483768,24814.459659,-8957.819218,9687.782489,-3065.809973,16587.117802,15160.875340,-5788.453613,10720.567193,13828.867832,22726.739672,-4551.016337,16380.163000,0.004000,-0.006000,1.004000,192.000000,0.000000,0.000000,0.000000,0.000000,0.000000,0.000000,0.000000,0.000000,0.000000,1770902965.472250,0.000000
110.000000,22816.571333,22397.766697,3912.784626,1704.946364,24814.146735,-8958.735640,9686.396681,-3070.146211,16493.151068,15138.523595,-5775.042567,10727.406827,13811.321713,22715.161468,-4548.468238,16347.015363,0.004000,-0.006000,1.004000,192.000000,0.000000,0.000000,0.000000,0.000000,0.000000,0.000000,0.000000,0.000000,0.000000,1770902965.472268,0.000000
112.000000,22829.825917,22413.479973,3914.349248,1699.023151,24838.174860,-8962.468381,9686.240218,-3071.643778,16581.373403,15159.757752,-5790.442919,10720.254269,13833.584050,22735.479204,-4546.143657,16387.516724,0.004000,-0.006000,1.004000,192.000000,0.000000,0.000000,0.000000,0.000000,0.000000,0.000000,0.000000,0.000000,0.000000,1770902965.472287,0.000000
114.000000,22821.667531,22395.240950,3927.804998,1710.467244,24823.065081,-8959.339137,9693.862163,-3059.797354,16542.459016,15154.885072,-5771.779212,10724.657562,13835.036914,22725.353864,-4538.611119,16351.575118,0.003000,-0.007000,1.006000,192.000000,0.000000,8.000000,127.500000,96.000000,15.500000,64.000000,0.000000,0.000000,0.000000,1770902965.472306,0.000000
116.000000,22838.856022,22420.699587,3920.451274,1691.244744,24830.709378,-8981.646178,9692.901038,-3064.044185,16532.579545,15146.056133,-5771.935674,10726.512757,13814.808585,22715.876724,-4543.260281,16346.300107,0.003000,-0.007000,1.006000,192.000000,0.000000,0.000000,0.000000,0.000000,0.000000,0.000000,0.000000,0.000000,0.000000,1770902965.472325,0.000000
118.000000,22835.078577,22405.142773,3929.682544,1707.360352,24825.859049,-8979.254541,9697.639608,-3053.628272,16601.177049,15171.179494,-5771.421584,10725.551632,13835.796873,22730.785338,-4546.568340,16356.805427,0.003000,-0.007000,1.006000,192.000000,0.000000,0.000000,0.000000,0.000000,0.000000,0.000000,0.000000,0.000000,0.000000,1770902965.472343,0.000000
120.000000,22842.611115,22422.152450,3925.212196,1706.242765,24815.845468,-8986.876486,9698.868954,-3050.700194,16507.210315,15154.125113,-5758.770497,10738.873272,13826.409140,22713.708605,-4547.037726,16317.779281,0.003000,-0.007000,1.006000,192.000000,0.000000,0.000000,0.000000,0.000000,0.000000,0.000000,0.000000,0.000000,0.000000,1770902965.472371,0.000000
122.000000,22844.689828,22429.930857,3922.306469,1698.821986,24846.489709,-8986.250637,9695.873820,-3054.231769,16595.678520,15176.499209,-5773.612055,10737.912147,13833.248774,22727.566687,-4549.228197,16362.907453,0.003000,-0.007000,1.006000,192.000000,0.000000,0.000000,0.000000,0.000000,0.000000,0.000000,0.000000,0.000000,0.000000,1770902965.472390,0.000000
124.000000,22838.811319,22412.384738,3930.062524,1717.977431,24829.770604,-8978.807506,9698.734844,-3041.267758,16550.840920,15172.140619,-5757.943482,10747.881025,13830.343047,22731.344131,-4541.583901,16333.291392,0.004500,-0.010500,1.006000,192.000000,0.000000,24.000000,127.500000,72.000000,15.500000,56.000000,0.000000,0.000000,0.000000,1770902965.472408,0.000000
126.000000,22837.693732,22426.913372,3913.812806,1697.056198,24837.884288,-8997.493565,9690.732919,-3058.813877,16540.447359,15155.555624,-5764.336081,10740.750818,13815.590896,22722.559896,-4548.423534,16339.840453,0.004500,-0.010500,1.006000,192.000000,0.000000,0.000000,0.000000,0.000000,0.000000,0.000000,0.000000,0.000000,0.000000,1770902965.472427,0.000000
128.000000,22827.546040,22402.102936,3916.874995,1705.974544,24832.721035,-8990.385710,9689.481221,-3060.914941,16598.025453,15172.565302,-5778.127107,10731.117216,13827.951411,22733.914582,-4553.162104,16365.612014,0.004500,-0.010500,1.006000,192.000000,0.000000,0.000000,0.000000,0.000000,0.000000,0.000000,0.000000,0.000000,0.000000,1770902965.472444,0.000000
130.000000,22816.236057,22400.203037,3909.677733,1699.470186,24813.230313,-8996.890068,9686.799012,-3072.783717,16495.922684,15145.519691,-5776.696596,10730.245498,13805.912591,22725.197402,-4557.051308,16328.195194,0.004500,-0.010500,1.006000,192.000000,0.000000,0.000000,0.000000,0.000000,0.000000,0.000000,0.000000,0.000000,0.000000,1770902965.472461,0.000000
132.000000,22817.107775,22404.405165,3899.753559,1696.989143,24825.523773,-8994.833707,9683.669768,-3082.305560,16567.112990,15153.253395,-5796.947276,10718.801405,13798.447108,22703.247989,-4569.925913,16375.558540,0.004500,-0.010500,1.006000,192.000000,0.000000,0.000000,0.000000,0.000000,0.000000,0.000000,0.000000,0.000000,0.000000,1770902965.472480,0.000000
134.000000,22802.445031,22378.745363,3917.679658,1702.465320,24822.796860,-8974.739489,9687.089585,-3077.566991,16520.308437,15147.531348,-5789.124166,10718.041446,13802.403367,22716.144945,-4559.755869,16351.776284,0.006250,-0.010250,1.008000,192.000000,0.000000,32.000000,127.500000,88.000000,15.500000,72.000000,0.000000,0.000000,0.000000,1770902965.472498,0.000000
136.000000,22820.013502,22412.585904,3909.320105,1695.692741,24844.522756,-8973.174867,9685.346149,-3080.316255,16508.551420,15140.378790,-5789.526497,10716.096844,13802.805698,22714.021529,-4553.385622,16361.566348,0.006250,-0.010250,1.008000,192.000000,0.000000,0.000000,0.000000,0.000000,0.000000,0.000000,0.000000,0.000000,0.000000,1770902965.472516,0.000000
138.000000,22827.993074,22405.790973,3928.341440,1709.304954,24856.145663,-8944.318765,9693.124556,-3060.669072,16588.637720,15172.162971,-5781.591628,10727.071551,13840.334277,22729.176012,-4552.066869,16386.533247,0.006250,-0.010250,1.008000,192.000000,0.000000,0.000000,0.000000,0.000000,0.000000,0.000000,0.000000,0.000000,0.000000,1770902965.472535,0.000000
140.000000,22839.750092,22423.851183,3932.029478,1705.125178,24857.307954,-8948.431486,9696.097338,-3052.845961,16511.390091,15157.500226,-5758.211703,10740.259080,13841.273050,22732.908754,-4541.159217,16346.680086,0.006250,-0.010250,1.008000,192.000000,0.000000,0.000000,0.000000,0.000000,0.000000,0.000000,0.000000,0.000000,0.000000,1770902965.472553,0.000000
142.000000,22849.853080,22437.865727,3928.699068,1701.973582,24873.825893,-8956.612224,9695.918524,-3055.528171,16602.406395,15176.096878,-5765.185447,10737.778036,13852.739495,22732.215849,-4538.767581,16380.811200,0.006250,-0.010250,1.008000,192.000000,0.000000,0.000000,0.000000,0.000000,0.000000,0.000000,0.000000,0.000000,0.000000,1770902965.472572,0.000000
144.000000,22845.360380,22416.139831,3938.444428,1713.328268,24855.922145,-8951.404268,9699.606562,-3046.766287,16561.368592,15179.092011,-5754.993052,10744.796484,13859.310908,22749.247879,-4537.068848,16347.775322,0.005125,-0.008125,1.009000,192.000000,0.000000,16.000000,127.500000,104.000000,15.500000,72.000000,0.000000,0.000000,0.000000,1770902965.472591,0.000000
146.000000,22856.312735,22441.307895,3920.451274,1705.169881,24854.536337,-8968.883332,9694.644474,-3057.897455,16536.155824,15168.497284,-5761.318596,10741.354315,13829.828957,22726.225582,-4547.082430,16354.011459,0.005125,-0.008125,1.009000,192.000000,0.000000,0.000000,0.000000,0.000000,0.000000,0.000000,0.000000,0.000000,0.000000,1770902965.472610,0.000000
148.000000,22847.148519,22420.654883,3925.905100,1718.647983,24835.649113,-8960.523779,9698.131346,-3052.734202,16597.913694,15193.911218,-5767.912360,10741.510778,13849.811417,22749.806672,-4557.364232,16376.184389,0.005125,-0.008125,1.009000,192.000000,0.000000,0.000000,0.000000,0.000000,0.000000,0.000000,0.000000,0.000000,0.000000,1770902965.472628,0.000000
150.000000,22842.164080,22422.286561,3918.216100,1712.858881,24817.946532,-8974.672434,9695.896172,-3055.215246,16502.672911,15168.497284,-5757.876427,10749.445647,13817.848422,22731.075910,-4562.371023,16339.460473,0.005125,-0.008125,1.009000,192.000000,0.000000,0.000000,0.000000,0.000000,0.000000,0.000000,0.000000,0.000000,0.000000,1770902965.472646,0.000000
152.000000,22840.800624,22422.957113,3909.297753,1702.979410,24825.791994,-8985.311864,9690.218829,-3065.519400,16584.167371,15178.399107,-5775.802526,10733.978240,13826.766768,22734.898059,-4573.435136,16378.687785,0.005125,-0.008125,1.009000,192.000000,0.000000,0.000000,0.000000,0.000000,0.000000,0.000000,0.000000,0.000000,0.000000,1770902965.472665,0.000000
154.000000,22823.701539,22394.302177,3916.204443,1708.053256,24811.531581,-8977.086422,9691.157602,-3065.854676,16538.994496,15160.249491,-5771.421584,10735.118179,13816.350855,22728.393701,-4566.349633,16350.099903,0.004563,-0.011062,1.006500,192.000000,0.000000,16.000000,127.500000,72.000000,15.500000,48.000000,0.000000,0.000000,0.000000,1770902965.472683,0.000000
156.000000,22831.077615,22414.955189,3898.479509,1693.681084,24819.064119,-8994.856059,9686.396681,-3081.120918,16515.882792,15149.990040,-5786.441956,10727.049199,13804.258562,22714.468564,-4568.204828,16354.525549,0.004563,-0.011062,1.006500,192.000000,0.000000,0.000000,0.000000,0.000000,0.000000,0.000000,0.000000,0.000000,0.000000,1770902965.472702,0.000000
158.000000,22818.828859,22390.815305,3912.695219,1700.319552,24824.942628,-8987.927018,9689.078890,-3076.158831,16581.552217,15156.874377,-5793.013369,10720.455434,13815.702655,22711.562838,-4568.853029,16371.646985,0.004563,-0.011062,1.006500,192.000000,0.000000,0.000000,0.000000,0.000000,0.000000,0.000000,0.000000,0.000000,0.000000,1770902965.472721,0.000000
160.000000,22816.884257,22399.353671,3912.918736,1698.486709,24826.239029,-8982.964931,9691.626989,-3071.889647,16485.305606,15134.097950,-5777.858886,10724.523452,13791.920399,22709.439422,-4560.091145,16331.704418,0.004563,-0.011062,1.006500,192.000000,0.000000,0.000000,0.000000,0.000000,0.000000,0.000000,0.000000,0.000000,0.000000,1770902965.472739,0.000000
162.000000,22826.629618,22416.296293,3914.058675,1695.446872,24845.036846,-8970.850285,9691.336416,-3068.559238,16569.616386,15160.808284,-5786.643122,10721.930650,13813.243963,22714.133288,-4561.499305,16375.580892,0.004563,-0.011062,1.006500,192.000000,0.000000,0.000000,0.000000,0.000000,0.000000,0.000000,0.000000,0.000000,0.000000,1770902965.472757,0.000000
164.000000,22830.317656,22407.422651,3926.955632,1721.307841,24835.984389,-8950.331384,9699.964190,-3051.124877,16539.262717,15168.921968,-5765.856000,10739.834397,13830.231289,22732.975809,-4556.201942,16348.982316,0.004563,-0.011062,1.006500,192.000000,0.000000,0.000000,0.000000,0.000000,0.000000,0.000000,0.000000,0.000000,0.000000,1770902965.472776,0.000000
166.000000,22851.261240,22448.348695,3917.791416,1711.003686,24851.340038,-8960.188503,9698.488974,-3052.175409,16535.261754,15169.793686,-5763.419660,10746.942252,13829.918364,22745.828062,-4559.755869,16353.475017,-0.002000,-0.016000,0.996000,192.000000,127.500000,120.000000,127.500000,64.000000,15.500000,16.000000,0.000000,0.000000,0.000000,1770902965.472794,0.000000
168.000000,22852.512938,22433.976523,3933.504693,1720.749047,24858.917279,-8954.891140,9703.473413,-3045.112258,16607.122613,15199.834430,-5762.033851,10750.004441,13856.941623,22741.469472,-4558.459468,16372.853979,-0.002000,-0.016000,0.996000,192.000000,0.000000,0.000000,0.000000,0.000000,0.000000,0.000000,0.000000,0.000000,0.000000,1770902965.472813,0.000000
170.000000,22850.389522,22437.038712,3928.855530,1717.508044,24857.285602,-8963.228341,9702.534640,-3050.230807,16519.660237,15181.394241,-5747.907549,10755.122990,13831.259469,22741.000085,-4550.636357,16331.525604,-0.002000,-0.016000,0.996000,192.000000,0.000000,0.000000,0.000000,0.000000,0.000000,0.000000,0.000000,0.000000,0.000000,1770902965.472831,0.000000
172.000000,22851.216537,22443.587773,3921.121826,1709.260250,24869.377896,-8968.078669,9698.891306,-3056.936330,16599.455965,15197.398090,-5767.062994,10748.015135,13851.890129,22743.458777,-4559.174724,16377.704308,-0.002000,-0.016000,0.996000,192.000000,0.000000,0.000000,0.000000,0.000000,0.000000,0.000000,0.000000,0.000000,0.000000,1770902965.472850,0.000000
174.000000,22833.759824,22411.356558,3929.101399,1717.865672,24844.679218,-8963.809486,9700.031245,-3050.320214,16547.711676,15182.668290,-5757.272930,10748.953909,13844.201129,22745.537489,-4558.638282,16353.497369,-0.002000,-0.016000,0.996000,192.000000,0.000000,0.000000,0.000000,0.000000,0.000000,0.000000,0.000000,0.000000,0.000000,1770902965.472870,0.000000
176.000000,22834.586839,22422.197154,3910.840024,1695.536279,24847.048503,-8988.910495,9692.901038,-3065.429993,16525.806967,15164.317508,-5767.711194,10735.319344,13828.510204,22722.626951,-4563.019224,16358.437104,-0.002000,-0.016000,0.996000,192.000000,0.000000,0.000000,127.500000,80.000000,15.500000,24.000000,0.000000,0.000000,0.000000,1770902965.472888,0.000000
178.000000,22816.258409,22389.720069,3916.450312,1702.979410,24830.284694,-8986.809431,9693.728053,-3065.206476,16588.637720,15165.300985,-5779.468212,10725.529280,13839.440207,22715.854372,-4564.337976,16379.224226,-0.002000,-0.016000,0.996000,192.000000,0.000000,0.000000,0.000000,0.000000,0.000000,0.000000,0.000000,0.000000,0.000000,1770902965.472903,0.000000
180.000000,22806.937731,22390.703546,3910.057713,1692.809366,24823.378005,-8995.057225,9689.727091,-3077.209363,16484.411536,15131.840424,-5777.009520,10724.232879,13804.616190,22701.973939,-4560.001738,16340.935688,-0.002000,-0.016000,0.996000,192.000000,0.000000,0.000000,0.000000,0.000000,0.000000,0.000000,0.000000,0.000000,0.000000,1770902965.472921,0.000000
182.000000,22813.978531,22402.237046,3908.582498,1682.192288,24843.740445,-8992.687940,9686.642550,-3083.847831,16564.944871,15148.112494,-5796.679055,10711.268867,13812.908687,22717.329588,-4555.978424,16383.672224,-0.002000,-0.016000,0.996000,192.000000,0.000000,0.000000,0.000000,0.000000,0.000000,0.000000,0.000000,0.000000,0.000000,1770902965.472938,0.000000
184.000000,22806.825972,22383.953319,3922.038248,1706.645096,24833.391587,-8975.700614,9693.035149,-3073.700139,16527.148071,15149.408895,-5783.200953,10718.957867,13825.917402,22721.934047,-4542.075639,16354.212624,-0.002000,-0.016000,0.996000,192.000000,0.000000,0.000000,0.000000,0.000000,0.000000,0.000000,0.000000,0.000000,0.000000,1770902965.472957,0.000000
186.000000,22820.751109,22419.693758,3910.840024,1701.928878,24851.183576,-8973.040756,9693.057500,-3076.270589,16503.969312,15148.693639,-5786.151384,10724.590507,13822.296419,22721.330550,-4542.299156,16359.822912,0.004000,-0.016000,1.000000,192.000000,0.000000,16.000000,127.500000,64.000000,15.500000,32.000000,0.000000,0.000000,0.000000,1770902965.472975,0.000000
188.000000,22829.289476,22412.787069,3929.034344,1714.557614,24858.246727,-8954.511160,9699.718320,-3057.606883,16590.939950,15184.210561,-5778.887067,10731.340734,13834.791045,22746.118634,-4549.339956,16381.593511,0.004000,-0.016000,1.000000,192.000000,0.000000,0.000000,0.000000,0.000000,0.000000,0.000000,0.000000,0.000000,0.000000,1770902965.472994,0.000000
190.000000,22837.939601,22427.807442,3925.994507,1714.244689,24852.927012,-8956.455762,9701.864088,-3051.236636,16512.418272,15167.670270,-5757.205875,10748.395115,13823.615172,22742.676466,-4551.172799,16339.214604,0.004000,-0.016000,1.000000,192.000000,0.000000,0.000000,0.000000,0.000000,0.000000,0.000000,0.000000,0.000000,0.000000,1770902965.473013,0.000000
192.000000,22849.115473,22444.839471,3922.977021,1714.155282,24866.718038,-8960.747297,9700.120652,-3050.499028,16594.918560,15191.117250,-5763.576122,10745.020002,13843.642335,22753.204137,-4562.214561,16382.197008,0.004000,-0.016000,1.000000,192.000000,0.000000,0.000000,0.000000,0.000000,0.000000,0.000000,0.000000,0.000000,0.000000,1770902965.473031,0.000000
194.000000,22840.979438,22423.068872,3930.107228,1724.861768,24850.289506,-8952.767724,9703.540469,-3043.860560,16561.145075,15190.290235,-5750.455648,10752.731353,13846.101027,22759.417922,-4561.409898,16355.486674,0.004000,-0.016000,1.000000,192.000000,0.000000,0.000000,0.000000,0.000000,0.000000,0.000000,0.000000,0.000000,0.000000,1770902965.473049,0.000000
196.000000,22845.829766,22444.973581,3912.516405,1707.449759,24855.184538,-8965.374108,9696.611428,-3062.256046,16536.580507,15180.231950,-5762.324424,10747.657507,13836.646239,22752.555937,-4568.048366,16360.694630,0.002000,-0.014000,1.004000,192.000000,0.000000,8.000000,127.500000,72.000000,15.500000,48.000000,0.000000,0.000000,0.000000,1770902965.473068,0.000000
198.000000,22834.385673,22417.726805,3919.825425,1716.211643,24852.703494,-8957.327480,9696.767890,-3063.239522,16608.888401,15203.455413,-5770.795735,10742.471903,13849.185568,22760.088475,-4570.462354,16389.058994,0.002000,-0.014000,1.004000,192.000000,0.000000,0.000000,0.000000,0.000000,0.000000,0.000000,0.000000,0.000000,0.000000,1770902965.473087,0.000000
200.000000,22820.438185,22411.043633,3911.488224,1704.879308,24843.740445,-8969.531532,9691.425823,-3074.683616,16503.835202,15172.207674,-5767.688843,10740.817874,13828.554908,22740.463643,-4563.443907,16350.189310,0.002000,-0.014000,1.004000,192.000000,0.000000,0.000000,0.000000,0.000000,0.000000,0.000000,0.000000,0.000000,0.000000,1770902965.473106,0.000000
202.000000,22817.845382,22408.070851,3904.045094,1686.215602,24842.399340,-8985.065995,9685.301445,-3087.312351,16573.617348,15168.631395,-5792.052244,10719.069626,13819.748321,22733.266381,-4565.589674,16388.410793,0.002000,-0.014000,1.004000,192.000000,0.000000,0.000000,0.000000,0.000000,0.000000,0.000000,0.000000,0.000000,0.000000,1770902965.473124,0.000000
204.000000,22802.020347,22376.934871,3917.456140,1695.782148,24833.078663,-8985.781251,9689.481221,-3078.706930,16528.042141,15151.621717,-5783.200953,10714.688684,13823.972800,22730.248896,-4555.978424,16352.446837,0.002000,-0.014000,1.004000,192.000000,0.000000,0.000000,0.000000,0.000000,0.000000,0.000000,0.000000,0.000000,0.000000,1770902965.473142,0.000000
206.000000,22813.777365,22408.383776,3909.856547,1683.801613,24850.691837,-8999.237001,9688.631855,-3081.389139,16503.187001,15136.355476,-5784.653817,10710.866536,13810.025312,22729.734806,-4550.479895,16349.518758,0.004000,-0.010000,0.996000,192.000000,0.000000,16.000000,127.500000,88.000000,15.500000,16.000000,0.000000,0.000000,0.000000,1770902965.473161,0.000000
208.000000,22820.684054,22401.298273,3922.015896,1702.577079,24857.039733,-8985.267161,9695.627951,-3066.748746,16581.574569,15160.450656,-5783.960913,10716.700341,13831.281821,22718.849506,-4548.244720,16372.183427,0.004000,-0.010000,0.996000,192.000000,0.000000,0.000000,0.000000,0.000000,0.000000,0.000000,0.000000,0.000000,0.000000,1770902965.473179,0.000000
210.000000,22825.802603,22412.943532,3917.523195,1705.035771,24864.773436,-8976.259408,9696.745538,-3067.843982,16492.547571,15150.906462,-5765.252503,10730.536071,13840.624850,22724.705663,-4544.243758,16336.532394,0.004000,-0.010000,0.996000,192.000000,0.000000,0.000000,0.000000,0.000000,0.000000,0.000000,0.000000,0.000000,0.000000,1770902965.951880,0.000000
212.000000,22830.675284,22423.717072,3916.874995,1704.968715,24878.609166,-8975.722966,9696.343207,-3072.090813,16573.237368,15175.783953,-5781.211648,10726.803330,13833.315829,22742.140024,-4553.564436,16378.732488,0.004000,-0.010000,0.996000,192.000000,0.000000,0.000000,0.000000,0.000000,0.000000,0.000000,0.000000,0.000000,0.000000,1770902965.951955,0.000000
214.000000,22822.807470,22404.785145,3930.576614,1718.759742,24869.780227,-8962.669547,9702.244067,-3060.646720,16542.682534,15177.035651,-5766.347738,10735.498158,13847.397428,22748.040884,-4549.831694,16352.245671,0.004000,-0.010000,0.996000,192.000000,0.000000,0.000000,0.000000,0.000000,0.000000,0.000000,0.000000,0.000000,0.000000,1770902965.952014,0.000000
216.000000,22829.624752,22432.389549,3916.427960,1705.862785,24880.173788,-8972.213742,9696.589076,-3070.593246,16525.628153,15174.018165,-5768.381747,10735.654621,13836.065094,22754.902870,-4553.720898,16358.213587,0.004000,-0.010000,0.998000,192.000000,0.000000,16.000000,127.500000,88.000000,15.500000,24.000000,0.000000,0.000000,0.000000,1770902965.952069,0.000000
218.000000,22827.009598,22415.402224,3925.435713,1716.189291,24869.646116,-8964.368280,9698.824251,-3062.546618,16595.656168,15195.252323,-5775.221381,10736.861615,13859.087391,22756.959231,-4561.588712,16383.314596,0.004000,-0.010000,0.998000,192.000000,0.000000,0.000000,0.000000,0.000000,0.000000,0.000000,0.000000,0.000000,0.000000,1770902965.952129,0.000000
220.000000,22825.020292,22420.967808,3922.172358,1707.025076,24860.727770,-8970.537361,9698.466623,-3064.826496,16508.238495,15174.465200,-5759.284587,10743.097752,13843.105894,22759.596736,-4560.113497,16345.808368,0.004000,-0.010000,0.998000,192.000000,0.000000,0.000000,0.000000,0.000000,0.000000,0.000000,0.000000,0.000000,0.000000,1770902965.952170,0.000000
222.000000,22823.388615,22424.901715,3912.158777,1703.694666,24858.827872,-8981.534419,9693.862163,-3074.102470,16581.976900,15185.261093,-5776.651892,10733.195929,13843.709391,22757.316858,-4569.076546,16385.996805,0.004000,-0.010000,0.998000,192.000000,0.000000,0.000000,0.000000,0.000000,0.000000,0.000000,0.000000,0.000000,0.000000,1770902965.952207,0.000000
224.000000,22805.529571,22392.379927,3915.958573,1707.069779,24836.766700,-8978.002844,9693.169259,-3073.320159,16541.006153,15176.968596,-5773.880276,10730.446664,13836.556832,22745.202213,-4568.003663,16358.280642,0.004000,-0.010000,0.998000,192.000000,0.000000,0.000000,0.000000,0.000000,0.000000,0.000000,0.000000,0.000000,0.000000,1770902965.952222,0.000000
226.000000,22806.267179,22411.893000,3901.340532,1690.976523,24842.086416,-8998.432338,9686.709605,-3088.586401,16504.773975,15150.325316,-5786.866639,10721.640077,13815.434434,22724.593905,-4569.344767,16354.123217,0.004000,-0.006000,1.004000,192.000000,0.000000,16.000000,127.500000,104.000000,15.500000,48.000000,0.000000,0.000000,0.000000,1770902965.952238,0.000000
228.000000,22799.785173,22389.720069,3911.689390,1699.850166,24842.399340,-8989.804565,9687.782489,-3083.177278,16566.107162,15170.128962,-5795.852041,10712.520565,13825.738588,22742.743521,-4569.612988,16372.541055,0.004000,-0.006000,1.004000,192.000000,0.000000,0.000000,0.000000,0.000000,0.000000,0.000000,0.000000,0.000000,0.000000,1770902965.952255,0.000000
230.000000,22807.071842,22401.298273,3912.136425,1698.352599,24845.573288,-8987.748204,9688.542448,-3080.070386,16487.496077,15143.843310,-5778.507087,10720.388379,13814.205088,22723.230448,-4559.800572,16335.012476,0.004000,-0.006000,1.004000,192.000000,0.000000,0.000000,0.000000,0.000000,0.000000,0.000000,0.000000,0.000000,0.000000,1770902965.952272,0.000000
232.000000,22821.376958,22419.582000,3910.392989,1698.933744,24867.679163,-8977.309940,9687.983654,-3079.019854,16570.130476,15174.576959,-5789.325331,10720.388379,13847.710353,22736.797957,-4560.314662,16382.599340,0.004000,-0.006000,1.004000,192.000000,0.000000,0.000000,0.000000,0.000000,0.000000,0.000000,0.000000,0.000000,0.000000,1770902965.952291,0.000000
234.000000,22818.113603,22404.226351,3926.463893,1711.517776,24867.567404,-8959.897931,9693.370425,-3068.715700,16540.559118,15170.866569,-5771.443936,10726.758626,13850.973708,22746.945649,-4548.736459,16360.202892,0.004000,-0.006000,1.004000,192.000000,0.000000,0.000000,0.000000,0.000000,0.000000,0.000000,0.000000,0.000000,0.000000,1770902965.952308,0.000000
236.000000,22831.479947,22434.468262,3912.315239,1701.973582,24881.380782,-8966.111716,9688.900076,-3078.751633,16524.421158,15171.782991,-5773.321482,10731.720714,13832.913498,22747.616201,-4552.111572,16365.500255,0.005000,-0.006000,1.005000,192.000000,0.000000,24.000000,127.500000,104.000000,15.500000,56.000000,0.000000,0.000000,0.000000,1770902965.952325,0.000000
238.000000,22830.876449,22417.972674,3926.285079,1712.434198,24876.709268,-8953.773553,9694.756233,-3069.050976,16597.466659,15189.105593,-5774.237904,10729.105559,13865.278824,22768.403324,-4559.219427,16390.757727,0.005000,-0.006000,1.005000,192.000000,0.000000,0.000000,0.000000,0.000000,0.000000,0.000000,0.000000,0.000000,0.000000,1770902965.952343,0.000000
240.000000,22827.903667,22421.660712,3920.272460,1713.954117,24868.953212,-8957.349832,9694.465660,-3072.582552,16497.509658,15171.380660,-5763.710232,10735.274641,13842.435341,22751.527757,-4558.101840,16353.407962,0.005000,-0.006000,1.005000,192.000000,0.000000,0.000000,0.000000,0.000000,0.000000,0.000000,0.000000,0.000000,0.000000,1770902965.952362,0.000000
242.000000,22831.524650,22430.668465,3913.231661,1706.846262,24879.614994,-8962.334271,9691.068195,-3081.322084,16571.225711,15189.865552,-5783.111546,10730.267850,13861.613138,22756.020457,-4565.679081,16392.590570,0.005000,-0.006000,1.005000,192.000000,0.000000,0.000000,0.000000,0.000000,0.000000,0.000000,0.000000,0.000000,0.000000,1770902965.952380,0.000000
244.000000,22824.573258,22409.858991,3925.078085,1716.770436,24859.498424,-8955.829913,9695.493841,-3071.219095,16539.530938,15179.717860,-5772.427413,10735.051124,13848.135036,22753.137082,-4562.348671,16363.376840,0.005000,-0.006000,1.005000,192.000000,0.000000,0.000000,0.000000,0.000000,0.000000,0.000000,0.000000,0.000000,0.000000,1770902965.952397,0.000000
246.000000,22830.854098,22431.562535,3909.901251,1699.291372,24860.213680,-8978.852210,9690.688216,-3082.506726,16511.077167,15174.219331,-5772.047433,10734.604089,13837.361495,22748.689085,-4564.829715,16360.113485,0.007500,-0.007000,1.008500,192.000000,0.000000,40.000000,127.500000,96.000000,15.500000,80.000000,0.000000,0.000000,0.000000,1770902965.952414,0.000000
248.000000,22818.381824,22406.707395,3917.567899,1707.673276,24853.128177,-8976.527628,9693.862163,-3076.114127,16582.379232,15182.444773,-5781.234000,10725.082245,13854.170007,22750.074893,-4569.478878,16376.854941,0.007500,-0.007000,1.008500,192.000000,0.000000,0.000000,0.000000,0.000000,0.000000,0.000000,0.000000,0.000000,0.000000,1770902965.952431,0.000000
250.000000,22805.797792,22398.772526,3912.985791,1700.654829,24844.098073,-8989.938675,9691.694044,-3085.077177,16483.293949,15157.232005,-5772.919151,10727.429179,13838.859062,22731.679408,-4567.422517,16332.643191,0.007500,-0.007000,1.008500,192.000000,0.000000,0.000000,0.000000,0.000000,0.000000,0.000000,0.000000,0.000000,0.000000,1770902965.952451,0.000000
252.000000,22807.228304,22403.399337,3907.822538,1688.584887,24853.262288,-8998.812318,9686.128460,-3095.671904,16553.053743,15160.718877,-5795.315599,10711.224164,13843.307059,22727.544335,-4564.852067,16364.203854,0.007500,-0.007000,1.008500,192.000000,0.000000,0.000000,0.000000,0.000000,0.000000,0.000000,0.000000,0.000000,0.000000,1770902965.952468,0.000000
254.000000,22800.858057,22379.281804,3921.188882,1699.738407,24844.813328,-8983.367262,9690.129422,-3086.127709,16523.661199,15157.276709,-5782.396291,10711.380626,13836.042742,22734.182803,-4556.313700,16342.634421,0.007500,-0.007000,1.008500,192.000000,0.000000,0.000000,0.000000,0.000000,0.000000,0.000000,0.000000,0.000000,0.000000,1770902965.952486,0.000000
0.000000,22812.033929,22408.048500,3907.979001,1692.854070,24856.480939,-8984.350739,9686.262570,-3092.006217,16498.023748,15146.458464,-5785.905514,10711.179460,13824.844518,22721.330550,-4555.844314,16351.552767,0.006750,-0.009500,1.005250,192.000000,0.000000,24.000000,127.500000,80.000000,15.500000,40.000000,0.000000,0.000000,0.000000,1770902965.952502,0.000000
2.000000,22812.883295,22394.480991,3916.718533,1708.544994,24863.924070,-8961.775477,9689.816498,-3083.490203,16573.773810,15179.382584,-5789.638256,10714.465167,13859.735591,22741.536527,-4556.827790,16383.359299,0.006750,-0.009500,1.005250,192.000000,0.000000,0.000000,0.000000,0.000000,0.000000,0.000000,0.000000,0.000000,0.000000,1770902965.952520,0.000000
4.000000,22820.594647,22408.674348,3914.773931,1707.941497,24864.952250,-8957.640404,9690.688216,-3080.651531,16488.792478,15169.659575,-5772.807392,10725.216356,13837.741475,22751.684219,-4560.605235,16352.938575,0.006750,-0.009500,1.005250,192.000000,0.000000,0.000000,0.000000,0.000000,0.000000,0.000000,0.000000,0.000000,0.000000,1770902965.952533,0.000000
6.000000,22827.970723,22422.197154,3908.940126,1705.616916,24878.609166,-8960.970814,9688.788317,-3085.345398,16572.767982,15182.891808,-5786.039625,10723.383513,13850.884301,22751.885385,-4568.428346,16392.076479,0.006750,-0.009500,1.005250,192.000000,0.000000,0.000000,0.000000,0.000000,0.000000,0.000000,0.000000,0.000000,0.000000,1770902965.952551,0.000000
8.000000,22821.108737,22404.606331,3917.389085,1717.038657,24867.098018,-8946.531587,9692.409300,-3073.320159,16534.501795,15190.379642,-5774.886104,10732.324211,13855.958147,22760.244937,-4567.646035,16364.360316,0.006750,-0.009500,1.005250,192.000000,0.000000,0.000000,0.000000,0.000000,0.000000,0.000000,0.000000,0.000000,0.000000,1770902965.952570,0.000000
10.000000,22828.842441,22434.244744,3909.007181,1699.179613,24887.058125,-8956.947500,9687.715434,-3081.970284,16510.093690,15186.803363,-5779.848192,10735.051124,13853.052420,22760.557861,-4566.528447,16364.852055,0.005375,-0.012750,1.002625,192.000000,0.000000,16.000000,127.500000,64.000000,15.500000,32.000000,0.000000,0.000000,0.000000,1770902965.952588,0.000000
12.000000,22823.388615,22414.284636,3920.361867,1713.730599,24886.029945,-8951.985413,9691.850506,-3074.750671,16583.362708,15210.697378,-5781.368110,10731.407789,13864.429458,22768.313917,-4565.008529,16388.142572,0.005375,-0.012750,1.002625,192.000000,0.000000,0.000000,0.000000,0.000000,0.000000,0.000000,0.000000,0.000000,0.000000,1770902965.952605,0.000000
14.000000,22822.248676,22416.050424,3916.517367,1704.588736,24880.240843,-8963.138934,9691.694044,-3075.063595,16489.843010,15182.087145,-5766.817125,10734.268812,13847.285670,22765.095266,-4560.359366,16340.376895,0.005375,-0.012750,1.002625,192.000000,0.000000,0.000000,0.000000,0.000000,0.000000,0.000000,0.000000,0.000000,0.000000,1770902965.952624,0.000000
16.000000,22822.025159,22421.437195,3910.571803,1700.252497,24887.505160,-8976.974663,9689.145945,-3083.400796,16560.541577,15191.877209,-5785.212610,10727.004496,13854.482931,22735.099224,-4566.953131,16376.832590,0.005375,-0.012750,1.002625,192.000000,0.000000,0.000000,0.000000,0.000000,0.000000,0.000000,0.000000,0.000000,0.000000,1770902965.952642,0.000000
18.000000,22807.474173,22392.603444,3919.758370,1703.046465,24874.697611,-8973.644253,9692.096375,-3081.031511,16522.051873,15181.483648,-5780.406985,10725.462225,13870.732650,22742.274134,-4558.884151,16346.545976,0.005375,-0.012750,1.002625,192.000000,0.000000,0.000000,0.000000,0.000000,0.000000,0.000000,0.000000,0.000000,0.000000,1770902965.952659,0.000000
20.000000,22813.397385,22413.390567,3905.274439,1691.132985,24880.419657,-8989.648102,9687.447213,-3093.168508,16498.560190,15164.898654,-5786.553715,10718.197908,13851.152522,22729.935971,-4559.733517,16345.093113,0.004687,-0.009375,1.001313,192.000000,0.000000,16.000000,127.500000,104.000000,15.500000,32.000000,0.000000,0.000000,0.000000,1770902965.952677,0.000000
22.000000,22808.792926,22396.738517,3916.226794,1702.532375,24880.643175,-8974.471268,9690.129422,-3085.166584,16572.298595,15181.058965,-5793.929791,10718.399074,13848.671478,22735.054521,-4562.326319,16375.022098,0.004687,-0.009375,1.001313,192.000000,0.000000,0.000000,0.000000,0.000000,0.000000,0.000000,0.000000,0.000000,0.000000,1770902965.952696,0.000000
24.000000,22811.117507,22408.339072,3910.169472,1703.605259,24871.635422,-8970.850285,9690.397643,-3082.573781,16480.209408,15163.289328,-5780.004654,10727.764455,13832.354704,22734.741597,-4556.067831,16339.348714,0.004687,-0.009375,1.001313,192.000000,0.000000,0.000000,0.000000,0.000000,0.000000,0.000000,0.000000,0.000000,0.000000,1770902965.952713,0.000000
26.000000,22824.640313,22429.684988,3912.583460,1700.543070,24889.159189,-8967.050489,9690.621160,-3080.875049,16565.257795,15189.977311,-5786.039625,10727.317420,13844.044667,22753.382951,-4564.181514,16384.096907,0.004687,-0.009375,1.001313,192.000000,0.000000,0.000000,0.000000,0.000000,0.000000,0.000000,0.000000,0.000000,0.000000,1770902965.952735,0.000000
28.000000,22821.242848,22407.780279,3922.239414,1716.457512,24875.368163,-8956.545169,9695.583248,-3068.536886,16540.246193,15196.884000,-5772.650930,10736.660449,13863.803609,22749.784321,-4561.052270,16361.141665,0.004687,-0.009375,1.001313,192.000000,0.000000,0.000000,0.000000,0.000000,0.000000,0.000000,0.000000,0.000000,0.000000,1770902965.952752,0.000000
30.000000,22836.978476,22435.965828,3913.186957,1703.046465,24882.900701,-8970.291492,9693.191611,-3070.883819,16517.939152,15189.038538,-5768.493506,10738.046257,13847.218614,22753.606469,-4569.456526,16359.867616,0.004344,-0.009688,1.001656,192.000000,0.000000,16.000000,127.500000,88.000000,15.500000,40.000000,0.000000,0.000000,0.000000,1770902965.952784,0.000000
32.000000,22837.313752,22419.850221,3923.848739,1712.702419,24878.072724,-8958.489771,9696.566724,-3061.719604,16598.874819,15209.468032,-5769.253465,10736.146359,13869.793876,22766.056391,-4571.065852,16382.599340,0.004344,-0.009688,1.001656,192.000000,0.000000,0.000000,0.000000,0.000000,0.000000,0.000000,0.000000,0.000000,0.000000,1770902965.952803,0.000000
34.000000,22828.998903,22419.559648,3919.534852,1710.713114,24867.679163,-8962.423678,9694.040977,-3067.039319,16503.298760,15189.217352,-5758.077593,10742.740124,13851.644260,22744.464605,-4569.970616,16343.640249,0.004344,-0.009688,1.001656,192.000000,0.000000,0.000000,0.000000,0.000000,0.000000,0.000000,0.000000,0.000000,0.000000,1770902965.952819,0.000000
36.000000,22828.440109,22426.153413,3911.823501,1706.063951,24871.233090,-8972.325501,9690.844678,-3074.191877,16575.070211,15199.499154,-5777.367148,10732.212452,13857.187493,22742.967039,-4573.233971,16383.806334,0.004344,-0.009688,1.001656,192.000000,0.000000,0.000000,0.000000,0.000000,0.000000,0.000000,0.000000,0.000000,0.000000,1770902965.952852,0.000000
38.000000,22815.006711,22400.493610,3920.384219,1710.288430,24853.932840,-8964.256521,9694.465660,-3066.346415,16545.029467,15194.693529,-5767.867657,10737.107484,13869.011565,22750.164300,-4568.316587,16359.152360,0.004344,-0.009688,1.001656,192.000000,0.000000,0.000000,0.000000,0.000000,0.000000,0.000000,0.000000,0.000000,0.000000,1770902965.952870,0.000000
40.000000,22810.692824,22419.246724,3904.492128,1697.503233,24861.018343,-8984.373091,9688.833021,-3081.612656,16509.087862,15177.952072,-5777.210686,10730.960754,13847.889167,22726.337341,-4571.691700,16359.353526,0.001172,-0.012844,1.003828,192.000000,127.500000,120.000000,127.500000,64.000000,15.500000,56.000000,0.000000,0.000000,0.000000,1770902965.952888,0.000000
42.000000,22803.875542,22398.951340,3915.891518,1704.722846,24857.732637,-8972.705480,9690.330588,-3077.812860,16582.938025,15197.599256,-5788.744186,10723.785844,13850.727838,22742.296486,-4574.463317,16383.180485,0.001172,-0.012844,1.003828,192.000000,0.000000,0.000000,0.000000,0.000000,0.000000,0.000000,0.000000,0.000000,0.000000,1770902965.952905,0.000000
44.000000,22807.608283,22408.540238,3915.265669,1701.817119,24853.195233,-8977.712271,9691.157602,-3075.398871,16481.394050,15172.855875,-5772.717985,10731.251327,13833.695809,22733.087567,-4567.176648,16343.148511,0.001172,-0.012844,1.003828,192.000000,0.000000,0.000000,0.000000,0.000000,0.000000,0.000000,0.000000,0.000000,0.000000,1770902965.952918,0.000000
46.000000,22812.145688,22418.218543,3912.471701,1696.005666,24865.667506,-8977.712271,9690.554105,-3078.237543,16559.960432,15189.284407,-5785.726701,10724.881080,13851.174873,22734.473376,-4569.233009,16384.275721,0.001172,-0.012844,1.003828,192.000000,0.000000,0.000000,0.000000,0.000000,0.000000,0.000000,0.000000,0.000000,0.000000,1770902965.952935,0.000000
48.000000,22805.104888,22396.783220,3924.228719,1707.673276,24853.463453,-8965.888198,9696.074986,-3067.352243,16525.851670,15183.316491,-5775.467250,10734.089998,13860.763772,22729.980675,-4560.404069,16357.654793,0.001172,-0.012844,1.003828,192.000000,0.000000,0.000000,0.000000,0.000000,0.000000,0.000000,0.000000,0.000000,0.000000,1770902965.952954,0.000000
50.000000,22815.476098,22425.125232,3913.410474,1697.659695,24863.879366,-8982.070861,9694.197439,-3073.051938,16501.287103,15179.293177,-5773.768517,10734.402923,13849.722010,22733.646361,-4561.812229,16351.351601,0.001172,-0.012844,1.003828,192.000000,0.000000,0.000000,0.000000,0.000000,0.000000,0.000000,0.000000,0.000000,0.000000,1770902965.952972,0.000000
52.000000,22821.980455,22416.899790,3924.988678,1712.545957,24852.658791,-8967.877503,9700.701797,-3060.579665,16581.015775,15202.784860,-5775.802526,10737.956850,13871.179685,22741.804748,-4571.848163,16376.854941,-0.002000,-0.010000,1.010000,192.000000,127.500000,120.000000,127.500000,88.000000,15.500000,72.000000,0.000000,0.000000,0.000000,1770902965.952988,0.000000
54.000000,22820.929923,22423.180631,3918.685486,1709.595526,24835.246782,-8970.358547,9700.992370,-3060.378499,16494.827449,15190.424346,-5758.703441,10752.060801,13854.393524,22749.113768,-4578.956017,16341.516833,-0.002000,-0.010000,1.010000,192.000000,0.000000,0.000000,0.000000,0.000000,0.000000,0.000000,0.000000,0.000000,0.000000,1770902965.953007,0.000000
56.000000,22823.142746,22431.584887,3909.163643,1708.992029,24836.856107,-8972.593721,9697.080814,-3068.201610,16573.796162,15206.808174,-5777.613017,10741.555481,13863.043650,22761.362524,-4589.506041,16382.264064,-0.002000,-0.010000,1.010000,192.000000,0.000000,0.000000,0.000000,0.000000,0.000000,0.000000,0.000000,0.000000,0.000000,1770902965.953024,0.000000
58.000000,22811.519839,22405.679215,3918.506672,1718.625631,24812.850334,-8964.122410,9699.025416,-3064.647682,16539.486234,15197.889828,-5770.013424,10746.204644,13876.722917,22744.777530,-4590.310704,16362.415715,-0.002000,-0.010000,1.010000,192.000000,0.000000,0.000000,0.000000,0.000000,0.000000,0.000000,0.000000,0.000000,0.000000,1770902965.953044,0.000000
60.000000,22813.017406,22426.332227,3904.827405,1699.537241,24823.266247,-8979.321597,9690.889381,-3080.718587,16509.311379,15188.680910,-5778.238866,10736.101655,13838.210861,22744.442254,-4588.634323,16361.767514,-0.002000,-0.010000,1.010000,192.000000,0.000000,0.000000,0.000000,0.000000,0.000000,0.000000,0.000000,0.000000,0.000000,1770902965.953062,0.000000
62.000000,22809.754051,22408.741404,3914.997448,1706.734503,24817.700662,-8969.263312,9693.169259,-3074.638912,16583.675633,15197.599256,-5784.653817,10732.614783,13862.149580,22758.501501,-4587.159108,16388.656663,-0.002000,-0.010000,1.010000,192.000000,0.000000,0.000000,127.500000,104.000000,15.500000,48.000000,0.000000,0.000000,0.000000,1770902965.953080,0.000000
64.000000,22808.971740,22411.848296,3909.118940,1703.247631,24810.883380,-8975.499448,9690.688216,-3077.566991,16493.441641,15178.510866,-5770.281645,10738.917975,13845.765751,22739.435463,-4581.191192,16346.680086,-0.002000,-0.010000,1.010000,192.000000,0.000000,0.000000,0.000000,0.000000,0.000000,0.000000,0.000000,0.000000,0.000000,1770902965.953096,0.000000
66.000000,22812.883295,22419.134965,3903.352189,1694.910430,24822.461584,-8976.415870,9687.648378,-3086.239467,16567.112990,15191.854857,-5788.543020,10728.636173,13858.349783,22738.094358,-4583.269904,16389.327215,-0.002000,-0.010000,1.010000,192.000000,0.000000,0.000000,0.000000,0.000000,0.000000,0.000000,0.000000,0.000000,0.000000,1770902965.953115,0.000000
68.000000,22798.958158,22391.508209,3916.450312,1707.852090,24809.050537,-8960.814352,9691.336416,-3080.472717,16527.215126,15180.299006,-5780.384634,10728.591469,13858.461542,22732.484070,-4573.882171,16367.198988,-0.002000,-0.010000,1.010000,192.000000,0.000000,0.000000,0.000000,0.000000,0.000000,0.000000,0.000000,0.000000,0.000000,1770902965.953131,0.000000
70.000000,22805.753089,22415.581037,3905.117977,1693.345808,24829.345921,-8972.906646,9686.843716,-3088.698159,16501.935303,15166.530331,-5783.692692,10725.037542,13843.508225,22728.438405,-4568.338939,16365.254386,-0.002000,-0.010000,1.010000,192.000000,0.000000,0.000000,0.000000,0.000000,0.000000,0.000000,0.000000,0.000000,0.000000,1770902965.953149,0.000000
72.000000,22805.306054,22401.611197,3918.797245,1702.577079,24841.125291,-8964.122410,9690.576457,-3079.355130,16582.490990,15191.273712,-5787.403081,10721.595373,13877.482876,22736.909716,-4562.438078,16389.751898,-0.002000,-0.010000,1.010000,192.000000,0.000000,0.000000,127.500000,80.000000,15.500000,80.000000,0.000000,0.000000,0.000000,1770902965.953167,0.000000
74.000000,22812.503316,22414.128174,3922.328821,1700.587773,24840.298276,-8969.643291,9693.437480,-3073.566028,16489.060699,15176.208636,-5769.432279,10735.453455,13854.952318,22731.746463,-4549.518770,16346.367162,-0.002000,-0.010000,1.010000,192.000000,0.000000,0.000000,0.000000,0.000000,0.000000,0.000000,0.000000,0.000000,0.000000,1770902966.432242,0.000000
76.000000,22819.342949,22425.661674,3915.578594,1702.979410,24844.187480,-8981.646178,9692.342245,-3076.337645,16571.382173,15198.225105,-5779.021177,10736.079304,13876.722917,22739.971905,-4556.313700,16386.019157,-0.002000,-0.010000,1.010000,192.000000,0.000000,0.000000,0.000000,0.000000,0.000000,0.000000,0.000000,0.000000,0.000000,1770902966.432299,0.000000
78.000000,22812.704481,22404.986311,3924.072257,1711.696590,24824.808517,-8973.107812,9697.147870,-3066.234656,16538.323943,15194.179439,-5770.795735,10740.549653,13865.927025,22746.297448,-4560.895808,16361.186369,-0.002000,-0.010000,1.010000,192.000000,0.000000,0.000000,0.000000,0.000000,0.000000,0.000000,0.000000,0.000000,0.000000,1770902966.432347,0.000000
80.000000,22819.812336,22426.332227,3906.704951,1703.672314,24818.013587,-8984.484850,9691.939913,-3076.225886,16510.630132,15181.483648,-5772.025081,10739.141493,13864.340051,22730.695931,-4575.156221,16363.354488,-0.002000,-0.010000,1.010000,192.000000,0.000000,0.000000,0.000000,0.000000,0.000000,0.000000,0.000000,0.000000,0.000000,1770902966.432395,0.000000
82.000000,22817.621865,22412.518848,3913.656344,1713.171806,24806.390680,-8974.068937,9694.353902,-3070.705005,16584.681461,15197.576904,-5781.278703,10734.917013,13860.026164,22744.486957,-4587.002645,16394.021081,0.006000,-0.012000,1.010000,192.000000,0.000000,24.000000,127.500000,80.000000,15.500000,72.000000,0.000000,0.000000,0.000000,1770902966.432438,0.000000
84.000000,22807.362414,22410.328378,3906.883765,1705.013419,24793.471371,-8979.679224,9691.761099,-3077.030549,16490.021824,15184.322320,-5770.080479,10741.175501,13852.560681,22742.721169,-4587.494384,16351.083380,0.006000,-0.012000,1.010000,192.000000,0.000000,0.000000,0.000000,0.000000,0.000000,0.000000,0.000000,0.000000,0.000000,1770902966.432482,0.000000
86.000000,22809.619940,22420.073738,3900.938201,1699.917221,24796.533560,-8989.916323,9687.827192,-3085.926543,16556.853540,15190.625511,-5789.906477,10729.642001,13842.837673,22738.116710,-4590.757738,16385.102735,0.006000,-0.012000,1.010000,192.000000,0.000000,0.000000,0.000000,0.000000,0.000000,0.000000,0.000000,0.000000,0.000000,1770902966.432525,0.000000
88.000000,22792.140876,22389.921235,3907.286096,1706.354523,24775.299403,-8977.108774,9688.967131,-3082.596133,16521.627190,15185.395203,-5783.938561,10732.681839,13836.176853,22736.015646,-4587.293218,16361.029906,0.006000,-0.012000,1.010000,192.000000,0.000000,0.000000,0.000000,0.000000,0.000000,0.000000,0.000000,0.000000,0.000000,1770902966.432541,0.000000
90.000000,22794.800734,22411.334206,3889.382349,1689.881288,24784.955357,-8984.551905,9682.954512,-3096.633029,16485.283254,15170.173665,-5794.063901,10725.238708,13822.385826,22728.103128,-4588.768433,16365.723773,0.006000,-0.012000,1.010000,192.000000,0.000000,0.000000,0.000000,0.000000,0.000000,0.000000,0.000000,0.000000,0.000000,1770902966.432567,0.000000
92.000000,22786.351774,22393.452810,3901.184070,1697.905564,24789.582168,-8974.203047,9683.714471,-3092.207383,16552.494949,15189.306759,-5806.782044,10714.755740,13835.506300,22736.619143,-4590.176593,16387.986110,0.008000,-0.010000,1.008000,192.000000,0.000000,32.000000,127.500000,88.000000,15.500000,64.000000,0.000000,0.000000,0.000000,1770902966.432586,0.000000
94.000000,22791.425620,22400.404203,3903.620410,1692.965829,24790.431534,-8974.068937,9685.703777,-3089.502822,16458.617623,15169.346651,-5790.621733,10723.003533,13824.397483,22733.087567,-4577.100823,16343.416732,0.008000,-0.010000,1.008000,192.000000,0.000000,0.000000,0.000000,0.000000,0.000000,0.000000,0.000000,0.000000,0.000000,1770902966.432604,0.000000
96.000000,22800.902760,22414.865782,3904.581535,1695.580983,24812.850334,-8980.126259,9685.279093,-3090.776872,16545.409446,15189.172648,-5800.255334,10721.930650,13839.261393,22740.262477,-4575.782070,16380.855904,0.008000,-0.010000,1.008000,192.000000,0.000000,0.000000,0.000000,0.000000,0.000000,0.000000,0.000000,0.000000,0.000000,1770902966.432622,0.000000
98.000000,22795.225417,22395.531523,3917.590251,1710.824872,24810.034014,-8961.127277,9691.537582,-3078.528116,16518.341484,15185.797535,-5782.418642,10730.491368,13846.078676,22745.269268,-4567.042538,16360.202892,0.008000,-0.010000,1.008000,192.000000,0.000000,0.000000,0.000000,0.000000,0.000000,0.000000,0.000000,0.000000,0.000000,1770902966.432640,0.000000
100.000000,22806.356586,22423.538258,3906.056751,1701.124215,24829.457680,-8971.945521,9689.458870,-3084.786604,16493.195771,15186.781011,-5783.782099,10733.732371,13852.895958,22735.099224,-4565.187343,16361.342831,0.008000,-0.010000,1.008000,192.000000,0.000000,0.000000,0.000000,0.000000,0.000000,0.000000,0.000000,0.000000,0.000000,1770902966.432659,0.000000
102.000000,22806.736565,22407.556761,3921.077123,1713.283564,24835.716168,-8966.938730,9693.303370,-3075.600037,16578.333566,15207.501079,-5784.296189,10733.553557,13863.557740,22743.749350,-4565.388508,16390.400099,0.004000,-0.012000,1.006000,192.000000,0.000000,16.000000,127.500000,80.000000,15.500000,56.000000,0.000000,0.000000,0.000000,1770902966.432677,0.000000
104.000000,22802.579141,22411.960055,3917.947879,1709.662582,24831.134061,-8967.542227,9691.626989,-3078.438709,16491.541742,15185.886942,-5769.432279,10739.655583,13850.146693,22739.167242,-4562.639244,16353.340906,0.004000,-0.012000,1.006000,192.000000,0.000000,0.000000,0.000000,0.000000,0.000000,0.000000,0.000000,0.000000,0.000000,1770902966.432696,0.000000
106.000000,22803.361452,22419.514944,3910.415341,1700.766587,24842.354636,-8976.706442,9688.207172,-3086.999427,16563.268490,15197.375738,-5789.258276,10726.177481,13867.670461,22743.391722,-4571.334073,16394.535171,0.004000,-0.012000,1.006000,192.000000,0.000000,0.000000,0.000000,0.000000,0.000000,0.000000,0.000000,0.000000,0.000000,1770902966.432715,0.000000
108.000000,22796.588873,22397.498476,3920.607736,1711.182500,24828.585962,-8968.838628,9692.230486,-3077.254066,16527.662161,15192.704224,-5779.691730,10733.933536,13872.654900,22747.772664,-4570.596465,16369.635328,0.004000,-0.012000,1.006000,192.000000,0.000000,0.000000,0.000000,0.000000,0.000000,0.000000,0.000000,0.000000,0.000000,1770902966.432734,0.000000
110.000000,22808.278836,22422.733596,3906.079102,1693.144642,24838.152509,-8985.848306,9686.799012,-3087.446462,16503.276408,15183.383546,-5781.479869,10730.759589,13845.788103,22743.592887,-4574.083337,16363.175674,0.004000,-0.012000,1.006000,192.000000,0.000000,0.000000,0.000000,0.000000,0.000000,0.000000,0.000000,0.000000,0.000000,1770902966.432751,0.000000
112.000000,22801.662719,22404.628683,3914.975097,1706.019247,24828.273037,-8977.980492,9690.621160,-3082.506726,16577.953586,15199.297988,-5788.855945,10725.596336,13866.128190,22746.029227,-4580.788860,16386.712061,0.004000,-0.012000,1.006000,192.000000,0.000000,0.000000,127.500000,80.000000,15.500000,32.000000,0.000000,0.000000,0.000000,1770902966.432764,0.000000
114.000000,22797.572350,22400.381851,3913.455178,1698.062026,24814.794936,-8981.266198,9691.068195,-3084.339569,16483.629225,15178.086183,-5776.048395,10728.725580,13841.250699,22725.040939,-4578.576038,16343.975525,0.004000,-0.012000,1.006000,192.000000,0.000000,0.000000,0.000000,0.000000,0.000000,0.000000,0.000000,0.000000,0.000000,1770902966.432781,0.000000
116.000000,22805.551923,22414.619912,3907.867242,1687.623762,24823.825040,-8982.719062,9690.397643,-3086.351226,16550.952679,15184.769354,-5789.705311,10718.644943,13852.381867,22734.518079,-4583.895753,16380.900607,0.004000,-0.012000,1.006000,192.000000,0.000000,0.000000,0.000000,0.000000,0.000000,0.000000,0.000000,0.000000,0.000000,1770902966.432798,0.000000
118.000000,22795.024251,22388.825999,3917.076161,1716.099884,24807.172991,-8968.257483,9696.186745,-3076.896438,16527.572754,15182.958863,-5778.909418,10729.150263,13852.471274,22735.367445,-4582.688759,16357.721848,0.004000,-0.012000,1.006000,192.000000,0.000000,0.000000,0.000000,0.000000,0.000000,0.000000,0.000000,0.000000,0.000000,1770902966.432817,0.000000
120.000000,22807.138897,22415.670444,3907.509614,1700.096035,24822.930971,-8975.924131,9692.319893,-3083.981941,16489.060699,15175.292215,-5781.435166,10729.820815,13832.444111,22717.418995,-4581.861744,16360.247595,0.004000,-0.012000,1.006000,192.000000,0.000000,0.000000,0.000000,0.000000,0.000000,0.000000,0.000000,0.000000,0.000000,1770902966.432832,0.000000
122.000000,22806.669510,22401.298273,3917.389085,1708.589698,24827.356616,-8964.681204,9694.040977,-3076.494107,16575.606653,15197.934532,-5785.123203,10726.937440,13845.251661,22744.531661,-4578.911314,16389.282511,0.004000,-0.012000,1.006000,192.000000,0.000000,0.000000,127.500000,88.000000,15.500000,48.000000,0.000000,0.000000,0.000000,1770902966.432866,0.000000
124.000000,22802.422679,22403.511095,3914.349248,1704.789901,24819.131174,-8965.485867,9692.565762,-3079.377482,16484.009204,15173.839351,-5772.807392,10731.273679,13831.281821,22735.970942,-4575.603256,16352.178616,0.004000,-0.012000,1.006000,192.000000,0.000000,0.000000,0.000000,0.000000,0.000000,0.000000,0.000000,0.000000,0.000000,1770902966.432886,0.000000
126.000000,22807.116545,22417.346825,3907.733131,1699.649000,24835.559706,-8972.146687,9688.296579,-3084.093700,16553.634888,15187.429212,-5787.760709,10722.601202,13838.009696,22743.279963,-4579.894791,16392.903494,0.004000,-0.012000,1.006000,192.000000,0.000000,0.000000,0.000000,0.000000,0.000000,0.000000,0.000000,0.000000,0.000000,1770902966.432905,0.000000
128.000000,22797.214722,22395.240950,3917.411437,1709.930803,24826.753119,-8962.870713,9692.521059,-3076.404700,16527.863327,15189.686738,-5776.942465,10732.570080,13856.628699,22746.342152,-4574.798593,16367.936595,0.004000,-0.012000,1.006000,192.000000,0.000000,0.000000,0.000000,0.000000,0.000000,0.000000,0.000000,0.000000,0.000000,1770902966.432924,0.000000
130.000000,22803.763783,22414.843430,3906.660248,1693.546974,24840.454738,-8975.477096,9687.000178,-3088.496994,16491.608798,15172.364136,-5784.206782,10723.472920,13827.414969,22737.669675,-4567.377814,16362.907453,0.004000,-0.012000,1.006000,192.000000,0.000000,0.000000,0.000000,0.000000,0.000000,0.000000,0.000000,0.000000,0.000000,1770902966.432942,0.000000
132.000000,22800.701594,22397.923159,3916.115036,1704.007590,24842.578154,-8966.312881,9689.570628,-3083.244334,16575.070211,15184.948168,-5787.514840,10720.075455,13845.631641,22740.016608,-4570.864686,16388.299035,0.003000,-0.010000,1.008000,192.000000,0.000000,8.000000,127.500000,96.000000,15.500000,72.000000,0.000000,0.000000,0.000000,1770902966.432961,0.000000
134.000000,22795.761859,22400.426555,3910.147120,1701.057160,24837.213735,-8971.543189,9689.749442,-3085.792433,16481.706975,15171.023032,-5777.322445,10726.892737,13836.735646,22736.395626,-4569.098898,16345.897775,0.003000,-0.010000,1.008000,192.000000,0.000000,0.000000,0.000000,0.000000,0.000000,0.000000,0.000000,0.000000,0.000000,1770902966.432979,0.000000
136.000000,22802.601493,22412.049462,3904.648591,1693.457567,24843.204003,-8979.388652,9685.681425,-3092.453252,16548.829263,15182.020090,-5793.907439,10719.293144,13839.350800,22740.106015,-4578.397224,16383.940444,0.003000,-0.010000,1.008000,192.000000,0.000000,0.000000,0.000000,0.000000,0.000000,0.000000,0.000000,0.000000,0.000000,1770902966.432998,0.000000
138.000000,22788.877522,22389.474200,3913.745751,1705.952192,24827.870706,-8967.184599,9690.978788,-3082.730244,16522.767129,15179.136715,-5785.726701,10721.997705,13855.801684,22742.564707,-4580.855916,16359.912319,0.003000,-0.010000,1.008000,192.000000,0.000000,0.000000,0.000000,0.000000,0.000000,0.000000,0.000000,0.000000,0.000000,1770902966.433016,0.000000
140.000000,22797.147667,22419.179668,3899.418282,1692.362331,24826.820174,-8979.321597,9689.034186,-3088.966380,16486.691414,15177.326224,-5787.939523,10723.092940,13828.733722,22740.374236,-4583.739291,16355.598432,0.003000,-0.010000,1.008000,192.000000,0.000000,0.000000,0.000000,0.000000,0.000000,0.000000,0.000000,0.000000,0.000000,1770902966.433035,0.000000
142.000000,22804.166115,22408.942569,3910.013009,1710.422541,24819.242933,-8967.989262,9694.733881,-3077.343473,16563.827284,15200.281465,-5793.728625,10725.819853,13844.737571,22748.867899,-4590.198945,16387.203799,0.003000,-0.010000,1.008000,192.000000,0.000000,0.000000,127.500000,104.000000,15.500000,64.000000,0.000000,0.000000,0.000000,1770902966.433053,0.000000
144.000000,22801.170981,22410.842468,3905.788530,1711.473073,24809.184648,-8968.838628,9695.113861,-3077.768156,16482.019899,15185.059927,-5776.316616,10736.213414,13834.791045,22732.707588,-4584.521602,16352.782113,0.003000,-0.010000,1.008000,192.000000,0.000000,0.000000,0.000000,0.000000,0.000000,0.000000,0.000000,0.000000,0.000000,1770902966.433072,0.000000
146.000000,22805.618978,22425.169936,3901.295829,1705.773378,24827.602485,-8976.661739,9692.699873,-3082.551430,16555.288917,15200.102651,-5792.879259,10730.066684,13839.954298,22751.751274,-4588.299047,16395.988035,0.003000,-0.010000,1.008000,192.000000,0.000000,0.000000,0.000000,0.000000,0.000000,0.000000,0.000000,0.000000,0.000000,1770902966.433091,0.000000
148.000000,22797.862923,22403.622854,3915.243318,1716.837492,24830.776433,-8967.810448,9697.617256,-3072.604903,16531.618420,15193.352424,-5782.172773,10736.012249,13841.876548,22737.043826,-4581.302951,16374.284491,0.003000,-0.010000,1.008000,192.000000,0.000000,0.000000,0.000000,0.000000,0.000000,0.000000,0.000000,0.000000,0.000000,1770902966.433110,0.000000
150.000000,22810.804583,22430.310837,3908.046056,1700.364256,24853.731674,-8979.120431,9692.945742,-3079.243371,16506.942094,15178.846142,-5778.194163,10734.961717,13829.828957,22732.081739,-4577.369044,16371.267005,0.003000,-0.010000,1.008000,192.000000,0.000000,0.000000,0.000000,0.000000,0.000000,0.000000,0.000000,0.000000,0.000000,1770902966.433128,0.000000
152.000000,22810.290493,22416.475107,3921.837082,1708.343829,24863.387628,-8967.542227,9695.695006,-3070.280322,16588.749479,15197.889828,-5781.189296,10731.094865,13864.094182,22747.795015,-4576.005587,16394.892799,0.002500,-0.010000,1.007000,192.000000,0.000000,8.000000,127.500000,88.000000,15.500000,56.000000,0.000000,0.000000,0.000000,1770902966.433146,0.000000
154.000000,22807.071842,22415.558686,3921.747675,1702.197099,24863.521738,-8970.269140,9695.784413,-3069.542714,16497.599065,15180.120192,-5764.447840,10739.163844,13850.504321,22741.581230,-4566.953131,16346.568328,0.002500,-0.010000,1.007000,192.000000,0.000000,0.000000,0.000000,0.000000,0.000000,0.000000,0.000000,0.000000,0.000000,1770902966.433169,0.000000
156.000000,22812.682129,22426.466337,3915.623297,1698.598468,24876.083419,-8978.919265,9693.258666,-3072.403738,16567.045935,15190.290235,-5777.367148,10730.983106,13862.596615,22741.424768,-4566.550799,16381.280587,0.002500,-0.010000,1.007000,192.000000,0.000000,0.000000,0.000000,0.000000,0.000000,0.000000,0.000000,0.000000,0.000000,1770902966.433187,0.000000
158.000000,22804.814315,22402.080584,3923.401704,1709.997858,24862.538262,-8967.765745,9696.231448,-3064.245351,16544.671839,15184.970520,-5767.867657,10735.654621,13874.107763,22736.842661,-4566.483744,16362.281604,0.002500,-0.010000,1.007000,192.000000,0.000000,0.000000,0.000000,0.000000,0.000000,0.000000,0.000000,0.000000,0.000000,1770902966.433206,0.000000
160.000000,22808.725871,22421.481898,3909.744788,1691.535317,24871.791884,-8983.546076,9689.704739,-3079.712758,16506.897391,15164.988061,-5773.701462,10731.296030,13847.330373,22729.712454,-4566.126116,16361.029906,0.002500,-0.010000,1.007000,192.000000,0.000000,0.000000,0.000000,0.000000,0.000000,0.000000,0.000000,0.000000,0.000000,1770902966.433224,0.000000
162.000000,22807.228304,22403.913427,3917.433788,1703.135872,24861.063047,-8971.990224,9692.543410,-3077.075252,16587.564836,15180.008433,-5781.479869,10723.539975,13875.873551,22747.772664,-4571.043500,16389.126049,0.004250,-0.011000,1.006500,192.000000,0.000000,24.000000,127.500000,80.000000,15.500000,56.000000,0.000000,0.000000,0.000000,1770902966.433243,0.000000
164.000000,22798.801696,22402.035880,3912.270536,1700.565422,24849.037808,-8973.666605,9690.978788,-3082.082043,16491.005300,15154.303927,-5770.929846,10728.770283,13849.632603,22733.109919,-4568.070718,16350.256366,0.004250,-0.011000,1.006500,192.000000,0.000000,0.000000,0.000000,0.000000,0.000000,0.000000,0.000000,0.000000,0.000000,1770902966.433262,0.000000
166.000000,22806.535400,22419.425538,3903.016913,1694.284581,24857.464416,-8978.986320,9687.782489,-3085.635970,16558.038182,15167.044421,-5788.654779,10721.237745,13844.826978,22737.177937,-4575.446793,16390.869485,0.004250,-0.011000,1.006500,192.000000,0.000000,0.000000,0.000000,0.000000,0.000000,0.000000,0.000000,0.000000,0.000000,1770902966.433280,0.000000
168.000000,22797.415888,22397.453773,3914.371599,1711.428369,24839.203041,-8969.889160,9693.571591,-3073.834249,16531.640772,15169.436058,-5778.395328,10729.127911,13849.990231,22751.080722,-4577.637264,16372.898683,0.004250,-0.011000,1.006500,192.000000,0.000000,0.000000,0.000000,0.000000,0.000000,0.000000,0.000000,0.000000,0.000000,1770902966.433299,0.000000
170.000000,22810.826935,22425.952247,3902.368713,1700.476015,24842.667561,-8981.310902,9691.090547,-3079.377482,16494.089841,15157.053191,-5778.350625,10730.848996,13834.098140,22727.589038,-4587.136756,16373.412773,0.004250,-0.011000,1.006500,192.000000,0.000000,0.000000,0.000000,0.000000,0.000000,0.000000,0.000000,0.000000,0.000000,1770902966.433317,0.000000
172.000000,22812.190391,22411.825944,3913.365771,1711.294259,24840.410035,-8976.661739,9696.924352,-3068.291017,16575.316080,15181.528351,-5783.357416,10727.049199,13856.539292,22753.181786,-4592.992913,16397.195029,0.004125,-0.010500,1.005250,192.000000,0.000000,16.000000,127.500000,88.000000,15.500000,48.000000,0.000000,0.000000,0.000000,1770902966.433336,0.000000
174.000000,22816.191353,22419.649055,3914.081027,1711.808349,24836.520831,-8970.224437,9699.651265,-3062.814839,16492.279350,15166.105648,-5763.531418,10744.148283,13840.490739,22745.537489,-4589.997779,16351.977450,0.004125,-0.010500,1.005250,192.000000,0.000000,0.000000,0.000000,0.000000,0.000000,0.000000,0.000000,0.000000,0.000000,1770902966.433355,0.000000
176.000000,22829.177717,22436.658732,3910.325934,1706.466282,24860.325439,-8970.336195,9696.387910,-3069.408604,16568.118819,15185.104631,-5777.344796,10742.360144,13871.939644,22755.484015,-4590.958904,16392.747032,0.004125,-0.010500,1.005250,192.000000,0.000000,0.000000,0.000000,0.000000,0.000000,0.000000,0.000000,0.000000,0.000000,1770902966.433374,0.000000
178.000000,22818.247714,22410.507191,3924.452236,1720.257309,24859.610183,-8956.366355,9699.405396,-3060.959644,16543.889528,15190.357291,-5764.134915,10746.025830,13866.619929,22757.495672,-4578.777203,16370.507046,0.004125,-0.010500,1.005250,192.000000,0.000000,0.000000,0.000000,0.000000,0.000000,0.000000,0.000000,0.000000,0.000000,1770902966.433393,0.000000
180.000000,22821.801641,22429.573230,3912.874033,1701.258326,24877.715096,-8966.961082,9691.291713,-3074.616560,16510.071338,15169.301947,-5767.130049,10741.778999,13845.385771,22746.208041,-4569.456526,16368.271872,0.004125,-0.010500,1.005250,192.000000,0.000000,0.000000,0.000000,0.000000,0.000000,0.000000,0.000000,0.000000,0.000000,1770902966.433411,0.000000
182.000000,22806.066013,22402.304101,3918.238451,1705.102826,24889.650928,-8958.668585,9688.542448,-3080.942104,16584.837924,15180.343709,-5782.038663,10726.736275,13867.692812,22750.566632,-4563.265093,16398.290264,0.004125,-0.010500,1.005250,192.000000,0.000000,0.000000,0.000000,0.000000,0.000000,0.000000,0.000000,0.000000,0.000000,1770902966.433430,0.000000
184.000000,22797.549998,22401.275921,3909.454216,1701.772416,24877.692744,-8961.864884,9685.636721,-3085.568915,16487.317263,15157.969613,-5776.964817,10729.262022,13850.727838,22738.228469,-4555.307872,16359.420581,0.006000,-0.012000,1.008000,192.000000,0.000000,24.000000,127.500000,80.000000,15.500000,64.000000,0.000000,0.000000,0.000000,1770902966.433449,0.000000
186.000000,22802.467382,22418.710282,3904.201556,1695.312762,24882.900701,-8970.202085,9683.245085,-3091.201555,16547.443455,15168.519636,-5798.288381,10722.176519,13855.332298,22745.291620,-4560.538180,16398.759651,0.006000,-0.012000,1.008000,192.000000,0.000000,0.000000,0.000000,0.000000,0.000000,0.000000,0.000000,0.000000,0.000000,1770902966.433472,0.000000
188.000000,22796.499466,22395.799744,3910.884727,1712.165977,24860.750122,-8956.344003,9689.213000,-3079.355130,16524.443510,15170.888921,-5784.430299,10731.631307,13852.158350,22752.332419,-4563.287445,16380.207703,0.006000,-0.012000,1.008000,192.000000,0.000000,0.000000,0.000000,0.000000,0.000000,0.000000,0.000000,0.000000,0.000000,1770902966.433490,0.000000
190.000000,22803.048528,22420.654883,3894.858527,1700.006628,24864.125236,-8974.225399,9686.642550,-3088.653456,16487.116097,15155.421514,-5786.821936,10731.720714,13831.751207,22733.624009,-4576.653788,16377.637253,0.006000,-0.012000,1.008000,192.000000,0.000000,0.000000,0.000000,0.000000,0.000000,0.000000,0.000000,0.000000,0.000000,1770902966.433509,0.000000
192.000000,22799.002862,22404.136944,3904.648591,1716.032829,24856.212718,-8972.794887,9692.386948,-3081.880877,16566.844769,15176.812133,-5794.019198,10729.932574,13834.232251,22748.174995,-4586.980294,16405.196953,0.006000,-0.012000,1.008000,192.000000,0.000000,0.000000,0.000000,0.000000,0.000000,0.000000,0.000000,0.000000,0.000000,1770902966.433528,0.000000
194.000000,22802.579141,22414.731671,3904.648591,1713.842358,24846.333247,-8974.583027,9695.449137,-3075.734148,16476.521370,15152.716953,-5778.797660,10739.655583,13844.871681,22743.145852,-4586.756776,16361.275776,-0.002000,-0.014000,1.004000,192.000000,127.500000,120.000000,127.500000,72.000000,15.500000,48.000000,0.000000,0.000000,0.000000,1770902966.913366,0.000000
196.000000,22817.867734,22435.965828,3905.095626,1707.449759,24858.649058,-8983.769594,9694.800937,-3072.806069,16558.529920,15181.416593,-5784.027968,10739.409714,13835.260431,22755.260498,-4594.468128,16393.574046,-0.002000,-0.014000,1.004000,192.000000,0.000000,0.000000,0.000000,0.000000,0.000000,0.000000,0.000000,0.000000,0.000000,1770902966.913436,0.000000
198.000000,22810.648121,22414.128174,3917.724361,1721.754875,24846.422654,-8971.252617,9699.137175,-3066.122897,16537.899260,15179.337881,-5769.097003,10749.758571,13843.955260,22743.771701,-4588.813137,16366.819008,-0.002000,-0.014000,1.004000,192.000000,0.000000,0.000000,0.000000,0.000000,0.000000,0.000000,0.000000,0.000000,0.000000,1770902966.913495,0.000000
200.000000,22816.392519,22434.334151,3906.637896,1706.958021,24857.643230,-8981.154440,9694.689178,-3077.790508,16503.097594,15165.390392,-5773.723814,10744.952946,13846.950394,22742.810576,-4587.315570,16358.682973,-0.002000,-0.014000,1.004000,192.000000,0.000000,0.000000,0.000000,0.000000,0.000000,0.000000,0.000000,0.000000,0.000000,1770902966.913549,0.000000
202.000000,22813.397385,22416.609218,3918.193748,1711.897756,24865.823968,-8968.123373,9694.957399,-3074.236581,16590.381156,15186.333977,-5779.892895,10737.867443,13859.199150,22755.752236,-4584.298084,16387.203799,-0.002000,-0.014000,1.004000,192.000000,0.000000,0.000000,0.000000,0.000000,0.000000,0.000000,0.000000,0.000000,0.000000,1770902966.913612,0.000000
204.000000,22807.965911,22417.369177,3916.964402,1707.963849,24868.483826,-8969.777402,9693.146907,-3074.236581,16500.795364,15163.870473,-5766.727718,10742.762475,13847.330373,22753.561765,-4571.803459,16344.243746,-0.002000,-0.016000,1.004000,192.000000,127.500000,120.000000,127.500000,64.000000,15.500000,48.000000,0.000000,0.000000,0.000000,1770902966.913677,0.000000
206.000000,22811.385728,22426.421634,3909.565974,1698.486709,24890.701460,-8966.916378,9687.022529,-3085.658322,16561.726220,15174.576959,-5785.369073,10732.748894,13861.479027,22736.954419,-4567.221352,16388.388442,-0.002000,-0.016000,1.004000,192.000000,0.000000,0.000000,0.000000,0.000000,0.000000,0.000000,0.000000,0.000000,0.000000,1770902966.913695,0.000000
208.000000,22795.359528,22392.871665,3917.858472,1705.706323,24887.281643,-8945.078724,9686.888419,-3084.987770,16536.222879,15165.859779,-5782.664512,10729.865519,13871.269092,22743.928164,-4556.805439,16372.205779,-0.002000,-0.016000,1.004000,192.000000,0.000000,0.000000,0.000000,0.000000,0.000000,0.000000,0.000000,0.000000,0.000000,1770902966.913714,0.000000
210.000000,22793.660795,22405.835677,3900.826442,1693.122291,24896.378803,-8954.801733,9678.998253,-3102.444482,16492.882847,15143.485682,-5790.800547,10720.097806,13848.962051,22734.719245,-4554.749078,16372.809276,-0.002000,-0.016000,1.004000,192.000000,0.000000,0.000000,0.000000,0.000000,0.000000,0.000000,0.000000,0.000000,0.000000,1770902966.913732,0.000000
212.000000,22778.953347,22385.428534,3903.262782,1704.566384,24893.383669,-8942.061239,9679.869971,-3100.835157,16565.280147,15160.182436,-5805.306829,10712.319399,13855.801684,22737.110881,-4556.917197,16409.376730,-0.002000,-0.016000,1.004000,192.000000,0.000000,0.000000,0.000000,0.000000,0.000000,0.000000,0.000000,0.000000,0.000000,1770902966.913748,0.000000
214.000000,22775.198254,22387.574302,3901.519346,1699.067855,24879.614994,-8944.743448,9679.579399,-3100.946915,16469.726440,15146.637278,-5796.254372,10720.500138,13822.609344,22740.865975,-4555.106706,16372.541055,0.002000,-0.012000,1.000000,192.000000,0.000000,8.000000,127.500000,80.000000,15.500000,32.000000,0.000000,0.000000,0.000000,1770902966.913767,0.000000
216.000000,22784.630690,22406.416822,3896.445500,1701.660657,24883.548902,-8959.316785,9680.741689,-3102.109206,16534.211222,15153.186340,-5809.576012,10712.654676,13818.630733,22726.762024,-4569.389471,16412.505974,0.002000,-0.012000,1.000000,192.000000,0.000000,0.000000,0.000000,0.000000,0.000000,0.000000,0.000000,0.000000,0.000000,1770902966.913785,0.000000
218.000000,22780.987356,22390.144752,3909.275402,1713.752951,24869.780227,-8950.018460,9689.436518,-3083.065520,16516.799214,15160.897691,-5793.549811,10722.400036,13840.937774,22741.156547,-4572.585770,16388.075517,0.002000,-0.012000,1.000000,192.000000,0.000000,0.000000,0.000000,0.000000,0.000000,0.000000,0.000000,0.000000,0.000000,1770902966.913811,0.000000
220.000000,22796.119487,22422.755947,3900.044131,1705.147529,24877.335117,-8971.833762,9688.341282,-3085.926543,16487.719594,15152.538139,-5787.760709,10733.508853,13822.341123,22731.724111,-4580.274770,16379.537151,0.002000,-0.012000,1.000000,192.000000,0.000000,0.000000,0.000000,0.000000,0.000000,0.000000,0.000000,0.000000,0.000000,1770902966.913830,0.000000
222.000000,22796.343004,22409.903694,3910.661210,1712.590660,24871.769532,-8967.698689,9691.738748,-3077.566991,16571.248063,15179.561398,-5791.828727,10726.490405,13850.414914,22744.375198,-4584.163974,16404.884029,0.002000,-0.012000,1.000000,192.000000,0.000000,0.000000,0.000000,0.000000,0.000000,0.000000,0.000000,0.000000,0.000000,1770902966.913847,0.000000
224.000000,22798.377013,22413.591732,3911.488224,1712.300087,24865.064009,-8976.326463,9693.303370,-3074.460098,16480.254111,15154.303927,-5775.221381,10738.985031,13832.734684,22733.221678,-4576.519677,16357.632441,0.004000,-0.012000,1.004000,192.000000,0.000000,16.000000,127.500000,80.000000,15.500000,48.000000,0.000000,0.000000,0.000000,1770902966.913864,0.000000
226.000000,22806.960083,22429.126195,3909.051884,1702.957058,24879.212663,-8987.032948,9689.972960,-3078.148136,16554.618365,15171.894750,-5786.129032,10733.665315,13849.677306,22737.557916,-4579.067776,16391.249465,0.004000,-0.012000,1.004000,192.000000,0.000000,0.000000,0.000000,0.000000,0.000000,0.000000,0.000000,0.000000,0.000000,1770902966.913882,0.000000
228.000000,22798.309958,22398.772526,3921.837082,1711.718942,24864.885195,-8980.439184,9693.482184,-3072.247275,16544.314211,15166.642090,-5771.287474,10736.191062,13849.096161,22734.898059,-4570.395299,16365.589662,0.004000,-0.012000,1.004000,192.000000,0.000000,0.000000,0.000000,0.000000,0.000000,0.000000,0.000000,0.000000,0.000000,1770902966.913900,0.000000
230.000000,22802.087403,22422.487727,3909.163643,1693.725788,24869.936689,-8989.424585,9687.648378,-3083.557258,16499.118984,15146.503168,-5778.015349,10731.586603,13847.218614,22743.391722,-4567.646035,16361.208720,0.004000,-0.012000,1.004000,192.000000,0.000000,0.000000,0.000000,0.000000,0.000000,0.000000,0.000000,0.000000,0.000000,1770902966.913917,0.000000
232.000000,22795.694804,22405.410994,3914.908041,1707.539166,24869.176730,-8982.339082,9688.743614,-3081.210325,16576.076040,15177.795610,-5785.793756,10727.742103,13864.384754,22735.769777,-4569.970616,16392.590570,0.004000,-0.012000,1.004000,192.000000,0.000000,0.000000,0.000000,0.000000,0.000000,0.000000,0.000000,0.000000,0.000000,1770902966.913935,0.000000
234.000000,22789.302205,22399.979520,3909.945954,1701.347733,24859.788997,-8982.048509,9685.927294,-3086.038302,16486.378489,15148.850101,-5776.271913,10733.441798,13835.193376,22730.360655,-4564.673253,16349.228185,0.004000,-0.008000,1.008000,192.000000,0.000000,16.000000,127.500000,96.000000,15.500000,64.000000,0.000000,0.000000,0.000000,1770902966.913954,0.000000
236.000000,22795.717155,22418.509116,3904.648591,1697.816157,24866.516872,-8984.618960,9683.848582,-3092.475604,16552.941984,15159.266014,-5795.025026,10718.756702,13846.503359,22723.968056,-4574.306855,16388.768421,0.004000,-0.008000,1.008000,192.000000,0.000000,0.000000,0.000000,0.000000,0.000000,0.000000,0.000000,0.000000,0.000000,1770902966.913971,0.000000
238.000000,22786.709402,22391.195284,3915.578594,1710.131968,24851.675314,-8970.291492,9688.140117,-3083.356092,16532.825414,15164.429267,-5783.491526,10726.222184,13844.357591,22724.146870,-4575.267980,16368.718906,0.004000,-0.008000,1.008000,192.000000,0.000000,0.000000,0.000000,0.000000,0.000000,0.000000,0.000000,0.000000,0.000000,1770902966.913988,0.000000
240.000000,22797.751164,22416.363349,3904.335666,1697.525584,24863.655849,-8975.477096,9685.189686,-3090.866279,16500.907123,15149.654764,-5784.609113,10725.730446,13832.220594,22719.855335,-4578.754852,16366.684898,0.004000,-0.008000,1.008000,192.000000,0.000000,0.000000,0.000000,0.000000,0.000000,0.000000,0.000000,0.000000,0.000000,1770902966.914004,0.000000
242.000000,22802.534437,22410.306026,3913.902213,1710.869576,24866.338058,-8959.383840,9691.224657,-3077.969322,16586.849581,15175.515732,-5788.364206,10725.909260,13875.426516,22741.044788,-4582.800517,16400.145459,0.004000,-0.008000,1.008000,192.000000,0.000000,0.000000,0.000000,0.000000,0.000000,0.000000,0.000000,0.000000,0.000000,1770902966.914021,0.000000
244.000000,22802.936769,22411.758889,3913.611640,1709.684933,24861.197157,-8961.708422,9692.029320,-3075.667092,16498.850763,15158.953090,-5770.907494,10736.258118,13840.535443,22734.965114,-4576.698491,16356.693668,0.002000,-0.010000,1.008000,192.000000,0.000000,8.000000,127.500000,88.000000,15.500000,64.000000,0.000000,0.000000,0.000000,1770902966.914037,0.000000
246.000000,22813.106813,22430.512003,3910.013009,1702.599430,24878.095076,-8966.446992,9690.621160,-3077.611694,16567.448266,15172.386488,-5783.402119,10730.603126,13867.916330,22741.648286,-4580.453584,16393.708157,0.002000,-0.010000,1.008000,192.000000,0.000000,0.000000,0.000000,0.000000,0.000000,0.000000,0.000000,0.000000,0.000000,1770902966.914054,0.000000
248.000000,22803.964949,22406.483877,3922.261765,1715.474035,24869.981393,-8958.646233,9694.242143,-3069.430956,16554.148978,15182.869456,-5770.773383,10733.665315,13858.662708,22749.381989,-4574.709186,16370.842322,0.002000,-0.010000,1.008000,192.000000,0.000000,0.000000,0.000000,0.000000,0.000000,0.000000,0.000000,0.000000,0.000000,1770902966.914073,0.000000
250.000000,22806.714214,22425.929895,3908.336628,1694.463395,24882.587776,-8979.209838,9687.424861,-3084.227810,16512.105347,15164.473970,-5773.768517,10735.051124,13844.134074,22740.776568,-4573.256323,16363.846226,0.002000,-0.010000,1.008000,192.000000,0.000000,0.000000,0.000000,0.000000,0.000000,0.000000,0.000000,0.000000,0.000000,1770902966.914095,0.000000
252.000000,22799.695766,22404.181648,3914.975097,1704.924012,24883.101867,-8978.069899,9687.491916,-3086.038302,16587.922464,15183.025918,-5790.532326,10722.981182,13875.202999,22742.117672,-4569.523581,16394.713985,0.002000,-0.010000,1.008000,192.000000,0.000000,0.000000,0.000000,0.000000,0.000000,0.000000,0.000000,0.000000,0.000000,1770902966.914114,0.000000
254.000000,22795.337176,22400.113630,3914.483358,1705.080474,24876.485750,-8985.758899,9687.067233,-3087.982903,16486.512600,15160.517712,-5776.137802,10725.573984,13843.955260,22723.453966,-4564.047404,16350.636345,0.002000,-0.010000,1.009000,192.000000,0.000000,8.000000,127.500000,88.000000,15.500000,72.000000,0.000000,0.000000,0.000000,1770902966.914132,0.000000
0.000000,22800.411022,22413.457622,3904.693294,1698.933744,24892.869579,-8987.837611,9682.149849,-3097.683561,16555.288917,15167.893787,-5794.756805,10719.606068,13854.058248,22725.979713,-4570.887038,16391.517686,0.002000,-0.010000,1.009000,192.000000,0.000000,0.000000,0.000000,0.000000,0.000000,0.000000,0.000000,0.000000,0.000000,1770902966.914150,0.000000
2.000000,22790.777420,22385.741459,3913.879861,1709.841396,24872.909471,-8977.131126,9686.575495,-3088.295828,16532.758359,15168.318471,-5787.604247,10724.165824,13856.919272,22732.305256,-4571.825811,16374.485657,0.002000,-0.010000,1.009000,192.000000,0.000000,0.000000,0.000000,0.000000,0.000000,0.000000,0.000000,0.000000,0.000000,1770902966.914168,0.000000
4.000000,22796.119487,22407.802630,3901.876974,1697.190308,24880.062029,-8987.167059,9682.842753,-3097.996485,16492.704033,15152.448732,-5788.163041,10723.338809,13841.138940,22725.912657,-4578.486631,16366.081401,0.002000,-0.010000,1.009000,192.000000,0.000000,0.000000,0.000000,0.000000,0.000000,0.000000,0.000000,0.000000,0.000000,1770902966.914187,0.000000
6.000000,22794.756030,22396.827924,3912.359942,1706.466282,24876.128122,-8975.119469,9685.547314,-3088.206421,16576.657185,15176.342747,-5793.616866,10719.583716,13855.779333,22740.888326,-4582.331131,16397.239732,0.002000,-0.010000,1.009000,192.000000,0.000000,0.000000,0.000000,0.000000,0.000000,0.000000,0.000000,0.000000,0.000000,1770902966.914206,0.000000
8.000000,22797.751164,22400.091279,3910.236527,1709.528471,24867.366239,-8974.158344,9687.849544,-3083.758424,16483.405707,15154.639203,-5776.070747,10730.670182,13852.203053,22728.952495,-4584.029863,16356.716020,0.004000,-0.010000,1.010500,192.000000,0.000000,24.000000,127.500000,88.000000,15.500000,80.000000,0.000000,0.000000,0.000000,1770902966.914224,0.000000
10.000000,22809.374071,22419.336131,3906.749655,1701.593602,24887.683974,-8977.511105,9684.362672,-3087.938200,16557.591147,15175.359270,-5787.380730,10724.232879,13847.062152,22743.034094,-4587.919067,16394.535171,0.004000,-0.010000,1.010500,192.000000,0.000000,0.000000,0.000000,0.000000,0.000000,0.000000,0.000000,0.000000,0.000000,1770902966.914243,0.000000
12.000000,22801.953292,22396.425592,3919.423094,1716.278698,24872.574195,-8963.317748,9688.520096,-3077.879915,16543.554252,15178.734383,-5773.947331,10731.832472,13852.314812,22740.865975,-4583.649884,16376.206741,0.004000,-0.010000,1.010500,192.000000,0.000000,0.000000,0.000000,0.000000,0.000000,0.000000,0.000000,0.000000,0.000000,1770902966.914260,0.000000
14.000000,22811.743356,22416.162183,3909.990658,1702.085340,24891.796695,-8972.750184,9683.558009,-3086.351226,16498.113155,15163.646956,-5776.741299,10730.893699,13838.903766,22730.941800,-4579.984198,16373.345718,0.004000,-0.010000,1.010500,192.000000,0.000000,0.000000,0.000000,0.000000,0.000000,0.000000,0.000000,0.000000,0.000000,1770902966.914278,0.000000
16.000000,22810.223438,22398.504305,3919.467797,1705.415750,24898.301053,-8963.585968,9685.010872,-3080.137441,16590.202342,15179.181418,-5780.339930,10722.265926,13868.609234,22754.947574,-4574.977407,16404.258180,0.004000,-0.010000,1.010500,192.000000,0.000000,0.000000,0.000000,0.000000,0.000000,0.000000,0.000000,0.000000,0.000000,1770902966.914297,0.000000
18.000000,22799.136972,22390.882360,3918.886652,1702.644134,24888.823913,-8971.140858,9685.279093,-3082.439671,16493.978082,15162.439962,-5766.124221,10728.077379,13850.303155,22732.372312,-4567.668386,16359.286470,0.004000,-0.010000,1.009250,192.000000,0.000000,16.000000,127.500000,88.000000,15.500000,64.000000,0.000000,0.000000,0.000000,1770902966.914315,0.000000
20.000000,22804.613150,22399.532485,3908.269573,1697.547936,24898.189294,-8983.993111,9680.786393,-3091.402720,16552.114970,15160.920043,-5786.799584,10717.482652,13861.143751,22721.352902,-4569.255360,16394.289302,0.004000,-0.010000,1.009250,192.000000,0.000000,0.000000,0.000000,0.000000,0.000000,0.000000,0.000000,0.000000,0.000000,1770902966.914334,0.000000
22.000000,22795.538341,22378.320679,3920.563033,1704.834605,24885.627614,-8978.762803,9686.441384,-3077.723453,16533.227746,15162.618776,-5777.434203,10720.142510,13858.305080,22729.064253,-4566.573151,16371.892854,0.004000,-0.010000,1.009250,192.000000,0.000000,0.000000,0.000000,0.000000,0.000000,0.000000,0.000000,0.000000,0.000000,1770902966.914352,0.000000
24.000000,22798.801696,22399.845409,3904.469777,1689.993047,24896.378803,-8999.035835,9681.367538,-3089.234601,16488.099574,15147.464293,-5778.618846,10722.534147,13831.885318,22721.643474,-4571.378776,16359.509988,0.004000,-0.010000,1.009250,192.000000,0.000000,0.000000,0.000000,0.000000,0.000000,0.000000,0.000000,0.000000,0.000000,1770902966.914370,0.000000
26.000000,22796.052432,22387.596653,3907.196690,1702.197099,24896.356451,-8992.106794,9684.005044,-3084.719549,16563.559063,15172.766468,-5793.013369,10714.353408,13865.435286,22728.907791,-4576.989064,16385.907398,0.004000,-0.010000,1.009250,192.000000,0.000000,0.000000,0.000000,0.000000,0.000000,0.000000,0.000000,0.000000,0.000000,1770902966.914391,0.000000
28.000000,22794.107830,22388.960110,3909.208347,1703.001762,24882.788942,-8994.543135,9685.681425,-3083.400796,16478.778896,15151.621717,-5777.501259,10729.150263,13826.006809,22716.502573,-4581.995855,16347.328287,0.003000,-0.008000,1.006625,192.000000,0.000000,8.000000,127.500000,104.000000,15.500000,48.000000,0.000000,0.000000,0.000000,1770902966.914410,0.000000
30.000000,22803.249693,22406.662691,3904.022742,1697.346770,24894.590663,-8997.202992,9684.586189,-3087.334703,16546.817606,15164.898654,-5789.593552,10719.360199,13838.344972,22726.113823,-4587.181459,16383.761631,0.003000,-0.008000,1.006625,192.000000,0.000000,0.000000,0.000000,0.000000,0.000000,0.000000,0.000000,0.000000,0.000000,1770902966.914429,0.000000
32.000000,22795.806562,22383.908616,3914.729227,1711.406018,24874.764666,-8982.450841,9690.419995,-3075.532982,16533.339504,15166.552683,-5779.378805,10727.116254,13844.357591,22730.517117,-4589.059006,16365.299090,0.003000,-0.008000,1.006625,192.000000,0.000000,0.000000,0.000000,0.000000,0.000000,0.000000,0.000000,0.000000,0.000000,1770902966.914448,0.000000
34.000000,22804.411984,22409.411956,3902.614582,1702.688837,24876.508102,-8989.983379,9685.659073,-3083.669017,16490.513562,15151.599366,-5778.037700,10730.089036,13832.019428,22722.828117,-4594.021093,16361.923976,0.003000,-0.008000,1.006625,192.000000,0.000000,0.000000,0.000000,0.000000,0.000000,0.000000,0.000000,0.000000,0.000000,1770902966.914466,0.000000
36.000000,22799.561655,22394.302177,3909.029533,1710.020210,24872.082457,-8978.271065,9687.380157,-3079.288075,16571.270415,15178.779087,-5786.307846,10727.049199,13857.925100,22748.554975,-4598.983180,16397.686767,0.003000,-0.008000,1.006625,192.000000,0.000000,0.000000,0.000000,0.000000,0.000000,0.000000,0.000000,0.000000,0.000000,1770902966.914484,0.000000
38.000000,22798.086440,22394.391584,3910.013009,1702.152396,24865.511044,-8977.488753,9686.821364,-3079.243371,16482.802210,15157.097895,-5772.114488,10731.564251,13837.629716,22730.159489,-4590.467166,16357.699496,-0.001500,-0.011000,1.007313,192.000000,127.500000,104.000000,127.500000,72.000000,15.500000,64.000000,0.000000,0.000000,0.000000,1770902966.914496,0.000000
40.000000,22802.065051,22404.494572,3904.872108,1698.956096,24886.409925,-8989.536344,9682.708643,-3086.664151,16547.108179,15163.870473,-5786.486660,10720.969524,13852.493626,22746.118634,-4590.288352,16393.350529,-0.001500,-0.011000,1.007313,192.000000,0.000000,0.000000,0.000000,0.000000,0.000000,0.000000,0.000000,0.000000,0.000000,1770902966.914514,0.000000
42.000000,22793.370222,22382.522807,3918.260803,1712.143625,24882.811294,-8977.846381,9687.313102,-3077.097604,16530.165557,15166.977366,-5775.847229,10722.601202,13861.479027,22731.165317,-4579.671273,16371.289357,-0.001500,-0.011000,1.007313,192.000000,0.000000,0.000000,0.000000,0.000000,0.000000,0.000000,0.000000,0.000000,0.000000,1770902966.914534,0.000000
44.000000,22798.064089,22406.685043,3905.363846,1698.129082,24896.468210,-8985.781251,9682.820402,-3087.424110,16490.580617,15154.661555,-5776.629541,10729.105559,13862.976594,22727.901963,-4571.535238,16362.125142,-0.001500,-0.011000,1.007313,192.000000,0.000000,0.000000,0.000000,0.000000,0.000000,0.000000,0.000000,0.000000,0.000000,1770902966.914552,0.000000
46.000000,22791.760897,22389.362441,3915.578594,1705.616916,24901.765573,-8977.376995,9684.250913,-3085.345398,16570.488104,15175.627491,-5788.140689,10720.857766,13870.889112,22734.115748,-4570.752927,16392.367052,-0.001500,-0.011000,1.007313,192.000000,0.000000,0.000000,0.000000,0.000000,0.000000,0.000000,0.000000,0.000000,0.000000,1770902966.914570,0.000000
48.000000,22788.586949,22387.686060,3910.504748,1703.314686,24895.417678,-8971.163210,9682.753346,-3089.838098,16485.372661,15154.527444,-5775.377843,10724.434045,13846.033972,22737.870841,-4565.187343,16352.066857,-0.001750,-0.009500,1.006656,192.000000,127.500000,120.000000,127.500000,96.000000,15.500000,56.000000,0.000000,0.000000,0.000000,1770902966.914588,0.000000
50.000000,22797.773516,22401.320625,3903.106320,1698.017323,24907.934655,-8977.444050,9679.110012,-3097.750616,16547.063475,15166.887959,-5796.410834,10714.822795,13855.421705,22736.529736,-4573.368081,16392.948197,-0.001750,-0.009500,1.006656,192.000000,0.000000,0.000000,0.000000,0.000000,0.000000,0.000000,0.000000,0.000000,0.000000,1770902966.914606,0.000000
52.000000,22795.203065,22382.992194,3916.539719,1711.115445,24889.025079,-8963.027175,9686.039053,-3081.545601,16534.054760,15172.051212,-5779.624674,10725.194004,13866.888150,22740.217774,-4575.893828,16374.753877,-0.001750,-0.009500,1.006656,192.000000,0.000000,0.000000,0.000000,0.000000,0.000000,0.000000,0.000000,0.000000,0.000000,1770902966.914625,0.000000
54.000000,22806.758917,22410.507191,3903.642762,1698.531413,24892.087268,-8975.365338,9684.541486,-3085.792433,16500.035405,15158.930738,-5777.165982,10726.848033,13852.583033,22747.169166,-4584.141622,16368.316575,-0.001750,-0.009500,1.006656,192.000000,0.000000,0.000000,0.000000,0.000000,0.000000,0.000000,0.000000,0.000000,0.000000,1770902966.914643,0.000000
56.000000,22807.720042,22402.840543,3911.935259,1710.757817,24892.444896,-8967.095192,9687.737785,-3075.756499,16585.217903,15184.814058,-5781.971607,10725.775150,13880.232141,22750.812501,-4592.791747,16399.363148,-0.001750,-0.009500,1.006656,192.000000,0.000000,0.000000,0.000000,0.000000,0.000000,0.000000,0.000000,0.000000,0.000000,1770902966.914662,0.000000
58.000000,22803.137935,22394.682156,3912.225832,1711.629535,24883.124218,-8978.025195,9687.961303,-3076.985845,16494.067489,15163.401087,-5768.359395,10736.548690,13855.712277,22725.197402,-4587.114404,16358.705325,-0.001750,-0.009500,1.006656,192.000000,0.000000,0.000000,127.500000,96.000000,15.500000,64.000000,0.000000,0.000000,0.000000,1770902966.914683,0.000000
60.000000,22811.095156,22409.747232,3908.426035,1699.425483,24895.484733,-8992.330312,9685.368500,-3081.411491,16559.647508,15167.178532,-5779.758785,10725.819853,13863.356574,22732.796995,-4588.410805,16392.143535,-0.001750,-0.009500,1.006656,192.000000,0.000000,0.000000,0.000000,0.000000,0.000000,0.000000,0.000000,0.000000,0.000000,1770902967.394303,0.000000
62.000000,22800.500429,22381.606386,3919.579556,1710.333134,24887.527512,-8984.618960,9689.190649,-3074.437746,16546.124702,15169.078430,-5771.086308,10730.603126,13875.247702,22734.763948,-4583.180497,16371.468171,-0.001750,-0.009500,1.006656,192.000000,0.000000,0.000000,0.000000,0.000000,0.000000,0.000000,0.000000,0.000000,0.000000,1770902967.394374,0.000000
64.000000,22802.892065,22405.902732,3906.369675,1696.475052,24893.137800,-8998.052358,9684.228561,-3086.038302,16498.470783,15153.700430,-5775.936636,10727.987972,13855.712277,22724.191573,-4578.263113,16360.068781,-0.001750,-0.009500,1.006656,192.000000,0.000000,0.000000,0.000000,0.000000,0.000000,0.000000,0.000000,0.000000,0.000000,1770902967.394426,0.000000
66.000000,22800.232208,22390.748249,3916.495015,1704.409922,24898.882198,-8984.149573,9687.134288,-3080.875049,16582.423935,15181.573055,-5784.206782,10722.668257,13868.877455,22745.179861,-4579.693625,16390.221285,-0.001750,-0.009500,1.006656,192.000000,0.000000,0.000000,0.000000,0.000000,0.000000,0.000000,0.000000,0.000000,0.000000,1770902967.394481,0.000000
68.000000,22792.342042,22382.254586,3916.986754,1701.526547,24891.036736,-8990.363358,9686.150811,-3083.870182,16489.261864,15153.968651,-5770.795735,10728.189138,13856.718106,22728.639570,-4570.819982,16347.574156,-0.001750,-0.009500,1.006656,192.000000,0.000000,0.000000,0.000000,0.000000,0.000000,0.000000,0.000000,0.000000,0.000000,1770902967.394532,0.000000
70.000000,22799.136972,22400.426555,3907.800187,1695.849204,24902.525533,-8992.844402,9681.658111,-3091.380369,16554.037220,15164.250453,-5785.592590,10720.388379,13866.083487,22734.339265,-4573.412785,16385.885046,-0.004000,-0.012000,1.002000,192.000000,127.500000,112.000000,127.500000,80.000000,15.500000,40.000000,0.000000,0.000000,0.000000,1770902967.394579,0.000000
72.000000,22790.375088,22377.583072,3918.171396,1710.131968,24888.600396,-8971.364376,9685.726128,-3080.897400,16538.592164,15169.190189,-5780.362282,10722.645905,13866.172894,22731.232373,-4571.378776,16373.144552,-0.004000,-0.012000,1.002000,192.000000,0.000000,0.000000,0.000000,0.000000,0.000000,0.000000,0.000000,0.000000,0.000000,1770902967.394595,0.000000
74.000000,22802.981472,22405.209828,3904.022742,1698.643172,24895.976471,-8977.175829,9681.658111,-3084.831308,16501.868248,15152.962822,-5778.350625,10725.216356,13846.682173,22740.888326,-4578.620741,16370.328232,-0.004000,-0.012000,1.002000,192.000000,0.000000,0.000000,0.000000,0.000000,0.000000,0.000000,0.000000,0.000000,0.000000,1770902967.394609,0.000000
76.000000,22805.261350,22400.627720,3915.757408,1711.785997,24903.129030,-8964.658852,9685.413204,-3077.656398,16582.133363,15184.791706,-5783.670340,10724.434045,13865.703507,22743.436425,-4585.236858,16405.241657,-0.004000,-0.012000,1.002000,192.000000,0.000000,0.000000,0.000000,0.000000,0.000000,0.000000,0.000000,0.000000,0.000000,1770902967.394626,0.000000
78.000000,22803.361452,22401.074755,3916.852643,1710.154320,24896.959948,-8968.503352,9687.648378,-3074.594209,16490.692376,15165.770372,-5767.308863,10737.241594,13851.733667,22740.642457,-4580.967674,16363.153322,-0.004000,-0.012000,1.002000,192.000000,0.000000,0.000000,0.000000,0.000000,0.000000,0.000000,0.000000,0.000000,0.000000,1770902967.394639,0.000000
80.000000,22811.229266,22418.956151,3913.410474,1702.957058,24914.729585,-8979.276893,9686.396681,-3078.103432,16555.221862,15180.030785,-5778.931770,10731.832472,13861.054344,22742.184727,-4585.035692,16396.770346,-0.006000,-0.008000,1.000000,192.000000,127.500000,104.000000,127.500000,96.000000,15.500000,32.000000,0.000000,0.000000,0.000000,1770902967.394652,0.000000
82.000000,22807.831801,22396.447944,3928.006164,1709.528471,24903.061974,-8973.018405,9691.001140,-3066.234656,16547.689324,15183.584712,-5766.437145,10736.347525,13870.352670,22750.544280,-4577.503154,16374.373898,-0.006000,-0.008000,1.000000,192.000000,0.000000,0.000000,0.000000,0.000000,0.000000,0.000000,0.000000,0.000000,0.000000,1770902967.394670,0.000000
84.000000,22809.798754,22414.463450,3912.985791,1701.101864,24915.131916,-8998.141765,9684.541486,-3077.298770,16497.129678,15171.492418,-5768.292340,10736.973374,13867.961033,22736.552088,-4574.485668,16362.415715,-0.006000,-0.008000,1.000000,192.000000,0.000000,0.000000,0.000000,0.000000,0.000000,0.000000,0.000000,0.000000,0.000000,1770902967.394689,0.000000
86.000000,22805.417813,22399.443078,3919.914832,1707.136835,24912.047376,-8993.246733,9685.457907,-3072.694310,16581.283996,15188.882075,-5778.328273,10730.893699,13868.318661,22734.540431,-4574.552724,16391.003596,-0.006000,-0.008000,1.000000,192.000000,0.000000,0.000000,0.000000,0.000000,0.000000,0.000000,0.000000,0.000000,0.000000,1770902967.394708,0.000000
88.000000,22796.141839,22394.548046,3919.043114,1703.873480,24909.499277,-8993.827879,9685.681425,-3073.700139,16488.144277,15161.881168,-5765.520724,10735.676972,13857.634527,22715.407338,-4568.696567,16349.719924,-0.006000,-0.008000,1.000000,192.000000,0.000000,0.000000,0.000000,0.000000,0.000000,0.000000,0.000000,0.000000,0.000000,1770902967.394727,0.000000
90.000000,22808.077670,22414.329340,3909.610678,1697.436177,24923.402062,-8996.532440,9682.552181,-3078.394005,16554.663069,15177.437982,-5780.496392,10724.568155,13859.333260,22736.686198,-4573.032805,16389.304863,-0.004000,-0.006000,1.002000,192.000000,127.500000,112.000000,127.500000,104.000000,15.500000,40.000000,0.000000,0.000000,0.000000,1770902967.394754,0.000000
92.000000,22798.846400,22388.758944,3922.507634,1712.635364,24909.633387,-8975.857076,9689.101242,-3068.648645,16535.082940,15176.923892,-5773.142668,10732.950060,13869.458600,22735.076873,-4571.825811,16377.570197,-0.004000,-0.006000,1.002000,192.000000,0.000000,0.000000,0.000000,0.000000,0.000000,0.000000,0.000000,0.000000,0.000000,1770902967.394773,0.000000
94.000000,22800.031042,22415.066947,3907.710780,1700.006628,24912.874390,-8981.847344,9685.077928,-3079.489241,16495.118021,15160.852988,-5771.913322,10733.106522,13847.330373,22742.430597,-4572.183439,16372.786924,-0.004000,-0.006000,1.002000,192.000000,0.000000,0.000000,0.000000,0.000000,0.000000,0.000000,0.000000,0.000000,0.000000,1770902967.394792,0.000000
96.000000,22794.845437,22396.984386,3912.114073,1711.338962,24915.869524,-8966.312881,9684.362672,-3079.802165,16572.767982,15188.032709,-5787.850116,10729.194966,13867.335184,22749.471396,-4577.123174,16412.684788,-0.004000,-0.006000,1.002000,192.000000,0.000000,0.000000,0.000000,0.000000,0.000000,0.000000,0.000000,0.000000,0.000000,1770902967.394812,0.000000
98.000000,22789.525722,22394.883322,3911.979963,1710.802521,24906.906474,-8959.272082,9684.988521,-3080.338607,16479.225931,15163.222273,-5774.573180,10731.050161,13848.135036,22743.682294,-4569.456526,16377.123162,-0.004000,-0.006000,1.002000,192.000000,0.000000,0.000000,0.000000,0.000000,0.000000,0.000000,0.000000,0.000000,0.000000,1770902967.394846,0.000000
100.000000,22804.121411,22416.139831,3905.453253,1703.851128,24920.116355,-8956.478114,9681.076965,-3085.412453,16545.632964,15179.539046,-5789.705311,10725.931612,13865.077658,22759.797902,-4575.446793,16418.630352,-0.004000,-0.006000,1.002000,192.000000,0.000000,0.000000,127.500000,96.000000,15.500000,24.000000,0.000000,0.000000,0.000000,1770902967.394865,0.000000
102.000000,22798.198199,22398.101973,3919.356038,1724.727657,24912.852038,-8949.347907,9689.995311,-3067.218133,16539.642696,15188.569151,-5776.584837,10733.240632,13865.636452,22757.987411,-4574.575075,16403.632331,-0.004000,-0.006000,1.002000,192.000000,0.000000,0.000000,0.000000,0.000000,0.000000,0.000000,0.000000,0.000000,0.000000,1770902967.394884,0.000000
104.000000,22809.955217,22425.527564,3911.689390,1708.768512,24919.825783,-8971.274969,9689.280056,-3073.007235,16499.320149,15176.186285,-5769.119354,10741.086095,13847.866815,22739.457815,-4579.648921,16388.634311,-0.004000,-0.006000,1.002000,192.000000,0.000000,0.000000,0.000000,0.000000,0.000000,0.000000,0.000000,0.000000,0.000000,1770902967.394900,0.000000
106.000000,22808.189429,22415.111651,3920.428922,1716.904547,24916.137745,-8965.754088,9692.275189,-3064.602979,16591.319930,15199.745023,-5774.394366,10738.225071,13881.774411,22758.076818,-4582.040558,16414.361169,-0.004000,-0.006000,1.002000,192.000000,0.000000,0.000000,0.000000,0.000000,0.000000,0.000000,0.000000,0.000000,0.000000,1770902967.394917,0.000000
108.000000,22801.618016,22407.176782,3918.774893,1708.634401,24903.509009,-8973.420736,9687.424861,-3069.118031,16504.684568,15178.622625,-5759.418697,10746.070534,13862.350745,22754.791111,-4578.039596,16373.815104,-0.004000,-0.006000,1.002000,192.000000,0.000000,0.000000,0.000000,0.000000,0.000000,0.000000,0.000000,0.000000,0.000000,1770902967.394935,0.000000
110.000000,22809.843458,22426.265171,3909.722437,1700.230145,24911.309768,-8982.450841,9683.714471,-3074.504802,16558.440513,15182.333014,-5779.870543,10730.647830,13863.513036,22746.520966,-4578.441927,16416.819861,0.004000,-0.008000,1.000000,192.000000,0.000000,16.000000,127.500000,96.000000,15.500000,32.000000,0.000000,0.000000,0.000000,1770902967.394953,0.000000
112.000000,22799.896932,22399.264264,3921.881786,1722.425428,24899.217474,-8976.684091,9688.922428,-3069.095679,16553.590185,15182.377718,-5768.247636,10736.772208,13863.133057,22737.759082,-4573.859820,16401.687730,0.004000,-0.008000,1.000000,192.000000,0.000000,0.000000,0.000000,0.000000,0.000000,0.000000,0.000000,0.000000,0.000000,1770902967.394973,0.000000
114.000000,22799.852228,22416.788032,3909.521271,1702.018285,24909.253408,-8991.458594,9684.005044,-3082.551430,16500.258923,15161.680002,-5772.986206,10732.190100,13839.239042,22728.438405,-4571.177610,16388.567256,0.004000,-0.008000,1.000000,192.000000,0.000000,0.000000,0.000000,0.000000,0.000000,0.000000,0.000000,0.000000,0.000000,1770902967.394991,0.000000
116.000000,22797.170019,22403.712261,3917.366733,1710.780169,24909.789849,-8980.327425,9686.240218,-3077.276418,16576.903054,15185.305796,-5785.369073,10725.059894,13867.513998,22749.158472,-4571.870514,16422.228983,0.004000,-0.008000,1.000000,192.000000,0.000000,0.000000,0.000000,0.000000,0.000000,0.000000,0.000000,0.000000,0.000000,1770902967.395010,0.000000
118.000000,22791.492676,22398.616063,3918.059637,1708.366180,24903.486658,-8980.439184,9686.396681,-3077.812860,16491.854667,15155.667383,-5769.812258,10732.212452,13851.443094,22721.866992,-4564.539142,16378.643081,0.004000,-0.008000,1.000000,192.000000,0.000000,0.000000,0.000000,0.000000,0.000000,0.000000,0.000000,0.000000,0.000000,1770902967.395030,0.000000
120.000000,22796.700632,22410.618950,3910.705913,1698.531413,24920.429280,-8984.328387,9682.149849,-3087.312351,16555.221862,15166.619738,-5786.620770,10721.058931,13849.722010,22732.931105,-4565.008529,16417.333951,0.002000,-0.010000,1.004000,192.000000,0.000000,8.000000,127.500000,88.000000,15.500000,48.000000,0.000000,0.000000,0.000000,1770902967.395050,0.000000
122.000000,22787.022327,22384.512113,3920.205405,1711.271907,24919.512858,-8961.395497,9686.441384,-3080.293903,16535.462920,15164.585729,-5778.641198,10725.663391,13875.158295,22742.989390,-4557.632453,16405.778099,0.002000,-0.010000,1.004000,192.000000,0.000000,0.000000,0.000000,0.000000,0.000000,0.000000,0.000000,0.000000,0.000000,1770902967.395073,0.000000
124.000000,22790.755068,22411.065985,3908.940126,1703.985239,24920.228114,-8958.445067,9682.395718,-3089.614581,16492.748736,15152.404028,-5781.971607,10724.434045,13831.594745,22729.734806,-4562.639244,16401.084232,0.002000,-0.010000,1.004000,192.000000,0.000000,0.000000,0.000000,0.000000,0.000000,0.000000,0.000000,0.000000,0.000000,1770902967.395093,0.000000
126.000000,22800.299263,22407.467354,3919.624259,1710.958983,24928.811184,-8945.011669,9686.240218,-3077.164659,16583.183895,15181.930683,-5786.352549,10724.635211,13858.908577,22754.165262,-4568.674215,16438.769274,0.002000,-0.010000,1.004000,192.000000,0.000000,0.000000,0.000000,0.000000,0.000000,0.000000,0.000000,0.000000,0.000000,1770902967.395112,0.000000
128.000000,22799.718118,22408.204962,3917.813768,1715.496387,24909.298111,-8950.666660,9689.056538,-3070.146211,16500.080109,15161.523540,-5768.180581,10739.677935,13845.765751,22747.213870,-4570.641168,16392.411756,0.002000,-0.010000,1.004000,192.000000,0.000000,0.000000,0.000000,0.000000,0.000000,0.000000,0.000000,0.000000,0.000000,1770902967.395130,0.000000
130.000000,22813.129164,22431.808404,3909.320105,1703.605259,24917.769422,-8971.342024,9688.207172,-3070.459136,16566.375383,15177.236817,-5779.959950,10737.286298,13845.855158,22748.286754,-4584.275733,16422.385445,0.006000,-0.012000,1.012000,192.000000,0.000000,24.000000,127.500000,80.000000,15.500000,80.000000,0.000000,0.000000,0.000000,1770902967.395149,0.000000
132.000000,22802.221513,22407.266189,3919.534852,1722.268966,24905.028928,-8974.113640,9693.660998,-3061.518438,16565.660127,15182.087145,-5768.649968,10745.042353,13855.108780,22759.261460,-4584.700416,16401.307750,0.006000,-0.012000,1.012000,192.000000,0.000000,0.000000,0.000000,0.000000,0.000000,0.000000,0.000000,0.000000,0.000000,1770902967.395167,0.000000
134.000000,22811.430432,22431.517831,3911.108245,1711.249555,24912.360300,-8990.922152,9691.694044,-3068.179258,16508.730234,15162.864645,-5769.655796,10745.645850,13831.125358,22730.315951,-4587.427329,16388.477849,0.006000,-0.012000,1.012000,192.000000,0.000000,0.000000,0.000000,0.000000,0.000000,0.000000,0.000000,0.000000,0.000000,1770902967.395194,0.000000
136.000000,22811.989225,22424.834660,3922.597041,1718.268003,24927.559486,-8981.065033,9694.778585,-3061.026700,16606.340302,15183.137677,-5774.707290,10743.053048,13867.178722,22752.757103,-4584.633360,16417.959800,0.006000,-0.012000,1.012000,192.000000,0.000000,0.000000,0.000000,0.000000,0.000000,0.000000,0.000000,0.000000,0.000000,1770902967.395213,0.000000
138.000000,22806.289531,22423.650017,3924.407533,1716.144588,24926.084271,-8980.260370,9696.343207,-3057.115144,16515.078129,15172.207674,-5755.797715,10753.826589,13847.218614,22747.169166,-4571.714052,16372.853979,0.006000,-0.012000,1.012000,192.000000,0.000000,0.000000,0.000000,0.000000,0.000000,0.000000,0.000000,0.000000,0.000000,1770902967.395231,0.000000
140.000000,22811.497487,22436.189346,3921.211233,1706.108654,24940.836423,-8982.204972,9692.185782,-3065.608807,16578.579435,15180.164895,-5770.371052,10740.907281,13854.214710,22755.461664,-4568.271884,16406.627465,0.004000,-0.012000,1.009000,192.000000,0.000000,8.000000,127.500000,80.000000,15.500000,56.000000,0.000000,0.000000,0.000000,1770902967.395249,0.000000
142.000000,22796.857094,22406.081546,3930.040172,1716.569271,24932.856850,-8969.419774,9694.242143,-3061.607845,16569.549330,15178.555569,-5764.045508,10746.159941,13861.143751,22755.305201,-4558.884151,16390.087174,0.004000,-0.012000,1.009000,192.000000,0.000000,0.000000,0.000000,0.000000,0.000000,0.000000,0.000000,0.000000,0.000000,1770902967.395268,0.000000
144.000000,22802.310920,22427.293352,3916.450312,1702.867651,24938.578896,-8978.449879,9689.414166,-3073.253104,16517.693283,15156.829674,-5769.097003,10739.700286,13842.725914,22754.902870,-4555.821962,16381.861732,0.004000,-0.012000,1.009000,192.000000,0.000000,0.000000,0.000000,0.000000,0.000000,0.000000,0.000000,0.000000,0.000000,1770902967.395288,0.000000
146.000000,22795.828914,22412.921180,3920.115998,1715.071704,24938.020103,-8965.709384,9689.391814,-3073.454270,16611.235334,15182.109497,-5779.289398,10737.286298,13852.873606,22763.016553,-4556.358404,16420.306733,0.004000,-0.012000,1.009000,192.000000,0.000000,0.000000,0.000000,0.000000,0.000000,0.000000,0.000000,0.000000,0.000000,1770902967.395307,0.000000
148.000000,22784.630690,22403.242875,3917.500844,1714.848186,24926.285437,-8958.579178,9687.760137,-3076.896438,16512.306513,15159.936566,-5771.578046,10740.281432,13843.016487,22748.934954,-4550.122267,16386.577950,0.004000,-0.012000,1.009000,192.000000,0.000000,0.000000,0.000000,0.000000,0.000000,0.000000,0.000000,0.000000,0.000000,1770902967.395326,0.000000
150.000000,22793.370222,22419.246724,3906.995524,1703.873480,24943.317466,-8959.585006,9684.072099,-3083.803127,16565.146037,15165.256282,-5790.688788,10729.239670,13851.063115,22759.283812,-4558.459468,16424.285343,0.004000,-0.012000,1.009000,192.000000,0.000000,0.000000,127.500000,80.000000,15.500000,72.000000,0.000000,0.000000,0.000000,1770902967.395344,0.000000
152.000000,22783.736620,22394.704508,3916.383256,1720.503178,24925.659588,-8942.195349,9688.341282,-3076.851735,16555.154807,15161.367078,-5783.960913,10730.312554,13851.688963,22755.148739,-4558.928854,16409.488488,0.004000,-0.012000,1.009000,192.000000,0.000000,0.000000,0.000000,0.000000,0.000000,0.000000,0.000000,0.000000,0.000000,1770902967.395362,0.000000
154.000000,22791.313862,22421.325436,3909.387160,1705.862785,24924.720815,-8955.651099,9686.262570,-3082.909057,16503.142298,15150.682944,-5784.497355,10731.988935,13838.099103,22752.466530,-4564.337976,16396.680939,0.004000,-0.012000,1.009000,192.000000,0.000000,0.000000,0.000000,0.000000,0.000000,0.000000,0.000000,0.000000,0.000000,1770902967.395385,0.000000
156.000000,22795.337176,22414.306988,3917.210271,1715.965774,24923.491469,-8956.299300,9691.112899,-3073.856601,16594.493877,15183.718822,-5786.106680,10733.374743,13844.044667,22762.413056,-4574.016282,16425.045303,0.004000,-0.012000,1.009000,192.000000,0.000000,0.000000,0.000000,0.000000,0.000000,0.000000,0.000000,0.000000,0.000000,1770902967.395405,0.000000
158.000000,22795.672452,22414.396395,3917.143216,1716.211643,24906.951178,-8966.826971,9693.504535,-3069.945046,16506.986798,15165.502151,-5770.840439,10742.941289,13849.051458,22758.166225,-4572.988102,16376.832590,0.004000,-0.012000,1.009000,192.000000,0.000000,0.000000,0.000000,0.000000,0.000000,0.000000,0.000000,0.000000,0.000000,1770902967.395423,0.000000
160.000000,22806.691862,22437.753968,3913.097550,1707.360352,24917.031815,-8982.652006,9691.761099,-3070.995578,16569.348165,15173.638186,-5782.038663,10737.018077,13838.881414,22754.701704,-4579.581866,16406.471003,0.004000,-0.012000,1.009000,192.000000,0.000000,0.000000,127.500000,80.000000,15.500000,64.000000,0.000000,0.000000,0.000000,1770902967.395442,0.000000
162.000000,22802.087403,22418.509116,3928.520254,1717.686858,24903.598416,-8976.840553,9698.645437,-3055.237598,16566.040107,15180.321357,-5765.028985,10749.289185,13851.711315,22769.230338,-4574.284503,16388.030814,0.004000,-0.012000,1.009000,192.000000,0.000000,0.000000,0.000000,0.000000,0.000000,0.000000,0.000000,0.000000,0.000000,1770902967.395461,0.000000
164.000000,22804.143763,22438.849203,3918.774893,1706.667448,24915.064861,-8993.246733,9693.258666,-3066.346415,16513.513507,15162.127037,-5764.894875,10750.585586,13839.015524,22741.223602,-4570.082375,16373.971566,0.004000,-0.012000,1.009000,192.000000,0.000000,0.000000,0.000000,0.000000,0.000000,0.000000,0.000000,0.000000,0.000000,1770902967.395478,0.000000
166.000000,22806.378938,22428.053311,3928.140274,1709.081436,24926.911286,-8984.395443,9693.057500,-3062.993653,16600.417090,15181.573055,-5775.400195,10740.795522,13868.519827,22754.120559,-4564.337976,16410.382558,0.004000,-0.012000,1.009000,192.000000,0.000000,0.000000,0.000000,0.000000,0.000000,0.000000,0.000000,0.000000,0.000000,1770902967.395498,0.000000
168.000000,22802.601493,22425.549915,3922.172358,1709.908451,24917.434146,-8984.261332,9693.348073,-3062.591322,16512.351216,15161.769409,-5764.090212,10747.188121,13854.795856,22752.622992,-4555.866665,16371.646985,0.004000,-0.012000,1.009000,192.000000,0.000000,0.000000,0.000000,0.000000,0.000000,0.000000,0.000000,0.000000,0.000000,1770902967.395515,0.000000
170.000000,22803.674376,22439.363294,3912.605812,1711.942460,24929.995826,-8991.235076,9688.274227,-3072.783717,16573.907921,15166.664441,-5781.189296,10741.466074,13852.739495,22748.666733,-4564.248570,16409.399081,0.004000,-0.012000,1.008500,192.000000,0.000000,16.000000,127.500000,80.000000,15.500000,64.000000,0.000000,0.000000,0.000000,1770902967.395535,0.000000
172.000000,22794.867789,22417.257418,3924.340478,1725.174692,24918.372919,-8969.084498,9693.258666,-3060.333796,16560.206301,15176.365099,-5772.472116,10746.115237,13856.651051,22755.528719,-4561.231084,16399.474907,0.004000,-0.012000,1.008500,192.000000,0.000000,0.000000,0.000000,0.000000,0.000000,0.000000,0.000000,0.000000,0.000000,1770902967.395553,0.000000
174.000000,22805.082536,22446.493500,3915.064504,1713.976468,24927.961818,-8975.007710,9692.096375,-3062.948950,16515.279295,15160.517712,-5768.761726,10752.396077,13839.462559,22751.483053,-4560.918160,16388.835476,0.004000,-0.012000,1.008500,192.000000,0.000000,0.000000,0.000000,0.000000,0.000000,0.000000,0.000000,0.000000,0.000000,1770902967.395572,0.000000
176.000000,22818.493583,22442.671352,3926.933280,1720.302012,24938.444786,-8961.462553,9695.404434,-3052.197761,16610.721244,15185.439907,-5771.823915,10750.451475,13863.691850,22776.360545,-4561.231084,16420.597305,0.004000,-0.012000,1.008500,192.000000,0.000000,0.000000,0.000000,0.000000,0.000000,0.000000,0.000000,0.000000,0.000000,1770902967.395590,0.000000
178.000000,22819.812336,22442.201965,3932.096533,1720.056143,24935.807280,-8953.751201,9697.214925,-3050.029641,16531.484310,15169.681927,-5749.494523,10760.912092,13856.494588,22766.570481,-4552.983290,16380.833552,0.004000,-0.012000,1.008500,192.000000,0.000000,0.000000,0.000000,0.000000,0.000000,0.000000,0.000000,0.000000,0.000000,1770902967.395608,0.000000
180.000000,22822.785118,22454.093093,3924.541643,1711.361314,24955.119187,-8962.803657,9692.655169,-3058.657415,16599.232447,15182.578883,-5760.871561,10746.584624,13875.985310,22778.551016,-4553.676194,16418.540945,0.005000,-0.014000,1.009250,192.000000,0.000000,24.000000,127.500000,64.000000,15.500000,72.000000,0.000000,0.000000,0.000000,1770902967.875066,0.000000
182.000000,22811.206914,22428.567401,3932.722382,1726.828721,24932.856850,-8951.963061,9697.684312,-3048.576778,16586.424897,15181.818924,-5755.820066,10753.200740,13890.066909,22768.738600,-4551.619834,16405.509878,0.005000,-0.014000,1.009250,192.000000,0.000000,0.000000,0.000000,0.000000,0.000000,0.000000,0.000000,0.000000,0.000000,1770902967.875139,0.000000
184.000000,22817.018368,22447.968715,3916.807940,1711.026038,24929.571143,-8970.693823,9691.559934,-3059.082098,16533.764188,15170.061907,-5758.144648,10754.608900,13855.444056,22765.497597,-4552.200979,16394.311654,0.005000,-0.014000,1.009250,192.000000,0.000000,0.000000,0.000000,0.000000,0.000000,0.000000,0.000000,0.000000,0.000000,1770902967.875192,0.000000
186.000000,22812.145688,22431.339017,3922.462931,1717.686858,24924.027911,-8970.559713,9693.772756,-3055.259950,16610.453023,15185.372852,-5772.159192,10743.768304,13869.637414,22772.292527,-4558.079488,16425.559393,0.005000,-0.014000,1.009250,192.000000,0.000000,0.000000,0.000000,0.000000,0.000000,0.000000,0.000000,0.000000,0.000000,1770902967.875256,0.000000
188.000000,22807.988263,22429.908506,3922.954669,1711.026038,24913.835515,-8973.241922,9695.449137,-3053.784734,16523.951772,15166.731497,-5758.971662,10751.189083,13853.387696,22771.934899,-4556.425459,16378.240750,0.005000,-0.014000,1.009250,192.000000,0.000000,0.000000,0.000000,0.000000,0.000000,0.000000,0.000000,0.000000,0.000000,1770902967.875315,0.000000
190.000000,22809.463478,22442.000799,3915.466835,1709.930803,24924.229076,-8986.429451,9693.079852,-3063.172467,16579.048822,15171.090087,-5772.919151,10741.913109,13851.934833,22765.676411,-4565.097936,16409.957875,0.004500,-0.014000,1.009625,192.000000,0.000000,16.000000,127.500000,72.000000,15.500000,72.000000,0.000000,0.000000,0.000000,1770902967.875359,0.000000
192.000000,22798.734641,22417.168011,3928.542605,1719.407942,24915.489544,-8974.314806,9699.271285,-3053.248293,16568.141171,15173.727593,-5763.799639,10741.600185,13873.303100,22768.738600,-4565.164991,16394.222247,0.004500,-0.014000,1.009625,192.000000,0.000000,0.000000,0.000000,0.000000,0.000000,0.000000,0.000000,0.000000,0.000000,1770902967.875379,0.000000
194.000000,22806.960083,22443.341904,3917.053809,1706.488634,24919.646969,-8989.245771,9694.420957,-3061.741955,16525.695208,15152.694601,-5759.821029,10742.583661,13845.810455,22760.334344,-4570.864686,16382.286415,0.004500,-0.014000,1.009625,192.000000,0.000000,0.000000,0.000000,0.000000,0.000000,0.000000,0.000000,0.000000,0.000000,1770902967.875398,0.000000
196.000000,22802.065051,22429.684988,3922.015896,1713.618840,24922.753861,-8981.467364,9696.365559,-3058.344490,16607.726110,15182.400070,-5772.047433,10739.052086,13869.771525,22772.069010,-4575.245628,16414.517631,0.004500,-0.014000,1.009625,192.000000,0.000000,0.000000,0.000000,0.000000,0.000000,0.000000,0.000000,0.000000,0.000000,1770902967.875418,0.000000
198.000000,22794.376051,22422.934761,3921.345344,1719.922032,24906.995881,-8980.416832,9697.304332,-3058.366842,16515.435757,15156.784970,-5760.402174,10744.304746,13850.772542,22764.737638,-4568.562456,16372.608110,0.004500,-0.014000,1.009625,192.000000,0.000000,0.000000,0.000000,0.000000,0.000000,0.000000,0.000000,0.000000,0.000000,1770902967.875437,0.000000
200.000000,22802.690900,22442.671352,3911.331762,1713.440026,24927.715949,-8991.033911,9692.789280,-3061.674900,16573.371479,15174.196979,-5776.450727,10741.376667,13852.851254,22761.384876,-4574.530372,16411.164869,0.003250,-0.013000,1.009813,192.000000,0.000000,8.000000,127.500000,80.000000,15.500000,72.000000,0.000000,0.000000,0.000000,1770902967.875457,0.000000
202.000000,22795.247769,22424.968770,3925.748637,1725.085285,24924.005559,-8967.117544,9696.209096,-3051.795429,16570.979842,15181.595407,-5767.040642,10747.143417,13865.681155,22772.806617,-4565.612026,16397.396195,0.003250,-0.013000,1.009813,192.000000,0.000000,0.000000,0.000000,0.000000,0.000000,0.000000,0.000000,0.000000,0.000000,1770902967.875477,0.000000
204.000000,22800.411022,22448.415750,3914.572765,1715.049352,24931.649856,-8977.533457,9692.565762,-3059.573836,16520.330789,15169.592520,-5767.755898,10748.261004,13847.084504,22770.593795,-4561.320491,16388.097869,0.003250,-0.013000,1.009813,192.000000,0.000000,0.000000,0.000000,0.000000,0.000000,0.000000,0.000000,0.000000,0.000000,1770902967.875496,0.000000
206.000000,22795.024251,22434.445910,3925.033382,1720.726695,24938.400082,-8967.586931,9694.666826,-3057.651586,16611.592962,15196.526372,-5775.713119,10744.192987,13860.473199,22780.003879,-4558.258302,16422.206631,0.003250,-0.013000,1.009813,192.000000,0.000000,0.000000,0.000000,0.000000,0.000000,0.000000,0.000000,0.000000,0.000000,1770902967.875516,0.000000
208.000000,22791.023289,22429.796747,3928.989640,1715.697553,24934.957914,-8964.345928,9696.030283,-3055.550522,16518.565001,15174.129924,-5758.099944,10748.037487,13864.272996,22765.519949,-4550.837523,16382.286415,0.003250,-0.013000,1.009813,192.000000,0.000000,0.000000,0.000000,0.000000,0.000000,0.000000,0.000000,0.000000,0.000000,1770902967.875534,0.000000
210.000000,22799.516952,22450.695628,3919.132521,1712.680067,24948.436016,-8971.297320,9692.297541,-3062.345453,16581.038127,15186.266921,-5769.365224,10740.460246,13861.434324,22777.411077,-4553.743250,16415.724625,0.003250,-0.013000,1.009813,192.000000,0.000000,0.000000,0.000000,0.000000,0.000000,0.000000,0.000000,0.000000,0.000000,1770902967.875554,0.000000
212.000000,22793.839609,22428.343884,3925.726286,1727.476922,24923.670283,-8960.300262,9695.784413,-3053.225941,16571.583339,15187.228046,-5766.191276,10746.674031,13875.806496,22771.487864,-4557.833619,16403.118241,0.003250,-0.013000,1.009813,192.000000,0.000000,0.000000,127.500000,72.000000,15.500000,32.000000,0.000000,0.000000,0.000000,1770902967.875573,0.000000
214.000000,22800.433374,22451.075608,3912.181129,1714.915242,24922.195068,-8972.146687,9693.102204,-3059.372671,16517.916801,15174.711069,-5765.632482,10749.602109,13839.037876,22766.704591,-4566.819020,16388.410793,0.003250,-0.013000,1.009813,192.000000,0.000000,0.000000,0.000000,0.000000,0.000000,0.000000,0.000000,0.000000,0.000000,1770902967.875592,0.000000
216.000000,22794.733679,22435.027055,3915.712704,1724.168864,24915.601303,-8970.626768,9696.186745,-3055.394060,16608.575476,15195.162916,-5773.030910,10746.294051,13860.875530,22778.975699,-4578.084299,16421.021989,0.003250,-0.013000,1.009813,192.000000,0.000000,0.000000,0.000000,0.000000,0.000000,0.000000,0.000000,0.000000,0.000000,1770902967.875612,0.000000
218.000000,22787.648176,22426.220468,3917.813768,1719.363239,24898.345756,-8981.288550,9697.997236,-3054.209418,16514.474632,15168.698450,-5760.402174,10750.429124,13838.479082,22773.767742,-4577.056119,16374.664471,0.003250,-0.013000,1.009813,192.000000,0.000000,0.000000,0.000000,0.000000,0.000000,0.000000,0.000000,0.000000,0.000000,1770902967.875636,0.000000
220.000000,22792.789077,22437.821023,3910.638858,1708.746160,24910.840381,-8994.766652,9694.197439,-3063.083060,16570.510455,15172.744116,-5775.243732,10738.895624,13848.224443,22756.400437,-4584.298084,16407.409776,0.003250,-0.013000,1.009813,192.000000,0.000000,0.000000,0.000000,0.000000,0.000000,0.000000,0.000000,0.000000,0.000000,1770902967.875655,0.000000
222.000000,22783.714269,22410.663654,3927.089742,1720.011439,24898.748088,-8986.004768,9698.421919,-3057.159848,16565.950700,15167.558511,-5769.454631,10734.738199,13849.900824,22753.494710,-4574.575075,16392.434107,0.003250,-0.013000,1.009813,192.000000,0.000000,0.000000,127.500000,80.000000,15.500000,40.000000,0.000000,0.000000,0.000000,1770902967.875674,0.000000
224.000000,22790.062164,22433.618895,3914.818634,1706.801558,24909.342815,-8995.303094,9693.191611,-3067.084022,16507.366777,15155.063886,-5768.873485,10737.845092,13836.512129,22748.487919,-4569.434174,16378.643081,0.003250,-0.013000,1.009813,192.000000,0.000000,0.000000,0.000000,0.000000,0.000000,0.000000,0.000000,0.000000,0.000000,1770902967.875694,0.000000
226.000000,22787.201141,22421.504250,3922.954669,1707.561518,24922.396233,-8983.836649,9692.319893,-3062.814839,16603.456927,15178.399107,-5781.256352,10735.006420,13863.691850,22760.088475,-4562.415726,16413.355340,0.003250,-0.013000,1.009813,192.000000,0.000000,0.000000,0.000000,0.000000,0.000000,0.000000,0.000000,0.000000,0.000000,1770902967.875713,0.000000
228.000000,22783.513103,22418.240895,3922.798207,1718.893852,24910.572161,-8977.958140,9694.733881,-3058.992691,16516.776862,15162.484665,-5761.653872,10741.644888,13850.750190,22753.651172,-4551.977462,16372.116372,0.003250,-0.013000,1.009813,192.000000,0.000000,0.000000,0.000000,0.000000,0.000000,0.000000,0.000000,0.000000,0.000000,1770902967.875732,0.000000
230.000000,22796.320653,22436.435215,3914.125730,1712.344791,24928.475908,-8979.634521,9692.722224,-3065.027662,16574.824342,15177.169761,-5777.456555,10735.006420,13863.289519,22758.993239,-4558.682985,16411.880125,0.003250,-0.013000,1.009813,192.000000,0.000000,0.000000,0.000000,0.000000,0.000000,0.000000,0.000000,0.000000,0.000000,1770902967.875751,0.000000
232.000000,22793.929016,22410.820116,3929.034344,1724.660602,24922.306826,-8962.803657,9698.086643,-3053.270644,16585.687290,15181.953035,-5763.129087,10742.963641,13859.735591,22770.705553,-4555.844314,16401.084232,0.002000,-0.014000,1.002000,192.000000,0.000000,8.000000,127.500000,72.000000,15.500000,40.000000,0.000000,0.000000,0.000000,1770902967.875771,0.000000
