Sample_index,EXG Channel 0,EXG Channel 1,EXG Channel 2,EXG Channel 3,EXG Channel 4,EXG Channel 5,EXG Channel 6,EXG Channel 7,EXG Channel 8,EXG Channel 9,EXG Channel 10,EXG Channel 11,EXG Channel 12,EXG Channel 13,EXG Channel 14,EXG Channel 15,Accel Channel 0,Accel Channel 1,Accel Channel 2,Not Used,Digital Channel 0 (D11),Digital Channel 1 (D12),Digital Channel 2 (D13),Digital Channel 3 (D17),Not Used,Digital Channel 4 (D18),Analog Channel 0,Analog Channel 1,Analog Channel 2,Timestamp,Marker Channel
90.000000,22668.781599,22482.569216,4875.228390,5038.060848,26010.657967,-8993.961989,10061.503656,-3348.984223,19425.990513,20399.677205,-4168.667396,9170.429012,20885.581778,24683.947824,5053.260035,19834.893326,0.008000,-0.014000,1.006000,192.000000,0.000000,0.000000,0.000000,0.000000,0.000000,0.000000,0.000000,0.000000,0.000000,1770903932.897843,0.000000
92.000000,22682.639680,22503.177524,4870.579227,5034.193997,26015.664758,-9004.064978,10062.040098,-3346.547883,19470.761057,20415.815165,-4173.830649,9174.251160,20888.733374,24694.542550,5043.000584,19861.983640,0.008000,-0.014000,1.006000,192.000000,0.000000,0.000000,0.000000,0.000000,0.000000,0.000000,0.000000,0.000000,0.000000,1770903932.897904,0.000000
94.000000,22684.472523,22492.202817,4880.749271,5044.900482,26006.567598,-8997.381806,10066.353985,-3334.634404,19479.813514,20425.292304,-4166.678091,9183.929465,20919.556429,24702.790344,5038.396125,19849.623126,0.006000,-0.010000,1.010000,192.000000,0.000000,24.000000,127.500000,88.000000,15.500000,72.000000,0.000000,0.000000,0.000000,1770903932.897952,0.000000
96.000000,22686.685346,22504.518629,4874.267265,5033.858721,26007.036985,-9016.425492,10066.689261,-3336.646061,19449.862176,20415.435185,-4153.959948,9185.449384,20897.808182,24691.972100,5032.048229,19831.786434,0.006000,-0.010000,1.010000,192.000000,0.000000,0.000000,0.000000,0.000000,0.000000,0.000000,0.000000,0.000000,0.000000,1770903932.897995,0.000000
98.000000,22689.859294,22500.070632,4880.458698,5038.306718,26006.209970,-9013.206841,10067.382165,-3332.555691,19507.529677,20430.567316,-4164.666434,9183.460079,20917.231848,24691.033327,5034.596328,19864.174111,0.006000,-0.010000,1.010000,192.000000,0.000000,0.000000,0.000000,0.000000,0.000000,0.000000,0.000000,0.000000,0.000000,1770903932.898038,0.000000
100.000000,22685.165427,22494.572102,4881.442175,5037.211482,25999.660909,-9016.358437,10067.873903,-3331.952194,19449.750417,20416.083385,-4148.684937,9188.243352,20896.914112,24685.780667,5035.266880,19826.064387,0.006000,-0.010000,1.010000,192.000000,0.000000,0.000000,0.000000,0.000000,0.000000,0.000000,0.000000,0.000000,0.000000,1770903932.898082,0.000000
102.000000,22683.332584,22501.411736,4871.450945,5027.890805,26009.965063,-9025.299135,10062.598892,-3344.089191,19482.495723,20415.681054,-4165.381690,9178.676805,20878.585682,24683.858417,5040.363078,19858.407361,0.006000,-0.010000,1.010000,192.000000,0.000000,0.000000,0.000000,0.000000,0.000000,0.000000,0.000000,0.000000,0.000000,1770903932.898106,0.000000
104.000000,22669.698020,22480.535207,4876.614198,5036.026840,26004.310072,-9015.978457,10063.001223,-3346.078497,19477.868912,20412.909438,-4170.343777,9173.468849,20927.468947,24689.446353,5045.191055,19851.523024,0.004000,-0.010000,1.005000,192.000000,0.000000,8.000000,127.500000,88.000000,15.500000,32.000000,0.000000,0.000000,0.000000,1770903932.898121,0.000000
106.000000,22663.573642,22485.564349,4867.807611,5023.062828,26001.538456,-9025.366190,10057.055659,-3358.707232,19428.069225,20399.096060,-4175.819954,9170.093735,20848.053199,24662.579556,5053.975291,19832.009951,0.004000,-0.010000,1.005000,192.000000,0.000000,0.000000,0.000000,0.000000,0.000000,0.000000,0.000000,0.000000,0.000000,1770903932.898137,0.000000
108.000000,22668.736895,22484.267948,4869.260474,5032.316450,26000.957310,-9003.126204,10056.250996,-3354.885084,19484.887360,20407.723833,-4184.805356,9163.835247,20884.374784,24674.805960,5053.707070,19874.366507,0.004000,-0.010000,1.005000,192.000000,0.000000,0.000000,0.000000,0.000000,0.000000,0.000000,0.000000,0.000000,0.000000,1770903932.898155,0.000000
110.000000,22672.894320,22488.403021,4872.926160,5039.647822,26008.266331,-8987.211762,10059.424944,-3348.671299,19430.326752,20403.767574,-4171.059033,9172.865352,20881.469057,24679.164550,5051.270729,19841.241222,0.004000,-0.010000,1.005000,192.000000,0.000000,0.000000,0.000000,0.000000,0.000000,0.000000,0.000000,0.000000,0.000000,1770903932.898172,0.000000
112.000000,22689.345204,22511.492373,4871.652111,5038.507883,26017.028215,-8997.001826,10063.448258,-3342.233997,19474.627909,20422.610095,-4174.791774,9178.162715,20900.691557,24688.686393,5047.403878,19871.617242,0.004000,-0.010000,1.005000,192.000000,0.000000,0.000000,0.000000,0.000000,0.000000,0.000000,0.000000,0.000000,0.000000,1770903932.898189,0.000000
114.000000,22693.189704,22504.451573,4880.190477,5049.504942,26007.640482,-8991.145669,10069.237360,-3329.337040,19484.485028,20435.596458,-4164.219399,9189.115070,20910.794546,24698.364699,5039.469008,19856.887443,0.001000,-0.011000,1.006500,192.000000,127.500000,120.000000,127.500000,80.000000,15.500000,64.000000,0.000000,0.000000,0.000000,1770903932.898206,0.000000
116.000000,22700.096393,22516.834440,4874.714300,5041.234796,26007.416964,-9011.619867,10068.723270,-3330.007592,19451.940888,20428.578011,-4154.876370,9193.965399,20916.181316,24693.827295,5028.159026,19835.630934,0.001000,-0.011000,1.006500,192.000000,0.000000,0.000000,0.000000,0.000000,0.000000,0.000000,0.000000,0.000000,0.000000,1770903932.898223,0.000000
118.000000,22701.817477,22514.554562,4877.262399,5047.001546,26006.142915,-9008.244754,10069.594988,-3325.447837,19514.391662,20436.848156,-4160.285492,9190.567933,20916.494240,24691.703879,5029.880110,19868.331536,0.001000,-0.011000,1.006500,192.000000,0.000000,0.000000,0.000000,0.000000,0.000000,0.000000,0.000000,0.000000,0.000000,1770903932.898240,0.000000
120.000000,22697.592997,22510.508896,4883.744405,5049.773163,26002.231360,-9009.764672,10071.159610,-3322.765627,19458.400543,20429.382673,-4145.600396,9199.776852,20911.710967,24695.324861,5030.528311,19828.478375,0.001000,-0.011000,1.006500,192.000000,0.000000,0.000000,0.000000,0.000000,0.000000,0.000000,0.000000,0.000000,0.000000,1770903932.898258,0.000000
122.000000,22696.207189,22510.508896,4870.780393,5039.469008,26007.729889,-9022.907498,10066.108115,-3337.182502,19500.175953,20432.198993,-4161.626597,9192.557239,20915.711929,24692.955577,5036.473875,19862.385972,0.001000,-0.011000,1.006500,192.000000,0.000000,0.000000,0.000000,0.000000,0.000000,0.000000,0.000000,0.000000,0.000000,1770903932.898275,0.000000
124.000000,22676.738820,22487.106620,4877.932951,5045.861607,26001.806677,-9015.509071,10065.079935,-3340.132933,19488.508342,20424.331179,-4163.705309,9187.036358,20907.531191,24689.558111,5038.038497,19855.971021,0.003500,-0.012500,1.008250,192.000000,0.000000,24.000000,127.500000,72.000000,15.500000,72.000000,0.000000,0.000000,0.000000,1770903932.898293,0.000000
126.000000,22667.261680,22490.638195,4866.354748,5032.338802,26011.417927,-9018.280687,10058.173246,-3355.846209,19438.686304,20408.930827,-4173.830649,9178.229770,20903.686691,24680.550358,5048.521465,19837.419073,0.003500,-0.012500,1.008250,192.000000,0.000000,0.000000,0.000000,0.000000,0.000000,0.000000,0.000000,0.000000,0.000000,1770903932.898311,0.000000
128.000000,22664.668878,22483.396230,4873.820230,5038.820808,26013.921322,-8996.577143,10057.301528,-3355.823857,19497.292578,20414.027025,-4186.682902,9168.596169,20904.312540,24686.294757,5055.696375,19878.255710,0.003500,-0.012500,1.008250,192.000000,0.000000,0.000000,0.000000,0.000000,0.000000,0.000000,0.000000,0.000000,0.000000,1770903932.898328,0.000000
130.000000,22670.323869,22487.643062,4875.384852,5047.761506,26018.279912,-8975.879428,10060.184903,-3348.514837,19447.269374,20409.221400,-4169.583818,9176.821611,20908.112336,24692.396783,5054.891712,19851.701838,0.003500,-0.012500,1.008250,192.000000,0.000000,0.000000,0.000000,0.000000,0.000000,0.000000,0.000000,0.000000,0.000000,1770903932.898346,0.000000
132.000000,22687.199436,22508.005501,4869.729861,5043.179398,26032.719139,-8981.534419,10060.676642,-3347.218436,19497.449040,20422.565391,-4173.830649,9179.503820,20918.438842,24702.365661,5052.276558,19887.732850,0.003500,-0.012500,1.008250,192.000000,0.000000,0.000000,0.000000,0.000000,0.000000,0.000000,0.000000,0.000000,0.000000,1770903932.898364,0.000000
134.000000,22689.903997,22499.578893,4883.699701,5050.510770,26019.330444,-8981.735585,10066.286929,-3335.103790,19507.015587,20426.119319,-4167.214533,9184.488259,20919.645836,24706.947769,5047.940320,19873.673603,0.003750,-0.014250,1.005125,192.000000,0.000000,16.000000,127.500000,64.000000,15.500000,40.000000,0.000000,0.000000,0.000000,1770903932.898380,0.000000
136.000000,22690.194570,22509.458364,4876.927123,5043.335860,26009.115697,-9001.695693,10065.817543,-3339.440029,19474.046764,20415.636351,-4156.128068,9187.505744,20913.744976,24695.011937,5039.714878,19846.270364,0.003750,-0.014250,1.005125,192.000000,0.000000,0.000000,0.000000,0.000000,0.000000,0.000000,0.000000,0.000000,0.000000,1770903932.898397,0.000000
138.000000,22690.529846,22503.266931,4882.135079,5046.241587,26008.176924,-9001.069844,10065.974005,-3337.070744,19529.747311,20423.280647,-4165.001710,9184.175334,20932.811014,24699.281120,5039.424305,19878.233359,0.003750,-0.014250,1.005125,192.000000,0.000000,0.000000,0.000000,0.000000,0.000000,0.000000,0.000000,0.000000,0.000000,1770903932.898415,0.000000
140.000000,22683.198474,22499.109507,4883.565591,5047.292119,26001.516104,-8998.074710,10066.823371,-3335.304956,19477.176008,20413.065900,-4155.278701,9188.913904,20917.008330,24694.609606,5040.363078,19836.167376,0.003750,-0.014250,1.005125,192.000000,0.000000,0.000000,0.000000,0.000000,0.000000,0.000000,0.000000,0.000000,0.000000,1770903932.898432,0.000000
142.000000,22686.059497,22508.608998,4873.730823,5038.597290,26012.311996,-9006.858946,10063.001223,-3342.882197,19504.847468,20417.916229,-4163.750012,9181.180201,20911.465098,24696.777725,5042.575901,19869.650289,0.003750,-0.014250,1.005125,192.000000,0.000000,0.000000,0.000000,0.000000,0.000000,0.000000,0.000000,0.000000,0.000000,1770903932.898449,0.000000
144.000000,22677.722296,22488.760649,4884.861992,5047.180360,26001.314938,-9000.779271,10066.555150,-3338.389497,19503.059328,20417.469194,-4163.191219,9178.676805,20923.602095,24695.570731,5047.895616,19862.877710,0.003750,-0.014250,1.005125,192.000000,0.000000,0.000000,127.500000,72.000000,15.500000,64.000000,0.000000,0.000000,0.000000,1770903932.898467,0.000000
146.000000,22671.508511,22491.934597,4873.395547,5033.724610,26000.867903,-9015.844347,10060.922511,-3352.471096,19466.558929,20400.861848,-4162.632425,9175.793430,20896.444726,24681.846760,5050.667232,19838.782530,0.003750,-0.014250,1.005125,192.000000,0.000000,0.000000,0.000000,0.000000,0.000000,0.000000,0.000000,0.000000,0.000000,1770903932.898484,0.000000
148.000000,22673.229596,22489.073573,4880.928085,5040.005450,26008.065165,-9001.896858,10061.436601,-3350.459439,19525.925163,20415.591647,-4177.831611,9169.736108,20931.246392,24691.994452,5060.054965,19879.797981,0.003750,-0.014250,1.005125,192.000000,0.000000,0.000000,0.000000,0.000000,0.000000,0.000000,0.000000,0.000000,0.000000,1770903932.898502,0.000000
150.000000,22669.630965,22482.725678,4884.079681,5043.537026,26014.368357,-8977.511105,10063.694127,-3348.090154,19463.720258,20405.578066,-4162.207742,9176.329872,20895.662415,24698.945844,5063.541837,19845.868033,0.003750,-0.014250,1.005125,192.000000,0.000000,0.000000,0.000000,0.000000,0.000000,0.000000,0.000000,0.000000,0.000000,1770903932.898520,0.000000
152.000000,22680.046878,22500.115335,4873.462602,5039.603119,26026.930037,-8982.160268,10062.733002,-3348.000747,19502.075851,20413.848211,-4174.478850,9176.016948,20926.731339,24706.031347,5061.261959,19881.943748,0.003750,-0.014250,1.005125,192.000000,0.000000,0.000000,0.000000,0.000000,0.000000,0.000000,0.000000,0.000000,0.000000,1770903932.898536,0.000000
154.000000,22678.415201,22490.884065,4886.851297,5051.427192,26020.291569,-8979.589817,10067.538627,-3333.561520,19510.122479,20419.570258,-4161.023100,9185.114108,20930.620543,24708.847667,5058.602102,19871.885463,0.003750,-0.014250,1.005125,192.000000,0.000000,0.000000,127.500000,72.000000,15.500000,64.000000,0.000000,0.000000,0.000000,1770903932.898553,0.000000
156.000000,22684.986613,22507.714928,4874.893114,5045.861607,26017.631712,-8999.840498,10065.571674,-3336.690764,19476.863083,20414.004673,-4158.363242,9188.243352,20906.368900,24703.282082,5050.108439,19852.282983,0.003750,-0.014250,1.005125,192.000000,0.000000,0.000000,0.000000,0.000000,0.000000,0.000000,0.000000,0.000000,0.000000,1770903932.898571,0.000000
158.000000,22684.025488,22503.758669,4879.877553,5049.683756,26018.414023,-9004.355550,10066.443392,-3334.075610,19541.951363,20430.053226,-4165.515800,9186.075233,20925.390235,24708.355928,5048.700279,19885.654138,0.003750,-0.014250,1.005125,192.000000,0.000000,0.000000,0.000000,0.000000,0.000000,0.000000,0.000000,0.000000,0.000000,1770903932.898587,0.000000
160.000000,22683.958433,22498.796582,4880.302236,5051.002509,26007.528723,-9007.417739,10069.259711,-3331.080476,19479.075906,20420.419624,-4153.647024,9193.272494,20917.835345,24694.855475,5044.118171,19843.096416,0.003750,-0.014250,1.005125,192.000000,0.000000,0.000000,0.000000,0.000000,0.000000,0.000000,0.000000,0.000000,0.000000,1770903932.898604,0.000000
162.000000,22687.467657,22509.190143,4873.529658,5041.793590,26009.026290,-9017.498376,10066.823371,-3338.545959,19512.648226,20422.788909,-4165.761669,9186.432861,20917.455365,24703.438545,5043.067639,19869.404420,0.003750,-0.014250,1.005125,192.000000,0.000000,0.000000,0.000000,0.000000,0.000000,0.000000,0.000000,0.000000,0.000000,1770903932.898621,0.000000
164.000000,22680.762134,22494.616806,4884.079681,5052.634186,26011.686148,-9008.021236,10070.265540,-3329.851130,19509.429575,20424.957028,-4159.816105,9188.332759,20913.253237,24706.523085,5046.196883,19857.178015,0.003750,-0.014250,1.005125,192.000000,0.000000,0.000000,0.000000,0.000000,0.000000,0.000000,0.000000,0.000000,0.000000,1770903932.898638,0.000000
166.000000,22683.377288,22502.082289,4880.078719,5039.089029,26017.117622,-9014.771463,10066.733964,-3337.830703,19473.644432,20415.882220,-4155.770440,9189.673864,20914.817860,24690.787457,5051.270729,19835.385065,0.002000,-0.008000,1.006000,192.000000,0.000000,8.000000,127.500000,96.000000,15.500000,56.000000,0.000000,0.000000,0.000000,1770903932.898656,0.000000
168.000000,22677.096448,22491.018175,4882.984445,5040.363078,26026.147726,-9006.881297,10064.834066,-3341.988127,19537.503366,20426.521650,-4166.521629,9178.587398,20933.436863,24700.421059,5062.178381,19873.874768,0.002000,-0.008000,1.006000,192.000000,0.000000,0.000000,0.000000,0.000000,0.000000,0.000000,0.000000,0.000000,0.000000,1770903932.898673,0.000000
170.000000,22674.704811,22486.592530,4888.840602,5043.872302,26026.706520,-8998.342931,10066.912778,-3338.858883,19471.789237,20408.595551,-4158.206780,9181.068442,20913.767328,24690.206312,5070.806154,19836.681466,0.002000,-0.008000,1.006000,192.000000,0.000000,0.000000,0.000000,0.000000,0.000000,0.000000,0.000000,0.000000,0.000000,1770903932.898690,0.000000
172.000000,22685.634814,22504.205704,4883.409129,5042.933529,26039.111738,-8989.134012,10064.543493,-3342.479866,19513.922276,20417.357435,-4166.633387,9179.839096,20927.066615,24699.124658,5071.700224,19880.580292,0.002000,-0.008000,1.006000,192.000000,0.000000,0.000000,0.000000,0.000000,0.000000,0.000000,0.000000,0.000000,0.000000,1770903932.898707,0.000000
174.000000,22686.305366,22496.159076,4885.957227,5059.004433,26021.677377,-8965.172942,10067.628034,-3333.248595,19529.792014,20428.913287,-4157.759745,9186.611675,20939.270668,24709.786440,5064.346500,19882.413135,0.002000,-0.008000,1.006000,192.000000,0.000000,0.000000,0.000000,0.000000,0.000000,0.000000,0.000000,0.000000,0.000000,1770903932.898724,0.000000
176.000000,22695.268416,22514.979245,4881.598637,5051.829523,26021.051529,-8980.506239,10067.873903,-3331.952194,19486.384927,20426.074615,-4153.758783,9192.959570,20925.524345,24709.406460,5052.611834,19863.168283,0.002000,-0.008000,1.006000,192.000000,0.000000,0.000000,127.500000,104.000000,15.500000,80.000000,0.000000,0.000000,0.000000,1770903932.898741,0.000000
178.000000,22701.437497,22512.185277,4886.918352,5055.472857,26018.481078,-8982.942579,10069.594988,-3324.732581,19551.920241,20447.107607,-4151.590663,9193.898343,20931.827537,24721.252885,5052.030689,19895.108926,0.002000,-0.008000,1.006000,192.000000,0.000000,0.000000,0.000000,0.000000,0.000000,0.000000,0.000000,0.000000,0.000000,1770903932.898759,0.000000
180.000000,22696.654224,22507.357300,4889.309989,5056.098706,26014.010729,-8991.413890,10072.210142,-3320.955136,19496.510267,20437.183432,-4140.168922,9202.034378,20928.251258,24711.999263,5050.689584,19843.856376,0.002000,-0.008000,1.006000,192.000000,0.000000,0.000000,0.000000,0.000000,0.000000,0.000000,0.000000,0.000000,0.000000,1770903932.898776,0.000000
182.000000,22702.689195,22518.622579,4880.190477,5044.676965,26016.268255,-9010.390521,10068.678566,-3329.538206,19523.734692,20439.955049,-4155.233998,9197.139346,20948.971325,24710.300530,5052.008337,19869.717344,0.002000,-0.008000,1.006000,192.000000,0.000000,0.000000,0.000000,0.000000,0.000000,0.000000,0.000000,0.000000,0.000000,1770903932.898794,0.000000
184.000000,22695.402526,22500.227094,4892.998027,5054.735250,26004.175962,-9007.998885,10072.813639,-3323.793807,19532.250706,20437.719874,-4148.662585,9196.938181,20948.300773,24709.004129,5051.516599,19859.971983,0.002000,-0.008000,1.006000,192.000000,0.000000,0.000000,0.000000,0.000000,0.000000,0.000000,0.000000,0.000000,0.000000,1770903932.898823,0.000000
186.000000,22695.938968,22509.681882,4883.654998,5043.894654,26008.556903,-9012.670399,10068.812677,-3331.482808,19489.894150,20423.839441,-4144.527512,9194.904172,20933.436863,24698.699975,5051.963634,19838.447254,0.002000,-0.008000,1.006000,192.000000,0.000000,8.000000,127.500000,96.000000,15.500000,56.000000,0.000000,0.000000,0.000000,1770903932.898840,0.000000
188.000000,22694.530808,22504.295111,4887.343036,5045.727497,26016.782345,-9009.049417,10068.387993,-3329.627613,19546.220547,20442.212575,-4159.346719,9188.064538,20947.406703,24704.779649,5060.323186,19876.601681,0.002000,-0.008000,1.006000,192.000000,0.000000,0.000000,0.000000,0.000000,0.000000,0.000000,0.000000,0.000000,0.000000,1770903932.898858,0.000000
190.000000,22687.601767,22497.768402,4887.924181,5047.806209,26012.446107,-9003.439129,10068.857380,-3328.845302,19482.674537,20429.270915,-4147.299128,9192.624294,20955.967421,24698.051774,5064.234741,19839.766006,0.002000,-0.008000,1.006000,192.000000,0.000000,0.000000,0.000000,0.000000,0.000000,0.000000,0.000000,0.000000,0.000000,1770903932.898875,0.000000
192.000000,22697.414183,22515.068652,4878.827021,5044.654613,26026.572409,-9001.852155,10066.801020,-3329.873482,19510.614218,20430.232040,-4160.598416,9187.103413,20938.913040,24698.230588,5070.672044,19877.719269,0.002000,-0.008000,1.006000,192.000000,0.000000,0.000000,0.000000,0.000000,0.000000,0.000000,0.000000,0.000000,0.000000,1770903932.898892,0.000000
194.000000,22697.794163,22505.770326,4893.981504,5059.965558,26024.940732,-8980.975626,10072.187790,-3320.083418,19524.427596,20443.128996,-4153.222341,9194.792413,20938.309543,24711.753394,5070.828506,19873.427734,0.002000,-0.008000,1.006000,192.000000,0.000000,0.000000,0.000000,0.000000,0.000000,0.000000,0.000000,0.000000,0.000000,1770903932.898908,0.000000
196.000000,22699.917579,22516.521515,4881.665693,5051.404840,26030.059282,-8981.914399,10067.404517,-3330.387572,19476.125476,20434.836499,-4144.303995,9197.116995,20928.586534,24706.523085,5067.587503,19859.435542,0.006000,-0.006000,1.008000,192.000000,0.000000,24.000000,127.500000,104.000000,15.500000,64.000000,0.000000,0.000000,0.000000,1770903932.898925,0.000000
198.000000,22699.515247,22511.961760,4885.085509,5055.584616,26033.233229,-8973.376033,10068.700918,-3326.878348,19542.733674,20446.012371,-4159.570236,9190.612637,20964.885767,24712.423946,5065.665253,19899.199295,0.006000,-0.006000,1.008000,192.000000,0.000000,0.000000,0.000000,0.000000,0.000000,0.000000,0.000000,0.000000,0.000000,1770903932.898942,0.000000
200.000000,22696.564817,22504.339815,4889.824079,5057.640977,26021.118584,-8959.674413,10070.220836,-3323.726752,19478.539464,20436.982267,-4141.778248,9197.094643,20952.033514,24712.938036,5063.273616,19855.412228,0.006000,-0.006000,1.008000,192.000000,0.000000,0.000000,0.000000,0.000000,0.000000,0.000000,0.000000,0.000000,0.000000,1770903932.898987,0.000000
202.000000,22706.109012,22522.824707,4880.838678,5050.153142,26021.856191,-8973.599550,10069.103249,-3327.459494,19517.587962,20442.927831,-4152.618844,9192.758404,20941.908174,24712.714519,5060.099669,19884.447144,0.006000,-0.006000,1.008000,192.000000,0.000000,0.000000,0.000000,0.000000,0.000000,0.000000,0.000000,0.000000,0.000000,1770903932.899004,0.000000
204.000000,22703.024471,22513.012292,4888.639437,5060.345538,26016.245904,-8975.588855,10073.327729,-3318.563499,19524.539354,20453.679020,-4146.226245,9200.134480,20951.742941,24715.597894,5055.763430,19869.493827,0.006000,-0.006000,1.008000,192.000000,0.000000,0.000000,0.000000,0.000000,0.000000,0.000000,0.000000,0.000000,0.000000,1770903932.899021,0.000000
206.000000,22701.348090,22516.253294,4883.386777,5046.912139,26005.025328,-9002.388597,10071.651348,-3328.979412,19475.834903,20440.111511,-4143.611091,9199.776852,20934.442691,24704.936112,5049.683756,19842.895251,0.006000,-0.008000,1.002000,192.000000,0.000000,24.000000,127.500000,96.000000,15.500000,40.000000,0.000000,0.000000,0.000000,1770903932.899038,0.000000
208.000000,22699.381137,22512.274684,4879.698739,5050.778991,26005.271197,-9004.757882,10070.399650,-3328.107694,19538.799767,20448.761636,-4156.642158,9191.953742,20955.967421,24706.187809,5054.757602,19876.981661,0.006000,-0.008000,1.002000,192.000000,0.000000,0.000000,0.000000,0.000000,0.000000,0.000000,0.000000,0.000000,0.000000,1770903932.899055,0.000000
210.000000,22692.049765,22503.892780,4884.079681,5054.176456,26001.024366,-9005.271972,10070.690223,-3327.660659,19469.621118,20438.099854,-4146.986204,9199.061596,20923.959723,24700.242245,5054.914064,19840.481262,0.006000,-0.008000,1.002000,192.000000,0.000000,0.000000,0.000000,0.000000,0.000000,0.000000,0.000000,0.000000,0.000000,1770903933.379730,101.000000
212.000000,22699.179971,22518.309655,4877.754137,5047.515636,26005.986453,-9010.390521,10068.432697,-3332.309822,19502.858162,20446.638220,-4158.743222,9195.552372,20929.972342,24696.621263,5059.786744,19872.757181,0.006000,-0.008000,1.002000,192.000000,0.000000,0.000000,0.000000,0.000000,0.000000,0.000000,0.000000,0.000000,0.000000,1770903933.379812,0.000000
214.000000,22701.079869,22506.798507,4888.482975,5058.959730,26008.892180,-8999.237001,10071.874866,-3323.167959,19512.357654,20453.366095,-4153.043527,9197.631085,20933.280400,24703.058565,5062.513657,19870.454952,0.006000,-0.008000,1.002000,192.000000,0.000000,0.000000,0.000000,0.000000,0.000000,0.000000,0.000000,0.000000,0.000000,1770903933.379867,0.000000
216.000000,22704.209114,22518.756690,4879.497573,5049.706107,26017.877581,-9008.602382,10068.343290,-3330.588738,19474.784371,20440.625601,-4154.496390,9199.061596,20920.741072,24698.342347,5065.799363,19853.847605,0.004000,-0.008000,1.004000,192.000000,0.000000,16.000000,127.500000,96.000000,15.500000,48.000000,0.000000,0.000000,0.000000,1770903933.379921,0.000000
218.000000,22703.784430,22517.952027,4885.532544,5055.025823,26014.144840,-8997.247696,10071.114906,-3326.051334,19538.732712,20452.136749,-4153.579969,9196.245276,20937.013142,24708.445335,5065.799363,19891.107963,0.004000,-0.008000,1.004000,192.000000,0.000000,0.000000,0.000000,0.000000,0.000000,0.000000,0.000000,0.000000,0.000000,1770903933.379990,0.000000
220.000000,22701.392794,22517.147364,4887.700664,5058.333881,26012.155534,-8989.849268,10073.327729,-3322.564462,19483.255682,20446.995848,-4145.555692,9204.403663,20944.746845,24705.137277,5063.653596,19848.147911,0.004000,-0.008000,1.004000,192.000000,0.000000,0.000000,0.000000,0.000000,0.000000,0.000000,0.000000,0.000000,0.000000,1770903933.380031,0.000000
222.000000,22704.410279,22526.713911,4880.257533,5051.024860,26020.179811,-8994.610190,10070.891389,-3328.442970,19528.428558,20457.367057,-4157.804448,9200.536811,20939.158909,24707.126583,5061.306663,19875.685260,0.004000,-0.008000,1.004000,192.000000,0.000000,0.000000,0.000000,0.000000,0.000000,0.000000,0.000000,0.000000,0.000000,1770903933.380049,0.000000
224.000000,22695.402526,22505.345643,4891.120480,5058.803267,26014.502467,-8983.546076,10073.238322,-3324.464360,19525.813404,20452.382618,-4146.405059,9198.927486,20943.897479,24710.278178,5062.893637,19872.153684,0.004000,-0.008000,1.004000,192.000000,0.000000,0.000000,0.000000,0.000000,0.000000,0.000000,0.000000,0.000000,0.000000,1770903933.380066,0.000000
226.000000,22694.039070,22509.458364,4885.152565,5048.722631,26008.668662,-8991.190373,10070.109078,-3330.946366,19474.493799,20433.294229,-4147.433239,9195.731186,20910.861601,24703.863228,5061.753698,19848.013800,0.004000,-0.008000,1.004000,192.000000,0.000000,0.000000,127.500000,72.000000,15.500000,16.000000,0.000000,0.000000,0.000000,1770903933.380084,0.000000
228.000000,22690.820419,22503.244579,4885.621951,5052.745945,26013.541342,-8993.671416,10070.533761,-3330.678145,19539.425616,20443.352514,-4159.302015,9190.255009,20925.569049,24707.841838,5061.060794,19882.703708,0.004000,-0.008000,1.004000,192.000000,0.000000,0.000000,0.000000,0.000000,0.000000,0.000000,0.000000,0.000000,0.000000,1770903933.380101,0.000000
230.000000,22692.653262,22503.557504,4888.102995,5058.512695,26001.940787,-8995.258390,10073.618302,-3324.710229,19480.148790,20437.161080,-4148.036736,9199.508631,20929.592363,24704.667891,5058.870323,19841.509443,0.004000,-0.008000,1.004000,192.000000,0.000000,0.000000,0.000000,0.000000,0.000000,0.000000,0.000000,0.000000,0.000000,1770903933.380118,0.000000
232.000000,22703.136230,22518.846097,4880.995140,5052.053041,26007.461668,-9005.093158,10070.444354,-3328.062991,19514.659883,20447.286421,-4154.608149,9198.659265,20901.160944,24705.427850,5058.512695,19872.332498,0.004000,-0.008000,1.004000,192.000000,0.000000,0.000000,0.000000,0.000000,0.000000,0.000000,0.000000,0.000000,0.000000,1770903933.380136,0.000000
234.000000,22698.084736,22504.093946,4890.606390,5062.223084,26013.809563,-8995.459556,10073.752412,-3317.647078,19521.700683,20452.360267,-4151.076573,9202.481413,20933.436863,24708.288873,5063.743003,19867.683335,0.004000,-0.008000,1.004000,192.000000,0.000000,0.000000,0.000000,0.000000,0.000000,0.000000,0.000000,0.000000,0.000000,1770903933.380167,0.000000
236.000000,22700.409317,22516.119184,4880.726919,5054.221160,26010.456802,-9001.695693,10071.919569,-3321.022191,19484.417973,20437.988095,-4143.029945,9205.722416,20928.184203,24701.225722,5059.764392,19849.891347,0.001000,-0.012000,1.000000,192.000000,127.500000,120.000000,127.500000,64.000000,15.500000,16.000000,0.000000,0.000000,0.000000,1770903933.380186,0.000000
238.000000,22695.693099,22506.485582,4884.839640,5053.997642,26011.753203,-9007.484795,10070.578464,-3323.056200,19537.168090,20445.878261,-4156.351585,9195.127689,20940.365903,24696.218931,5063.094802,19886.659966,0.001000,-0.012000,1.000000,192.000000,0.000000,0.000000,0.000000,0.000000,0.000000,0.000000,0.000000,0.000000,0.000000,1770903933.380204,0.000000
240.000000,22690.596901,22499.601245,4888.773547,5057.909198,26002.700746,-9002.612114,10071.472534,-3323.123255,19471.833941,20435.261182,-4144.259291,9198.636913,20931.447557,24698.968196,5057.596273,19843.990486,0.001000,-0.012000,1.000000,192.000000,0.000000,0.000000,0.000000,0.000000,0.000000,0.000000,0.000000,0.000000,0.000000,1770903933.380222,0.000000
242.000000,22690.239273,22511.559428,4880.972788,5050.980157,26013.228418,-9007.171870,10067.650386,-3330.588738,19511.016549,20441.787892,-4166.454573,9192.959570,20920.450499,24704.690242,5058.602102,19874.947652,0.001000,-0.012000,1.000000,192.000000,0.000000,0.000000,0.000000,0.000000,0.000000,0.000000,0.000000,0.000000,0.000000,1770903933.380239,0.000000
244.000000,22684.807799,22493.521570,4892.841565,5059.764392,26008.333386,-8995.928943,10070.958444,-3322.855034,19509.764851,20447.353476,-4146.494466,9193.071329,20934.755616,24706.344271,5059.876151,19866.811617,0.001000,-0.012000,1.000000,192.000000,0.000000,0.000000,0.000000,0.000000,0.000000,0.000000,0.000000,0.000000,0.000000,1770903933.380258,0.000000
246.000000,22690.820419,22508.050204,4885.130213,5050.130790,26016.178848,-9000.354588,10068.589159,-3328.085342,19465.173121,20437.250487,-4149.534303,9194.635951,20929.145328,24695.414268,5061.261959,19846.762102,0.002500,-0.014000,0.997000,192.000000,0.000000,16.000000,127.500000,64.000000,15.500000,8.000000,0.000000,0.000000,0.000000,1770903933.380276,0.000000
248.000000,22694.575512,22505.323291,4888.170050,5058.199770,26013.384880,-8986.854134,10069.460877,-3323.950270,19533.457700,20450.639182,-4157.066841,9190.500878,20923.110357,24707.573617,5062.983044,19885.743545,0.002500,-0.014000,0.997000,192.000000,0.000000,0.000000,0.000000,0.000000,0.000000,0.000000,0.000000,0.000000,0.000000,1770903933.380294,0.000000
250.000000,22690.127515,22501.545847,4888.482975,5064.435907,26009.518028,-8975.566503,10070.712575,-3322.810331,19483.412145,20448.739284,-4143.901663,9201.185012,20955.967421,24709.026481,5062.983044,19847.857338,0.002500,-0.014000,0.997000,192.000000,0.000000,0.000000,0.000000,0.000000,0.000000,0.000000,0.000000,0.000000,0.000000,1770903933.380315,0.000000
252.000000,22695.201361,22511.693539,4882.045672,5055.204636,26020.313921,-8984.551905,10067.940958,-3332.756857,19518.169107,20449.208671,-4159.234960,9194.077157,20927.312485,24710.680510,5064.793535,19879.842684,0.002500,-0.014000,0.997000,192.000000,0.000000,0.000000,0.000000,0.000000,0.000000,0.000000,0.000000,0.000000,0.000000,1770903933.380331,0.000000
254.000000,22692.429744,22496.494352,4889.131175,5065.888770,26014.994206,-8978.271065,10069.617339,-3327.280680,19517.833831,20448.426360,-4152.216512,9193.004274,20933.705084,24714.860286,5064.748831,19878.188655,0.002500,-0.014000,0.997000,192.000000,0.000000,0.000000,0.000000,0.000000,0.000000,0.000000,0.000000,0.000000,0.000000,1770903933.380347,0.000000
0.000000,22694.486105,22506.709100,4881.241009,5055.897541,26017.385842,-8986.183582,10067.046889,-3333.360354,19477.377174,20435.551755,-4153.244692,9193.741881,20937.817805,24710.904027,5063.430078,19854.831082,0.002250,-0.013000,0.997500,192.000000,0.000000,8.000000,127.500000,80.000000,15.500000,24.000000,0.000000,0.000000,0.000000,1770903933.380363,0.000000
2.000000,22699.783468,22505.435050,4885.867820,5057.260997,26023.376110,-8992.509126,10067.136296,-3328.979412,19541.906660,20454.215462,-4161.268969,9191.216134,20934.509746,24713.318016,5065.553494,19891.756164,0.002250,-0.013000,0.997500,192.000000,0.000000,0.000000,0.000000,0.000000,0.000000,0.000000,0.000000,0.000000,0.000000,1770903933.380381,0.000000
4.000000,22693.323814,22497.813105,4888.952361,5056.836314,26009.920360,-8988.441108,10067.739793,-3328.867653,19488.530694,20438.926868,-4147.142666,9196.222925,20938.153081,24709.428812,5062.223084,19847.455007,0.002250,-0.013000,0.997500,192.000000,0.000000,0.000000,0.000000,0.000000,0.000000,0.000000,0.000000,0.000000,0.000000,1770903933.380399,0.000000
6.000000,22701.526904,22513.235809,4882.179783,5047.985023,26009.696842,-9005.003751,10066.264578,-3331.639270,19523.153546,20440.022104,-4156.262178,9189.360939,20933.906249,24705.740774,5060.591407,19874.254748,0.002250,-0.013000,0.997500,192.000000,0.000000,0.000000,0.000000,0.000000,0.000000,0.000000,0.000000,0.000000,0.000000,1770903933.380413,0.000000
8.000000,22689.971052,22492.515742,4890.785204,5058.266825,26004.488886,-8997.426510,10069.349118,-3326.699534,19528.249744,20439.999752,-4150.450724,9189.584457,20942.958706,24700.733984,5062.312491,19865.850492,0.002250,-0.013000,0.997500,192.000000,0.000000,0.000000,0.000000,0.000000,0.000000,0.000000,0.000000,0.000000,0.000000,1770903933.380430,0.000000
10.000000,22696.564817,22507.245541,4882.984445,5049.102610,26010.546209,-9008.267106,10067.560979,-3332.376877,19478.315947,20428.086272,-4151.881236,9189.427994,20935.090892,24692.285024,5060.792573,19844.370466,0.002250,-0.013000,0.997500,192.000000,0.000000,0.000000,127.500000,96.000000,15.500000,40.000000,0.000000,0.000000,0.000000,1770903933.380448,0.000000
12.000000,22696.006023,22502.529323,4889.242934,5053.148276,26017.475249,-9001.203954,10067.650386,-3332.868616,19551.316744,20445.073598,-4159.883161,9187.662207,20933.258049,24701.560998,5065.754660,19881.250844,0.002250,-0.013000,0.997500,192.000000,0.000000,0.000000,0.000000,0.000000,0.000000,0.000000,0.000000,0.000000,0.000000,1770903933.380464,0.000000
14.000000,22689.144038,22495.376765,4890.673446,5058.803267,26010.300339,-8984.574256,10070.310243,-3329.873482,19491.458773,20433.361284,-4147.008556,9192.780756,20941.617601,24697.247111,5067.006358,19847.276193,0.002250,-0.013000,0.997500,192.000000,0.000000,0.000000,0.000000,0.000000,0.000000,0.000000,0.000000,0.000000,0.000000,1770903933.380481,0.000000
16.000000,22693.033241,22507.893742,4879.721091,5055.159933,26022.258523,-8990.452765,10067.180999,-3335.796694,19515.665712,20439.932697,-4157.312710,9190.165602,20946.333819,24703.796173,5066.626378,19883.553074,0.002250,-0.013000,0.997500,192.000000,0.000000,0.000000,0.000000,0.000000,0.000000,0.000000,0.000000,0.000000,0.000000,1770903933.380500,0.000000
18.000000,22688.607596,22494.661509,4887.879477,5064.994701,26015.955331,-8981.288550,10070.779630,-3327.571252,19518.839660,20444.246583,-4158.966739,9191.841983,20947.719627,24705.204332,5065.486439,19880.937920,0.002250,-0.013000,0.997500,192.000000,0.000000,0.000000,0.000000,0.000000,0.000000,0.000000,0.000000,0.000000,0.000000,1770903933.380517,0.000000
20.000000,22690.909826,22504.049242,4885.644303,5053.215331,26017.609360,-8997.985303,10068.343290,-3332.086305,19481.825171,20433.450691,-4148.975509,9193.004274,20934.442691,24696.420097,5063.027747,19853.087646,0.002250,-0.013000,0.997500,192.000000,0.000000,0.000000,127.500000,104.000000,15.500000,48.000000,0.000000,0.000000,0.000000,1770903933.380535,0.000000
22.000000,22690.015756,22505.122126,4888.907658,5057.395107,26020.895066,-8999.013483,10068.320938,-3327.906528,19548.411017,20449.923927,-4157.357413,9190.523230,20948.278421,24702.723289,5063.407727,19886.458801,0.002250,-0.013000,0.997500,192.000000,0.000000,0.000000,0.000000,0.000000,0.000000,0.000000,0.000000,0.000000,0.000000,1770903933.380553,0.000000
24.000000,22689.613424,22498.729527,4892.886268,5058.624453,26007.707537,-9000.041664,10070.757278,-3325.961927,19487.837790,20439.060979,-4144.259291,9197.340512,20932.654552,24701.382184,5063.228913,19843.319934,0.002250,-0.013000,0.997500,192.000000,0.000000,0.000000,0.000000,0.000000,0.000000,0.000000,0.000000,0.000000,0.000000,1770903933.380570,0.000000
26.000000,22694.597864,22513.079347,4881.241009,5051.002509,26012.311996,-9014.838518,10068.365642,-3330.767552,19517.699721,20439.776235,-4156.284530,9192.825460,20928.340665,24693.044984,5059.742041,19870.343193,0.002250,-0.013000,0.997500,192.000000,0.000000,0.000000,0.000000,0.000000,0.000000,0.000000,0.000000,0.000000,0.000000,1770903933.380592,0.000000
28.000000,22690.552198,22498.975396,4889.712321,5059.674985,26006.813467,-8998.611152,10069.393822,-3322.072723,19529.389683,20446.682924,-4151.501256,9194.792413,20949.731284,24696.688318,5059.965558,19865.783437,0.002250,-0.013000,0.997500,192.000000,0.000000,0.000000,0.000000,0.000000,0.000000,0.000000,0.000000,0.000000,0.000000,1770903933.380607,0.000000
30.000000,22694.754326,22512.229980,4884.996102,5051.002509,26008.445145,-9010.949315,10067.784496,-3326.230148,19478.651223,20433.182470,-4148.170846,9197.519326,20936.655514,24688.373469,5058.222122,19841.285925,0.002250,-0.013000,0.997500,192.000000,0.000000,0.000000,127.500000,88.000000,15.500000,40.000000,0.000000,0.000000,0.000000,1770903933.380624,0.000000
32.000000,22694.776677,22510.553600,4888.728844,5055.875189,26016.916456,-9004.444957,10070.824334,-3322.542110,19548.768645,20445.297115,-4155.368108,9192.691349,20936.253182,24701.203370,5062.960692,19880.848513,0.002250,-0.013000,0.997500,192.000000,0.000000,0.000000,0.000000,0.000000,0.000000,0.000000,0.000000,0.000000,0.000000,1770903933.380641,0.000000
34.000000,22686.193608,22499.310672,4890.986370,5063.787706,26013.563694,-8992.687940,10071.427831,-3322.162130,19494.833886,20440.960877,-4145.488637,9204.113091,20941.081159,24698.051774,5061.150201,19844.482225,0.002250,-0.013000,0.997500,192.000000,0.000000,0.000000,0.000000,0.000000,0.000000,0.000000,0.000000,0.000000,0.000000,1770903933.380659,0.000000
36.000000,22689.412259,22508.363129,4880.704568,5054.064698,26024.247828,-8996.912419,10065.325804,-3333.695630,19517.498555,20441.497319,-4153.758783,9192.803108,20932.632200,24690.966271,5067.408689,19879.350946,0.002250,-0.013000,0.997500,192.000000,0.000000,0.000000,0.000000,0.000000,0.000000,0.000000,0.000000,0.000000,0.000000,1770903933.380674,0.000000
38.000000,22682.393811,22489.028870,4888.997065,5063.161858,26028.628770,-8980.617998,10067.248054,-3330.722848,19525.053445,20446.101778,-4154.585797,9190.545582,20940.455310,24696.755373,5072.236666,19881.004975,0.002250,-0.013000,0.997500,192.000000,0.000000,0.000000,0.000000,0.000000,0.000000,0.000000,0.000000,0.000000,0.000000,1770903933.380691,0.000000
40.000000,22682.952605,22495.063841,4880.481050,5053.282386,26029.768709,-8987.792908,10062.643595,-3341.585796,19476.751325,20430.187336,-4155.055184,9187.550448,20931.089929,24689.535760,5069.554456,19859.569652,0.000125,-0.014500,0.998750,192.000000,127.500000,120.000000,127.500000,64.000000,15.500000,32.000000,0.000000,0.000000,0.000000,1770903933.380710,0.000000
42.000000,22685.344241,22491.062878,4881.710396,5055.674023,26033.188526,-8989.759861,10064.454086,-3339.372973,19546.488767,20445.811206,-4169.606169,9180.152020,20970.205482,24695.458972,5074.851820,19901.278007,0.000125,-0.014500,0.998750,192.000000,0.000000,0.000000,0.000000,0.000000,0.000000,0.000000,0.000000,0.000000,0.000000,1770903933.380728,0.000000
44.000000,22679.108105,22483.887969,4892.416882,5056.702203,26023.800793,-8993.067919,10068.030365,-3335.282604,19480.595825,20431.103758,-4150.271910,9185.248218,20912.090947,24688.753449,5070.582637,19855.903966,0.000125,-0.014500,0.998750,192.000000,0.000000,0.000000,0.000000,0.000000,0.000000,0.000000,0.000000,0.000000,0.000000,1770903933.380757,0.000000
46.000000,22688.741706,22500.852943,4884.370254,5048.409706,26024.940732,-9007.395388,10066.823371,-3339.037697,19511.843564,20434.322409,-4159.525533,9181.962512,20915.421357,24684.573672,5066.961654,19876.847550,0.000125,-0.014500,0.998750,192.000000,0.000000,0.000000,0.000000,0.000000,0.000000,0.000000,0.000000,0.000000,0.000000,1770903933.380774,0.000000
48.000000,22692.407393,22495.533227,4895.926105,5062.737174,26013.742508,-8999.125242,10072.590121,-3324.352601,19521.343055,20445.520633,-4153.512913,9189.673864,20950.625354,24705.450202,5065.419384,19869.315013,0.000125,-0.014500,0.998750,192.000000,0.000000,0.000000,0.000000,0.000000,0.000000,0.000000,0.000000,0.000000,0.000000,1770903933.380793,0.000000
50.000000,22700.074041,22507.960797,4886.873649,5055.696375,26015.061261,-9007.618905,10070.422002,-3328.890005,19491.838752,20440.379732,-4141.442971,9198.547506,20924.853793,24697.761202,5062.580712,19845.420998,0.000125,-0.014500,0.998750,192.000000,0.000000,0.000000,0.000000,0.000000,0.000000,0.000000,0.000000,0.000000,0.000000,1770903933.380808,0.000000
52.000000,22700.297558,22503.445745,4890.449928,5057.573921,26020.872715,-8999.438167,10069.416174,-3329.269985,19553.753084,20452.494377,-4155.703384,9192.400776,20936.789624,24700.577521,5066.849895,19887.598740,0.000125,-0.014500,0.998750,192.000000,0.000000,0.000000,127.500000,48.000000,15.500000,16.000000,0.000000,0.000000,0.000000,1770903933.380821,0.000000
54.000000,22695.536637,22495.041489,4892.126309,5060.054965,26020.202162,-8990.609227,10070.131429,-3330.387572,19491.101145,20438.233964,-4143.812256,9195.150041,20949.105436,24697.403574,5069.107422,19848.304373,0.000125,-0.014500,0.998750,192.000000,0.000000,0.000000,0.000000,0.000000,0.000000,0.000000,0.000000,0.000000,0.000000,1770903933.380834,0.000000
56.000000,22698.509419,22509.212495,4882.179783,5052.567131,26031.802718,-9000.756919,10064.789363,-3337.920110,19523.220601,20441.363208,-4156.217474,9188.980960,20933.727435,24699.258768,5075.880000,19880.110905,0.000125,-0.014500,0.998750,192.000000,0.000000,0.000000,0.000000,0.000000,0.000000,0.000000,0.000000,0.000000,0.000000,1770903933.380846,0.000000
58.000000,22691.245102,22489.319442,4891.098129,5065.933474,26027.354721,-8971.096155,10065.616377,-3335.327308,19524.114671,20449.052209,-4155.412812,9190.724396,20935.001485,24705.092574,5077.891657,19885.810600,0.000125,-0.014500,0.998750,192.000000,0.000000,0.000000,0.000000,0.000000,0.000000,0.000000,0.000000,0.000000,0.000000,1770903933.380861,0.000000
60.000000,22690.105163,22496.516704,4882.313893,5055.674023,26033.456747,-8980.483887,10063.783534,-3344.692689,19475.589034,20436.736397,-4154.563445,9190.612637,20945.037418,24696.643614,5080.126832,19867.348059,0.000125,-0.014500,0.998750,192.000000,0.000000,0.000000,0.000000,0.000000,0.000000,0.000000,0.000000,0.000000,0.000000,1770903933.380873,0.000000
62.000000,22689.859294,22488.514780,4885.241972,5057.439811,26032.965008,-8979.343948,10063.939996,-3344.022136,19540.274982,20444.850081,-4170.008501,9182.409547,20947.585517,24698.565864,5082.719634,19911.872734,-0.002000,-0.020000,1.004000,192.000000,127.500000,120.000000,127.500000,48.000000,15.500000,48.000000,0.000000,0.000000,0.000000,1770903933.380885,0.000000
64.000000,22690.149866,22484.782038,4886.113690,5061.530180,26019.799831,-8973.532495,10067.404517,-3337.495427,19482.853351,20431.975476,-4150.160152,9187.952779,20912.515630,24691.033327,5072.326073,19871.281966,-0.002000,-0.020000,1.004000,192.000000,0.000000,0.000000,0.000000,0.000000,0.000000,0.000000,0.000000,0.000000,0.000000,1770903933.380897,0.000000
66.000000,22696.408355,22499.869466,4886.337207,5051.561302,26023.107889,-8986.697672,10065.504618,-3343.150418,19520.516040,20437.697522,-4157.737393,9185.136459,20922.842136,24692.329728,5068.280407,19896.360623,-0.002000,-0.020000,1.004000,192.000000,0.000000,0.000000,0.000000,0.000000,0.000000,0.000000,0.000000,0.000000,0.000000,1770903933.380909,0.000000
68.000000,22692.161523,22486.100791,4893.534469,5064.301796,26022.079709,-8976.237056,10070.645520,-3333.762686,19521.276000,20441.005581,-4156.217474,9188.422166,20926.060787,24697.180056,5068.481573,19888.649272,-0.002000,-0.020000,1.004000,192.000000,0.000000,0.000000,0.000000,0.000000,0.000000,0.000000,0.000000,0.000000,0.000000,1770903933.380921,0.000000
70.000000,22700.632835,22502.238751,4886.896001,5056.948073,26024.918380,-8982.987283,10068.924435,-3333.159188,19479.567645,20433.942429,-4148.975509,9192.914867,20923.579743,24696.040117,5066.335805,19862.363620,-0.002000,-0.020000,1.004000,192.000000,0.000000,0.000000,0.000000,0.000000,0.000000,0.000000,0.000000,0.000000,0.000000,1770903933.380933,0.000000
72.000000,22706.757212,22502.551675,4889.779376,5062.670119,26034.440224,-8977.801678,10069.706746,-3329.627613,19552.099055,20447.822863,-4152.931768,9193.607771,20946.177357,24696.755373,5072.862515,19902.619112,0.002000,-0.020000,1.000000,192.000000,0.000000,8.000000,127.500000,48.000000,15.500000,32.000000,0.000000,0.000000,0.000000,1770903933.380945,0.000000
74.000000,22704.924369,22495.756745,4893.556821,5063.832410,26025.365415,-8982.786117,10069.371470,-3328.286508,19497.426688,20432.780139,-4140.548902,9198.860431,20943.673962,24695.235454,5070.873209,19863.928242,0.002000,-0.020000,1.000000,192.000000,0.000000,0.000000,0.000000,0.000000,0.000000,0.000000,0.000000,0.000000,0.000000,1770903933.859896,0.000000
76.000000,22702.420974,22507.446707,4881.129251,5054.467029,26035.468404,-8991.592704,10064.655252,-3338.568311,19522.527697,20437.988095,-4158.877332,9193.004274,20961.667116,24694.117867,5075.142393,19890.459763,0.002000,-0.020000,1.000000,192.000000,0.000000,0.000000,0.000000,0.000000,0.000000,0.000000,0.000000,0.000000,0.000000,1770903933.859970,0.000000
78.000000,22696.251893,22490.615844,4894.249725,5064.346500,26029.791061,-8985.088347,10068.276235,-3330.320517,19529.121462,20432.802490,-4148.774344,9192.020797,20936.767273,24692.352079,5080.909143,19888.090478,0.002000,-0.020000,1.000000,192.000000,0.000000,0.000000,0.000000,0.000000,0.000000,0.000000,0.000000,0.000000,0.000000,1770903933.860014,0.000000
80.000000,22698.151791,22498.595416,4885.331379,5055.383450,26030.305151,-8993.537306,10067.404517,-3337.450723,19480.729935,20420.307865,-4148.953158,9193.674826,20939.293020,24679.119847,5079.970369,19867.795094,0.002000,-0.020000,1.000000,192.000000,0.000000,0.000000,0.000000,0.000000,0.000000,0.000000,0.000000,0.000000,0.000000,1770903933.860069,0.000000
82.000000,22703.091526,22495.689690,4890.449928,5057.797439,26033.322636,-8988.865791,10067.538627,-3335.863749,19538.464491,20426.231077,-4158.206780,9187.483393,20936.007313,24692.463838,5078.942189,19911.202182,0.002000,-0.016000,1.002000,192.000000,0.000000,8.000000,127.500000,64.000000,15.500000,40.000000,0.000000,0.000000,0.000000,1770903933.860124,0.000000
84.000000,22697.525942,22489.319442,4892.416882,5062.915988,26020.045700,-8979.411004,10068.566807,-3332.622747,19490.832924,20408.148516,-4145.533341,9191.305541,20947.518462,24687.211178,5074.158916,19866.208120,0.002000,-0.016000,1.002000,192.000000,0.000000,0.000000,0.000000,0.000000,0.000000,0.000000,0.000000,0.000000,0.000000,1770903933.860178,0.000000
86.000000,22703.247989,22508.027853,4881.330416,5056.702203,26025.767747,-8987.815259,10066.689261,-3336.310784,19519.018474,20409.377862,-4155.658681,9189.316236,20938.086025,24693.223797,5071.007320,19888.671623,0.002000,-0.016000,1.002000,192.000000,0.000000,0.000000,0.000000,0.000000,0.000000,0.000000,0.000000,0.000000,0.000000,1770903933.860224,0.000000
88.000000,22704.007948,22497.299015,4893.713283,5068.638035,26027.667645,-8977.913437,10072.567770,-3323.257366,19535.447006,20419.950237,-4149.824876,9197.742843,20954.626316,24699.079955,5065.486439,19885.587083,0.002000,-0.016000,1.002000,192.000000,0.000000,0.000000,0.000000,0.000000,0.000000,0.000000,0.000000,0.000000,0.000000,1770903933.860243,0.000000
90.000000,22712.211038,22512.922885,4888.773547,5061.820753,26029.724005,-8985.133050,10070.556113,-3326.096037,19488.821267,20407.299150,-4140.370088,9200.447404,20914.683749,24690.675699,5068.503924,19860.821350,0.002000,-0.016000,1.002000,192.000000,0.000000,0.000000,0.000000,0.000000,0.000000,0.000000,0.000000,0.000000,0.000000,1770903933.860271,0.000000
92.000000,22707.539524,22504.608036,4890.271114,5063.832410,26038.575296,-8982.026158,10069.282063,-3329.292337,19553.641326,20422.498336,-4152.350623,9196.915829,20964.282270,24704.332614,5071.186134,19904.653121,0.002000,-0.014000,1.006000,192.000000,0.000000,8.000000,127.500000,72.000000,15.500000,56.000000,0.000000,0.000000,0.000000,1770903933.860288,0.000000
94.000000,22699.112916,22491.755783,4895.680236,5066.961654,26028.315846,-8980.774460,10068.745621,-3329.851130,19496.487915,20403.812278,-4138.760762,9198.413396,20926.284304,24696.263635,5074.851820,19863.794132,0.002000,-0.014000,1.006000,192.000000,0.000000,0.000000,0.000000,0.000000,0.000000,0.000000,0.000000,0.000000,0.000000,1770903933.860305,0.000000
96.000000,22695.871913,22498.550713,4882.291541,5054.288215,26037.435357,-8994.073748,10063.269444,-3344.290357,19520.560744,20399.967778,-4156.485695,9189.830326,20961.980040,24690.318071,5079.456279,19893.007862,0.002000,-0.014000,1.006000,192.000000,0.000000,0.000000,0.000000,0.000000,0.000000,0.000000,0.000000,0.000000,0.000000,1770903933.860321,0.000000
98.000000,22689.635776,22480.870483,4893.400358,5064.882942,26038.240020,-8985.468326,10066.689261,-3336.914281,19522.281828,20396.257388,-4158.296187,9186.298750,20944.299810,24690.854513,5088.240515,19892.069088,0.002000,-0.014000,1.006000,192.000000,0.000000,0.000000,0.000000,0.000000,0.000000,0.000000,0.000000,0.000000,0.000000,1770903933.860337,0.000000
100.000000,22695.268416,22494.952082,4887.723015,5057.864494,26038.307075,-8994.654893,10066.264578,-3338.411848,19476.594863,20385.774420,-4154.921073,9190.210305,20924.473813,24686.294757,5087.771128,19872.645423,0.002000,-0.014000,1.006000,192.000000,0.000000,0.000000,0.000000,0.000000,0.000000,0.000000,0.000000,0.000000,0.000000,1770903933.860354,0.000000
102.000000,22694.486105,22491.800486,4891.209887,5062.781878,26034.283761,-8985.513030,10068.097421,-3333.986203,19535.871689,20401.085365,-4155.681033,9186.812840,20951.899404,24691.323899,5083.814869,19912.945618,0.002000,-0.010000,1.004000,192.000000,0.000000,8.000000,127.500000,88.000000,15.500000,48.000000,0.000000,0.000000,0.000000,1770903933.860372,0.000000
104.000000,22695.380175,22486.838399,4895.590829,5065.218218,26026.505354,-8982.272027,10069.192656,-3329.717020,19480.282900,20395.363318,-4144.326346,9195.932352,20936.588459,24685.154818,5078.629265,19869.337364,0.002000,-0.010000,1.004000,192.000000,0.000000,0.000000,0.000000,0.000000,0.000000,0.000000,0.000000,0.000000,0.000000,1770903933.860390,0.000000
106.000000,22702.376271,22506.709100,4887.365387,5058.490343,26026.304189,-8990.922152,10067.046889,-3332.421581,19513.452889,20400.928903,-4151.210684,9193.160736,20954.805130,24692.620300,5073.667177,19891.867923,0.002000,-0.010000,1.004000,192.000000,0.000000,0.000000,0.000000,0.000000,0.000000,0.000000,0.000000,0.000000,0.000000,1770903933.860409,0.000000
108.000000,22702.242160,22496.896684,4896.730768,5073.890695,26011.753203,-8980.126259,10072.590121,-3322.609165,19529.412035,20412.238885,-4142.717021,9200.939143,20963.209386,24706.947769,5068.503924,19887.956367,0.002000,-0.010000,1.004000,192.000000,0.000000,0.000000,0.000000,0.000000,0.000000,0.000000,0.000000,0.000000,0.000000,1770903933.860426,0.000000
110.000000,22705.483163,22508.541943,4887.097166,5063.653596,26018.570485,-8986.027120,10069.796153,-3328.778246,19481.534598,20399.476039,-4139.811294,9202.794338,20943.808072,24699.951673,5068.906256,19864.688202,0.002000,-0.010000,1.004000,192.000000,0.000000,0.000000,0.000000,0.000000,0.000000,0.000000,0.000000,0.000000,0.000000,1770903933.860444,0.000000
112.000000,22701.817477,22500.271797,4886.448966,5068.146297,26029.992226,-8986.921190,10070.824334,-3329.962889,19546.086436,20411.858906,-4153.781134,9196.938181,20981.515465,24712.893333,5072.124907,19909.123469,0.004000,-0.008000,1.004000,192.000000,0.000000,16.000000,127.500000,96.000000,15.500000,48.000000,0.000000,0.000000,0.000000,1770903933.860456,0.000000
114.000000,22693.033241,22487.285434,4891.634571,5070.493230,26016.782345,-8980.796812,10071.137258,-3330.588738,19482.227502,20397.933769,-4142.560559,9200.112128,20932.878069,24694.788420,5073.108384,19868.040963,0.004000,-0.008000,1.004000,192.000000,0.000000,0.000000,0.000000,0.000000,0.000000,0.000000,0.000000,0.000000,0.000000,1770903933.860468,0.000000
116.000000,22693.972015,22496.270835,4884.102033,5056.903369,26039.111738,-8989.044605,10064.409383,-3344.603282,19511.888267,20396.503257,-4155.479867,9190.277361,20956.325049,24693.536722,5079.031596,19895.980644,0.004000,-0.008000,1.004000,192.000000,0.000000,0.000000,0.000000,0.000000,0.000000,0.000000,0.000000,0.000000,0.000000,1770903933.860481,0.000000
118.000000,22680.650375,22476.690707,4896.015512,5068.123945,26040.095215,-8972.817239,10066.018708,-3341.138761,19516.559782,20400.012481,-4155.412812,9187.237523,20957.308526,24697.492981,5087.882887,19900.674510,0.004000,-0.008000,1.004000,192.000000,0.000000,0.000000,0.000000,0.000000,0.000000,0.000000,0.000000,0.000000,0.000000,1770903933.860492,0.000000
120.000000,22681.499741,22482.412753,4887.097166,5056.031651,26050.086445,-8981.288550,10060.296662,-3350.481790,19468.950566,20386.333214,-4154.451687,9186.835192,20947.741979,24688.552283,5093.180250,19884.022460,0.004000,-0.008000,1.004000,192.000000,0.000000,0.000000,0.000000,0.000000,0.000000,0.000000,0.000000,0.000000,0.000000,1770903933.860504,0.000000
122.000000,22680.516265,22478.657660,4889.108823,5054.936416,26051.919288,-8984.708367,10060.229607,-3348.403078,19531.669561,20392.546999,-4169.382652,9175.927541,20979.481456,24687.769972,5102.120948,19921.863964,0.005000,-0.008000,1.007000,192.000000,0.000000,24.000000,127.500000,96.000000,15.500000,72.000000,0.000000,0.000000,0.000000,1770903933.860530,0.000000
124.000000,22684.874855,22479.641137,4897.736597,5061.083145,26044.029122,-8987.435280,10065.750488,-3338.098924,19475.521979,20385.036812,-4153.289396,9184.555314,20954.648668,24682.271443,5100.623381,19868.711516,0.005000,-0.008000,1.007000,192.000000,0.000000,0.000000,0.000000,0.000000,0.000000,0.000000,0.000000,0.000000,0.000000,1770903933.860542,0.000000
126.000000,22697.682404,22502.283454,4887.745367,5057.708032,26052.545137,-8992.889105,10064.945825,-3337.540130,19516.269209,20398.894894,-4163.280626,9188.578628,20967.880901,24697.045946,5098.075282,19889.319824,0.005000,-0.008000,1.007000,192.000000,0.000000,0.000000,0.000000,0.000000,0.000000,0.000000,0.000000,0.000000,0.000000,1770903933.860554,0.000000
128.000000,22699.872875,22495.063841,4900.284696,5071.454355,26037.234192,-8983.210800,10070.869037,-3323.637345,19533.256535,20413.378824,-4142.493503,9198.011064,20967.702087,24705.852533,5086.072396,19887.866961,0.005000,-0.008000,1.007000,192.000000,0.000000,0.000000,0.000000,0.000000,0.000000,0.000000,0.000000,0.000000,0.000000,1770903933.860566,0.000000
130.000000,22700.945759,22506.887914,4890.315818,5062.625416,26024.873677,-8997.650027,10070.891389,-3326.721886,19490.207075,20408.282627,-4135.095076,9203.129614,20961.153026,24696.867132,5074.293026,19859.659059,0.005000,-0.008000,1.007000,192.000000,0.000000,0.000000,0.000000,0.000000,0.000000,0.000000,0.000000,0.000000,0.000000,1770903933.860578,0.000000
132.000000,22701.571608,22503.624559,4891.411053,5065.575846,26028.539363,-8998.544097,10070.243188,-3324.173787,19559.631593,20419.212630,-4147.030908,9198.234582,20970.317241,24701.560998,5069.621512,19900.942731,0.005500,-0.007000,1.007500,192.000000,0.000000,24.000000,127.500000,104.000000,15.500000,64.000000,0.000000,0.000000,0.000000,1770903933.860590,0.000000
134.000000,22692.742669,22493.365108,4894.182669,5070.783802,26015.642406,-8992.620884,10070.578464,-3321.469226,19501.584113,20406.650949,-4137.039678,9203.464890,20952.882880,24696.174228,5067.989834,19858.183844,0.005500,-0.007000,1.007500,192.000000,0.000000,0.000000,0.000000,0.000000,0.000000,0.000000,0.000000,0.000000,0.000000,1770903933.860602,0.000000
136.000000,22699.336433,22507.022024,4886.404262,5062.960692,26032.182697,-8997.471213,10067.046889,-3328.062991,19528.808538,20405.198086,-4147.701460,9199.732149,20953.106398,24695.146047,5070.493230,19888.559865,0.005500,-0.007000,1.007500,192.000000,0.000000,0.000000,0.000000,0.000000,0.000000,0.000000,0.000000,0.000000,0.000000,1770903933.860613,0.000000
138.000000,22690.663956,22490.906416,4896.171975,5071.610817,26026.438299,-8984.596608,10068.499752,-3323.056200,19540.342038,20411.031891,-4144.348698,9199.687445,20967.255052,24704.645539,5076.662311,19889.789211,0.005500,-0.007000,1.007500,192.000000,0.000000,0.000000,0.000000,0.000000,0.000000,0.000000,0.000000,0.000000,0.000000,1770903933.860626,0.000000
140.000000,22682.773791,22495.801448,4885.465489,5061.887808,26030.483965,-8979.254541,10061.548360,-3336.713116,19486.541389,20396.503257,-4145.801562,9197.318160,20955.408627,24689.714574,5080.350349,19874.433562,0.005500,-0.007000,1.007500,192.000000,0.000000,0.000000,0.000000,0.000000,0.000000,0.000000,0.000000,0.000000,0.000000,1770903933.860638,0.000000
142.000000,22681.835017,22492.694556,4887.611257,5064.212389,26036.541287,-8968.972739,10060.788400,-3337.271909,19540.498500,20405.488659,-4165.135821,9185.382329,20960.594232,24693.760239,5088.709901,19924.970856,0.004750,-0.008500,1.005750,192.000000,0.000000,16.000000,127.500000,88.000000,15.500000,48.000000,0.000000,0.000000,0.000000,1770903933.860650,0.000000
144.000000,22688.227616,22493.230998,4895.993161,5071.342596,26033.657912,-8962.647195,10065.079935,-3330.789903,19496.733784,20401.018310,-4150.249559,9194.926524,20943.852776,24702.320957,5089.827489,19881.384955,0.004750,-0.008500,1.005750,192.000000,0.000000,0.000000,0.000000,0.000000,0.000000,0.000000,0.000000,0.000000,0.000000,1770903933.860662,0.000000
146.000000,22695.715451,22509.324254,4886.828945,5063.653596,26044.722026,-8979.366300,10062.531836,-3335.528473,19529.948477,20413.177659,-4151.434201,9196.401739,20944.098645,24703.505600,5090.453337,19897.969949,0.004750,-0.008500,1.005750,192.000000,0.000000,0.000000,0.000000,0.000000,0.000000,0.000000,0.000000,0.000000,0.000000,1770903933.860674,0.000000
148.000000,22693.793201,22498.595416,4895.434367,5074.605951,26049.304134,-8976.572332,10066.085764,-3324.933746,19548.008686,20421.358397,-4149.020213,9198.212230,20945.037418,24708.646501,5090.475689,19890.035080,0.004750,-0.008500,1.005750,192.000000,0.000000,0.000000,0.000000,0.000000,0.000000,0.000000,0.000000,0.000000,0.000000,1770903933.860686,0.000000
150.000000,22697.347128,22510.598303,4891.634571,5064.033576,26049.326485,-8996.666550,10065.683432,-3326.654831,19503.282845,20410.115470,-4140.235977,9202.481413,20937.482528,24699.169361,5087.569962,19860.798998,0.004750,-0.008500,1.005750,192.000000,0.000000,0.000000,0.000000,0.000000,0.000000,0.000000,0.000000,0.000000,0.000000,1770903933.860698,0.000000
152.000000,22704.320872,22514.040472,4893.132137,5067.967483,26047.091311,-8996.823012,10066.845723,-3321.603337,19570.561596,20421.827784,-4150.897759,9201.229715,20965.288098,24698.699975,5087.480555,19902.172077,0.003375,-0.009250,1.004875,192.000000,0.000000,8.000000,127.500000,88.000000,15.500000,48.000000,0.000000,0.000000,0.000000,1770903933.860710,0.000000
154.000000,22703.873837,22510.330082,4897.401321,5072.281369,26033.009712,-8986.563562,10071.494886,-3315.009572,19513.698758,20415.770461,-4132.278756,9210.125710,20971.479532,24700.085783,5081.132660,19864.397629,0.003375,-0.009250,1.004875,192.000000,0.000000,0.000000,0.000000,0.000000,0.000000,0.000000,0.000000,0.000000,0.000000,1770903933.860724,0.000000
156.000000,22702.376271,22514.196934,4886.493669,5060.502000,26035.781328,-9002.008617,10066.197522,-3325.716058,19541.079645,20414.921095,-4145.131009,9203.040207,20954.291040,24702.455068,5080.931494,19889.208065,0.003375,-0.009250,1.004875,192.000000,0.000000,0.000000,0.000000,0.000000,0.000000,0.000000,0.000000,0.000000,0.000000,1770903933.860738,0.000000
158.000000,22693.323814,22494.706213,4896.127271,5070.157954,26027.891162,-8990.229248,10067.382165,-3320.664563,19553.060180,20411.121298,-4143.924015,9200.737977,20947.943145,24695.503675,5080.551515,19888.850437,0.003375,-0.009250,1.004875,192.000000,0.000000,0.000000,0.000000,0.000000,0.000000,0.000000,0.000000,0.000000,0.000000,1770903933.860751,0.000000
160.000000,22683.399640,22497.969568,4885.309027,5059.809096,26021.655026,-8999.169946,10063.023575,-3333.338002,19496.264398,20395.028042,-4143.968719,9197.809899,20939.963572,24691.435658,5079.836259,19866.833969,0.003375,-0.009250,1.004875,192.000000,0.000000,0.000000,0.000000,0.000000,0.000000,0.000000,0.000000,0.000000,0.000000,1770903933.860763,0.000000
162.000000,22679.197512,22490.280567,4885.465489,5060.502000,26025.678340,-8994.409024,10059.871979,-3340.423505,19555.787093,20404.616941,-4164.375861,9186.008178,20929.860584,24696.129524,5083.837221,19911.649217,0.005687,-0.008625,1.003437,192.000000,0.000000,32.000000,127.500000,96.000000,15.500000,40.000000,0.000000,0.000000,0.000000,1770903933.860775,0.000000
164.000000,22674.771866,22483.128009,4890.472280,5064.167686,26018.481078,-8981.579123,10063.403554,-3335.617880,19502.880514,20390.714156,-4150.718945,9188.757442,20934.710912,24689.535760,5085.155974,19875.774667,0.005687,-0.008625,1.003437,192.000000,0.000000,0.000000,0.000000,0.000000,0.000000,0.000000,0.000000,0.000000,0.000000,1770903933.860787,0.000000
166.000000,22688.205265,22505.367995,4882.135079,5062.133677,26034.306113,-8977.488753,10061.973043,-3337.070744,19526.126328,20402.135897,-4158.273835,9188.489221,20946.266764,24693.514370,5085.893582,19905.435432,0.005687,-0.008625,1.003437,192.000000,0.000000,0.000000,0.000000,0.000000,0.000000,0.000000,0.000000,0.000000,0.000000,1770903933.860799,0.000000
168.000000,22689.613424,22497.477829,4894.249725,5076.349387,26031.422738,-8959.853227,10067.940958,-3324.017325,19548.858052,20415.323426,-4150.271910,9197.765195,20977.156875,24708.758260,5083.390186,19905.927170,0.005687,-0.008625,1.003437,192.000000,0.000000,0.000000,0.000000,0.000000,0.000000,0.000000,0.000000,0.000000,0.000000,1770903933.860811,0.000000
170.000000,22702.823305,22514.085175,4891.031073,5069.532105,26036.720101,-8975.119469,10068.477400,-3322.407999,19507.194401,20410.607208,-4139.274852,9205.856527,20941.595249,24703.840876,5081.467936,19875.417039,0.005687,-0.008625,1.003437,192.000000,0.000000,0.000000,0.000000,0.000000,0.000000,0.000000,0.000000,0.000000,0.000000,1770903933.860827,0.000000
172.000000,22704.365576,22510.933579,4897.960114,5070.962616,26050.108796,-8981.400309,10069.974967,-3319.390514,19579.122314,20429.449729,-4143.298166,9204.873050,20958.806093,24709.093536,5084.932457,19915.381958,0.006844,-0.010313,1.002719,192.000000,0.000000,32.000000,127.500000,80.000000,15.500000,40.000000,0.000000,0.000000,0.000000,1770903933.860846,0.000000
174.000000,22701.281035,22503.311634,4904.777396,5070.917913,26043.604439,-8989.357530,10072.612473,-3316.976525,19524.137023,20417.536249,-4130.334154,9206.281210,20957.219119,24696.285986,5086.072396,19868.912681,0.006844,-0.010313,1.002719,192.000000,0.000000,0.000000,0.000000,0.000000,0.000000,0.000000,0.000000,0.000000,0.000000,1770903933.860864,0.000000
176.000000,22702.040994,22511.112393,4894.026207,5058.535046,26043.693846,-9000.198126,10068.522104,-3327.504197,19548.187500,20418.363263,-4139.051335,9201.073253,20948.837215,24689.088725,5087.502907,19892.069088,0.006844,-0.010313,1.002719,192.000000,0.000000,0.000000,0.000000,0.000000,0.000000,0.000000,0.000000,0.000000,0.000000,1770903933.860880,0.000000
178.000000,22686.774753,22489.922940,4902.653981,5066.246398,26037.681226,-8991.860925,10069.170304,-3324.799636,19550.892061,20418.743243,-4145.153361,9196.021759,20968.193825,24689.960443,5089.358102,19890.437411,0.006844,-0.010313,1.002719,192.000000,0.000000,0.000000,0.000000,0.000000,0.000000,0.000000,0.000000,0.000000,0.000000,1770903933.860898,0.000000
180.000000,22688.451134,22498.036623,4894.272076,5054.668195,26038.172965,-9003.707350,10065.370508,-3332.510988,19504.288674,20408.304978,-4141.711192,9196.848774,20942.355209,24682.070277,5091.637980,19864.308222,0.006844,-0.010313,1.002719,192.000000,0.000000,0.000000,0.000000,0.000000,0.000000,0.000000,0.000000,0.000000,0.000000,1770903933.860916,0.000000
182.000000,22692.362689,22494.303881,4891.031073,5060.636110,26041.391616,-9000.756919,10065.281101,-3331.840435,19563.409038,20417.491545,-4155.278701,9189.606808,20967.947956,24682.964347,5092.912029,19908.922304,0.008422,-0.009156,1.006359,192.000000,0.000000,40.000000,127.500000,96.000000,15.500000,72.000000,0.000000,0.000000,0.000000,1770903933.860931,0.000000
184.000000,22692.519151,22486.212550,4896.864879,5064.637073,26021.699729,-8993.783175,10064.722307,-3332.220415,19504.869819,20404.639292,-4145.332175,9194.948875,20938.555412,24679.008088,5092.219125,19871.214911,0.008422,-0.009156,1.006359,192.000000,0.000000,0.000000,0.000000,0.000000,0.000000,0.000000,0.000000,0.000000,0.000000,1770903933.860949,0.000000
186.000000,22691.133343,22499.713004,4884.996102,5057.372756,26025.477174,-8997.985303,10063.001223,-3337.137799,19523.734692,20406.494487,-4156.753916,9187.952779,20937.616639,24680.215082,5087.212335,19901.657987,0.008422,-0.009156,1.006359,192.000000,0.000000,0.000000,0.000000,0.000000,0.000000,0.000000,0.000000,0.000000,0.000000,1770903933.860970,0.000000
188.000000,22692.250930,22491.688727,4896.551954,5073.510715,26029.075805,-8976.862905,10069.237360,-3322.363296,19543.270116,20419.346740,-4150.204855,9193.563067,20941.774063,24690.228664,5084.708939,19905.211914,0.008422,-0.009156,1.006359,192.000000,0.000000,0.000000,0.000000,0.000000,0.000000,0.000000,0.000000,0.000000,0.000000,1770903933.860987,0.000000
190.000000,22704.075003,22510.061861,4892.461585,5067.676910,26037.413006,-8975.834724,10069.282063,-3322.117427,19503.841639,20414.921095,-4137.374954,9203.286076,20943.562203,24690.787457,5081.311474,19884.491847,0.008422,-0.009156,1.006359,192.000000,0.000000,0.000000,0.000000,0.000000,0.000000,0.000000,0.000000,0.000000,0.000000,1770903933.861006,0.000000
192.000000,22711.451079,22516.454460,4897.669542,5073.644826,26040.899878,-8967.721041,10070.600816,-3316.663601,19574.160227,20431.841365,-4142.873483,9203.151966,20952.257031,24701.113963,5083.367834,19923.942676,0.008422,-0.009156,1.006359,192.000000,0.000000,0.000000,0.000000,0.000000,0.000000,0.000000,0.000000,0.000000,0.000000,1770903933.861024,0.000000
194.000000,22707.383061,22511.224152,4900.418806,5077.243457,26031.601552,-8972.034928,10072.143086,-3311.701514,19521.007779,20429.807357,-4127.674297,9215.043094,20962.583537,24705.807830,5080.797384,19879.418001,0.008000,-0.010000,1.004000,192.000000,0.000000,32.000000,127.500000,88.000000,15.500000,48.000000,0.000000,0.000000,0.000000,1770903934.340804,0.000000
196.000000,22708.478297,22515.582742,4890.069948,5064.346500,26029.455784,-8991.682111,10066.689261,-3324.307898,19542.912488,20430.477909,-4140.481846,9207.667018,20966.718610,24698.319995,5079.612741,19899.825144,0.008000,-0.010000,1.004000,192.000000,0.000000,0.000000,0.000000,0.000000,0.000000,0.000000,0.000000,0.000000,0.000000,1770903934.340902,0.000000
198.000000,22705.281997,22502.305806,4899.524736,5072.214314,26022.303226,-8985.669492,10067.516275,-3319.524624,19555.831797,20433.987133,-4140.794771,9202.637875,20979.280291,24704.176152,5081.982026,19896.338272,0.008000,-0.010000,1.004000,192.000000,0.000000,0.000000,0.000000,0.000000,0.000000,0.000000,0.000000,0.000000,0.000000,1770903934.340955,0.000000
200.000000,22700.230503,22509.011329,4891.701626,5062.223084,26027.332369,-9001.494527,10064.252921,-3327.638308,19508.267284,20424.264124,-4134.871559,9203.956628,20934.129767,24694.788420,5084.373663,19871.058449,0.008000,-0.010000,1.004000,192.000000,0.000000,0.000000,0.000000,0.000000,0.000000,0.000000,0.000000,0.000000,0.000000,1770903934.341014,0.000000
202.000000,22700.565779,22506.217361,4893.176841,5063.765355,26029.612247,-8997.694730,10063.738831,-3327.191273,19570.293375,20435.596458,-4149.802524,9196.178221,20944.232755,24700.778687,5090.967428,19912.610342,0.008000,-0.010000,1.004000,192.000000,0.000000,0.000000,0.000000,0.000000,0.000000,0.000000,0.000000,0.000000,0.000000,1770903934.341068,0.000000
204.000000,22698.554122,22498.617768,4895.367312,5068.570980,26019.889238,-8990.095137,10066.756316,-3324.889043,19513.765814,20424.264124,-4138.023154,9199.955666,20950.133616,24690.966271,5088.128756,19872.757181,0.002000,-0.010000,1.012000,192.000000,0.000000,8.000000,127.500000,88.000000,15.500000,80.000000,0.000000,0.000000,0.000000,1770903934.341118,0.000000
206.000000,22709.461774,22519.293132,4884.504364,5062.692471,26019.956293,-8998.678207,10064.632900,-3329.627613,19545.371180,20431.081406,-4145.890969,9198.860431,20947.518462,24690.452181,5080.864439,19898.484039,0.002000,-0.010000,1.012000,192.000000,0.000000,0.000000,0.000000,0.000000,0.000000,0.000000,0.000000,0.000000,0.000000,1770903934.341136,0.000000
208.000000,22699.135268,22496.606111,4895.210850,5072.191962,26017.408194,-8985.155402,10068.767973,-3324.687877,19556.100018,20434.523575,-4146.248596,9199.329817,20953.329915,24697.872960,5078.293989,19901.099193,0.002000,-0.010000,1.012000,192.000000,0.000000,0.000000,0.000000,0.000000,0.000000,0.000000,0.000000,0.000000,0.000000,1770903934.341154,0.000000
210.000000,22699.247026,22506.574989,4886.270152,5064.301796,26014.010729,-8991.793870,10067.784496,-3329.649965,19501.025319,20416.619827,-4143.119352,9200.514460,20945.953840,24693.268501,5075.120041,19873.584196,0.002000,-0.010000,1.012000,192.000000,0.000000,0.000000,0.000000,0.000000,0.000000,0.000000,0.000000,0.000000,0.000000,1770903934.341170,0.000000
212.000000,22703.225637,22506.709100,4890.137004,5069.554456,26014.636578,-8983.166097,10068.253883,-3326.140741,19569.287547,20436.870508,-4154.116411,9200.201535,20947.160834,24702.388013,5075.634131,19913.035025,0.002000,-0.010000,1.012000,192.000000,0.000000,0.000000,0.000000,0.000000,0.000000,0.000000,0.000000,0.000000,0.000000,1770903934.341188,0.000000
214.000000,22705.617274,22500.562370,4898.273039,5072.370776,26011.440278,-8976.125297,10069.192656,-3321.513930,19514.525773,20431.193165,-4136.816160,9208.672846,20953.955764,24699.929321,5076.014111,19873.897120,0.004000,-0.014000,1.010000,192.000000,0.000000,16.000000,127.500000,72.000000,15.500000,72.000000,0.000000,0.000000,0.000000,1770903934.341205,0.000000
216.000000,22705.594922,22511.425318,4888.125347,5065.285273,26024.448994,-8979.299245,10064.588197,-3332.108656,19548.969811,20433.562450,-4145.332175,9203.688407,20938.130729,24696.129524,5082.429061,19898.729908,0.004000,-0.014000,1.010000,192.000000,0.000000,0.000000,0.000000,0.000000,0.000000,0.000000,0.000000,0.000000,0.000000,1770903934.341221,0.000000
218.000000,22699.604654,22497.097849,4898.049521,5076.259980,26020.939770,-8964.502390,10066.890427,-3322.922089,19562.693782,20442.279630,-4144.259291,9203.956628,20950.848872,24710.635806,5088.486384,19901.255655,0.004000,-0.014000,1.010000,192.000000,0.000000,0.000000,0.000000,0.000000,0.000000,0.000000,0.000000,0.000000,0.000000,1770903934.341244,0.000000
220.000000,22697.771811,22502.439916,4890.360521,5067.632206,26020.671549,-8970.626768,10064.319976,-3329.761723,19509.966017,20425.024083,-4140.303032,9205.498899,20934.308581,24699.012899,5089.201640,19875.774667,0.004000,-0.014000,1.010000,192.000000,0.000000,0.000000,0.000000,0.000000,0.000000,0.000000,0.000000,0.000000,0.000000,1770903934.341261,0.000000
222.000000,22700.476372,22498.729527,4892.573344,5070.269712,26021.163287,-8976.080594,10063.716479,-3327.146569,19573.735544,20439.552717,-4151.501256,9198.458099,20955.632145,24700.666928,5091.816794,19919.047644,0.004000,-0.014000,1.010000,192.000000,0.000000,0.000000,0.000000,0.000000,0.000000,0.000000,0.000000,0.000000,0.000000,1770903934.341278,0.000000
224.000000,22694.597864,22488.358317,4893.132137,5072.638997,26004.868866,-8980.059204,10065.728136,-3324.218491,19512.022377,20422.364226,-4139.632480,9202.928448,20937.057845,24694.274329,5085.468898,19877.004013,0.002000,-0.014000,1.008000,192.000000,0.000000,8.000000,127.500000,72.000000,15.500000,64.000000,0.000000,0.000000,0.000000,1770903934.341295,0.000000
226.000000,22702.890361,22504.853905,4883.878515,5065.329977,26012.177886,-8985.781251,10062.621243,-3331.281642,19532.161299,20426.745168,-4151.702422,9197.072291,20937.706046,24692.597949,5081.356177,19902.149725,0.002000,-0.014000,1.008000,192.000000,0.000000,0.000000,0.000000,0.000000,0.000000,0.000000,0.000000,0.000000,0.000000,1770903934.341312,0.000000
228.000000,22699.828172,22494.058012,4894.205021,5075.611779,26012.490810,-8978.136954,10068.700918,-3321.804502,19553.015477,20438.435130,-4146.606224,9200.872088,20950.804168,24696.241283,5077.243457,19906.530667,0.002000,-0.014000,1.008000,192.000000,0.000000,0.000000,0.000000,0.000000,0.000000,0.000000,0.000000,0.000000,0.000000,1770903934.341329,0.000000
230.000000,22704.544390,22504.004539,4887.812422,5067.565151,26012.848438,-8993.917286,10068.455049,-3325.604299,19499.393642,20424.644104,-4139.587777,9203.889573,20955.430979,24688.842856,5074.673006,19875.037059,0.002000,-0.014000,1.008000,192.000000,0.000000,0.000000,0.000000,0.000000,0.000000,0.000000,0.000000,0.000000,0.000000,1770903934.341346,0.000000
232.000000,22709.372367,22502.417565,4893.713283,5069.397994,26014.122488,-8995.548963,10070.466706,-3321.335116,19563.230224,20435.104720,-4149.176675,9199.754500,20946.624392,24690.496885,5074.561247,19913.839688,0.002000,-0.014000,1.008000,192.000000,0.000000,0.000000,0.000000,0.000000,0.000000,0.000000,0.000000,0.000000,0.000000,1770903934.341363,0.000000
234.000000,22711.205210,22500.338852,4900.910545,5075.745890,26007.126392,-8986.429451,10073.037156,-3316.082456,19519.197287,20429.226211,-4128.031925,9207.644666,20935.850851,24692.575597,5074.225971,19869.449123,0.004000,-0.014000,1.006000,192.000000,0.000000,16.000000,127.500000,72.000000,15.500000,56.000000,0.000000,0.000000,0.000000,1770903934.341379,0.000000
236.000000,22708.947683,22507.379652,4887.141870,5067.185172,26008.646310,-8991.302132,10066.443392,-3328.599433,19539.023285,20434.076540,-4142.404096,9203.174317,20932.341627,24694.810771,5075.589427,19900.093365,0.004000,-0.014000,1.006000,192.000000,0.000000,0.000000,0.000000,0.000000,0.000000,0.000000,0.000000,0.000000,0.000000,1770903934.341396,0.000000
238.000000,22706.064308,22495.823800,4897.289562,5076.349387,26008.288682,-8982.160268,10069.460877,-3323.123255,19553.194291,20437.831633,-4141.554730,9201.743806,20937.169604,24702.320957,5081.065605,19902.954388,0.004000,-0.014000,1.006000,192.000000,0.000000,0.000000,0.000000,0.000000,0.000000,0.000000,0.000000,0.000000,0.000000,1770903934.341412,0.000000
240.000000,22704.633797,22498.908341,4889.578210,5065.709956,26018.548133,-8985.915361,10065.817543,-3333.829741,19499.572456,20423.593572,-4141.845303,9202.414358,20960.080142,24694.095516,5089.626323,19875.014707,0.004000,-0.014000,1.006000,192.000000,0.000000,0.000000,0.000000,0.000000,0.000000,0.000000,0.000000,0.000000,0.000000,1770903934.341429,0.000000
242.000000,22700.632835,22490.302919,4892.059254,5067.453392,26024.918380,-8984.708367,10065.370508,-3334.477941,19555.787093,20425.716987,-4151.970643,9191.774928,20943.584555,24694.520199,5098.410559,19917.840650,0.004000,-0.014000,1.006000,192.000000,0.000000,0.000000,0.000000,0.000000,0.000000,0.000000,0.000000,0.000000,0.000000,1770903934.341444,0.000000
244.000000,22691.066288,22478.456495,4893.042730,5073.220143,26018.078747,-8979.299245,10066.756316,-3331.281642,19495.102107,20421.380749,-4143.991070,9195.775890,20943.048113,24692.419135,5098.455262,19881.049678,0.006000,-0.016000,1.004000,192.000000,0.000000,24.000000,127.500000,64.000000,15.500000,48.000000,0.000000,0.000000,0.000000,1770903934.341461,0.000000
246.000000,22700.543428,22495.242655,4883.520887,5066.469916,26023.867848,-8990.542172,10063.783534,-3335.349659,19516.336264,20425.806394,-4156.128068,9193.473660,20966.271575,24695.593082,5095.817756,19907.201219,0.006000,-0.016000,1.004000,192.000000,0.000000,0.000000,0.000000,0.000000,0.000000,0.000000,0.000000,0.000000,0.000000,1770903934.341477,0.000000
248.000000,22698.889398,22481.563387,4895.121443,5074.807116,26010.702671,-8985.177754,10067.002185,-3326.766589,19543.471282,20430.477909,-4148.103791,9196.379387,20929.704121,24691.994452,5087.502907,19909.123469,0.006000,-0.016000,1.004000,192.000000,0.000000,0.000000,0.000000,0.000000,0.000000,0.000000,0.000000,0.000000,0.000000,1770903934.341490,0.000000
250.000000,22705.416108,22494.996786,4888.930009,5065.598198,26008.311034,-8994.297265,10066.018708,-3331.102828,19495.482087,20413.468231,-4140.526550,9195.574724,20936.677866,24683.143161,5077.355215,19879.149780,0.006000,-0.016000,1.004000,192.000000,0.000000,0.000000,0.000000,0.000000,0.000000,0.000000,0.000000,0.000000,0.000000,1770903934.341504,0.000000
252.000000,22713.418032,22500.897646,4894.115614,5067.363985,26014.793040,-8995.727777,10066.890427,-3326.297203,19564.370163,20434.031836,-4147.679108,9195.619428,20959.119017,24692.396783,5076.371738,19917.818298,0.006000,-0.016000,1.004000,192.000000,0.000000,0.000000,0.000000,0.000000,0.000000,0.000000,0.000000,0.000000,0.000000,1770903934.341516,0.000000
254.000000,22706.779564,22496.248483,4898.474204,5072.638997,26002.924264,-8995.481908,10070.891389,-3320.619860,19507.909657,20430.701426,-4136.257367,9205.565954,20985.874055,24692.776763,5076.639959,19872.243091,0.006000,-0.016000,1.002000,192.000000,0.000000,24.000000,127.500000,64.000000,15.500000,40.000000,0.000000,0.000000,0.000000,1770903934.341528,0.000000
0.000000,22712.143983,22509.838344,4889.131175,5063.430078,26013.049604,-9001.203954,10067.158647,-3327.683011,19537.101035,20430.187336,-4142.717021,9201.497936,20936.811976,24689.021670,5078.539858,19894.796001,0.006000,-0.016000,1.002000,192.000000,0.000000,0.000000,0.000000,0.000000,0.000000,0.000000,0.000000,0.000000,0.000000,1770903934.341540,0.000000
2.000000,22708.992387,22493.566274,4898.496556,5072.102555,26016.111793,-8987.949370,10068.812677,-3324.285546,19557.374067,20439.262144,-4140.951233,9203.017855,20952.033514,24696.218931,5084.463070,19899.400461,0.006000,-0.016000,1.002000,192.000000,0.000000,0.000000,0.000000,0.000000,0.000000,0.000000,0.000000,0.000000,0.000000,1770903934.341552,0.000000
4.000000,22701.705718,22499.489486,4888.125347,5065.732308,26016.000034,-8992.978512,10064.655252,-3334.209720,19493.604540,20418.631484,-4141.241806,9199.888611,20958.314354,24681.131504,5085.446547,19871.594891,0.006000,-0.016000,1.002000,192.000000,0.000000,0.000000,0.000000,0.000000,0.000000,0.000000,0.000000,0.000000,0.000000,1770903934.341564,0.000000
6.000000,22697.101259,22492.783963,4888.326512,5065.553494,26019.777479,-8982.473193,10061.905987,-3337.987165,19553.373105,20431.729607,-4157.513876,9191.260837,20956.816787,24698.454106,5093.224954,19918.332388,0.006000,-0.016000,1.002000,192.000000,0.000000,0.000000,0.000000,0.000000,0.000000,0.000000,0.000000,0.000000,0.000000,1770903934.341576,0.000000
8.000000,22691.043936,22480.781076,4893.825042,5064.994701,26012.937845,-8984.417794,10061.391897,-3333.963851,19494.208037,20419.927886,-4145.868617,9192.780756,20951.161796,24686.048887,5099.841070,19881.049678,0.004000,-0.017000,1.003000,192.000000,0.000000,8.000000,127.500000,56.000000,15.500000,48.000000,0.000000,0.000000,0.000000,1770903934.341588,0.000000
10.000000,22699.179971,22492.828666,4887.298332,5053.796477,26021.342101,-8997.694730,10057.390935,-3338.680069,19516.716244,20413.602342,-4155.055184,9184.845887,20943.651610,24677.354059,5103.149128,19903.401423,0.004000,-0.017000,1.003000,192.000000,0.000000,0.000000,0.000000,0.000000,0.000000,0.000000,0.000000,0.000000,0.000000,1770903934.341600,0.000000
12.000000,22700.945759,22488.961815,4900.999951,5068.235703,26021.766784,-8989.737509,10063.112982,-3328.062991,19539.112692,20424.755862,-4147.634405,9189.673864,20973.938224,24680.013916,5105.876041,19906.664778,0.004000,-0.017000,1.003000,192.000000,0.000000,0.000000,0.000000,0.000000,0.000000,0.000000,0.000000,0.000000,0.000000,1770903934.341612,0.000000
14.000000,22711.965169,22505.390347,4893.959152,5064.882942,26017.050566,-9004.064978,10065.705784,-3327.615956,19489.894150,20418.072691,-4138.246672,9197.519326,20951.027686,24681.980870,5099.997532,19876.869902,0.004000,-0.017000,1.003000,192.000000,0.000000,0.000000,0.000000,0.000000,0.000000,0.000000,0.000000,0.000000,0.000000,1770903934.341624,0.000000
16.000000,22717.866029,22510.017158,4896.417844,5069.397994,26009.473325,-9003.997922,10069.371470,-3321.849206,19564.727791,20434.657685,-4148.796695,9198.480451,20963.187035,24688.708745,5090.051006,19912.476231,0.004000,-0.017000,1.003000,192.000000,0.000000,0.000000,0.000000,0.000000,0.000000,0.000000,0.000000,0.000000,0.000000,1770903934.341636,0.000000
18.000000,22719.095375,22507.334948,4900.083530,5076.170573,26002.633691,-8992.799698,10073.193618,-3313.556709,19509.004892,20432.310752,-4125.953212,9209.343399,20947.384351,24690.273367,5080.372701,19866.185768,0.003000,-0.018500,1.007500,192.000000,0.000000,8.000000,127.500000,48.000000,15.500000,80.000000,0.000000,0.000000,0.000000,1770903934.341648,0.000000
20.000000,22728.058425,22524.054053,4891.858088,5067.453392,26007.886351,-9000.086367,10070.243188,-3319.010534,19534.485881,20436.646990,-4136.033849,9207.778777,20966.293927,24693.827295,5077.198753,19888.962196,0.003000,-0.018500,1.007500,192.000000,0.000000,0.000000,0.000000,0.000000,0.000000,0.000000,0.000000,0.000000,0.000000,1770903934.341660,0.000000
22.000000,22718.022492,22503.199876,4901.379931,5076.617608,26006.209970,-8993.671416,10071.360775,-3316.261270,19547.382837,20440.513842,-4131.384686,9206.325913,20949.999505,24700.242245,5079.456279,19889.766859,0.003000,-0.018500,1.007500,192.000000,0.000000,0.000000,0.000000,0.000000,0.000000,0.000000,0.000000,0.000000,0.000000,1770903934.341674,0.000000
24.000000,22717.821326,22510.151268,4889.131175,5069.576808,26001.851380,-8995.616018,10067.516275,-3326.520720,19491.548180,20422.006598,-4133.217529,9206.281210,20952.815825,24689.424001,5081.803212,19861.938937,0.003000,-0.018500,1.007500,192.000000,0.000000,0.000000,0.000000,0.000000,0.000000,0.000000,0.000000,0.000000,0.000000,1770903934.341688,0.000000
26.000000,22712.903942,22507.536114,4889.712321,5071.119079,26007.081688,-8989.089309,10065.906950,-3329.739372,19550.445026,20436.758749,-4149.780172,9199.083948,20952.793473,24696.420097,5087.391148,19908.117641,0.003000,-0.018500,1.007500,192.000000,0.000000,0.000000,0.000000,0.000000,0.000000,0.000000,0.000000,0.000000,0.000000,1770903934.341701,0.000000
28.000000,22706.131364,22496.561408,4895.546126,5072.527238,26005.673528,-8985.825954,10066.532799,-3326.096037,19490.587055,20423.526516,-4140.772419,9202.056730,20951.541776,24692.486190,5090.587448,19871.594891,0.002500,-0.018250,1.006750,192.000000,0.000000,8.000000,127.500000,56.000000,15.500000,56.000000,0.000000,0.000000,0.000000,1770903934.341713,0.000000
30.000000,22711.339320,22509.972454,4888.326512,5064.033576,26021.520915,-8996.621847,10064.074107,-3332.421581,19513.475241,20425.001732,-4149.579006,9196.491146,20954.827482,24687.211178,5097.427082,19896.450030,0.002500,-0.018250,1.006750,192.000000,0.000000,0.000000,0.000000,0.000000,0.000000,0.000000,0.000000,0.000000,0.000000,1770903934.341725,0.000000
32.000000,22711.272265,22497.209608,4899.882364,5077.556381,26027.868811,-8980.863867,10067.829200,-3323.547938,19530.328456,20430.790833,-4146.338003,9195.150041,20949.708933,24693.223797,5101.159823,19903.870810,0.002500,-0.018250,1.006750,192.000000,0.000000,0.000000,0.000000,0.000000,0.000000,0.000000,0.000000,0.000000,0.000000,1770903934.341737,0.000000
34.000000,22710.445250,22506.150306,4894.227373,5070.314416,26025.566581,-8984.373091,10066.778668,-3329.448799,19481.758116,20420.374920,-4135.385649,9199.978018,20931.916944,24688.015841,5096.980047,19878.859207,0.002500,-0.018250,1.006750,192.000000,0.000000,0.000000,0.000000,0.000000,0.000000,0.000000,0.000000,0.000000,0.000000,1770903934.341749,0.000000
36.000000,22715.876724,22508.877219,4895.926105,5073.086032,26022.772613,-8993.358492,10067.560979,-3327.593604,19549.618012,20431.819014,-4147.544998,9194.233619,20948.099607,24689.066373,5097.091806,19921.215763,0.002500,-0.018250,1.006750,192.000000,0.000000,0.000000,0.000000,0.000000,0.000000,0.000000,0.000000,0.000000,0.000000,1770903934.341761,0.000000
38.000000,22715.519096,22504.630387,4902.028132,5079.255114,26009.473325,-8995.548963,10072.724232,-3318.541148,19499.170124,20422.855964,-4131.451742,9202.973152,20946.646744,24688.149951,5090.408634,19874.724135,0.002500,-0.018250,1.006750,192.000000,0.000000,0.000000,127.500000,88.000000,15.500000,64.000000,0.000000,0.000000,0.000000,1770903934.341773,0.000000
40.000000,22724.325684,22522.355321,4890.449928,5070.560285,26010.345043,-9004.243792,10070.734927,-3322.318592,19521.477165,20433.361284,-4138.492541,9205.230678,20965.243395,24689.893388,5085.334788,19890.437411,0.002500,-0.018250,1.006750,192.000000,0.000000,0.000000,0.000000,0.000000,0.000000,0.000000,0.000000,0.000000,0.000000,1770903934.341790,0.000000
42.000000,22718.022492,22504.719794,4901.871670,5079.702148,26007.036985,-8996.443033,10072.321900,-3316.529491,19542.532509,20435.864679,-4137.911396,9206.415320,20966.606851,24697.045946,5081.423233,19892.717289,0.002500,-0.018250,1.006750,192.000000,0.000000,0.000000,0.000000,0.000000,0.000000,0.000000,0.000000,0.000000,0.000000,1770903934.341808,0.000000
44.000000,22714.848544,22508.899571,4893.981504,5068.101593,25999.526799,-9008.892954,10068.924435,-3326.028982,19494.319796,20417.960932,-4132.234053,9204.090739,20939.024799,24686.115943,5082.026730,19857.982678,0.002500,-0.018250,1.006750,192.000000,0.000000,0.000000,0.000000,0.000000,0.000000,0.000000,0.000000,0.000000,0.000000,1770903934.341826,0.000000
46.000000,22710.378195,22502.819896,4892.908620,5069.733270,26007.148744,-8998.454690,10067.918607,-3327.459494,19553.708381,20430.254391,-4150.160152,9197.452271,20948.971325,24694.453143,5089.671026,19903.222609,0.002500,-0.018250,1.006750,192.000000,0.000000,0.000000,0.000000,0.000000,0.000000,0.000000,0.000000,0.000000,0.000000,1770903934.341842,0.000000
48.000000,22702.666843,22490.682899,4899.614143,5076.572904,26001.449049,-8987.122355,10070.377299,-3323.704401,19493.135153,20420.687845,-4135.206835,9201.632047,20945.685619,24692.955577,5091.056835,19868.823274,0.002500,-0.018250,1.006750,192.000000,0.000000,0.000000,127.500000,72.000000,15.500000,48.000000,0.000000,0.000000,0.000000,1770903934.341855,0.000000
50.000000,22710.311140,22504.295111,4891.142832,5067.654558,26010.613264,-8991.011559,10067.203351,-3330.856959,19521.164241,20423.213592,-4141.934710,9197.944009,20930.732302,24694.453143,5092.308532,19894.416022,0.002500,-0.018250,1.006750,192.000000,0.000000,0.000000,0.000000,0.000000,0.000000,0.000000,0.000000,0.000000,0.000000,1770903934.341867,0.000000
52.000000,22703.963244,22489.140628,4903.101015,5078.182230,26012.490810,-8979.478059,10070.287892,-3325.000802,19540.654962,20431.595496,-4141.286509,9198.346340,20947.518462,24696.308338,5098.611724,19903.133202,0.002500,-0.018250,1.006750,192.000000,0.000000,0.000000,0.000000,0.000000,0.000000,0.000000,0.000000,0.000000,0.000000,1770903934.341879,0.000000
54.000000,22700.923407,22494.750916,4894.942629,5070.604988,26013.451935,-8985.691844,10068.231531,-3328.688840,19477.757153,20415.055205,-4137.777285,9198.525154,20942.712837,24695.481324,5101.696265,19877.875731,0.002500,-0.018250,1.006750,192.000000,0.000000,0.000000,0.000000,0.000000,0.000000,0.000000,0.000000,0.000000,0.000000,1770903934.341891,0.000000
56.000000,22706.600750,22496.784925,4899.122405,5071.700224,26028.405253,-8982.830820,10067.069240,-3327.347735,19548.299259,20425.962857,-4148.193198,9190.031492,20947.406703,24703.438545,5104.400826,19920.992246,0.002500,-0.018250,1.006750,192.000000,0.000000,0.000000,0.000000,0.000000,0.000000,0.000000,0.000000,0.000000,0.000000,1770903934.341910,0.000000
58.000000,22708.634759,22493.499219,4903.011608,5082.138489,26023.845497,-8977.645216,10071.070203,-3319.748142,19500.690043,20422.207763,-4134.066896,9201.363826,20961.376543,24698.811734,5104.400826,19881.317899,0.002250,-0.015125,1.005375,192.000000,0.000000,8.000000,127.500000,80.000000,15.500000,48.000000,0.000000,0.000000,0.000000,1770903934.820123,0.000000
60.000000,22718.871858,22514.062824,4894.629704,5072.549590,26029.612247,-8993.067919,10067.315110,-3324.553767,19529.166165,20427.683941,-4143.253463,9202.704931,20956.973250,24700.398707,5099.908125,19899.445164,0.002250,-0.015125,1.005375,192.000000,0.000000,0.000000,0.000000,0.000000,0.000000,0.000000,0.000000,0.000000,0.000000,1770903934.820196,0.000000
62.000000,22721.107032,22506.485582,4906.610239,5085.938285,26016.424717,-8981.310902,10073.931226,-3310.963906,19559.363372,20437.474005,-4135.318593,9205.789471,20974.362907,24707.640673,5096.063625,19900.652158,0.002250,-0.015125,1.005375,192.000000,0.000000,0.000000,0.000000,0.000000,0.000000,0.000000,0.000000,0.000000,0.000000,1770903934.820372,0.000000
64.000000,22723.811594,22519.360187,4896.976637,5078.361044,26014.323653,-8992.620884,10071.807810,-3313.780226,19511.865915,20432.422511,-4125.305012,9214.730169,20962.382372,24702.142144,5088.061701,19872.734830,0.002250,-0.015125,1.005375,192.000000,0.000000,0.000000,0.000000,0.000000,0.000000,0.000000,0.000000,0.000000,0.000000,1770903934.820428,0.000000
66.000000,22718.938913,22516.096832,4899.949419,5075.880000,26012.781383,-8999.505222,10071.807810,-3315.546014,19579.234073,20446.861738,-4136.793809,9209.633971,20950.357133,24705.025519,5090.363931,19909.346987,0.002250,-0.015125,1.005375,192.000000,0.000000,0.000000,0.000000,0.000000,0.000000,0.000000,0.000000,0.000000,0.000000,1770903934.820449,0.000000
68.000000,22709.126497,22500.271797,4902.966905,5079.165707,26004.488886,-8991.950332,10072.947749,-3316.887118,19520.538392,20432.824842,-4127.607242,9209.790434,20964.885767,24695.615434,5091.235649,19866.945728,0.002250,-0.015125,1.005375,192.000000,0.000000,0.000000,127.500000,72.000000,15.500000,48.000000,0.000000,0.000000,0.000000,1770903934.820469,0.000000
70.000000,22711.071099,22512.118222,4892.550992,5070.470878,26017.721119,-8993.716120,10068.231531,-3326.587776,19539.649134,20430.433205,-4140.437143,9200.246239,20952.793473,24694.788420,5095.258963,19897.254693,0.002250,-0.015125,1.005375,192.000000,0.000000,0.000000,0.000000,0.000000,0.000000,0.000000,0.000000,0.000000,0.000000,1770903934.820488,0.000000
72.000000,22702.935064,22496.248483,4901.290524,5080.283294,26011.417927,-8981.959102,10070.176133,-3323.436180,19557.955212,20437.965743,-4142.471152,9201.274419,20953.195805,24697.850609,5097.315323,19908.408214,0.002250,-0.015125,1.005375,192.000000,0.000000,0.000000,0.000000,0.000000,0.000000,0.000000,0.000000,0.000000,0.000000,1770903934.820507,0.000000
74.000000,22698.755288,22500.338852,4894.361483,5072.370776,26014.971854,-8983.367262,10067.560979,-3330.588738,19498.767793,20423.012426,-4138.023154,9200.179184,20937.683694,24682.405553,5100.265753,19882.793115,0.002250,-0.015125,1.005375,192.000000,0.000000,0.000000,0.000000,0.000000,0.000000,0.000000,0.000000,0.000000,0.000000,1770903934.820526,0.000000
76.000000,22697.749459,22495.734393,4895.479071,5072.884866,26033.523802,-8973.197219,10065.370508,-3335.014383,19554.468340,20429.583839,-4150.540131,9188.399814,20963.052924,24688.753449,5107.395960,19931.542269,0.002250,-0.015125,1.005375,192.000000,0.000000,0.000000,0.000000,0.000000,0.000000,0.000000,0.000000,0.000000,0.000000,1770903934.820557,0.000000
78.000000,22697.950625,22489.185332,4901.983428,5078.919837,26025.857154,-8966.670509,10066.711613,-3329.649965,19507.261456,20420.777252,-4138.380782,9193.540715,20955.006296,24690.072201,5108.670009,19894.840705,0.002250,-0.015125,1.005375,192.000000,0.000000,0.000000,0.000000,0.000000,0.000000,0.000000,0.000000,0.000000,0.000000,1770903934.820576,0.000000
80.000000,22705.170239,22504.026890,4892.014550,5069.755622,26027.622941,-8980.148611,10062.800057,-3335.819046,19535.245840,20428.220383,-4145.220416,9191.462003,20959.990735,24687.926434,5106.881870,19916.566600,0.004000,-0.006000,1.010000,192.000000,0.000000,16.000000,127.500000,104.000000,15.500000,72.000000,0.000000,0.000000,0.000000,1770903934.820595,0.000000
82.000000,22708.612407,22496.270835,4905.447949,5082.227896,26027.846459,-8966.759916,10066.957482,-3324.866691,19555.585927,20440.044456,-4141.644137,9194.300675,20965.936299,24694.788420,5105.920745,19919.874659,0.004000,-0.006000,1.010000,192.000000,0.000000,0.000000,0.000000,0.000000,0.000000,0.000000,0.000000,0.000000,0.000000,1770903934.820614,0.000000
84.000000,22705.997253,22510.575951,4896.775472,5074.673006,26032.048587,-8973.107812,10065.482267,-3329.672316,19499.907732,20436.423473,-4135.251538,9201.676750,20978.855607,24690.027498,5104.959620,19888.090478,0.004000,-0.006000,1.010000,192.000000,0.000000,0.000000,0.000000,0.000000,0.000000,0.000000,0.000000,0.000000,0.000000,1770903934.820633,0.000000
86.000000,22711.361672,22509.190143,4902.072835,5074.516544,26035.423700,-8979.723928,10065.683432,-3325.917223,19570.159265,20452.293211,-4143.588739,9196.111166,20953.598136,24699.482286,5103.104425,19925.552002,0.004000,-0.006000,1.010000,192.000000,0.000000,0.000000,0.000000,0.000000,0.000000,0.000000,0.000000,0.000000,0.000000,1770903934.820651,0.000000
88.000000,22707.137192,22497.187256,4903.883327,5078.293989,26024.359587,-8974.337158,10068.097421,-3322.631517,19514.637532,20443.151348,-4129.976526,9202.392006,20964.662250,24689.021670,5102.366817,19884.581254,0.004000,-0.006000,1.010000,192.000000,0.000000,0.000000,0.000000,0.000000,0.000000,0.000000,0.000000,0.000000,0.000000,1770903934.820671,0.000000
90.000000,22712.233390,22509.570123,4893.534469,5067.922779,26029.232267,-8991.525649,10063.805886,-3330.678145,19531.848375,20443.240755,-4141.599434,9198.391044,20968.931433,24687.188826,5099.550497,19904.787231,0.004000,-0.004000,1.012000,192.000000,0.000000,16.000000,127.500000,112.000000,15.500000,80.000000,0.000000,0.000000,0.000000,1770903934.820699,0.000000
92.000000,22711.272265,22495.712041,4902.005780,5080.238590,26023.666683,-8971.654948,10066.085764,-3324.643174,19560.883291,20452.181453,-4139.721887,9198.435747,20963.790532,24694.833123,5098.678779,19910.129298,0.004000,-0.004000,1.012000,192.000000,0.000000,0.000000,0.000000,0.000000,0.000000,0.000000,0.000000,0.000000,0.000000,1770903934.820718,0.000000
94.000000,22708.634759,22502.149344,4893.534469,5074.583599,26024.404290,-8984.395443,10064.431735,-3329.806427,19500.064194,20437.049322,-4136.346774,9200.402701,20947.943145,24689.871036,5099.371684,19883.620129,0.004000,-0.004000,1.012000,192.000000,0.000000,0.000000,0.000000,0.000000,0.000000,0.000000,0.000000,0.000000,0.000000,1770903934.820737,0.000000
96.000000,22707.763041,22501.434088,4895.188498,5076.237628,26027.801755,-8984.440146,10065.146990,-3329.426447,19566.739448,20452.717895,-4152.596492,9194.814765,20965.802189,24690.139257,5102.679742,19928.591839,0.004000,-0.004000,1.012000,192.000000,0.000000,0.000000,0.000000,0.000000,0.000000,0.000000,0.000000,0.000000,0.000000,1770903934.820755,0.000000
98.000000,22696.698927,22487.285434,4897.758949,5078.204582,26020.269218,-8977.622864,10065.571674,-3327.459494,19510.211886,20441.899650,-4135.720925,9199.709797,20973.133561,24684.685431,5103.640867,19893.186676,0.004000,-0.004000,1.012000,192.000000,0.000000,0.000000,0.000000,0.000000,0.000000,0.000000,0.000000,0.000000,0.000000,1770903934.820774,0.000000
100.000000,22703.650320,22501.232922,4890.315818,5067.878076,26019.799831,-8986.854134,10061.682470,-3335.483770,19527.981523,20439.440958,-4147.209721,9194.054806,20946.758502,24682.025573,5107.172442,19915.985455,0.004000,-0.004000,1.012000,192.000000,0.000000,0.000000,127.500000,88.000000,15.500000,48.000000,0.000000,0.000000,0.000000,1770903934.820793,0.000000
102.000000,22700.208151,22489.766477,4900.888193,5077.712843,26025.164250,-8971.230265,10065.594025,-3328.040639,19551.182634,20445.744150,-4146.382707,9194.412433,20957.621450,24694.408440,5110.480501,19921.215763,0.004000,-0.004000,1.012000,192.000000,0.000000,0.000000,0.000000,0.000000,0.000000,0.000000,0.000000,0.000000,0.000000,1770903934.820812,0.000000
104.000000,22704.298521,22501.702309,4894.272076,5070.582637,26024.493697,-8975.141820,10064.297624,-3330.208758,19498.074889,20436.065845,-4140.280681,9197.273457,20967.702087,24692.061507,5107.820643,19888.291644,0.004000,-0.004000,1.012000,192.000000,0.000000,0.000000,0.000000,0.000000,0.000000,0.000000,0.000000,0.000000,0.000000,1770903934.820831,0.000000
106.000000,22711.585189,22502.439916,4899.010646,5072.862515,26033.590857,-8974.024233,10066.555150,-3327.258328,19570.449837,20445.699447,-4146.874445,9192.221962,20963.343497,24694.274329,5107.261849,19925.820223,0.004000,-0.004000,1.012000,192.000000,0.000000,0.000000,0.000000,0.000000,0.000000,0.000000,0.000000,0.000000,0.000000,1770903934.820850,0.000000
108.000000,22710.579361,22497.567236,4904.218603,5078.428099,26027.131203,-8969.352719,10070.198485,-3319.882252,19521.276000,20440.916174,-4130.781189,9201.140309,20965.176340,24697.560036,5103.551460,19886.503504,0.004000,-0.004000,1.012000,192.000000,0.000000,0.000000,0.000000,0.000000,0.000000,0.000000,0.000000,0.000000,0.000000,1770903934.820869,0.000000
110.000000,22717.620160,22511.559428,4894.517946,5068.906256,26045.303171,-8978.740451,10064.655252,-3327.705363,19537.056331,20443.777197,-4141.733544,9198.592210,20965.533968,24697.247111,5104.914916,19903.982568,-0.006000,-0.014000,1.006000,192.000000,127.500000,104.000000,127.500000,72.000000,15.500000,56.000000,0.000000,0.000000,0.000000,1770903934.820888,0.000000
112.000000,22710.735823,22498.126030,4903.637457,5079.925666,26023.867848,-8969.755050,10067.650386,-3319.614031,19566.918262,20453.433150,-4136.905567,9200.715625,20973.446485,24711.976911,5100.176346,19907.871772,-0.006000,-0.014000,1.006000,192.000000,0.000000,0.000000,0.000000,0.000000,0.000000,0.000000,0.000000,0.000000,0.000000,1770903934.820906,0.000000
114.000000,22708.612407,22503.736318,4892.238068,5073.354253,26028.382901,-8980.752108,10066.599854,-3328.398267,19507.015587,20437.697522,-4133.083419,9204.358960,20944.389217,24694.631957,5099.796367,19877.451048,-0.006000,-0.014000,1.006000,192.000000,0.000000,0.000000,0.000000,0.000000,0.000000,0.000000,0.000000,0.000000,0.000000,1770903934.820925,0.000000
116.000000,22703.538561,22499.802411,4891.187536,5077.154050,26029.031101,-8977.265236,10066.063412,-3330.633441,19567.611166,20447.621697,-4154.764611,9195.932352,20969.713744,24696.956539,5103.618515,19925.507298,-0.006000,-0.014000,1.006000,192.000000,0.000000,0.000000,0.000000,0.000000,0.000000,0.000000,0.000000,0.000000,0.000000,1770903934.820944,0.000000
118.000000,22703.247989,22490.839361,4896.373140,5082.697282,26018.279912,-8974.135992,10068.253883,-3325.067857,19508.714319,20441.474967,-4139.185445,9203.174317,20941.952877,24695.637786,5103.730274,19892.985510,-0.006000,-0.014000,1.006000,192.000000,0.000000,0.000000,0.000000,0.000000,0.000000,0.000000,0.000000,0.000000,0.000000,1770903934.820962,0.000000
120.000000,22704.834962,22500.540018,4887.812422,5068.816849,26029.187564,-8988.597570,10062.844761,-3335.170845,19532.451872,20437.764578,-4151.881236,9195.306503,20956.995601,24694.184922,5106.278373,19918.622961,-0.006000,-0.014000,1.006000,192.000000,0.000000,0.000000,127.500000,88.000000,15.500000,40.000000,0.000000,0.000000,0.000000,1770903934.820981,0.000000
122.000000,22701.862180,22485.497294,4899.949419,5075.500020,26031.400386,-8980.796812,10066.152819,-3327.392438,19552.367276,20440.513842,-4142.985242,9192.467832,20965.153988,24695.928359,5115.241422,19921.998074,-0.006000,-0.014000,1.006000,192.000000,0.000000,0.000000,0.000000,0.000000,0.000000,0.000000,0.000000,0.000000,0.000000,1770903934.821019,0.000000
124.000000,22700.878704,22493.633329,4892.126309,5068.347462,26027.466479,-8986.451803,10064.811714,-3332.689802,19499.304235,20423.280647,-4139.207797,9192.244314,20950.424188,24688.127600,5111.083998,19887.554036,-0.006000,-0.014000,1.006000,192.000000,0.000000,0.000000,0.000000,0.000000,0.000000,0.000000,0.000000,0.000000,0.000000,1770903934.821038,0.000000
126.000000,22700.297558,22494.840323,4895.099091,5069.196829,26038.105910,-8986.831783,10065.705784,-3333.069781,19563.587852,20438.435130,-4153.155285,9188.891553,20962.248261,24692.687356,5113.386227,19927.474252,-0.006000,-0.014000,1.006000,192.000000,0.000000,0.000000,0.000000,0.000000,0.000000,0.000000,0.000000,0.000000,0.000000,1770903934.821057,0.000000
128.000000,22693.256759,22483.396230,4899.725902,5073.398956,26027.846459,-8985.557733,10066.890427,-3331.929842,19513.564648,20428.980342,-4139.654832,9194.501840,20944.500976,24693.067335,5110.458149,19883.865998,-0.006000,-0.014000,1.006000,192.000000,0.000000,0.000000,0.000000,0.000000,0.000000,0.000000,0.000000,0.000000,0.000000,1770903934.821075,0.000000
130.000000,22700.699890,22498.573065,4885.465489,5067.341634,26034.060244,-8982.987283,10062.688299,-3339.954119,19526.819232,20429.181508,-4153.691727,9189.137422,20948.680752,24695.101344,5109.228803,19904.161382,-0.002000,-0.010000,1.002000,192.000000,127.500000,120.000000,127.500000,88.000000,15.500000,40.000000,0.000000,0.000000,0.000000,1770903934.821094,0.000000
132.000000,22697.078907,22489.341794,4896.127271,5081.244419,26038.932924,-8968.749221,10067.046889,-3326.587776,19550.892061,20445.006543,-4152.149457,9194.099509,20963.946994,24708.668853,5107.217146,19911.872734,-0.002000,-0.010000,1.002000,192.000000,0.000000,0.000000,0.000000,0.000000,0.000000,0.000000,0.000000,0.000000,0.000000,1770903934.821112,0.000000
134.000000,22703.985596,22505.256236,4890.137004,5079.590390,26027.891162,-8971.163210,10069.393822,-3322.899738,19497.963130,20440.178566,-4139.632480,9205.878878,20955.699200,24701.918626,5103.730274,19887.129353,-0.002000,-0.010000,1.002000,192.000000,0.000000,0.000000,0.000000,0.000000,0.000000,0.000000,0.000000,0.000000,0.000000,1770903934.821131,0.000000
136.000000,22713.395681,22510.419489,4892.685103,5082.943151,26018.883409,-8968.928035,10070.801982,-3317.244746,19574.003765,20459.579880,-4143.767553,9204.649532,20955.878014,24716.290798,5100.869250,19934.269182,-0.002000,-0.010000,1.002000,192.000000,0.000000,0.000000,0.000000,0.000000,0.000000,0.000000,0.000000,0.000000,0.000000,1770903934.821202,0.000000
138.000000,22705.706681,22500.875294,4898.250687,5090.006303,26003.304243,-8964.323576,10072.321900,-3313.824929,19525.053445,20451.309735,-4129.529492,9212.673809,20929.726473,24714.055623,5101.405692,19900.115716,-0.002000,-0.010000,1.002000,192.000000,0.000000,0.000000,0.000000,0.000000,0.000000,0.000000,0.000000,0.000000,0.000000,1770903934.821222,0.000000
140.000000,22709.350015,22514.152231,4886.136041,5079.568038,26005.494714,-8971.364376,10067.493924,-3325.872520,19535.558764,20448.158139,-4143.655794,9206.616486,20943.137520,24716.290798,5103.417349,19924.121490,-0.002000,-0.010000,1.002000,192.000000,0.000000,0.000000,127.500000,80.000000,15.500000,48.000000,0.000000,0.000000,0.000000,1770903934.821241,0.000000
142.000000,22705.639625,22502.439916,4899.144757,5088.754605,26008.065165,-8962.066050,10071.293720,-3317.445912,19557.508177,20454.684848,-4143.052297,9208.248163,20935.426168,24714.145030,5107.284201,19929.620019,-0.002000,-0.010000,1.002000,192.000000,0.000000,0.000000,0.000000,0.000000,0.000000,0.000000,0.000000,0.000000,0.000000,1770903934.821260,0.000000
144.000000,22709.238256,22508.340777,4894.383835,5077.623436,26009.495677,-8979.612169,10069.080897,-3322.273889,19503.104031,20437.071674,-4134.245710,9209.522213,20945.395046,24703.460896,5107.865346,19891.197370,-0.002000,-0.010000,1.002000,192.000000,0.000000,0.000000,0.000000,0.000000,0.000000,0.000000,0.000000,0.000000,0.000000,1770903934.821279,0.000000
146.000000,22711.540486,22504.697443,4896.842527,5075.432965,26012.088479,-8990.162193,10070.064374,-3319.189348,19567.946442,20441.989057,-4142.202931,9199.530983,20953.128750,24708.601798,5106.881870,19927.541307,-0.002000,-0.010000,1.002000,192.000000,0.000000,0.000000,0.000000,0.000000,0.000000,0.000000,0.000000,0.000000,0.000000,1770903934.821298,0.000000
148.000000,22701.638663,22491.621672,4898.340094,5080.372701,26003.371299,-8982.450841,10071.852514,-3319.412866,19512.983503,20433.517746,-4135.519759,9203.330779,20956.883843,24698.409402,5105.384303,19883.217798,-0.002000,-0.010000,1.002000,192.000000,0.000000,0.000000,0.000000,0.000000,0.000000,0.000000,0.000000,0.000000,0.000000,1770903934.821317,0.000000
150.000000,22700.252855,22499.668300,4888.058291,5069.062718,26013.250770,-8993.514954,10066.644557,-3331.549863,19521.611276,20430.969647,-4143.387573,9197.295808,20937.147252,24693.179094,5103.551460,19905.949522,-0.002000,-0.013000,1.000000,192.000000,127.500000,120.000000,127.500000,64.000000,15.500000,24.000000,0.000000,0.000000,0.000000,1770903934.821336,0.000000
152.000000,22700.923407,22488.961815,4900.642324,5083.345483,26019.464555,-8976.080594,10070.287892,-3323.458531,19547.181672,20438.971572,-4145.823913,9196.066463,20956.794436,24703.147972,5108.535899,19913.996150,-0.002000,-0.013000,1.000000,192.000000,0.000000,0.000000,0.000000,0.000000,0.000000,0.000000,0.000000,0.000000,0.000000,1770903934.821355,0.000000
154.000000,22706.533695,22498.282492,4898.474204,5077.578733,26033.948485,-8974.158344,10069.907912,-3325.984278,19497.225523,20435.484700,-4136.838512,9204.202498,20966.226872,24703.684414,5113.140358,19883.709536,-0.002000,-0.013000,1.000000,192.000000,0.000000,0.000000,0.000000,0.000000,0.000000,0.000000,0.000000,0.000000,0.000000,1770903934.821373,0.000000
156.000000,22713.015701,22505.904437,4900.910545,5080.372701,26041.726892,-8967.698689,10070.444354,-3320.865729,19574.808428,20450.303906,-4140.794771,9203.800166,20966.606851,24710.456992,5119.197681,19930.424682,-0.002000,-0.013000,1.000000,192.000000,0.000000,0.000000,0.000000,0.000000,0.000000,0.000000,0.000000,0.000000,0.000000,1770903934.821392,0.000000
158.000000,22713.865067,22497.366070,4907.012571,5084.664236,26030.618075,-8965.754088,10073.663005,-3312.640287,19524.092319,20441.564374,-4126.579061,9211.444463,20960.683639,24706.746603,5114.839091,19896.293568,-0.002000,-0.013000,1.000000,192.000000,0.000000,0.000000,0.000000,0.000000,0.000000,0.000000,0.000000,0.000000,0.000000,1770903934.821411,0.000000
160.000000,22720.637646,22511.246504,4896.797824,5075.678834,26031.668607,-8976.885256,10070.600816,-3318.630555,19541.012590,20437.272839,-4132.345811,9206.750596,20947.227889,24698.610568,5113.430931,19918.287685,0.000000,-0.014500,0.999000,192.000000,0.000000,8.000000,127.500000,64.000000,15.500000,24.000000,0.000000,0.000000,0.000000,1770903934.821430,0.000000
162.000000,22714.915599,22498.304844,4904.598582,5084.373663,26016.223552,-8973.040756,10071.830162,-3312.237956,19563.185521,20444.872432,-4132.770495,9207.689370,20959.320183,24704.511428,5112.067474,19926.177851,0.000000,-0.014500,0.999000,192.000000,0.000000,0.000000,0.000000,0.000000,0.000000,0.000000,0.000000,0.000000,0.000000,1770903934.821449,0.000000
164.000000,22716.793146,22505.233884,4897.803652,5076.461145,26015.061261,-8986.809431,10069.907912,-3318.675258,19499.818325,20434.568278,-4128.523663,9210.416282,20956.325049,24695.436620,5110.704018,19889.565693,0.000000,-0.014500,0.999000,192.000000,0.000000,0.000000,0.000000,0.000000,0.000000,0.000000,0.000000,0.000000,0.000000,1770903934.821467,0.000000
166.000000,22714.066233,22505.926789,4897.088396,5076.662311,26016.827049,-8990.184544,10068.477400,-3321.670392,19561.822064,20445.967668,-4144.348698,9202.123785,20955.475683,24699.147010,5113.118006,19927.653066,0.000000,-0.014500,0.999000,192.000000,0.000000,0.000000,0.000000,0.000000,0.000000,0.000000,0.000000,0.000000,0.000000,1770903934.821486,0.000000
168.000000,22707.427765,22498.684823,4902.832795,5083.792518,26008.065165,-8986.608265,10072.433659,-3315.143682,19508.937837,20442.614906,-4133.843378,9209.522213,20948.367828,24697.716498,5108.602954,19883.910702,0.000000,-0.014500,0.999000,192.000000,0.000000,0.000000,0.000000,0.000000,0.000000,0.000000,0.000000,0.000000,0.000000,1770903934.821505,0.000000
170.000000,22716.212000,22512.721719,4891.321646,5073.376605,26015.038909,-8996.510088,10068.298586,-3321.156302,19525.299314,20433.808319,-4140.347736,9205.498899,20978.296814,24695.906007,5107.619477,19901.255655,0.004000,-0.011250,1.000500,192.000000,0.000000,32.000000,127.500000,96.000000,15.500000,40.000000,0.000000,0.000000,0.000000,1770903934.821524,0.000000
172.000000,22715.116765,22500.718832,4901.849318,5085.424195,26008.266331,-8983.255504,10072.970101,-3313.042618,19550.512081,20442.145520,-4142.694669,9206.728245,20941.349380,24703.483248,5110.256983,19907.312978,0.004000,-0.011250,1.000500,192.000000,0.000000,0.000000,0.000000,0.000000,0.000000,0.000000,0.000000,0.000000,0.000000,1770903934.821543,0.000000
174.000000,22716.547277,22508.564294,4896.261382,5078.562209,26006.388784,-8985.468326,10072.411307,-3315.925993,19500.667691,20431.371979,-4128.657774,9210.684503,20925.099662,24694.967234,5111.016942,19880.379126,0.004000,-0.011250,1.000500,192.000000,0.000000,0.000000,0.000000,0.000000,0.000000,0.000000,0.000000,0.000000,0.000000,1770903934.821561,0.000000
176.000000,22718.961265,22506.977321,4899.971771,5080.327997,26022.079709,-8975.655910,10071.763107,-3320.753970,19567.231186,20442.190223,-4143.320518,9201.699102,20949.865395,24706.992472,5118.527129,19927.541307,0.004000,-0.011250,1.000500,192.000000,0.000000,0.000000,0.000000,0.000000,0.000000,0.000000,0.000000,0.000000,0.000000,1770903934.821581,0.000000
178.000000,22712.345149,22495.555579,4905.850280,5086.452375,26026.460651,-8956.008727,10072.768935,-3319.658735,19520.471337,20430.030874,-4133.172826,9206.348265,20967.992660,24711.239303,5122.751608,19896.472382,0.004000,-0.011250,1.000500,192.000000,0.000000,0.000000,0.000000,0.000000,0.000000,0.000000,0.000000,0.000000,0.000000,1770903935.302070,0.000000
180.000000,22717.240181,22510.508896,4898.228335,5078.182230,26029.701654,-8964.837666,10071.204313,-3326.431313,19538.576250,20432.444862,-4139.431314,9201.229715,20956.794436,24706.321920,5120.404675,19923.048606,0.004000,-0.008625,1.001250,192.000000,0.000000,16.000000,127.500000,104.000000,15.500000,40.000000,0.000000,0.000000,0.000000,1770903935.302146,0.000000
182.000000,22713.552143,22495.175599,4903.860975,5088.665198,26019.889238,-8958.176846,10073.126563,-3317.736485,19563.699611,20440.513842,-4138.447838,9202.682579,20988.243340,24712.066318,5115.844919,19932.995133,0.004000,-0.008625,1.001250,192.000000,0.000000,0.000000,0.000000,0.000000,0.000000,0.000000,0.000000,0.000000,0.000000,1770903935.302201,0.000000
184.000000,22712.099279,22500.875294,4895.724940,5079.836259,26006.075860,-8981.243847,10069.863209,-3322.989145,19505.249799,20425.024083,-4132.591681,9207.376445,20977.738020,24702.097440,5111.463977,19901.121545,0.004000,-0.008625,1.001250,192.000000,0.000000,0.000000,0.000000,0.000000,0.000000,0.000000,0.000000,0.000000,0.000000,1770903935.302255,0.000000
186.000000,22712.568666,22500.942350,4894.137966,5079.188058,26003.304243,-8985.088347,10069.662043,-3325.581947,19568.259367,20434.344761,-4146.025079,9197.564029,20960.415418,24702.142144,5110.815777,19938.180737,0.004000,-0.008625,1.001250,192.000000,0.000000,0.000000,0.000000,0.000000,0.000000,0.000000,0.000000,0.000000,0.000000,1770903935.302309,0.000000
188.000000,22705.617274,22490.906416,4901.826966,5082.853744,25998.431563,-8988.217591,10073.394784,-3318.339982,19512.380005,20425.068787,-4135.676221,9202.213192,20953.374619,24698.141181,5107.172442,19894.796001,0.004000,-0.008625,1.001250,192.000000,0.000000,0.000000,0.000000,0.000000,0.000000,0.000000,0.000000,0.000000,0.000000,1770903935.302363,0.000000
190.000000,22713.395681,22507.960797,4892.662751,5076.349387,26009.853305,-9002.388597,10071.137258,-3323.436180,19529.099110,20426.208726,-4143.275814,9201.743806,20939.337723,24697.291815,5110.011114,19908.095289,0.004000,-0.008625,1.001250,192.000000,0.000000,0.000000,127.500000,104.000000,15.500000,32.000000,0.000000,0.000000,0.000000,1770903935.302399,0.000000
192.000000,22713.306274,22493.588626,4903.168071,5085.312436,26001.359642,-8989.446937,10072.098383,-3317.714133,19556.792922,20437.205784,-4141.331213,9204.783643,20956.570918,24710.009958,5111.173405,19912.185658,0.004000,-0.008625,1.001250,192.000000,0.000000,0.000000,0.000000,0.000000,0.000000,0.000000,0.000000,0.000000,0.000000,1770903935.302417,0.000000
194.000000,22710.467602,22501.568198,4895.613181,5075.544724,26006.500543,-8998.164117,10069.147953,-3325.067857,19494.610369,20423.414758,-4135.698573,9205.498899,20951.564127,24700.845742,5111.173405,19877.875731,0.004000,-0.008625,1.001250,192.000000,0.000000,0.000000,0.000000,0.000000,0.000000,0.000000,0.000000,0.000000,0.000000,1770903935.302434,0.000000
196.000000,22709.081794,22500.361204,4894.272076,5079.433927,26013.518991,-8990.475117,10069.460877,-3326.520720,19556.904680,20434.635333,-4150.271910,9197.116995,20962.449427,24705.181981,5113.632096,19924.792042,0.004000,-0.008625,1.001250,192.000000,0.000000,0.000000,0.000000,0.000000,0.000000,0.000000,0.000000,0.000000,0.000000,1770903935.302452,0.000000
198.000000,22705.214942,22494.348585,4897.960114,5086.631189,26012.110831,-8969.889160,10070.913741,-3320.843377,19502.858162,20427.661589,-4140.280681,9203.777814,20978.430924,24706.858362,5111.508681,19892.583179,0.004000,-0.008625,1.001250,192.000000,0.000000,0.000000,0.000000,0.000000,0.000000,0.000000,0.000000,0.000000,0.000000,1770903935.302470,0.000000
200.000000,22713.842715,22511.380614,4888.482975,5077.869305,26023.711386,-8970.626768,10068.030365,-3326.252499,19524.472299,20431.908421,-4147.321480,9201.788509,20949.664229,24706.925417,5114.302649,19916.745414,0.004000,-0.008625,1.001250,192.000000,0.000000,0.000000,127.500000,104.000000,15.500000,56.000000,0.000000,0.000000,0.000000,1770903935.302487,0.000000
202.000000,22717.307236,22499.645948,4902.899850,5087.972294,26023.599627,-8957.841570,10071.628996,-3316.194214,19556.055314,20437.228136,-4143.968719,9203.174317,20963.812883,24717.318978,5116.426065,19930.357627,0.004000,-0.008625,1.001250,192.000000,0.000000,0.000000,0.000000,0.000000,0.000000,0.000000,0.000000,0.000000,0.000000,1770903935.302504,0.000000
204.000000,22720.883515,22511.782946,4896.462547,5082.093785,26020.470383,-8963.273044,10069.773802,-3320.731618,19497.829020,20426.454595,-4131.742314,9206.974114,20949.239546,24713.653292,5115.174367,19901.926208,0.004000,-0.008625,1.001250,192.000000,0.000000,0.000000,0.000000,0.000000,0.000000,0.000000,0.000000,0.000000,0.000000,1770903935.302522,0.000000
206.000000,22722.805765,22513.191106,4898.742425,5079.411576,26026.013616,-8977.354643,10068.745621,-3323.883214,19570.203968,20437.921040,-4143.856960,9201.207364,20965.869244,24715.016748,5115.554347,19943.366342,0.004000,-0.008625,1.001250,192.000000,0.000000,0.000000,0.000000,0.000000,0.000000,0.000000,0.000000,0.000000,0.000000,1770903935.302541,0.000000
208.000000,22716.591980,22502.708137,4903.503347,5083.233724,26016.223552,-8986.563562,10071.494886,-3317.468264,19526.372197,20427.929810,-4132.971660,9204.694236,21002.436698,24704.489077,5113.162710,19894.371318,0.004000,-0.008625,1.001250,192.000000,0.000000,0.000000,0.000000,0.000000,0.000000,0.000000,0.000000,0.000000,0.000000,1770903935.302558,0.000000
210.000000,22725.063291,22517.057957,4895.859050,5073.913047,26016.603531,-9005.964876,10069.416174,-3320.731618,19546.198195,20425.337008,-4137.486713,9200.402701,20943.226927,24695.660138,5109.698189,19904.228437,0.004000,-0.008625,1.001250,192.000000,0.000000,0.000000,0.000000,0.000000,0.000000,0.000000,0.000000,0.000000,0.000000,1770903935.302577,0.000000
212.000000,22719.654169,22502.506972,4904.084492,5084.261904,26022.526744,-8993.872582,10071.606645,-3315.031924,19574.830779,20434.680037,-4136.033849,9200.425053,20962.829407,24701.337481,5110.368742,19911.135126,0.002000,-0.002000,0.994000,192.000000,0.000000,8.000000,127.500000,120.000000,15.500000,8.000000,0.000000,0.000000,0.000000,1770903935.302596,0.000000
214.000000,22721.755233,22512.118222,4896.417844,5078.830430,26023.197296,-9003.573239,10070.086726,-3319.256403,19506.926180,20417.871525,-4135.028021,9202.973152,20987.371622,24691.770934,5113.654448,19879.552112,0.002000,-0.002000,0.994000,192.000000,0.000000,0.000000,0.000000,0.000000,0.000000,0.000000,0.000000,0.000000,0.000000,1770903935.302613,0.000000
216.000000,22729.421881,22515.247466,4900.530565,5079.858611,26034.283761,-8998.812318,10070.265540,-3317.937650,19581.849227,20435.015313,-4141.666489,9199.195707,20977.536854,24697.314167,5116.515472,19923.093310,0.002000,-0.002000,0.994000,192.000000,0.000000,0.000000,0.000000,0.000000,0.000000,0.000000,0.000000,0.000000,0.000000,1770903935.302629,0.000000
218.000000,22721.129384,22500.718832,4907.549013,5084.172497,26028.472308,-8990.072786,10070.869037,-3316.440084,19533.636514,20430.321447,-4128.054276,9205.007160,20969.266709,24693.290853,5120.538786,19886.861132,0.002000,-0.002000,0.994000,192.000000,0.000000,0.000000,0.000000,0.000000,0.000000,0.000000,0.000000,0.000000,0.000000,1770903935.302643,0.000000
220.000000,22724.951532,22514.979245,4895.702588,5074.360081,26032.316808,-8993.470251,10067.628034,-3324.553767,19545.773512,20425.605229,-4138.514893,9199.776852,20983.303605,24688.731097,5121.388152,19908.743490,0.002000,-0.002000,0.994000,192.000000,0.000000,0.000000,0.000000,0.000000,0.000000,0.000000,0.000000,0.000000,0.000000,1770903935.302660,0.000000
222.000000,22722.112861,22502.909303,4905.067969,5088.955771,26029.209915,-8967.184599,10071.338424,-3316.283621,19569.265195,20434.344761,-4138.157265,9201.587343,20978.319166,24697.783553,5122.103408,19925.820223,0.002000,-0.010000,1.000000,192.000000,0.000000,8.000000,127.500000,88.000000,15.500000,32.000000,0.000000,0.000000,0.000000,1770903935.302674,0.000000
224.000000,22718.447175,22511.805297,4897.401321,5082.250247,26030.126337,-8958.892102,10068.320938,-3322.385648,19512.916447,20421.604266,-4137.240843,9205.029512,20963.365848,24706.657196,5122.662201,19903.714347,0.002000,-0.010000,1.000000,192.000000,0.000000,0.000000,0.000000,0.000000,0.000000,0.000000,0.000000,0.000000,0.000000,1770903935.302691,0.000000
226.000000,22720.145907,22511.827649,4895.367312,5083.390186,26031.601552,-8957.685108,10066.018708,-3325.090209,19574.048468,20436.624639,-4143.633442,9198.033416,20973.021802,24706.456030,5125.411466,19949.066037,0.002000,-0.010000,1.000000,192.000000,0.000000,0.000000,0.000000,0.000000,0.000000,0.000000,0.000000,0.000000,0.000000,1770903935.302703,0.000000
228.000000,22711.987521,22500.294149,4902.274001,5086.675893,26024.337235,-8962.803657,10068.477400,-3322.698572,19520.538392,20428.913287,-4136.413829,9201.252067,20972.373601,24701.695109,5124.964431,19910.688092,0.002000,-0.010000,1.000000,192.000000,0.000000,0.000000,0.000000,0.000000,0.000000,0.000000,0.000000,0.000000,0.000000,1770903935.302717,0.000000
230.000000,22722.403434,22520.298960,4894.115614,5078.428099,26021.230343,-8976.617035,10066.801020,-3324.754932,19533.524756,20431.126109,-4144.952195,9199.888611,20983.840046,24697.761202,5122.438684,19918.980589,0.002000,-0.010000,1.000000,192.000000,0.000000,0.000000,0.000000,0.000000,0.000000,0.000000,0.000000,0.000000,0.000000,1770903935.302733,0.000000
232.000000,22718.983617,22509.145440,4904.531527,5089.916896,26015.441241,-8971.140858,10071.852514,-3314.853110,19567.097076,20441.050284,-4140.034812,9201.117957,20985.896407,24705.271388,5117.029562,19922.065130,0.008000,-0.012000,1.002000,192.000000,0.000000,32.000000,127.500000,80.000000,15.500000,40.000000,0.000000,0.000000,0.000000,1770903935.302751,0.000000
234.000000,22722.761062,22519.047263,4898.518908,5082.965503,26015.463592,-8984.730719,10070.600816,-3319.368162,19508.043767,20433.964781,-4132.122294,9206.996466,20966.226872,24704.287911,5110.458149,19883.083687,0.008000,-0.012000,1.002000,192.000000,0.000000,0.000000,0.000000,0.000000,0.000000,0.000000,0.000000,0.000000,0.000000,1770903935.302764,0.000000
