Sample_index,EXG Channel 0,EXG Channel 1,EXG Channel 2,EXG Channel 3,EXG Channel 4,EXG Channel 5,EXG Channel 6,EXG Channel 7,EXG Channel 8,EXG Channel 9,EXG Channel 10,EXG Channel 11,EXG Channel 12,EXG Channel 13,EXG Channel 14,EXG Channel 15,Accel Channel 0,Accel Channel 1,Accel Channel 2,Not Used,Digital Channel 0 (D11),Digital Channel 1 (D12),Digital Channel 2 (D13),Digital Channel 3 (D17),Not Used,Digital Channel 4 (D18),Analog Channel 0,Analog Channel 1,Analog Channel 2,Timestamp,Marker Channel
90.000000,22449.578041,22494.259178,4167.996844,2779.975865,25991.636633,-9356.104953,9825.111607,-3739.916234,18077.576825,17970.579025,-4508.391560,8985.803602,17664.963623,23957.046742,-2205.379570,18273.623976,0.002000,-0.012000,1.004000,192.000000,0.000000,0.000000,0.000000,0.000000,0.000000,0.000000,0.000000,0.000000,0.000000,1770903462.222678,101.000000
92.000000,22447.141701,22498.908341,4162.163039,2772.130403,25978.717325,-9373.829886,9825.312772,-3740.564435,17998.406946,17956.899757,-4495.963990,8996.174812,17656.045277,23949.849480,-2210.498120,18228.361693,0.002000,-0.012000,1.004000,192.000000,0.000000,0.000000,0.000000,0.000000,0.000000,0.000000,0.000000,0.000000,0.000000,1770903462.222744,0.000000
94.000000,22455.948288,22505.747975,4156.038661,2770.834001,25977.242109,-9386.615084,9821.937659,-3745.191246,18070.513674,17967.762705,-4509.151519,8988.306998,17657.565195,23952.241117,-2219.841149,18266.426714,0.003000,-0.013000,1.002000,192.000000,0.000000,16.000000,127.500000,72.000000,15.500000,32.000000,0.000000,0.000000,0.000000,1770903462.222788,0.000000
96.000000,22455.009515,22486.346660,4161.246617,2782.747481,25963.272269,-9385.162221,9825.469235,-3738.664536,18036.203746,17959.783132,-4500.635505,8992.643236,17650.278527,23942.518108,-2219.125893,18238.956420,0.003000,-0.013000,1.002000,192.000000,0.000000,0.000000,0.000000,0.000000,0.000000,0.000000,0.000000,0.000000,0.000000,1770903462.222836,0.000000
98.000000,22453.802520,22501.277626,4147.522646,2767.347129,25964.658077,-9405.748177,9821.110644,-3748.096972,18017.696502,17956.385667,-4508.078636,8992.464422,17637.359218,23934.292666,-2224.467960,18243.270307,0.003000,-0.013000,1.002000,192.000000,0.000000,0.000000,0.000000,0.000000,0.000000,0.000000,0.000000,0.000000,0.000000,1770903462.222890,0.000000
100.000000,22444.683009,22485.184370,4154.339928,2772.935065,25957.863147,-9399.288523,9821.647086,-3745.079487,18068.591424,17964.454647,-4515.253546,8983.546076,17648.088056,23937.936001,-2226.412562,18263.543339,0.003000,-0.013000,1.002000,192.000000,0.000000,0.000000,0.000000,0.000000,0.000000,0.000000,0.000000,0.000000,0.000000,1770903462.222952,0.000000
102.000000,22437.061064,22484.424410,4146.203893,2761.379213,25956.544394,-9403.647113,9816.953220,-3755.607159,17983.498333,17943.801635,-4511.096121,8982.964931,17659.643908,23930.537573,-2224.087980,18218.549278,0.003000,-0.013000,1.002000,192.000000,0.000000,0.000000,0.000000,0.000000,0.000000,0.000000,0.000000,0.000000,0.000000,1770903462.222972,0.000000
104.000000,22435.898773,22486.614881,4148.237902,2756.439478,25967.317935,-9404.697645,9813.600458,-3763.631435,18052.274651,17954.351658,-4526.541177,8970.894989,17630.720750,23930.671684,-2221.696344,18258.469493,0.004500,-0.012500,1.002000,192.000000,0.000000,24.000000,127.500000,80.000000,15.500000,40.000000,0.000000,0.000000,0.000000,1770903462.223004,0.000000
106.000000,22427.494517,22469.918128,4160.039623,2769.425842,25968.144949,-9388.224410,9818.115511,-3752.813191,18011.370958,17945.209795,-4517.645182,8975.968835,17646.545785,23930.492870,-2210.498120,18234.776644,0.004500,-0.012500,1.002000,192.000000,0.000000,0.000000,0.000000,0.000000,0.000000,0.000000,0.000000,0.000000,0.000000,1770903462.223019,0.000000
108.000000,22439.631515,22496.606111,4155.390460,2762.005062,25987.255691,-9393.655884,9818.473139,-3752.030880,18007.191182,17948.339039,-4514.672400,8982.763765,17647.015172,23933.063320,-2207.212413,18239.626973,0.004500,-0.012500,1.002000,192.000000,0.000000,0.000000,0.000000,0.000000,0.000000,0.000000,0.000000,0.000000,0.000000,1770903462.223032,0.000000
110.000000,22448.393398,22493.208646,4167.549809,2777.316007,25990.072011,-9381.340072,9823.189357,-3738.441019,18071.944186,17974.736449,-4509.777368,8986.272989,17670.171579,23951.905841,-2207.033599,18259.855301,0.004500,-0.012500,1.002000,192.000000,0.000000,0.000000,0.000000,0.000000,0.000000,0.000000,0.000000,0.000000,0.000000,1770903462.223046,0.000000
112.000000,22456.238861,22497.768402,4162.006576,2774.410281,25992.128371,-9378.568456,9822.429397,-3740.832656,18001.200915,17965.192254,-4495.315790,8996.241867,17664.002498,23948.173100,-2210.587527,18219.309237,0.004500,-0.012500,1.002000,192.000000,0.000000,0.000000,0.000000,0.000000,0.000000,0.000000,0.000000,0.000000,0.000000,1770903462.223060,0.000000
114.000000,22461.916204,22508.072556,4158.027966,2769.582304,26002.678395,-9385.296331,9818.853118,-3745.906502,18073.866436,17977.798638,-4509.755017,8983.769594,17674.820742,23954.699809,-2215.169634,18261.598737,0.006250,-0.012250,1.004000,192.000000,0.000000,32.000000,127.500000,80.000000,15.500000,56.000000,0.000000,0.000000,0.000000,1770903462.223073,0.000000
116.000000,22447.275811,22487.866579,4163.459440,2778.210077,25984.171150,-9378.657863,9820.104816,-3741.592615,18036.986057,17974.423525,-4501.574278,8989.290475,17675.625405,23951.034123,-2212.487425,18234.933106,0.006250,-0.012250,1.004000,192.000000,0.000000,0.000000,0.000000,0.000000,0.000000,0.000000,0.000000,0.000000,0.000000,1770903462.223087,0.000000
118.000000,22452.819044,22498.975396,4152.864713,2763.614388,25986.205159,-9399.266171,9815.098025,-3751.002699,18016.891839,17962.152417,-4507.184566,8984.797774,17654.480655,23939.545326,-2218.410637,18235.335438,0.006250,-0.012250,1.004000,192.000000,0.000000,0.000000,0.000000,0.000000,0.000000,0.000000,0.000000,0.000000,0.000000,1770903462.223100,0.000000
120.000000,22443.364256,22485.989033,4162.297149,2765.268417,25985.355793,-9392.135965,9818.294325,-3746.197074,18068.904348,17970.064934,-4514.985325,8978.226361,17662.013192,23946.161443,-2214.163806,18257.195444,0.006250,-0.012250,1.004000,192.000000,0.000000,0.000000,0.000000,0.000000,0.000000,0.000000,0.000000,0.000000,0.000000,1770903462.223143,0.000000
122.000000,22439.385645,22485.899626,4155.345756,2768.867048,25968.659040,-9402.551878,9818.339028,-3749.192208,17987.342833,17950.261289,-4504.591764,8981.869695,17647.171634,23933.018617,-2214.543785,18214.905943,0.006250,-0.012250,1.004000,192.000000,0.000000,0.000000,0.000000,0.000000,0.000000,0.000000,0.000000,0.000000,0.000000,1770903462.223157,0.000000
124.000000,22438.491576,22491.711079,4146.293300,2762.474449,25975.565729,-9407.357503,9816.439130,-3755.741269,18049.972421,17957.615013,-4522.003772,8974.985358,17650.770265,23927.497736,-2221.226957,18255.228490,0.006125,-0.007125,1.006000,192.000000,0.000000,24.000000,127.500000,120.000000,15.500000,64.000000,0.000000,0.000000,0.000000,1770903462.223170,0.000000
126.000000,22434.110634,22476.556596,4163.191219,2770.766946,25965.820368,-9398.103881,9821.423569,-3747.806400,18017.472984,17952.116484,-4512.392522,8977.198181,17663.510759,23933.018617,-2216.153111,18229.121653,0.006125,-0.007125,1.006000,192.000000,0.000000,0.000000,0.000000,0.000000,0.000000,0.000000,0.000000,0.000000,0.000000,1770903462.223184,0.000000
128.000000,22447.186404,22500.405908,4155.658681,2762.586208,25972.570595,-9408.072759,9820.194223,-3751.382679,18005.648912,17954.172844,-4510.805549,8979.746280,17636.219279,23931.610457,-2213.426198,18231.870917,0.006125,-0.007125,1.006000,192.000000,0.000000,0.000000,0.000000,0.000000,0.000000,0.000000,0.000000,0.000000,0.000000,1770903462.223197,0.000000
130.000000,22450.114483,22491.420506,4165.180524,2774.924371,25973.934051,-9389.118479,9823.502281,-3742.889016,18068.390258,17968.656775,-4512.057246,8981.512067,17669.366916,23944.194489,-2214.722599,18259.140046,0.006125,-0.007125,1.006000,192.000000,0.000000,0.000000,0.000000,0.000000,0.000000,0.000000,0.000000,0.000000,0.000000,1770903462.223211,0.000000
132.000000,22457.378800,22502.350509,4161.559541,2774.723205,25968.614336,-9385.072814,9823.703447,-3740.609138,18002.117336,17956.922109,-4496.142804,8992.375015,17651.954907,23946.161443,-2213.783826,18219.041016,0.006125,-0.007125,1.006000,192.000000,0.000000,0.000000,0.000000,0.000000,0.000000,0.000000,0.000000,0.000000,0.000000,1770903462.223224,0.000000
134.000000,22461.647983,22509.838344,4155.546922,2771.437499,25973.442313,-9393.722939,9820.462444,-3744.475990,18072.882959,17975.965795,-4508.011580,8988.642274,17664.360126,23950.452977,-2227.597204,18264.571519,0.006063,-0.007562,1.006000,192.000000,0.000000,24.000000,127.500000,96.000000,15.500000,56.000000,0.000000,0.000000,0.000000,1770903462.223238,0.000000
136.000000,22447.544032,22489.878236,4166.700443,2778.746519,25969.731923,-9389.766680,9822.742322,-3738.217501,18047.960764,17967.226263,-4496.120452,8991.637408,17668.964585,23947.077864,-2225.496140,18237.995295,0.006063,-0.007562,1.006000,192.000000,0.000000,0.000000,0.000000,0.000000,0.000000,0.000000,0.000000,0.000000,0.000000,1770903462.223262,0.000000
138.000000,22451.790863,22503.915132,4154.943425,2765.290769,25985.355793,-9397.433328,9816.819110,-3749.885112,18020.378711,17957.257385,-4503.675342,8984.887181,17660.426219,23941.735797,-2224.445608,18240.543394,0.006063,-0.007562,1.006000,192.000000,0.000000,0.000000,0.000000,0.000000,0.000000,0.000000,0.000000,0.000000,0.000000,1770903462.223276,0.000000
140.000000,22456.507082,22497.142553,4172.109565,2773.382100,25995.950520,-9389.744328,9819.948354,-3741.011469,18085.198770,17980.078516,-4506.983400,8984.082518,17690.981053,23958.834882,-2216.466035,18262.090476,0.006063,-0.007562,1.006000,192.000000,0.000000,0.000000,0.000000,0.000000,0.000000,0.000000,0.000000,0.000000,0.000000,1770903462.223307,0.000000
142.000000,22451.053256,22499.645948,4167.259236,2766.162487,25989.490865,-9394.304084,9818.406083,-3743.581920,18013.203801,17964.499350,-4491.337179,8991.570353,17675.871274,23948.441320,-2209.089960,18216.269400,0.006063,-0.007562,1.006000,192.000000,0.000000,0.000000,0.000000,0.000000,0.000000,0.000000,0.000000,0.000000,0.000000,1770903462.223321,0.000000
144.000000,22452.550823,22499.042451,4159.391422,2764.933141,25994.385897,-9404.027093,9815.030970,-3751.606196,18076.123962,17971.026060,-4510.984362,8982.070861,17680.587492,23947.234326,-2209.358181,18251.875729,0.004031,-0.006781,1.002000,192.000000,0.000000,8.000000,127.500000,104.000000,15.500000,24.000000,0.000000,0.000000,0.000000,1770903462.223334,0.000000
146.000000,22442.917221,22477.607128,4164.644082,2772.890362,25976.370391,-9391.264247,9817.333200,-3748.655766,18040.450578,17964.767571,-4505.508185,8983.791945,17694.244408,23947.524899,-2205.603088,18226.975885,0.004031,-0.006781,1.002000,192.000000,0.000000,0.000000,0.000000,0.000000,0.000000,0.000000,0.000000,0.000000,0.000000,1770903462.223347,0.000000
148.000000,22446.448797,22492.001652,4152.261216,2757.914693,25980.393705,-9400.942552,9812.214650,-3759.853990,18014.477851,17950.305992,-4514.717104,8975.901780,17652.357239,23936.438434,-2204.865480,18230.239240,0.004031,-0.006781,1.002000,192.000000,0.000000,0.000000,0.000000,0.000000,0.000000,0.000000,0.000000,0.000000,0.000000,1770903462.223360,0.000000
150.000000,22440.905564,22479.059992,4159.033794,2768.777641,25970.827159,-9383.485840,9815.410950,-3753.617853,18071.608910,17962.420638,-4521.735552,8971.610245,17661.074419,23945.021504,-2206.675971,18258.916528,0.004031,-0.006781,1.002000,192.000000,0.000000,0.000000,0.000000,0.000000,0.000000,0.000000,0.000000,0.000000,0.000000,1770903462.223372,0.000000
152.000000,22447.096997,22483.329175,4156.440992,2766.609522,25959.852452,-9385.698662,9816.684999,-3751.606196,17989.220379,17947.020286,-4509.755017,8979.008672,17654.458303,23945.379131,-2208.464111,18217.632856,0.004031,-0.006781,1.002000,192.000000,0.000000,0.000000,0.000000,0.000000,0.000000,0.000000,0.000000,0.000000,0.000000,1770903462.223385,0.000000
154.000000,22455.031866,22500.450611,4154.809315,2767.302426,25964.792188,-9394.795822,9817.176737,-3750.332147,18057.236738,17964.052315,-4520.260336,8980.327425,17652.848977,23951.704675,-2214.364971,18258.983583,0.003016,-0.005391,1.000000,192.000000,0.000000,8.000000,127.500000,112.000000,15.500000,24.000000,0.000000,0.000000,0.000000,1770903462.223398,0.000000
156.000000,22453.243727,22490.638195,4165.091117,2780.288789,25946.754330,-9385.363386,9823.256412,-3737.211673,18034.773235,17966.890987,-4501.708389,8990.318655,17661.856730,23954.118664,-2217.673030,18232.385007,0.003016,-0.005391,1.000000,192.000000,0.000000,0.000000,0.000000,0.000000,0.000000,0.000000,0.000000,0.000000,0.000000,1770903462.223410,0.000000
158.000000,22468.152340,22512.028815,4156.463344,2771.549257,25948.028379,-9396.673369,9820.998886,-3743.291347,18026.681903,17969.506141,-4501.909554,8990.944504,17653.005439,23952.241117,-2224.423256,18234.888403,0.003016,-0.005391,1.000000,192.000000,0.000000,0.000000,0.000000,0.000000,0.000000,0.000000,0.000000,0.000000,0.000000,1770903462.223423,0.000000
160.000000,22468.889948,22495.734393,4166.856905,2779.953513,25946.910792,-9388.514982,9824.172833,-3738.150446,18088.082145,17983.654795,-4501.820147,8992.598533,17670.596262,23961.092408,-2228.044239,18259.676487,0.003016,-0.005391,1.000000,192.000000,0.000000,0.000000,0.000000,0.000000,0.000000,0.000000,0.000000,0.000000,0.000000,1770903462.223436,0.000000
162.000000,22458.563442,22496.047318,4163.839419,2774.700853,25947.782510,-9395.086395,9823.837557,-3740.407972,18011.236848,17967.583891,-4490.823089,8995.347797,17662.616690,23959.572489,-2223.775056,18214.503612,0.003016,-0.005391,1.000000,192.000000,0.000000,0.000000,0.000000,0.000000,0.000000,0.000000,0.000000,0.000000,0.000000,1770903462.223449,0.000000
164.000000,22458.719904,22499.623597,4155.993957,2770.141097,25954.331571,-9405.815232,9819.009580,-3748.991042,18075.743982,17970.891949,-4510.805549,8985.535382,17664.181312,23955.839748,-2225.071457,18251.071066,0.003016,-0.005391,1.000000,192.000000,0.000000,0.000000,0.000000,0.000000,0.000000,0.000000,0.000000,0.000000,0.000000,1770903462.223461,0.000000
166.000000,22447.387570,22481.317518,4165.001710,2776.734862,25942.976885,-9395.756947,9822.071769,-3743.604272,18046.373790,17970.936653,-4502.066016,8990.341007,17686.957739,23956.175024,-2221.048143,18224.137214,0.006000,-0.004000,1.004000,192.000000,0.000000,24.000000,127.500000,112.000000,15.500000,48.000000,0.000000,0.000000,0.000000,1770903462.223474,0.000000
168.000000,22447.208756,22490.548788,4153.356451,2757.691176,25953.303391,-9402.730692,9814.740397,-3758.848162,18021.339836,17955.446894,-4509.464444,8982.696710,17642.142492,23945.826166,-2217.762437,18225.835946,0.006000,-0.004000,1.004000,192.000000,0.000000,0.000000,0.000000,0.000000,0.000000,0.000000,0.000000,0.000000,0.000000,1770903462.223487,0.000000
170.000000,22432.277791,22469.135817,4159.927864,2771.035167,25956.164414,-9390.213715,9815.835633,-3759.228141,18071.787724,17965.974565,-4521.601441,8973.063108,17669.769248,23952.397579,-2212.979163,18259.900005,0.006000,-0.004000,1.004000,192.000000,0.000000,0.000000,0.000000,0.000000,0.000000,0.000000,0.000000,0.000000,0.000000,1770903462.223499,0.000000
172.000000,22432.098977,22472.555634,4158.944387,2766.900094,25958.086664,-9386.391567,9815.142729,-3760.748060,17993.914246,17945.165091,-4512.124301,8974.828896,17653.184253,23943.680399,-2200.372779,18222.818461,0.006000,-0.004000,1.004000,192.000000,0.000000,0.000000,0.000000,0.000000,0.000000,0.000000,0.000000,0.000000,0.000000,1770903462.223512,0.000000
174.000000,22439.318590,22486.413716,4159.413774,2761.826248,25977.063295,-9386.235104,9812.773444,-3764.301987,18060.254223,17961.884196,-4521.847310,8969.643291,17657.855768,23947.077864,-2195.075416,18265.577348,0.006000,-0.004000,1.004000,192.000000,0.000000,0.000000,0.000000,0.000000,0.000000,0.000000,0.000000,0.000000,0.000000,1770903462.223527,0.000000
176.000000,22437.776320,22477.830646,4167.818030,2775.326702,25976.191577,-9369.985386,9815.589764,-3753.416688,18031.129900,17969.796714,-4511.431397,8976.415870,17667.891701,23955.526823,-2184.905372,18238.867013,0.006000,-0.010000,1.004000,192.000000,0.000000,24.000000,127.500000,88.000000,15.500000,48.000000,0.000000,0.000000,0.000000,1770903462.223543,0.000000
178.000000,22453.355486,22507.111431,4154.988129,2770.454022,25975.722191,-9383.463488,9814.606287,-3754.154295,18018.210592,17972.568330,-4511.118473,8984.238980,17662.549634,23957.985515,-2194.091939,18237.950592,0.006000,-0.010000,1.004000,192.000000,0.000000,0.000000,0.000000,0.000000,0.000000,0.000000,0.000000,0.000000,0.000000,1770903462.223560,0.000000
180.000000,22449.958020,22499.847114,4164.822896,2783.418034,25959.405417,-9373.092279,9820.507147,-3743.023126,18079.879055,17997.646987,-4512.772502,8989.715158,17673.636100,23976.805684,-2205.312515,18263.163360,0.006000,-0.010000,1.004000,192.000000,0.000000,0.000000,0.000000,0.000000,0.000000,0.000000,0.000000,0.000000,0.000000,1770903462.223574,0.000000
182.000000,22447.141701,22499.377727,4159.033794,2779.662940,25936.718397,-9388.716148,9823.256412,-3741.145580,18003.190220,17983.319519,-4501.127243,8998.141765,17656.022925,23966.278013,-2215.214338,18216.649379,0.006000,-0.010000,1.004000,192.000000,0.000000,0.000000,0.000000,0.000000,0.000000,0.000000,0.000000,0.000000,0.000000,1770903462.223592,0.000000
184.000000,22453.936631,22504.719794,4154.272873,2772.219810,25934.974961,-9406.508137,9821.580031,-3744.632452,18069.932529,17990.762650,-4512.370171,8992.553829,17659.710963,23963.215824,-2226.345506,18254.781455,0.006000,-0.010000,1.004000,192.000000,0.000000,0.000000,0.000000,0.000000,0.000000,0.000000,0.000000,0.000000,0.000000,1770903462.223610,0.000000
186.000000,22450.047427,22487.754820,4160.598416,2776.913676,25926.526001,-9407.268096,9823.256412,-3739.916234,18039.265935,17982.872484,-4502.893031,8993.179678,17669.702193,23960.712428,-2225.429085,18221.298542,0.004000,-0.008000,1.000000,192.000000,0.000000,16.000000,127.500000,96.000000,15.500000,32.000000,0.000000,0.000000,0.000000,1770903462.223627,0.000000
188.000000,22450.248593,22495.890855,4152.328271,2760.663958,25924.134365,-9426.021209,9817.780235,-3753.550798,18018.322351,17968.477961,-4507.631601,8988.798736,17655.441780,23947.234326,-2228.737143,18214.972998,0.004000,-0.008000,1.000000,192.000000,0.000000,0.000000,0.000000,0.000000,0.000000,0.000000,0.000000,0.000000,0.000000,1770903462.223646,0.000000
190.000000,22437.664561,22477.741239,4158.475001,2768.397661,25921.742728,-9415.672352,9819.858947,-3751.203865,18076.660404,17978.513894,-4518.203976,8980.707405,17658.995707,23953.805739,-2229.832379,18237.883537,0.004000,-0.008000,1.000000,192.000000,0.000000,0.000000,0.000000,0.000000,0.000000,0.000000,0.000000,0.000000,0.000000,1770903462.223663,0.000000
192.000000,22436.368160,22481.585739,4156.597454,2760.373385,25926.749519,-9408.922125,9818.339028,-3754.601330,17989.622711,17957.302088,-4507.117511,8985.065995,17640.868442,23940.841727,-2226.613727,18197.672748,0.004000,-0.008000,1.000000,192.000000,0.000000,0.000000,0.000000,0.000000,0.000000,0.000000,0.000000,0.000000,0.000000,1770903462.223680,0.000000
194.000000,22440.860860,22484.983204,4151.367146,2764.217885,25947.581345,-9402.171898,9813.287534,-3763.720842,18055.783874,17969.997879,-4520.908537,8975.879428,17656.827588,23946.608477,-2223.350373,18250.646383,0.004000,-0.008000,1.000000,192.000000,0.000000,0.000000,0.000000,0.000000,0.000000,0.000000,0.000000,0.000000,0.000000,1770903462.223693,0.000000
196.000000,22429.416767,22465.514835,4163.034757,2774.432632,25954.353923,-9381.295369,9815.723874,-3756.277711,18027.173642,17959.514911,-4515.097083,8977.376995,17675.468943,23947.279030,-2211.459245,18239.001124,0.002000,-0.014000,0.996000,192.000000,0.000000,8.000000,127.500000,72.000000,15.500000,16.000000,0.000000,0.000000,0.000000,1770903462.223706,0.000000
198.000000,22442.134910,22486.883102,4157.178599,2763.323815,25974.515197,-9380.133078,9810.448862,-3762.625606,18014.120223,17956.966812,-4514.851214,8977.600512,17664.024849,23944.485062,-2202.742064,18247.673601,0.002000,-0.014000,0.996000,192.000000,0.000000,0.000000,0.000000,0.000000,0.000000,0.000000,0.000000,0.000000,0.000000,1770903462.223718,0.000000
200.000000,22446.225279,22480.043468,4170.075556,2775.863144,25988.015650,-9356.864912,9815.545060,-3751.896769,18083.120058,17977.888045,-4514.851214,8977.242884,17683.806143,23959.460730,-2194.561326,18274.629804,0.002000,-0.014000,0.996000,192.000000,0.000000,0.000000,0.000000,0.000000,0.000000,0.000000,0.000000,0.000000,0.000000,1770903462.223731,0.000000
202.000000,22448.147529,22486.570178,4169.874390,2775.393757,25995.928168,-9355.188531,9815.835633,-3748.789877,18012.510897,17970.511969,-4497.752130,8988.977550,17676.675937,23968.490835,-2186.022959,18231.222717,0.002000,-0.014000,0.996000,192.000000,0.000000,0.000000,0.000000,0.000000,0.000000,0.000000,0.000000,0.000000,0.000000,1770903462.223744,0.000000
204.000000,22458.138759,22499.489486,4165.784021,2774.007949,26005.494714,-9366.409107,9815.142729,-3749.751002,18086.651634,17986.091135,-4508.548022,8986.228286,17687.874161,23975.844559,-2185.330055,18267.879578,0.002000,-0.014000,0.996000,192.000000,0.000000,0.000000,0.000000,0.000000,0.000000,0.000000,0.000000,0.000000,0.000000,1770903462.223756,0.000000
206.000000,22450.002724,22483.910320,4171.953103,2782.613371,25985.154627,-9360.821171,9818.607249,-3741.302042,18053.816921,17989.108621,-4498.869717,8992.956161,17689.461135,23976.783332,-2186.358236,18233.167318,0.004000,-0.012000,1.004000,192.000000,0.000000,16.000000,127.500000,80.000000,15.500000,48.000000,0.000000,0.000000,0.000000,1770903462.223769,0.000000
208.000000,22453.087265,22500.025928,4153.244692,2769.045862,25982.695935,-9386.771546,9813.868679,-3750.957996,18035.130863,17975.474057,-4503.876508,8990.564524,17685.169600,23966.009792,-2196.014189,18232.116786,0.004000,-0.012000,1.004000,192.000000,0.000000,0.000000,0.000000,0.000000,0.000000,0.000000,0.000000,0.000000,0.000000,1770903462.223782,0.000000
210.000000,22446.202927,22483.105657,4167.348643,2772.868010,25967.832025,-9394.214677,9816.416778,-3746.197074,18091.010224,17986.806391,-4512.437226,8984.909533,17685.527228,23962.947603,-2202.406788,18251.741618,0.004000,-0.012000,1.004000,192.000000,0.000000,0.000000,0.000000,0.000000,0.000000,0.000000,0.000000,0.000000,0.000000,1770903462.703472,0.000000
212.000000,22437.195174,22478.545902,4161.559541,2767.101260,25949.883574,-9401.546049,9815.902688,-3750.533313,18010.700406,17964.119370,-4498.668551,8988.284646,17658.034582,23951.749379,-2206.564213,18203.953588,0.004000,-0.012000,1.004000,192.000000,0.000000,0.000000,0.000000,0.000000,0.000000,0.000000,0.000000,0.000000,0.000000,1770903462.703532,0.000000
214.000000,22439.452701,22484.782038,4155.904550,2761.245103,25955.158586,-9408.944477,9813.846328,-3755.942435,18067.898520,17966.958042,-4517.086389,8975.320634,17664.829512,23946.630829,-2214.364971,18241.839795,0.004000,-0.012000,1.004000,192.000000,0.000000,0.000000,0.000000,0.000000,0.000000,0.000000,0.000000,0.000000,0.000000,1770903462.703580,0.000000
216.000000,22432.501308,22468.800541,4167.862733,2771.325740,25946.083778,-9400.719035,9819.948354,-3745.928853,18042.573994,17967.896815,-4506.581069,8979.500410,17672.250291,23951.302344,-2214.186157,18218.370464,0.002000,-0.010000,1.004000,192.000000,0.000000,8.000000,127.500000,88.000000,15.500000,48.000000,0.000000,0.000000,0.000000,1770903462.703623,0.000000
218.000000,22445.487672,22492.225169,4159.704347,2765.536638,25959.047789,-9409.749140,9818.204918,-3750.242740,18021.786871,17961.347754,-4506.245793,8980.774460,17663.533111,23939.478271,-2213.962640,18220.806804,0.002000,-0.010000,1.004000,192.000000,0.000000,0.000000,0.000000,0.000000,0.000000,0.000000,0.000000,0.000000,0.000000,1770903462.703676,0.000000
220.000000,22447.834605,22485.407887,4170.008501,2777.360711,25962.936993,-9386.480974,9821.200051,-3741.324394,18087.366889,17986.269949,-4507.229269,8985.982416,17686.398946,23958.231385,-2209.693457,18254.289717,0.002000,-0.010000,1.004000,192.000000,0.000000,0.000000,0.000000,0.000000,0.000000,0.000000,0.000000,0.000000,0.000000,1770903462.703720,0.000000
222.000000,22442.112558,22487.039564,4167.125126,2774.723205,25961.595888,-9385.363386,9819.233098,-3744.610100,18010.074557,17969.327327,-4494.265258,8992.933809,17675.647757,23959.684248,-2201.445663,18220.069196,0.002000,-0.010000,1.004000,192.000000,0.000000,0.000000,0.000000,0.000000,0.000000,0.000000,0.000000,0.000000,0.000000,1770903462.703740,0.000000
224.000000,22447.901660,22493.141591,4162.721832,2769.336435,25974.492845,-9383.329378,9815.567412,-3750.823885,18077.353308,17980.883179,-4509.531499,8985.848306,17693.149172,23960.354800,-2198.651695,18265.532644,0.002000,-0.010000,1.004000,192.000000,0.000000,0.000000,0.000000,0.000000,0.000000,0.000000,0.000000,0.000000,0.000000,1770903462.703757,0.000000
226.000000,22438.804500,22473.293242,4172.333082,2775.505516,25962.735827,-9372.645244,9816.305019,-3747.381717,18042.953973,17974.177655,-4499.495566,8984.842477,17685.996614,23959.103103,-2194.360160,18244.253784,0.004000,-0.010000,0.998000,192.000000,0.000000,16.000000,127.500000,88.000000,15.500000,24.000000,0.000000,0.000000,0.000000,1770903462.703775,0.000000
228.000000,22441.151433,22486.279605,4158.653815,2761.669786,25966.334458,-9389.096128,9809.867717,-3758.870513,18022.211554,17962.375934,-4505.888165,8979.142783,17669.635137,23953.895146,-2191.186212,18241.303353,0.004000,-0.010000,0.998000,192.000000,0.000000,0.000000,0.000000,0.000000,0.000000,0.000000,0.000000,0.000000,0.000000,1770903462.703793,0.000000
230.000000,22438.178651,22472.935614,4164.711137,2769.872876,25958.243127,-9386.145697,9812.415816,-3752.992005,18072.950014,17972.724792,-4514.404179,8972.057280,17682.465039,23966.702696,-2195.857727,18264.705630,0.004000,-0.010000,0.998000,192.000000,0.000000,0.000000,0.000000,0.000000,0.000000,0.000000,0.000000,0.000000,0.000000,1770903462.703812,0.000000
232.000000,22439.028017,22485.653756,4160.754879,2770.588132,25949.034208,-9394.907581,9816.059150,-3746.778220,18001.044452,17963.828798,-4503.138900,8987.479983,17686.600111,23955.169196,-2201.669181,18214.905943,0.004000,-0.010000,0.998000,192.000000,0.000000,0.000000,0.000000,0.000000,0.000000,0.000000,0.000000,0.000000,0.000000,1770903462.703825,0.000000
234.000000,22443.386608,22498.170733,4158.139725,2766.095432,25948.341304,-9403.222430,9815.969743,-3751.293272,18059.136636,17982.201932,-4510.805549,8986.094175,17660.873253,23955.392713,-2212.062742,18249.238223,0.004000,-0.010000,0.998000,192.000000,0.000000,0.000000,0.000000,0.000000,0.000000,0.000000,0.000000,0.000000,0.000000,1770903462.703840,0.000000
236.000000,22434.848241,22477.852998,4165.985187,2780.199382,25932.806841,-9390.638398,9822.474101,-3741.212635,18030.369941,17977.262196,-4503.071845,8991.123318,17662.817855,23955.526823,-2218.298878,18225.567725,0.005000,-0.010000,1.002000,192.000000,0.000000,24.000000,127.500000,88.000000,15.500000,56.000000,0.000000,0.000000,0.000000,1770903462.703856,0.000000
238.000000,22439.273887,22496.293187,4150.920111,2769.783469,25935.399644,-9403.535355,9818.696656,-3751.226217,18007.437051,17974.915263,-4505.664647,8993.671416,17656.514663,23951.503509,-2225.652602,18225.634781,0.005000,-0.010000,1.002000,192.000000,0.000000,0.000000,0.000000,0.000000,0.000000,0.000000,0.000000,0.000000,0.000000,1770903462.703873,0.000000
240.000000,22435.675256,22482.189236,4160.933693,2775.304350,25942.216926,-9392.225372,9821.021237,-3743.850141,18069.709011,17987.231074,-4512.705447,8989.245771,17671.490332,23965.674515,-2227.843073,18258.581252,0.005000,-0.010000,1.002000,192.000000,0.000000,0.000000,0.000000,0.000000,0.000000,0.000000,0.000000,0.000000,0.000000,1770903462.703891,0.000000
242.000000,22435.541145,22479.998765,4159.525533,2781.562839,25940.942876,-9396.136927,9821.132996,-3744.498342,17987.186371,17968.634423,-4500.881374,8997.024178,17666.014155,23955.996210,-2220.757570,18221.924391,0.005000,-0.010000,1.002000,192.000000,0.000000,0.000000,0.000000,0.000000,0.000000,0.000000,0.000000,0.000000,0.000000,1770903462.703906,0.000000
244.000000,22436.032884,22492.560445,4155.859847,2770.163449,25956.879670,-9399.176764,9816.796758,-3751.405031,18054.532177,17980.525551,-4514.538290,8987.949370,17671.199759,23960.399504,-2217.181291,18263.610394,0.005000,-0.010000,1.002000,192.000000,0.000000,0.000000,0.000000,0.000000,0.000000,0.000000,0.000000,0.000000,0.000000,1770903462.703923,0.000000
246.000000,22430.467299,22477.316556,4166.901608,2782.121632,25949.168318,-9383.821116,9820.238926,-3744.543045,18033.163909,17980.480847,-4506.335200,8992.598533,17674.507818,23960.958297,-2206.340695,18240.543394,0.005000,-0.010000,1.002000,192.000000,0.000000,0.000000,127.500000,80.000000,15.500000,32.000000,0.000000,0.000000,0.000000,1770903462.703939,0.000000
248.000000,22433.171860,22492.828666,4155.211646,2770.230504,25957.349057,-9389.766680,9814.583935,-3756.590635,17996.507048,17972.613033,-4511.230232,8990.341007,17665.477713,23960.734780,-2204.194928,18240.118711,0.005000,-0.010000,1.002000,192.000000,0.000000,0.000000,0.000000,0.000000,0.000000,0.000000,0.000000,0.000000,0.000000,1770903462.703956,0.000000
250.000000,22432.054273,22479.596434,4162.833591,2779.729996,25959.137196,-9377.584979,9817.199089,-3749.527484,18058.197863,17988.840400,-4516.125264,8988.195239,17676.608882,23969.675478,-2203.636134,18273.065182,0.005000,-0.010000,1.002000,192.000000,0.000000,0.000000,0.000000,0.000000,0.000000,0.000000,0.000000,0.000000,0.000000,1770903462.703979,0.000000
252.000000,22429.260305,22481.496332,4158.340890,2774.164411,25957.483167,-9386.995064,9815.835633,-3749.907464,17983.453629,17965.482827,-4504.345894,8993.559658,17672.607919,23957.091446,-2200.730407,18230.373350,0.005000,-0.010000,1.002000,192.000000,0.000000,0.000000,0.000000,0.000000,0.000000,0.000000,0.000000,0.000000,0.000000,1770903462.703998,0.000000
254.000000,22443.811291,22498.506009,4152.194160,2767.928275,25959.584231,-9402.216602,9814.002790,-3749.616891,18048.139578,17982.604263,-4517.153444,8988.508164,17674.977204,23959.796007,-2209.089960,18263.878615,0.005000,-0.010000,1.002000,192.000000,0.000000,0.000000,0.000000,0.000000,0.000000,0.000000,0.000000,0.000000,0.000000,1770903462.704014,0.000000
0.000000,22442.023151,22488.380669,4165.426393,2779.819403,25949.794167,-9398.260343,9822.787025,-3733.411876,18031.845156,17986.627577,-4500.590801,8999.192297,17676.117143,23958.231385,-2215.683724,18229.948667,0.004500,-0.009000,1.000000,192.000000,0.000000,16.000000,127.500000,96.000000,15.500000,24.000000,0.000000,0.000000,0.000000,1770903462.704033,0.000000
2.000000,22446.761721,22507.066728,4161.470134,2769.492897,25955.203289,-9406.932820,9821.512976,-3738.932757,18014.030816,17981.509028,-4498.065054,9004.020274,17670.059820,23955.079789,-2222.903338,18223.109033,0.004500,-0.009000,1.000000,192.000000,0.000000,0.000000,0.000000,0.000000,0.000000,0.000000,0.000000,0.000000,0.000000,1770903462.704050,0.000000
4.000000,22449.890965,22494.728565,4170.857867,2776.846621,25963.987525,-9401.389587,9823.882261,-3735.021202,18077.889750,17995.456516,-4502.758921,9001.718044,17676.206550,23963.819321,-2216.711905,18250.579327,0.004500,-0.009000,1.000000,192.000000,0.000000,0.000000,0.000000,0.000000,0.000000,0.000000,0.000000,0.000000,0.000000,1770903462.704065,0.000000
6.000000,22444.034808,22492.828666,4167.572161,2769.135269,25957.460816,-9402.037788,9822.496453,-3740.117400,17990.159153,17980.592606,-4492.298304,9003.305018,17668.361088,23960.421855,-2207.301820,18211.396719,0.004500,-0.009000,1.000000,192.000000,0.000000,0.000000,0.000000,0.000000,0.000000,0.000000,0.000000,0.000000,0.000000,1770903462.704083,0.000000
8.000000,22442.626648,22496.024966,4160.978396,2767.794164,25969.128426,-9410.218526,9818.339028,-3746.889978,18054.934508,17986.158191,-4510.000886,8993.693768,17676.318309,23949.670666,-2203.971410,18252.859205,0.004500,-0.009000,1.000000,192.000000,0.000000,0.000000,0.000000,0.000000,0.000000,0.000000,0.000000,0.000000,0.000000,1770903462.704097,0.000000
10.000000,22433.149509,22474.880216,4171.394309,2778.858278,25958.824272,-9396.293389,9820.753017,-3741.391449,18032.403950,17980.123220,-4499.182641,8996.666550,17678.598187,23954.565698,-2198.472881,18231.557993,0.004500,-0.009000,1.000000,192.000000,0.000000,0.000000,127.500000,80.000000,15.500000,32.000000,0.000000,0.000000,0.000000,1770903462.704113,0.000000
12.000000,22431.964866,22486.681937,4158.854980,2766.698929,25971.564766,-9409.771491,9815.925040,-3752.813191,17992.327272,17969.752010,-4506.446958,8993.716120,17668.003460,23952.822262,-2198.830509,18228.540507,0.004500,-0.009000,1.000000,192.000000,0.000000,0.000000,0.000000,0.000000,0.000000,0.000000,0.000000,0.000000,0.000000,1770903462.704130,0.000000
14.000000,22430.266134,22474.321422,4165.515800,2775.505516,25969.731923,-9395.756947,9816.774406,-3750.041574,18059.628375,17990.136801,-4515.722932,8989.491640,17684.342585,23962.567623,-2197.958791,18258.894176,0.004500,-0.009000,1.000000,192.000000,0.000000,0.000000,0.000000,0.000000,0.000000,0.000000,0.000000,0.000000,0.000000,1770903462.704162,0.000000
16.000000,22431.920163,22474.164960,4162.811239,2776.623103,25964.658077,-9389.856087,9818.093159,-3750.555664,17982.179580,17975.250539,-4504.301191,8995.571315,17668.674012,23963.528748,-2197.936439,18222.080853,0.004500,-0.009000,1.000000,192.000000,0.000000,0.000000,0.000000,0.000000,0.000000,0.000000,0.000000,0.000000,0.000000,1770903462.704181,0.000000
18.000000,22436.792843,22483.843265,4155.189294,2771.191629,25969.441351,-9393.745290,9816.819110,-3754.333109,18044.429188,17988.058089,-4518.360438,8989.961027,17682.152114,23964.601632,-2201.311553,18262.761028,0.004500,-0.009000,1.000000,192.000000,0.000000,0.000000,0.000000,0.000000,0.000000,0.000000,0.000000,0.000000,0.000000,1770903462.704198,0.000000
20.000000,22431.383721,22471.818027,4167.594512,2783.418034,25950.844699,-9385.162221,9823.636392,-3740.966766,18023.150328,17984.101830,-4505.731703,8997.314751,17675.178370,23971.128341,-2211.258079,18238.688199,0.004500,-0.009000,1.000000,192.000000,0.000000,0.000000,127.500000,72.000000,15.500000,64.000000,0.000000,0.000000,0.000000,1770903462.704217,0.000000
22.000000,22443.833642,22493.588626,4151.858884,2773.069176,25951.492900,-9394.594657,9821.021237,-3746.733516,17991.656720,17973.507103,-4504.658819,9000.443995,17674.977204,23965.227481,-2217.561271,18229.971019,0.004500,-0.009000,1.000000,192.000000,0.000000,0.000000,0.000000,0.000000,0.000000,0.000000,0.000000,0.000000,0.000000,1770903462.704234,0.000000
24.000000,22438.715093,22480.266986,4166.700443,2780.333493,25947.693103,-9385.341035,9823.904613,-3741.302042,18058.242566,17991.790830,-4510.358514,8999.013483,17688.522361,23973.922309,-2219.952908,18258.067162,0.004500,-0.009000,1.000000,192.000000,0.000000,0.000000,0.000000,0.000000,0.000000,0.000000,0.000000,0.000000,0.000000,1770903462.704251,0.000000
26.000000,22440.704398,22486.972509,4163.638254,2780.936990,25942.999237,-9390.258418,9823.502281,-3740.855007,17978.670356,17978.357432,-4494.712293,9004.489661,17656.179387,23971.374210,-2212.912108,18214.525964,0.004500,-0.009000,1.000000,192.000000,0.000000,0.000000,0.000000,0.000000,0.000000,0.000000,0.000000,0.000000,0.000000,1770903462.704273,0.000000
28.000000,22446.582907,22499.221265,4158.765573,2774.298522,25953.593964,-9398.953247,9819.277801,-3747.225254,18046.194976,17994.204819,-4510.067941,9001.829803,17669.478675,23972.894129,-2211.660410,18255.854339,0.004500,-0.009000,1.000000,192.000000,0.000000,0.000000,0.000000,0.000000,0.000000,0.000000,0.000000,0.000000,0.000000,1770903462.704290,0.000000
30.000000,22437.597506,22484.983204,4172.556600,2781.115804,25951.939935,-9382.256494,9821.982363,-3740.497379,18016.109528,17998.921037,-4498.534441,9004.512013,17670.104524,23977.118609,-2199.836338,18232.876746,0.001250,-0.009500,1.004000,192.000000,127.500000,120.000000,127.500000,88.000000,15.500000,64.000000,0.000000,0.000000,0.000000,1770903462.704309,0.000000
32.000000,22438.983314,22501.747012,4160.129030,2775.885496,25962.825234,-9394.617009,9817.288496,-3749.438077,17991.276740,17991.455554,-4500.948429,9003.461481,17669.881006,23976.738629,-2198.741102,18230.216888,0.001250,-0.009500,1.004000,192.000000,0.000000,0.000000,0.000000,0.000000,0.000000,0.000000,0.000000,0.000000,0.000000,1770903462.704325,0.000000
34.000000,22441.978448,22492.940425,4171.461364,2784.356807,25974.001107,-9384.022282,9820.305982,-3740.653842,18059.650726,18007.191182,-4504.569412,9001.271010,17691.785716,23986.953376,-2199.456358,18264.079781,0.001250,-0.009500,1.004000,192.000000,0.000000,0.000000,0.000000,0.000000,0.000000,0.000000,0.000000,0.000000,0.000000,1770903462.704343,0.000000
36.000000,22438.759796,22492.001652,4169.717928,2782.568667,25982.762990,-9377.406165,9820.551851,-3741.190283,17983.498333,17985.867618,-4490.443109,9009.094120,17680.296919,23982.460676,-2192.616724,18223.287847,0.001250,-0.009500,1.004000,192.000000,0.000000,0.000000,0.000000,0.000000,0.000000,0.000000,0.000000,0.000000,0.000000,1770903462.704360,0.000000
38.000000,22451.187366,22506.217361,4163.615902,2778.388891,25986.741601,-9386.637436,9818.808415,-3746.979385,18048.474854,17998.943388,-4506.581069,9004.310847,17700.033510,23984.070001,-2195.634210,18268.103095,0.001250,-0.009500,1.004000,192.000000,0.000000,0.000000,0.000000,0.000000,0.000000,0.000000,0.000000,0.000000,0.000000,1770903462.704378,0.000000
40.000000,22442.023151,22485.206721,4174.121222,2786.100243,25973.129388,-9377.987311,9823.099950,-3738.508074,18025.497261,17998.988092,-4496.276915,9007.328332,17691.070460,23979.063210,-2197.444701,18246.757179,-0.000375,-0.012750,1.007000,192.000000,127.500000,120.000000,127.500000,64.000000,15.500000,72.000000,0.000000,0.000000,0.000000,1770903462.704394,0.000000
42.000000,22445.800596,22497.924864,4160.933693,2772.644493,25969.441351,-9398.416805,9820.954182,-3746.621757,17994.093060,17975.943443,-4498.288572,9002.746225,17674.440762,23970.681306,-2203.837300,18235.558955,-0.000375,-0.012750,1.007000,192.000000,0.000000,0.000000,0.000000,0.000000,0.000000,0.000000,0.000000,0.000000,0.000000,1770903462.704413,0.000000
44.000000,22444.392436,22490.615844,4163.593550,2781.898115,25959.740694,-9389.051424,9823.882261,-3738.888054,18067.920872,17995.545923,-4504.301191,9000.511050,17697.686577,23980.471370,-2211.816873,18263.476284,-0.000375,-0.012750,1.007000,192.000000,0.000000,0.000000,0.000000,0.000000,0.000000,0.000000,0.000000,0.000000,0.000000,1770903462.704430,0.000000
46.000000,22432.680122,22485.653756,4167.147478,2779.662940,25947.760159,-9393.454718,9823.882261,-3740.139751,17986.381708,17978.245673,-4492.544173,9007.887126,17687.002443,23972.469446,-2208.821739,18222.237315,-0.000375,-0.012750,1.007000,192.000000,0.000000,0.000000,0.000000,0.000000,0.000000,0.000000,0.000000,0.000000,0.000000,1770903462.704449,0.000000
48.000000,22440.726750,22494.728565,4162.051280,2771.236333,25959.561880,-9401.054311,9820.484796,-3748.253435,18039.690618,17984.280644,-4509.553851,8997.739434,17678.665242,23970.368382,-2204.239631,18259.900005,-0.000375,-0.012750,1.007000,192.000000,0.000000,0.000000,0.000000,0.000000,0.000000,0.000000,0.000000,0.000000,0.000000,1770903462.704466,0.000000
50.000000,22432.233087,22480.691669,4174.970588,2781.540487,25963.764008,-9390.191363,9824.910441,-3737.658708,18025.318447,17987.186371,-4497.036874,9001.673341,17689.885818,23972.849425,-2194.784843,18236.296563,-0.000375,-0.012750,1.007000,192.000000,0.000000,0.000000,0.000000,0.000000,0.000000,0.000000,0.000000,0.000000,0.000000,1770903462.704484,0.000000
52.000000,22442.201965,22503.959835,4166.432222,2771.213981,25978.940842,-9398.416805,9822.496453,-3740.519731,17998.272836,17978.379783,-4496.634543,9004.087329,17687.404774,23961.025353,-2189.018093,18227.601734,0.002000,-0.014000,1.000000,192.000000,0.000000,8.000000,127.500000,72.000000,15.500000,32.000000,0.000000,0.000000,0.000000,1770903462.704501,0.000000
54.000000,22445.442968,22496.941387,4176.222286,2779.864106,25980.773685,-9382.614122,9825.044551,-3732.696621,18069.463142,17995.121240,-4500.546098,9002.500356,17710.404719,23979.040859,-2190.582715,18257.798941,0.002000,-0.014000,1.000000,192.000000,0.000000,0.000000,0.000000,0.000000,0.000000,0.000000,0.000000,0.000000,0.000000,1770903462.704518,0.000000
56.000000,22445.375913,22496.337890,4174.523553,2781.629894,25972.749409,-9380.066023,9825.446883,-3735.512940,17994.964778,17986.024080,-4486.419795,9011.776329,17695.630216,23983.377097,-2188.526355,18218.281057,0.002000,-0.014000,1.000000,192.000000,0.000000,0.000000,0.000000,0.000000,0.000000,0.000000,0.000000,0.000000,0.000000,1770903462.704535,0.000000
58.000000,22448.840433,22502.171695,4167.147478,2777.763042,25984.998165,-9385.832773,9822.004714,-3743.917196,18049.994773,17990.650891,-4503.563583,9001.069844,17705.353225,23977.230367,-2191.633247,18262.582214,0.002000,-0.014000,1.000000,192.000000,0.000000,0.000000,0.000000,0.000000,0.000000,0.000000,0.000000,0.000000,0.000000,1770903462.704555,0.000000
60.000000,22442.269020,22483.396230,4179.150364,2786.390816,25975.677487,-9374.455735,9826.005677,-3737.859874,18027.620676,17988.035737,-4493.862926,9004.824937,17704.012120,23982.438324,-2189.107500,18246.891290,0.002000,-0.014000,1.000000,192.000000,0.000000,0.000000,0.000000,0.000000,0.000000,0.000000,0.000000,0.000000,0.000000,1770903462.704573,0.000000
62.000000,22441.889041,22494.259178,4164.487620,2772.331568,25971.587118,-9389.587866,9820.574203,-3748.320490,17994.405984,17970.266100,-4497.707426,9002.634466,17690.064632,23971.776542,-2190.985047,18238.665848,0.004000,-0.020000,1.000000,192.000000,0.000000,16.000000,127.500000,48.000000,15.500000,32.000000,0.000000,0.000000,0.000000,1770903462.704589,0.000000
64.000000,22440.346770,22483.597396,4171.059033,2780.400548,25965.596851,-9387.442099,9822.317639,-3741.838484,18066.132732,17981.486676,-4505.664647,8998.052358,17696.591341,23978.549120,-2194.114291,18269.868883,0.004000,-0.020000,1.000000,192.000000,0.000000,0.000000,0.000000,0.000000,0.000000,0.000000,0.000000,0.000000,0.000000,1770903462.704607,0.000000
66.000000,22436.301105,22479.462323,4168.332120,2774.969074,25956.231470,-9394.549953,9822.518804,-3744.140714,17984.750031,17964.476998,-4496.634543,9004.579068,17679.000518,23966.389771,-2194.181346,18222.170260,0.004000,-0.020000,1.000000,192.000000,0.000000,0.000000,0.000000,0.000000,0.000000,0.000000,0.000000,0.000000,0.000000,1770903462.704625,0.000000
68.000000,22445.241802,22490.660547,4163.213571,2768.129440,25963.495787,-9406.172860,9820.864775,-3749.415725,18042.730456,17971.517798,-4508.168043,8995.437204,17706.023777,23970.211920,-2195.522451,18255.317897,0.004000,-0.020000,1.000000,192.000000,0.000000,0.000000,0.000000,0.000000,0.000000,0.000000,0.000000,0.000000,0.000000,1770903462.704643,0.000000
70.000000,22438.916259,22475.439009,4174.769422,2783.775661,25950.263554,-9395.846354,9826.855043,-3737.792818,18023.843232,17970.154341,-4497.752130,9000.332236,17679.201684,23971.508321,-2194.918954,18234.933106,0.004000,-0.020000,1.000000,192.000000,0.000000,0.000000,0.000000,0.000000,0.000000,0.000000,0.000000,0.000000,0.000000,1770903462.704660,0.000000
72.000000,22451.567346,22502.998710,4163.258274,2776.556048,25957.863147,-9402.306009,9826.095083,-3740.184455,17996.909380,17970.623728,-4495.896935,9007.261277,17676.139495,23968.133207,-2198.651695,18226.752368,0.004000,-0.016000,1.006000,192.000000,0.000000,16.000000,127.500000,64.000000,15.500000,56.000000,0.000000,0.000000,0.000000,1770903462.704679,0.000000
74.000000,22454.473073,22504.719794,4172.958931,2788.804804,25968.703743,-9388.313817,9829.201976,-3730.260280,18075.922796,18000.463307,-4498.400330,9010.703446,17702.514553,23987.869798,-2201.400960,18259.229453,0.004000,-0.016000,1.006000,192.000000,0.000000,0.000000,0.000000,0.000000,0.000000,0.000000,0.000000,0.000000,0.000000,1770903463.183782,0.000000
76.000000,22456.641192,22509.637178,4173.696539,2790.302371,25968.301412,-9386.257456,9829.917232,-3726.549891,18003.749013,17994.070708,-4481.681226,9022.549870,17698.155963,23986.863969,-2197.064721,18217.766967,0.004000,-0.016000,1.006000,192.000000,0.000000,0.000000,0.000000,0.000000,0.000000,0.000000,0.000000,0.000000,0.000000,1770903463.183853,0.000000
78.000000,22466.788884,22518.510821,4168.086251,2783.663903,25979.857264,-9390.101956,9825.759807,-3732.853083,18071.072468,18007.280589,-4493.617057,9019.554737,17701.419318,23994.016527,-2199.836338,18259.721191,0.004000,-0.016000,1.006000,192.000000,0.000000,0.000000,0.000000,0.000000,0.000000,0.000000,0.000000,0.000000,0.000000,1770903463.183874,0.000000
80.000000,22456.015343,22498.997748,4179.664454,2794.079816,25970.223662,-9374.366328,9827.190319,-3727.488664,18057.192034,18005.738319,-4484.028159,9021.476987,17710.427071,23996.788144,-2194.673085,18244.656115,0.004000,-0.016000,1.006000,192.000000,0.000000,0.000000,0.000000,0.000000,0.000000,0.000000,0.000000,0.000000,0.000000,1770903463.183928,0.000000
82.000000,22452.819044,22510.017158,4166.164001,2780.333493,25979.074952,-9386.190401,9820.753017,-3740.966766,18019.663455,17990.695595,-4489.459633,9014.369132,17692.031585,23986.104010,-2194.561326,18240.386932,0.004000,-0.016000,1.002000,192.000000,0.000000,16.000000,127.500000,64.000000,15.500000,40.000000,0.000000,0.000000,0.000000,1770903463.183980,0.000000
84.000000,22438.201003,22490.727602,4170.366129,2784.222696,25978.091476,-9381.764755,9818.361380,-3739.871531,18085.064660,17997.646987,-4503.228307,9006.166042,17708.191896,23991.222559,-2191.901468,18270.785304,0.004000,-0.016000,1.002000,192.000000,0.000000,0.000000,0.000000,0.000000,0.000000,0.000000,0.000000,0.000000,0.000000,1770903463.184032,0.000000
86.000000,22438.223355,22486.234902,4169.248542,2779.394720,25973.978755,-9389.029072,9817.377903,-3742.397278,18000.932694,17976.345775,-4490.979551,9006.501318,17684.990786,23976.582167,-2187.073491,18227.378217,0.004000,-0.016000,1.002000,192.000000,0.000000,0.000000,0.000000,0.000000,0.000000,0.000000,0.000000,0.000000,0.000000,1770903463.184080,0.000000
88.000000,22440.190308,22491.487562,4162.230094,2771.504554,25985.378144,-9397.030997,9813.958086,-3753.059060,18062.511750,17982.917188,-4506.670476,8998.655855,17691.852771,23974.481103,-2186.894678,18263.565691,0.004000,-0.016000,1.002000,192.000000,0.000000,0.000000,0.000000,0.000000,0.000000,0.000000,0.000000,0.000000,0.000000,1770903463.184098,0.000000
90.000000,22436.055235,22477.607128,4173.294207,2783.686254,25973.196444,-9385.162221,9819.031932,-3743.894845,18038.014238,17979.698536,-4501.149595,9000.712216,17693.819725,23986.327527,-2184.503041,18237.391798,0.004000,-0.016000,1.002000,192.000000,0.000000,0.000000,0.000000,0.000000,0.000000,0.000000,0.000000,0.000000,0.000000,1770903463.184125,0.000000
92.000000,22447.119349,22499.713004,4160.620768,2773.739728,25969.418999,-9398.841488,9817.690828,-3746.912330,18010.320426,17975.965795,-4500.233173,9004.936696,17706.917847,23981.030164,-2190.180384,18229.613391,0.002000,-0.018000,1.006000,192.000000,0.000000,8.000000,127.500000,56.000000,15.500000,56.000000,0.000000,0.000000,0.000000,1770903463.184140,0.000000
94.000000,22448.862785,22492.895722,4175.484678,2785.586153,25976.906833,-9388.067947,9822.585860,-3737.055211,18083.075354,17996.730566,-4501.864851,9002.790928,17690.757536,23991.289615,-2194.673085,18263.163360,0.002000,-0.018000,1.006000,192.000000,0.000000,0.000000,0.000000,0.000000,0.000000,0.000000,0.000000,0.000000,0.000000,1770903463.184157,0.000000
96.000000,22449.041599,22497.500181,4173.629483,2786.726092,25976.079819,-9388.514982,9822.652915,-3735.222368,18001.200915,17981.486676,-4487.246810,9013.117434,17686.398946,23990.574359,-2191.342675,18222.550240,0.002000,-0.018000,1.006000,192.000000,0.000000,0.000000,0.000000,0.000000,0.000000,0.000000,0.000000,0.000000,0.000000,1770903463.184175,0.000000
98.000000,22454.987163,22508.206666,4166.208704,2780.042920,25992.106020,-9394.639360,9817.646124,-3741.458504,18062.802322,17994.964778,-4499.137938,9008.803547,17710.337664,23988.719164,-2193.421387,18261.710496,0.002000,-0.018000,1.006000,192.000000,0.000000,0.000000,0.000000,0.000000,0.000000,0.000000,0.000000,0.000000,0.000000,1770903463.184193,0.000000
100.000000,22445.331209,22488.604187,4177.205763,2789.944743,25992.776572,-9381.652997,9820.305982,-3733.970670,18053.548700,17995.255351,-4490.756034,9010.770501,17701.776946,23997.413993,-2188.906335,18245.706647,0.002000,-0.018000,1.006000,192.000000,0.000000,0.000000,0.000000,0.000000,0.000000,0.000000,0.000000,0.000000,0.000000,1770903463.184211,0.000000
102.000000,22453.377837,22498.617768,4165.359338,2776.220772,25997.895121,-9394.751119,9815.813281,-3744.654804,18021.608057,17984.258292,-4493.751168,9006.702483,17693.573856,23985.232292,-2189.688646,18239.515214,0.006000,-0.016000,1.002000,192.000000,0.000000,24.000000,127.500000,64.000000,15.500000,40.000000,0.000000,0.000000,0.000000,1770903463.184230,0.000000
104.000000,22446.135872,22488.358317,4172.713062,2775.639626,25999.549150,-9390.481936,9816.796758,-3741.257339,18083.790610,17995.143592,-4503.854156,9000.265181,17707.476641,23987.780391,-2188.705169,18270.494732,0.006000,-0.016000,1.002000,192.000000,0.000000,0.000000,0.000000,0.000000,0.000000,0.000000,0.000000,0.000000,0.000000,1770903463.184246,0.000000
106.000000,22437.217526,22485.452591,4169.092079,2779.215906,25988.395630,-9389.207886,9816.126205,-3743.470161,18005.023063,17971.674260,-4493.035912,9005.115510,17684.990786,23976.828036,-2183.541916,18224.047807,0.006000,-0.016000,1.002000,192.000000,0.000000,0.000000,0.000000,0.000000,0.000000,0.000000,0.000000,0.000000,0.000000,1770903463.184264,0.000000
108.000000,22444.392436,22497.924864,4162.118335,2770.230504,25998.453915,-9399.780261,9812.482871,-3748.342842,18061.461218,17982.514856,-4508.838595,8997.560620,17686.778925,23977.140960,-2184.525393,18258.871825,0.006000,-0.016000,1.002000,192.000000,0.000000,0.000000,0.000000,0.000000,0.000000,0.000000,0.000000,0.000000,0.000000,1770903463.184283,0.000000
110.000000,22439.497404,22480.490503,4173.920056,2779.841754,25987.836836,-9382.927046,9816.886165,-3739.536254,18048.430151,17979.765592,-4500.367284,9000.958085,17686.488353,23979.063210,-2184.815965,18239.112883,0.006000,-0.016000,1.002000,192.000000,0.000000,0.000000,0.000000,0.000000,0.000000,0.000000,0.000000,0.000000,0.000000,1770903463.184302,0.000000
112.000000,22451.388532,22501.031757,4162.408908,2772.197458,25995.592892,-9391.308950,9814.874508,-3744.252472,18025.474909,17971.428391,-4498.735607,9003.394425,17674.440762,23980.158446,-2183.966599,18231.021551,0.006000,-0.014000,1.002000,192.000000,0.000000,24.000000,127.500000,80.000000,15.500000,40.000000,0.000000,0.000000,0.000000,1770903463.184317,0.000000
114.000000,22450.248593,22494.147419,4169.941446,2781.741653,26001.873732,-9385.743366,9818.294325,-3734.104780,18096.687567,17991.679071,-4500.747264,9004.512013,17696.032547,23995.089411,-2188.191079,18262.805732,0.006000,-0.014000,1.002000,192.000000,0.000000,0.000000,0.000000,0.000000,0.000000,0.000000,0.000000,0.000000,0.000000,1770903463.184335,0.000000
116.000000,22451.455587,22497.634291,4174.724719,2786.301409,25990.317880,-9387.822078,9820.708313,-3730.170873,18016.198935,17979.966757,-4483.447013,9015.799643,17687.203608,23986.372231,-2190.023922,18219.242182,0.006000,-0.014000,1.002000,192.000000,0.000000,0.000000,0.000000,0.000000,0.000000,0.000000,0.000000,0.000000,0.000000,1770903463.184354,0.000000
118.000000,22462.787922,22512.632312,4167.259236,2782.613371,26002.991319,-9394.348788,9819.121339,-3732.786028,18077.129790,17997.445821,-4494.377016,9015.352609,17683.716736,23989.635586,-2194.784843,18260.548205,0.006000,-0.014000,1.002000,192.000000,0.000000,0.000000,0.000000,0.000000,0.000000,0.000000,0.000000,0.000000,0.000000,1770903463.184372,0.000000
120.000000,22451.254422,22491.576969,4175.954065,2794.102167,25995.481133,-9382.636473,9821.982363,-3727.868644,18065.685697,17999.189258,-4488.342045,9017.744245,17691.361033,23996.162295,-2193.108462,18248.321801,0.006000,-0.014000,1.002000,192.000000,0.000000,0.000000,0.000000,0.000000,0.000000,0.000000,0.000000,0.000000,0.000000,1770903463.184390,0.000000
122.000000,22462.586756,22509.100736,4166.588684,2781.115804,26001.985491,-9391.040729,9817.064979,-3734.194187,18028.581801,17985.308824,-4487.269162,9015.933754,17684.543751,23992.407202,-2194.069587,18241.437464,0.004000,-0.012000,1.002000,192.000000,0.000000,8.000000,127.500000,88.000000,15.500000,40.000000,0.000000,0.000000,0.000000,1770903463.184425,0.000000
124.000000,22458.943422,22497.880161,4175.842306,2785.541449,26002.968967,-9386.168049,9817.981400,-3730.304984,18097.268712,18000.217438,-4494.220554,9013.340952,17702.089870,24001.325548,-2192.393207,18270.830008,0.004000,-0.012000,1.002000,192.000000,0.000000,0.000000,0.000000,0.000000,0.000000,0.000000,0.000000,0.000000,0.000000,1770903463.184445,0.000000
126.000000,22450.270945,22491.554617,4176.043472,2781.071100,26004.555941,-9388.470279,9816.886165,-3733.367173,18022.971514,17981.933711,-4482.910571,9014.637353,17690.623425,23991.982519,-2180.703244,18221.075025,0.004000,-0.012000,1.002000,192.000000,0.000000,0.000000,0.000000,0.000000,0.000000,0.000000,0.000000,0.000000,0.000000,1770903463.184463,0.000000
128.000000,22446.851128,22498.841286,4167.102774,2771.750423,26015.195372,-9394.795822,9811.320580,-3742.151408,18079.610834,17986.314653,-4500.322580,9004.333199,17691.741013,23984.584091,-2179.831526,18261.576386,0.004000,-0.012000,1.002000,192.000000,0.000000,0.000000,0.000000,0.000000,0.000000,0.000000,0.000000,0.000000,0.000000,1770903463.184481,0.000000
130.000000,22441.598468,22483.753858,4177.094004,2778.612408,26004.511238,-9378.791973,9816.886165,-3732.473103,18052.140540,17983.721850,-4496.165156,9007.194222,17690.176390,23996.229350,-2176.434061,18243.694990,0.004000,-0.012000,1.002000,192.000000,0.000000,0.000000,0.000000,0.000000,0.000000,0.000000,0.000000,0.000000,0.000000,1770903463.184499,0.000000
132.000000,22443.163090,22498.036623,4165.828725,2774.477336,26008.445145,-9390.303122,9814.047493,-3741.994946,18019.819918,17976.703403,-4496.299266,9007.328332,17681.012175,23991.468429,-2179.473898,18235.022513,0.004000,-0.012000,1.002000,192.000000,0.000000,0.000000,127.500000,80.000000,15.500000,48.000000,0.000000,0.000000,0.000000,1770903463.184528,0.000000
134.000000,22443.610125,22486.078439,4170.611998,2784.289752,26006.880523,-9382.547067,9815.030970,-3739.625661,18093.759488,17992.371975,-4503.340066,9002.902687,17689.796411,23993.345975,-2182.625494,18270.248863,0.004000,-0.012000,1.002000,192.000000,0.000000,0.000000,0.000000,0.000000,0.000000,0.000000,0.000000,0.000000,0.000000,1770903463.184546,0.000000
136.000000,22448.214584,22485.474942,4168.577989,2781.562839,26003.773630,-9379.239008,9815.053322,-3739.156275,18017.316522,17975.116429,-4492.924153,9009.407045,17678.329966,23984.271167,-2181.843183,18230.350999,0.004000,-0.012000,1.002000,192.000000,0.000000,0.000000,0.000000,0.000000,0.000000,0.000000,0.000000,0.000000,0.000000,1770903463.184564,0.000000
138.000000,22457.155282,22505.122126,4160.933693,2777.606580,26013.854267,-9387.106822,9814.472176,-3739.849179,18074.358174,17988.616882,-4505.329371,9005.182565,17685.482524,23992.027222,-2189.018093,18268.326613,0.004000,-0.012000,1.002000,192.000000,0.000000,0.000000,0.000000,0.000000,0.000000,0.000000,0.000000,0.000000,0.000000,1770903463.184582,0.000000
140.000000,22446.784073,22489.162980,4174.970588,2790.078853,26002.901912,-9377.517924,9821.200051,-3727.376905,18066.780933,17990.852057,-4491.068958,9013.184489,17704.593266,23998.129248,-2190.985047,18249.417037,0.004000,-0.012000,1.002000,192.000000,0.000000,0.000000,0.000000,0.000000,0.000000,0.000000,0.000000,0.000000,0.000000,1770903463.184600,0.000000
142.000000,22457.065875,22511.939408,4165.091117,2779.215906,26000.554979,-9387.956189,9818.607249,-3730.327336,18022.815051,17983.185408,-4491.292476,9015.620830,17664.337774,23991.870760,-2194.851899,18235.737769,0.001000,-0.010000,1.005000,192.000000,127.500000,120.000000,127.500000,96.000000,15.500000,64.000000,0.000000,0.000000,0.000000,1770903463.184618,0.000000
144.000000,22457.825834,22506.351472,4175.328216,2789.117728,26001.985491,-9381.116555,9821.244755,-3721.878376,18105.516506,18010.141612,-4493.125319,9015.799643,17694.624388,24007.449926,-2195.768320,18266.359659,0.001000,-0.010000,1.005000,192.000000,0.000000,0.000000,0.000000,0.000000,0.000000,0.000000,0.000000,0.000000,0.000000,1770903463.184637,0.000000
146.000000,22449.846262,22497.902512,4176.132879,2785.228525,25997.179866,-9385.385738,9821.378865,-3724.202958,18026.257220,17987.856923,-4479.982493,9022.974553,17685.907207,23993.390679,-2188.973390,18219.890382,0.001000,-0.010000,1.005000,192.000000,0.000000,0.000000,0.000000,0.000000,0.000000,0.000000,0.000000,0.000000,0.000000,1770903463.184656,0.000000
148.000000,22458.943422,22508.765460,4169.963797,2775.617275,26004.287720,-9399.109709,9817.601421,-3731.690792,18080.683718,17992.193162,-4495.248734,9012.178661,17691.249274,23993.524789,-2186.559401,18255.519063,0.001000,-0.010000,1.005000,192.000000,0.000000,0.000000,0.000000,0.000000,0.000000,0.000000,0.000000,0.000000,0.000000,1770903463.184674,0.000000
150.000000,22437.351637,22484.513817,4178.859792,2784.803842,25995.682299,-9388.671444,9820.238926,-3729.187397,18059.069581,17986.024080,-4490.107833,9011.105777,17694.445574,23990.753173,-2179.742119,18237.458853,0.001000,-0.010000,1.005000,192.000000,0.000000,0.000000,0.000000,0.000000,0.000000,0.000000,0.000000,0.000000,0.000000,1770903463.184691,0.000000
152.000000,22445.197099,22501.590550,4163.660605,2773.918542,26003.751278,-9400.517869,9814.002790,-3739.312737,18019.216421,17969.081458,-4495.584011,9008.200050,17687.225960,23980.873702,-2177.037558,18229.591039,0.001000,-0.010000,1.005000,192.000000,0.000000,0.000000,127.500000,112.000000,15.500000,64.000000,0.000000,0.000000,0.000000,1770903463.184710,0.000000
154.000000,22444.347733,22495.130896,4173.316559,2782.099281,26004.198313,-9386.637436,9815.545060,-3730.461446,18096.218180,17991.477906,-4502.043665,9006.791890,17692.456268,23998.442173,-2177.350483,18265.443237,0.001000,-0.010000,1.005000,192.000000,0.000000,0.000000,0.000000,0.000000,0.000000,0.000000,0.000000,0.000000,0.000000,1770903463.184730,0.000000
156.000000,22440.056198,22490.861713,4169.606169,2787.307237,25992.664813,-9385.273979,9816.483833,-3730.796722,18006.230057,17978.200969,-4490.688979,9016.425492,17681.325100,23989.322661,-2176.478765,18226.752368,0.001000,-0.010000,1.005000,192.000000,0.000000,0.000000,0.000000,0.000000,0.000000,0.000000,0.000000,0.000000,0.000000,1770903463.184749,0.000000
158.000000,22453.266079,22507.670225,4163.101812,2779.595885,26001.426697,-9390.861915,9815.165080,-3734.283594,18062.154122,17983.096002,-4505.128205,9008.602382,17686.689518,23994.642376,-2183.407805,18267.209025,0.001000,-0.010000,1.005000,192.000000,0.000000,0.000000,0.000000,0.000000,0.000000,0.000000,0.000000,0.000000,0.000000,1770903463.184767,0.000000
160.000000,22449.198061,22491.174637,4176.512858,2791.174089,25990.966081,-9379.127250,9822.004714,-3723.465350,18056.588537,17987.007557,-4488.811432,9016.403141,17698.692405,24001.794934,-2184.905372,18249.551147,0.001000,-0.010000,1.005000,192.000000,0.000000,0.000000,0.000000,0.000000,0.000000,0.000000,0.000000,0.000000,0.000000,1770903463.184783,0.000000
162.000000,22447.275811,22504.831553,4164.465268,2778.120670,26004.578293,-9388.850258,9817.757883,-3735.445885,18013.807298,17974.647042,-4491.918324,9014.123263,17683.269701,23993.189513,-2187.632285,18239.828138,0.001500,-0.009000,1.006500,192.000000,0.000000,8.000000,127.500000,96.000000,15.500000,64.000000,0.000000,0.000000,0.000000,1770903463.184800,0.000000
164.000000,22450.628573,22498.863637,4171.170792,2786.614333,26008.646310,-9377.897904,9819.970706,-3727.689830,18088.663291,17995.188295,-4500.970781,9010.882260,17702.514553,24000.967920,-2189.219259,18270.360621,0.001500,-0.009000,1.006500,192.000000,0.000000,0.000000,0.000000,0.000000,0.000000,0.000000,0.000000,0.000000,0.000000,1770903463.184819,0.000000
166.000000,22444.593602,22496.494352,4174.635312,2785.228525,26006.277025,-9378.926084,9819.993057,-3727.734533,18011.527420,17986.024080,-4486.084519,9018.995943,17708.661283,24003.560722,-2184.838317,18222.505536,0.001500,-0.009000,1.006500,192.000000,0.000000,0.000000,0.000000,0.000000,0.000000,0.000000,0.000000,0.000000,0.000000,1770903463.184836,0.000000
168.000000,22448.102826,22507.692576,4168.890914,2778.165374,26014.703633,-9389.453756,9816.014447,-3733.747153,18062.601157,17995.300054,-4499.227345,9012.424530,17685.191951,23992.451905,-2182.446680,18257.530720,0.001500,-0.009000,1.006500,192.000000,0.000000,0.000000,0.000000,0.000000,0.000000,0.000000,0.000000,0.000000,0.000000,1770903463.184855,0.000000
170.000000,22439.944439,22485.430239,4178.032777,2788.514231,25997.246921,-9388.291465,9820.395389,-3726.393429,18048.497206,17993.936598,-4490.599572,9016.023161,17697.798335,23998.509228,-2179.406843,18238.554089,0.001500,-0.009000,1.006500,192.000000,0.000000,0.000000,0.000000,0.000000,0.000000,0.000000,0.000000,0.000000,0.000000,1770903463.184873,0.000000
172.000000,22442.738407,22499.020100,4165.292283,2775.259647,25992.217778,-9407.961000,9815.299191,-3737.166969,18003.592551,17979.251501,-4495.807528,9013.586821,17678.866408,23980.292556,-2179.943285,18228.026417,0.002750,-0.010500,1.005250,192.000000,0.000000,16.000000,127.500000,80.000000,15.500000,48.000000,0.000000,0.000000,0.000000,1770903463.184890,0.000000
174.000000,22443.051331,22492.828666,4171.327254,2786.480223,25993.313014,-9397.030997,9818.920174,-3729.366211,18079.230854,17993.601321,-4504.032970,9010.591687,17695.563161,23990.887283,-2182.580791,18263.878615,0.002750,-0.010500,1.005250,192.000000,0.000000,0.000000,0.000000,0.000000,0.000000,0.000000,0.000000,0.000000,0.000000,1770903463.184908,0.000000
176.000000,22438.603334,22491.688727,4170.813164,2785.474394,25988.373278,-9391.778337,9819.970706,-3727.622775,18002.519667,17977.843342,-4489.191412,9017.833652,17679.469905,23992.675423,-2181.642018,18224.204269,0.002750,-0.010500,1.005250,192.000000,0.000000,0.000000,0.000000,0.000000,0.000000,0.000000,0.000000,0.000000,0.000000,1770903463.184927,0.000000
178.000000,22443.543070,22506.463230,4163.593550,2778.970036,25994.676470,-9396.271038,9818.450787,-3733.769504,18059.896595,17989.957987,-4499.763787,9011.441053,17689.394079,23986.238120,-2187.319361,18264.079781,0.002750,-0.010500,1.005250,192.000000,0.000000,0.000000,0.000000,0.000000,0.000000,0.000000,0.000000,0.000000,0.000000,1770903463.184944,0.000000
180.000000,22437.977485,22493.119239,4174.657664,2789.430653,25983.522950,-9385.609256,9821.177700,-3726.505187,18053.235776,17991.500257,-4491.404234,9016.783120,17703.967417,23990.306138,-2187.319361,18248.366505,0.002750,-0.010500,1.005250,192.000000,0.000000,0.000000,0.000000,0.000000,0.000000,0.000000,0.000000,0.000000,0.000000,1770903463.184962,0.000000
182.000000,22444.750064,22504.652739,4162.967701,2773.650321,25991.547226,-9396.941590,9815.679171,-3736.362307,18011.326255,17981.352565,-4492.901801,9014.927925,17676.586530,23991.423725,-2185.710035,18237.145929,0.002750,-0.010500,1.005250,192.000000,0.000000,0.000000,0.000000,0.000000,0.000000,0.000000,0.000000,0.000000,0.000000,1770903463.184980,0.000000
184.000000,22446.426445,22497.187256,4171.282550,2786.882554,25998.990357,-9387.911485,9818.026104,-3730.148522,18084.662328,17992.237865,-4501.998961,9010.770501,17700.592303,23989.859103,-2188.995741,18270.159456,0.008000,-0.018000,1.008000,192.000000,0.000000,32.000000,127.500000,56.000000,15.500000,64.000000,0.000000,0.000000,0.000000,1770903463.184998,0.000000
186.000000,22449.376875,22498.349547,4176.557562,2782.456909,25997.358679,-9390.660750,9820.194223,-3725.588766,18017.472984,17980.234978,-4483.715234,9020.113530,17693.752670,23985.724030,-2177.775166,18221.142080,0.008000,-0.018000,1.008000,192.000000,0.000000,0.000000,0.000000,0.000000,0.000000,0.000000,0.000000,0.000000,0.000000,1770903463.185019,0.000000
188.000000,22454.741294,22507.893742,4168.220361,2776.109013,26005.897046,-9396.807479,9815.880336,-3732.450751,18073.486456,17989.533304,-4496.098101,9011.485757,17696.233713,23989.277958,-2177.238724,18253.842682,0.008000,-0.018000,1.008000,192.000000,0.000000,0.000000,0.000000,0.000000,0.000000,0.000000,0.000000,0.000000,0.000000,1770903463.185037,0.000000
190.000000,22444.750064,22487.888931,4179.619751,2789.832984,25996.241092,-9382.725880,9820.283630,-3724.895862,18057.460255,17991.477906,-4489.996074,9017.945411,17700.234675,23988.048612,-2174.757680,18238.732903,0.008000,-0.018000,1.008000,192.000000,0.000000,0.000000,0.000000,0.000000,0.000000,0.000000,0.000000,0.000000,0.000000,1770903463.185055,0.000000
192.000000,22445.264154,22506.597341,4170.008501,2780.288789,25997.045755,-9392.962979,9816.640296,-3732.383696,18016.087176,17980.369089,-4491.091310,9016.537251,17683.068536,23984.807609,-2173.818907,18229.278115,0.008000,-0.018000,1.008000,192.000000,0.000000,0.000000,0.000000,0.000000,0.000000,0.000000,0.000000,0.000000,0.000000,1770903463.185073,0.000000
194.000000,22445.666486,22494.639158,4173.093042,2786.815499,25998.878598,-9382.010625,9817.646124,-3730.394391,18096.352291,18001.580894,-4498.243868,9012.871565,17715.635027,23997.816324,-2171.695491,18266.650232,0.006000,-0.012000,1.008000,192.000000,0.000000,24.000000,127.500000,80.000000,15.500000,64.000000,0.000000,0.000000,0.000000,1770903463.664551,0.000000
196.000000,22442.559593,22488.313614,4177.943370,2784.513269,25989.513217,-9384.961055,9818.070807,-3732.361344,18011.594476,17981.576083,-4487.067996,9014.860870,17687.717699,23990.261434,-2166.576942,18224.204269,0.006000,-0.012000,1.008000,192.000000,0.000000,0.000000,0.000000,0.000000,0.000000,0.000000,0.000000,0.000000,0.000000,1770903463.664630,0.000000
198.000000,22446.337038,22501.478791,4169.114431,2776.176068,25998.140991,-9390.370177,9814.494528,-3735.624699,18068.725535,17989.086269,-4497.170984,9008.714141,17693.104469,23990.596711,-2171.919009,18261.866958,0.006000,-0.012000,1.008000,192.000000,0.000000,0.000000,0.000000,0.000000,0.000000,0.000000,0.000000,0.000000,0.000000,1770903463.664684,0.000000
200.000000,22443.744235,22486.681937,4179.686806,2790.861164,25983.746467,-9378.143773,9820.775368,-3724.940565,18062.042363,17996.730566,-4488.856135,9014.078559,17708.504821,24000.722051,-2172.723672,18248.455912,0.006000,-0.012000,1.008000,192.000000,0.000000,0.000000,0.000000,0.000000,0.000000,0.000000,0.000000,0.000000,0.000000,1770903463.664743,0.000000
202.000000,22452.126140,22507.357300,4169.919094,2775.930199,25991.703688,-9383.754061,9817.780235,-3732.361344,18022.233906,17982.291339,-4489.347874,9016.000809,17689.908169,23995.827019,-2177.037558,18239.090531,0.006000,-0.012000,1.008000,192.000000,0.000000,0.000000,0.000000,0.000000,0.000000,0.000000,0.000000,0.000000,0.000000,1770903463.664793,0.000000
204.000000,22452.573175,22498.282492,4175.574085,2789.050673,25996.241092,-9379.216657,9817.824938,-3730.148522,18106.209410,18004.330159,-4494.667589,9012.558641,17714.360978,24000.498533,-2179.362140,18274.361584,0.004000,-0.014000,1.002000,192.000000,0.000000,16.000000,127.500000,72.000000,15.500000,40.000000,0.000000,0.000000,0.000000,1770903463.664852,0.000000
206.000000,22447.119349,22498.327195,4179.463289,2786.860202,25988.999127,-9382.390604,9818.651953,-3728.270975,18026.145461,17985.331176,-4480.809507,9018.660667,17700.100565,23992.943644,-2172.366044,18226.461795,0.004000,-0.014000,1.002000,192.000000,0.000000,0.000000,0.000000,0.000000,0.000000,0.000000,0.000000,0.000000,0.000000,1770903463.664872,0.000000
208.000000,22453.958983,22511.246504,4172.757765,2779.841754,25997.448086,-9388.984369,9814.695694,-3734.305946,18079.655538,17993.623673,-4492.052435,9013.385655,17707.074309,24004.879475,-2175.383529,18263.364525,0.004000,-0.014000,1.002000,192.000000,0.000000,0.000000,0.000000,0.000000,0.000000,0.000000,0.000000,0.000000,0.000000,1770903463.664898,0.000000
210.000000,22446.404093,22494.639158,4183.866582,2792.448138,25987.769781,-9378.993139,9820.864775,-3723.957088,18078.046212,17996.372938,-4483.201144,9019.107702,17714.025702,24001.727879,-2170.779070,18246.533662,0.004000,-0.014000,1.002000,192.000000,0.000000,0.000000,0.000000,0.000000,0.000000,0.000000,0.000000,0.000000,0.000000,1770903463.664915,0.000000
212.000000,22446.560555,22504.071594,4170.857867,2778.902981,25990.429639,-9390.884267,9816.416778,-3733.970670,18024.357322,17985.711156,-4486.240981,9019.241812,17692.478620,23999.224484,-2173.550686,18231.647400,0.004000,-0.014000,1.002000,192.000000,0.000000,0.000000,0.000000,0.000000,0.000000,0.000000,0.000000,0.000000,0.000000,1770903463.664931,0.000000
214.000000,22448.683971,22498.796582,4177.541039,2785.630856,25993.134200,-9388.246761,9818.294325,-3724.784103,18104.957712,18001.536191,-4495.472252,9011.619867,17707.297827,24002.778411,-2173.394224,18265.063258,0.004000,-0.010000,1.004000,192.000000,0.000000,16.000000,127.500000,88.000000,15.500000,48.000000,0.000000,0.000000,0.000000,1770903463.664948,0.000000
216.000000,22441.777282,22494.236826,4178.144536,2785.429691,25990.049659,-9387.531506,9817.802586,-3725.119379,18029.811147,17989.645063,-4480.474231,9019.890013,17693.015062,24006.242932,-2168.454488,18220.270362,0.004000,-0.010000,1.004000,192.000000,0.000000,0.000000,0.000000,0.000000,0.000000,0.000000,0.000000,0.000000,0.000000,1770903463.664966,0.000000
218.000000,22447.007590,22509.503068,4164.286454,2780.355845,25998.900950,-9391.219543,9813.309886,-3733.255414,18080.437849,17995.389461,-4496.232211,9013.653876,17704.079175,23998.844504,-2168.633302,18260.972889,0.004000,-0.010000,1.004000,192.000000,0.000000,0.000000,0.000000,0.000000,0.000000,0.000000,0.000000,0.000000,0.000000,1770903463.664993,0.000000
220.000000,22437.172823,22490.817009,4178.211591,2792.448138,25989.043831,-9372.600540,9816.886165,-3727.131036,18071.251282,17998.138726,-4489.951371,9017.900707,17705.152059,24001.929045,-2168.253323,18251.987487,0.004000,-0.010000,1.004000,192.000000,0.000000,0.000000,0.000000,0.000000,0.000000,0.000000,0.000000,0.000000,0.000000,1770903463.665010,0.000000
222.000000,22442.447834,22505.546809,4167.683919,2779.707644,25995.861113,-9378.836677,9812.505223,-3734.954147,18025.899592,17981.620786,-4491.381883,9017.051341,17679.156980,24000.118554,-2171.315512,18242.823272,0.004000,-0.010000,1.004000,192.000000,0.000000,0.000000,0.000000,0.000000,0.000000,0.000000,0.000000,0.000000,0.000000,1770903463.665027,0.000000
224.000000,22444.325381,22495.019137,4172.735414,2786.077891,25999.370336,-9373.092279,9814.338066,-3730.752019,18100.621474,18000.083327,-4499.763787,9012.804510,17703.989769,24013.730766,-2173.193058,18278.027270,0.006000,-0.016000,1.014000,192.000000,0.000000,24.000000,127.500000,64.000000,15.500000,88.000000,0.000000,0.000000,0.000000,1770903463.665044,0.000000
226.000000,22438.223355,22492.336928,4173.338911,2788.693045,25989.982604,-9378.166125,9814.203955,-3731.668440,18025.787833,17978.692708,-4487.984417,9018.995943,17687.650643,23995.156466,-2171.628436,18235.469548,0.006000,-0.016000,1.014000,192.000000,0.000000,0.000000,0.000000,0.000000,0.000000,0.000000,0.000000,0.000000,0.000000,1770903463.665062,0.000000
228.000000,22443.341904,22504.049242,4165.985187,2779.394720,25998.453915,-9389.051424,9810.538269,-3738.910406,18078.672061,17988.907455,-4501.149595,9012.223364,17693.171524,24001.750231,-2172.008416,18272.931072,0.006000,-0.016000,1.014000,192.000000,0.000000,0.000000,0.000000,0.000000,0.000000,0.000000,0.000000,0.000000,0.000000,1770903463.665078,0.000000
230.000000,22439.452701,22481.518684,4180.156193,2784.692083,25989.200293,-9383.262322,9814.852156,-3731.623737,18071.564206,17986.471115,-4493.818223,9012.245716,17702.603960,24001.727879,-2169.013282,18250.288755,0.006000,-0.016000,1.014000,192.000000,0.000000,0.000000,0.000000,0.000000,0.000000,0.000000,0.000000,0.000000,0.000000,1770903463.665094,0.000000
232.000000,22441.889041,22497.366070,4171.036681,2772.756251,25992.374240,-9400.942552,9812.549926,-3738.642185,18033.700351,17968.165036,-4491.024255,9010.189356,17688.701175,23992.116629,-2168.096860,18231.267420,0.006000,-0.016000,1.014000,192.000000,0.000000,0.000000,0.000000,0.000000,0.000000,0.000000,0.000000,0.000000,0.000000,1770903463.665111,0.000000
234.000000,22440.659695,22489.498256,4178.613922,2778.970036,25993.402421,-9402.127195,9814.516880,-3733.031897,18106.164706,17986.225246,-4498.512089,9006.948353,17706.940199,23995.000004,-2168.052157,18262.224586,-0.004000,-0.014000,1.008000,192.000000,127.500000,112.000000,127.500000,72.000000,15.500000,64.000000,0.000000,0.000000,0.000000,1770903463.665127,0.000000
236.000000,22442.291372,22486.145495,4179.932675,2782.412205,25984.417019,-9399.444985,9818.830767,-3725.879338,18021.004560,17969.260272,-4483.156441,9016.246678,17694.579684,23989.322661,-2167.046328,18215.867068,-0.004000,-0.014000,1.008000,192.000000,0.000000,0.000000,0.000000,0.000000,0.000000,0.000000,0.000000,0.000000,0.000000,1770903463.665143,0.000000
238.000000,22450.382704,22503.289283,4171.841344,2776.265475,25988.038002,-9406.195212,9817.780235,-3729.120341,18077.979157,17984.168885,-4492.521822,9016.783120,17697.731280,23996.229350,-2172.298988,18249.998182,-0.004000,-0.014000,1.008000,192.000000,0.000000,0.000000,0.000000,0.000000,0.000000,0.000000,0.000000,0.000000,0.000000,1770903463.665161,0.000000
240.000000,22441.933744,22488.224207,4184.425376,2787.888382,25974.492845,-9393.387663,9822.921136,-3719.844367,18079.297910,17990.270911,-4482.977627,9022.885146,17709.287132,24000.587940,-2172.567209,18237.123577,-0.004000,-0.014000,1.008000,192.000000,0.000000,0.000000,0.000000,0.000000,0.000000,0.000000,0.000000,0.000000,0.000000,1770903463.665178,0.000000
242.000000,22443.923049,22499.623597,4170.634350,2777.941856,25986.786304,-9396.114575,9817.623772,-3731.623737,18032.582764,17975.854036,-4483.938752,9020.739379,17687.784754,23995.849370,-2170.756718,18225.165394,-0.004000,-0.014000,1.008000,192.000000,0.000000,0.000000,0.000000,0.000000,0.000000,0.000000,0.000000,0.000000,0.000000,1770903463.665198,0.000000
244.000000,22440.950267,22492.269873,4175.283513,2786.793147,25992.754220,-9382.167087,9817.132034,-3731.802551,18112.065567,17993.198990,-4495.785176,9015.129091,17718.540754,24001.325548,-2173.260113,18269.220682,-0.004000,-0.012000,1.006000,192.000000,127.500000,112.000000,127.500000,80.000000,15.500000,56.000000,0.000000,0.000000,0.000000,1770903463.665215,0.000000
246.000000,22426.399282,22482.256291,4174.791774,2785.742615,25984.864054,-9367.414936,9815.478005,-3733.993022,18015.170755,17969.617900,-4487.492679,9015.821995,17680.989823,24005.974711,-2169.035634,18233.726112,-0.004000,-0.012000,1.006000,192.000000,0.000000,0.000000,0.000000,0.000000,0.000000,0.000000,0.000000,0.000000,0.000000,1770903463.665233,0.000000
248.000000,22435.764663,22498.304844,4166.074594,2777.316007,25999.638557,-9374.746308,9810.292400,-3742.084353,18069.954880,17973.730621,-4502.513051,9010.457577,17687.583588,23994.552969,-2169.437965,18274.473342,-0.004000,-0.012000,1.006000,192.000000,0.000000,0.000000,0.000000,0.000000,0.000000,0.000000,0.000000,0.000000,0.000000,1770903463.665251,0.000000
250.000000,22424.901715,22474.634346,4178.032777,2784.312103,25992.553054,-9374.589845,9812.304057,-3736.965804,18061.237700,17974.512932,-4496.075749,9011.061074,17692.568027,24005.393565,-2161.525448,18259.698839,-0.004000,-0.012000,1.006000,192.000000,0.000000,0.000000,0.000000,0.000000,0.000000,0.000000,0.000000,0.000000,0.000000,1770903463.665271,0.000000
252.000000,22425.907543,22489.207684,4167.370995,2770.856353,25995.190560,-9394.035863,9810.024179,-3742.441981,18015.438976,17958.464379,-4496.343970,9009.362341,17682.956777,23991.893112,-2155.892808,18236.788301,-0.004000,-0.012000,1.006000,192.000000,0.000000,0.000000,0.000000,0.000000,0.000000,0.000000,0.000000,0.000000,0.000000,1770903463.665289,0.000000
254.000000,22432.836584,22480.758724,4175.775251,2772.510382,25998.453915,-9401.255477,9812.281705,-3737.703411,18090.697299,17966.041620,-4506.268144,9002.947390,17698.625350,23995.715260,-2158.999700,18265.175017,-0.003000,-0.010000,1.005000,192.000000,127.500000,120.000000,127.500000,96.000000,15.500000,48.000000,0.000000,0.000000,0.000000,1770903463.665308,0.000000
0.000000,22428.768567,22479.685841,4175.954065,2774.566743,25984.506426,-9407.648076,9816.550889,-3731.601385,18011.214496,17955.446894,-4489.012598,9013.229193,17702.939237,23984.449981,-2157.077450,18210.100318,-0.003000,-0.010000,1.005000,192.000000,0.000000,0.000000,0.000000,0.000000,0.000000,0.000000,0.000000,0.000000,0.000000,1770903463.665325,0.000000
2.000000,22440.749102,22498.684823,4172.266027,2771.951589,25983.969985,-9412.453701,9817.936697,-3731.087295,18061.617680,17964.968737,-4498.914420,9011.061074,17691.830420,23986.528693,-2169.080337,18240.342228,-0.003000,-0.010000,1.005000,192.000000,0.000000,0.000000,0.000000,0.000000,0.000000,0.000000,0.000000,0.000000,0.000000,1770903463.665343,0.000000
4.000000,22439.430349,22484.625576,4183.263085,2789.073025,25977.644441,-9399.959075,9824.575165,-3719.330277,18063.450523,17972.009536,-4486.643313,9021.655801,17702.939237,23995.201170,-2171.583733,18224.405435,-0.003000,-0.010000,1.005000,192.000000,0.000000,0.000000,0.000000,0.000000,0.000000,0.000000,0.000000,0.000000,0.000000,1770903463.665361,0.000000
6.000000,22448.549861,22507.469059,4173.405966,2780.266438,25982.651232,-9399.824965,9822.943488,-3721.945431,18024.334970,17964.901682,-4481.860039,9028.115455,17691.830420,24000.923216,-2175.517640,18213.341321,-0.003000,-0.010000,1.005000,192.000000,0.000000,0.000000,0.000000,0.000000,0.000000,0.000000,0.000000,0.000000,0.000000,1770903463.665379,0.000000
8.000000,22443.140738,22496.472001,4178.122184,2790.347074,25987.412153,-9388.269113,9823.636392,-3718.771484,18102.856648,17986.448763,-4488.543211,9026.148501,17708.460117,24018.871667,-2173.997721,18254.826159,0.001500,-0.008000,1.002500,192.000000,0.000000,24.000000,127.500000,104.000000,15.500000,32.000000,0.000000,0.000000,0.000000,1770903463.665396,0.000000
10.000000,22434.356503,22489.408849,4176.356396,2794.124519,25980.527816,-9381.876514,9821.378865,-3723.666516,18014.120223,17968.388554,-4481.636522,9031.423513,17700.815821,24005.974711,-2169.080337,18225.388911,0.001500,-0.008000,1.002500,192.000000,0.000000,0.000000,0.000000,0.000000,0.000000,0.000000,0.000000,0.000000,0.000000,1770903463.665413,0.000000
12.000000,22430.623761,22495.488524,4160.486658,2781.585190,25994.877636,-9383.821116,9811.499394,-3742.732554,18057.616718,17973.820028,-4500.568450,9020.605269,17703.609789,24006.980539,-2167.426308,18268.728944,0.001500,-0.008000,1.002500,192.000000,0.000000,0.000000,0.000000,0.000000,0.000000,0.000000,0.000000,0.000000,0.000000,1770903463.665431,0.000000
14.000000,22411.177744,22465.693649,4172.981283,2787.329589,25988.596796,-9374.701604,9809.733607,-3745.817095,18045.122092,17965.907510,-4505.396426,9011.128129,17709.130670,24005.997062,-2156.764526,18266.158493,0.001500,-0.008000,1.002500,192.000000,0.000000,0.000000,0.000000,0.000000,0.000000,0.000000,0.000000,0.000000,0.000000,1770903463.665449,0.000000
16.000000,22407.892037,22478.411791,4160.151382,2771.124574,25990.273176,-9385.385738,9803.564525,-3755.540103,17991.299092,17942.058199,-4510.313810,9003.886164,17671.803256,23989.724992,-2147.801476,18252.568633,0.001500,-0.008000,1.002500,192.000000,0.000000,0.000000,0.000000,0.000000,0.000000,0.000000,0.000000,0.000000,0.000000,1770903463.665465,0.000000
18.000000,22411.870648,22470.499274,4165.672262,2775.885496,25991.882502,-9380.446003,9805.933810,-3749.683946,18067.138561,17958.285565,-4521.780255,8996.331274,17690.846943,23993.569493,-2149.500209,18285.470401,0.003750,-0.008000,1.003250,192.000000,0.000000,24.000000,127.500000,96.000000,15.500000,48.000000,0.000000,0.000000,0.000000,1770903463.665478,0.000000
20.000000,22410.820116,22469.448742,4168.376823,2778.657112,25982.897101,-9387.218581,9810.270048,-3746.018260,17987.253426,17948.495501,-4505.530537,9005.495489,17683.828495,23988.965033,-2149.567264,18231.356827,0.003750,-0.008000,1.003250,192.000000,0.000000,0.000000,0.000000,0.000000,0.000000,0.000000,0.000000,0.000000,0.000000,1770903463.665490,0.000000
22.000000,22424.611142,22493.968605,4164.487620,2772.733900,25988.641499,-9397.858011,9810.024179,-3746.800571,18041.501110,17964.499350,-4514.650049,9004.489661,17692.098640,23994.776487,-2157.412727,18261.196406,0.003750,-0.008000,1.003250,192.000000,0.000000,0.000000,0.000000,0.000000,0.000000,0.000000,0.000000,0.000000,0.000000,1770903463.665502,0.000000
24.000000,22430.824927,22484.625576,4177.675149,2788.670693,25981.511293,-9391.219543,9818.674304,-3727.958051,18050.240642,17976.926920,-4498.601496,9015.844347,17698.535943,24013.127269,-2164.341767,18243.024438,0.003750,-0.008000,1.003250,192.000000,0.000000,0.000000,0.000000,0.000000,0.000000,0.000000,0.000000,0.000000,0.000000,1770903463.665514,0.000000
26.000000,22436.569326,22507.871390,4168.533286,2778.679464,25982.204197,-9407.826889,9820.730665,-3727.354554,18009.336950,17969.528493,-4489.861964,9024.963859,17691.539847,24002.040804,-2172.410747,18219.912734,0.003750,-0.008000,1.003250,192.000000,0.000000,0.000000,0.000000,0.000000,0.000000,0.000000,0.000000,0.000000,0.000000,1770903463.665528,0.000000
28.000000,22439.765625,22502.819896,4176.043472,2785.899077,25983.500598,-9403.848279,9823.949316,-3720.671382,18084.394107,17987.543999,-4494.220554,9024.583879,17706.202591,24006.064118,-2177.372834,18255.742580,0.003750,-0.008000,1.003250,192.000000,0.000000,0.000000,127.500000,88.000000,15.500000,56.000000,0.000000,0.000000,0.000000,1770903463.665541,0.000000
30.000000,22438.066892,22497.813105,4177.652797,2784.982656,25977.309165,-9404.407073,9825.245717,-3718.033876,18015.304865,17974.714097,-4477.814374,9031.244699,17695.607864,24003.337205,-2177.126965,18210.770871,0.003750,-0.008000,1.003250,192.000000,0.000000,0.000000,0.000000,0.000000,0.000000,0.000000,0.000000,0.000000,0.000000,1770903463.665554,0.000000
32.000000,22437.239878,22503.803373,4168.086251,2778.008911,25991.122543,-9401.546049,9819.255450,-3730.014411,18053.079313,17981.352565,-4493.751168,9024.114492,17698.558295,24008.835734,-2174.377701,18249.193519,0.003750,-0.008000,1.003250,192.000000,0.000000,0.000000,0.000000,0.000000,0.000000,0.000000,0.000000,0.000000,0.000000,1770903463.665565,0.000000
34.000000,22428.545049,22482.457457,4180.223248,2793.208098,25989.244996,-9381.831811,9820.641258,-3726.505187,18050.173587,17981.039641,-4489.571391,9024.516824,17711.634065,24004.208923,-2165.705224,18246.801883,0.003750,-0.008000,1.003250,192.000000,0.000000,0.000000,0.000000,0.000000,0.000000,0.000000,0.000000,0.000000,0.000000,1770903463.665578,0.000000
36.000000,22432.143680,22495.644986,4164.308806,2780.579362,26005.137087,-9388.649093,9814.271011,-3737.457542,17999.837458,17969.081458,-4490.465461,9023.220423,17701.195800,23996.676385,-2157.837410,18235.536603,0.003750,-0.008000,1.003250,192.000000,0.000000,0.000000,0.000000,0.000000,0.000000,0.000000,0.000000,0.000000,0.000000,1770903463.665590,0.000000
38.000000,22424.141756,22477.651832,4173.674187,2781.764004,26008.825124,-9380.222485,9812.281705,-3741.749077,18077.889750,17978.603301,-4504.122377,9012.178661,17702.335739,24007.516981,-2149.835485,18280.821238,0.002875,-0.009000,1.006625,192.000000,0.000000,8.000000,127.500000,88.000000,15.500000,72.000000,0.000000,0.000000,0.000000,1770903463.665602,0.000000
40.000000,22412.720014,22469.471093,4170.567294,2781.764004,25996.777534,-9380.647168,9810.605325,-3744.610100,17994.473039,17957.883234,-4496.902763,9013.877393,17681.883893,23998.933911,-2139.129000,18240.677505,0.002875,-0.009000,1.006625,192.000000,0.000000,0.000000,0.000000,0.000000,0.000000,0.000000,0.000000,0.000000,0.000000,1770903463.665614,0.000000
42.000000,22418.106785,22484.200893,4163.235922,2773.024472,26003.594816,-9389.967846,9806.604362,-3749.907464,18039.131825,17959.201987,-4512.280764,9003.863812,17684.007309,24000.967920,-2139.173703,18273.109886,0.002875,-0.009000,1.006625,192.000000,0.000000,0.000000,0.000000,0.000000,0.000000,0.000000,0.000000,0.000000,0.000000,1770903463.665626,0.000000
44.000000,22418.754985,22469.113465,4174.680015,2788.782452,25995.279967,-9377.652034,9814.539232,-3735.870568,18038.885956,17969.349679,-4504.189432,9013.877393,17703.989769,24001.772583,-2142.012375,18262.693973,0.002875,-0.009000,1.006625,192.000000,0.000000,0.000000,0.000000,0.000000,0.000000,0.000000,0.000000,0.000000,0.000000,1770903463.665637,0.000000
46.000000,22423.225334,22492.336928,4166.901608,2778.277132,25995.905816,-9389.364349,9814.583935,-3738.329260,17991.634368,17957.838530,-4496.835708,9017.788949,17681.079230,23997.682214,-2148.382622,18245.773702,0.002875,-0.009000,1.006625,192.000000,0.000000,0.000000,0.000000,0.000000,0.000000,0.000000,0.000000,0.000000,0.000000,1770903463.665650,0.000000
48.000000,22431.026093,22487.821876,4172.958931,2784.289752,25996.330499,-9386.369215,9818.920174,-3729.589728,18076.906273,17981.687842,-4502.848327,9016.201975,17699.921751,24006.421746,-2157.725651,18279.033098,0.002437,-0.010500,1.007313,192.000000,0.000000,8.000000,127.500000,80.000000,15.500000,64.000000,0.000000,0.000000,0.000000,1770903463.665662,0.000000
50.000000,22429.148546,22491.040527,4175.395271,2788.111900,25981.645403,-9381.943569,9823.435226,-3721.856024,18003.324330,17968.366202,-4484.430490,9027.914289,17690.846943,24004.208923,-2163.961788,18229.747502,0.002437,-0.010500,1.007313,192.000000,0.000000,0.000000,0.000000,0.000000,0.000000,0.000000,0.000000,0.000000,0.000000,1770903463.665674,0.000000
52.000000,22433.954171,22506.530286,4167.102774,2780.892286,25990.004956,-9388.894962,9819.434264,-3727.220443,18053.883976,17982.514856,-4493.594705,9028.495434,17690.913998,24006.578208,-2170.913180,18261.419923,0.002437,-0.010500,1.007313,192.000000,0.000000,0.000000,0.000000,0.000000,0.000000,0.000000,0.000000,0.000000,0.000000,1770903463.665686,0.000000
54.000000,22423.650017,22483.731506,4176.177582,2792.604601,25980.103133,-9376.042709,9821.915307,-3722.079542,18051.112360,17985.644100,-4488.543211,9031.959955,17699.362957,24012.791993,-2168.342730,18249.998182,0.002437,-0.010500,1.007313,192.000000,0.000000,0.000000,0.000000,0.000000,0.000000,0.000000,0.000000,0.000000,0.000000,1770903463.665698,0.000000
56.000000,22423.448852,22492.806315,4162.140687,2777.181897,25983.858226,-9385.430442,9815.276839,-3736.205844,17998.250484,17966.756876,-4492.432415,9026.394370,17679.693422,24003.828943,-2165.414651,18236.855356,0.002437,-0.010500,1.007313,192.000000,0.000000,0.000000,0.000000,0.000000,0.000000,0.000000,0.000000,0.000000,0.000000,1770903463.665711,0.000000
58.000000,22417.413881,22477.897701,4165.985187,2780.691121,25980.751333,-9376.512096,9813.823976,-3737.904577,18068.054982,17978.200969,-4508.078636,9014.793815,17698.290074,24013.909580,-2162.151296,18279.681299,0.002437,-0.010500,1.007313,192.000000,0.000000,0.000000,127.500000,72.000000,15.500000,48.000000,0.000000,0.000000,0.000000,1770903464.145045,0.000000
60.000000,22410.104860,22472.108599,4166.923960,2785.161470,25972.615298,-9380.334244,9814.047493,-3737.122266,17988.728641,17958.531434,-4498.288572,9018.973591,17673.323175,23997.570455,-2153.568227,18239.872842,0.002437,-0.010500,1.007313,192.000000,0.000000,0.000000,0.000000,0.000000,0.000000,0.000000,0.000000,0.000000,0.000000,1770903464.145112,0.000000
62.000000,22418.598523,22489.185332,4161.492486,2775.572571,25982.785342,-9391.711282,9810.337104,-3743.760734,18030.481700,17968.679126,-4511.096121,9015.754940,17670.797428,23998.755097,-2150.081354,18271.344098,0.002437,-0.010500,1.007313,192.000000,0.000000,0.000000,0.000000,0.000000,0.000000,0.000000,0.000000,0.000000,0.000000,1770903464.145159,0.000000
64.000000,22417.816212,22474.008497,4173.070690,2788.290714,25984.998165,-9376.713261,9815.679171,-3734.104780,18044.786816,17980.525551,-4503.630639,9020.202937,17700.234675,24017.239990,-2146.482724,18261.822255,0.002437,-0.010500,1.007313,192.000000,0.000000,0.000000,0.000000,0.000000,0.000000,0.000000,0.000000,0.000000,0.000000,1770903464.145202,0.000000
66.000000,22429.349712,22489.967643,4168.130954,2777.092490,25992.351889,-9392.381834,9815.165080,-3737.993984,17990.360318,17961.660679,-4497.126281,9022.169891,17654.726524,23995.916426,-2144.605177,18241.415112,0.002437,-0.010500,1.007313,192.000000,0.000000,0.000000,0.000000,0.000000,0.000000,0.000000,0.000000,0.000000,0.000000,1770903464.145245,0.000000
68.000000,22427.136889,22490.392326,4175.797603,2783.485089,26003.795982,-9387.598561,9818.629601,-3730.461446,18075.095782,17980.838475,-4503.004790,9021.745208,17677.458248,24005.438269,-2148.360270,18274.674508,0.002437,-0.010500,1.007313,192.000000,0.000000,0.000000,0.000000,0.000000,0.000000,0.000000,0.000000,0.000000,0.000000,1770903464.145289,0.000000
70.000000,22435.965828,22493.968605,4179.977379,2789.117728,25998.610377,-9385.028110,9822.429397,-3720.805492,18015.573086,17973.618862,-4484.765766,9032.786969,17679.469905,24007.986368,-2149.231988,18228.205231,0.002437,-0.010500,1.007313,192.000000,0.000000,0.000000,127.500000,80.000000,15.500000,32.000000,0.000000,0.000000,0.000000,1770903464.145327,0.000000
72.000000,22440.927916,22514.487507,4171.282550,2783.395682,26013.496639,-9387.755023,9820.373037,-3724.761751,18068.032630,17985.062955,-4491.672455,9031.557623,17687.360071,24010.847391,-2153.612930,18263.230415,0.002437,-0.010500,1.007313,192.000000,0.000000,0.000000,0.000000,0.000000,0.000000,0.000000,0.000000,0.000000,0.000000,1770903464.145343,0.000000
74.000000,22440.324419,22497.254312,4181.810222,2798.326647,26004.153610,-9369.225427,9824.373999,-3714.256431,18068.367907,17993.847191,-4483.268199,9039.313679,17701.218152,24019.341054,-2156.317491,18254.535586,0.002437,-0.010500,1.007313,192.000000,0.000000,0.000000,0.000000,0.000000,0.000000,0.000000,0.000000,0.000000,0.000000,1770903464.145359,0.000000
76.000000,22439.296238,22506.507934,4170.522591,2786.055539,26002.656043,-9379.663691,9819.501319,-3724.538234,18021.988037,17977.686879,-4480.585990,9042.129998,17681.258044,24014.267208,-2158.865590,18238.956420,0.002437,-0.010500,1.007313,192.000000,0.000000,0.000000,0.000000,0.000000,0.000000,0.000000,0.000000,0.000000,0.000000,1770903464.145376,0.000000
78.000000,22426.466337,22489.610015,4171.930751,2786.681388,26010.143877,-9373.494610,9816.550889,-3731.042591,18088.886808,17986.627577,-4497.416854,9026.282612,17693.551504,24013.306083,-2156.518657,18281.715307,0.002437,-0.010500,1.007313,192.000000,0.000000,0.000000,0.000000,0.000000,0.000000,0.000000,0.000000,0.000000,0.000000,1770903464.145389,0.000000
80.000000,22422.063043,22479.059992,4173.785946,2788.380121,26000.443220,-9374.880418,9816.617944,-3732.584862,18002.765537,17961.705382,-4489.705502,9027.042571,17678.352318,24005.460621,-2149.276692,18244.723170,0.002000,-0.012000,1.000000,192.000000,0.000000,8.000000,127.500000,80.000000,15.500000,32.000000,0.000000,0.000000,0.000000,1770903464.145401,0.000000
82.000000,22430.087320,22490.191160,4166.119297,2773.605618,26013.921322,-9386.995064,9810.851194,-3741.749077,18043.915098,17960.274870,-4506.670476,9014.391484,17679.872236,24000.789106,-2144.582825,18279.211912,0.002000,-0.012000,1.000000,192.000000,0.000000,0.000000,0.000000,0.000000,0.000000,0.000000,0.000000,0.000000,0.000000,1770903464.145413,0.000000
84.000000,22426.980427,22474.924919,4181.385539,2782.635722,26013.675453,-9378.322587,9815.232136,-3731.310812,18047.893709,17966.868635,-4495.315790,9016.850175,17687.158905,24005.102993,-2131.015316,18265.554996,0.002000,-0.012000,1.000000,192.000000,0.000000,0.000000,0.000000,0.000000,0.000000,0.000000,0.000000,0.000000,0.000000,1770903464.145425,0.000000
86.000000,22433.149509,22495.041489,4171.751937,2777.204249,26021.587970,-9396.114575,9813.958086,-3735.691754,18000.552714,17957.145626,-4492.477118,9022.952202,17673.591396,23991.200208,-2127.148465,18240.051656,0.002000,-0.012000,1.000000,192.000000,0.000000,0.000000,0.000000,0.000000,0.000000,0.000000,0.000000,0.000000,0.000000,1770903464.145437,0.000000
88.000000,22443.274849,22496.807277,4179.172716,2784.043882,26026.170078,-9389.207886,9818.808415,-3726.013449,18084.796439,17983.833609,-4497.148633,9026.461426,17711.388196,24008.411051,-2132.915215,18273.154589,0.002000,-0.012000,1.000000,192.000000,0.000000,0.000000,0.000000,0.000000,0.000000,0.000000,0.000000,0.000000,0.000000,1770903464.145449,0.000000
90.000000,22441.240840,22494.437992,4183.955989,2788.178955,26014.658930,-9390.370177,9821.423569,-3719.531443,18014.254333,17973.372993,-4479.356644,9035.692696,17671.915015,24005.907655,-2132.043497,18226.238278,0.008000,-0.010000,1.000000,192.000000,0.000000,32.000000,127.500000,88.000000,15.500000,32.000000,0.000000,0.000000,0.000000,1770903464.145473,0.000000
92.000000,22454.294259,22513.727547,4174.143574,2781.316970,26018.235209,-9397.098052,9818.607249,-3723.822978,18066.959747,17985.845266,-4487.067996,9033.256356,17685.124896,24004.991234,-2142.615872,18259.788246,0.008000,-0.010000,1.000000,192.000000,0.000000,0.000000,0.000000,0.000000,0.000000,0.000000,0.000000,0.000000,0.000000,1770903464.145490,0.000000
94.000000,22450.561518,22494.102716,4183.799527,2795.130348,26009.138049,-9380.602465,9822.921136,-3715.195205,18065.350421,17990.092098,-4481.770632,9037.704353,17696.680748,24017.932894,-2146.773296,18255.027325,0.008000,-0.010000,1.000000,192.000000,0.000000,0.000000,0.000000,0.000000,0.000000,0.000000,0.000000,0.000000,0.000000,1770903464.145507,0.000000
96.000000,22456.082398,22509.100736,4168.734451,2787.061368,26008.646310,-9381.429479,9820.171871,-3722.772446,18012.265028,17975.876388,-4480.943618,9039.380734,17679.246387,24014.691891,-2152.316529,18241.169243,0.008000,-0.010000,1.000000,192.000000,0.000000,0.000000,0.000000,0.000000,0.000000,0.000000,0.000000,0.000000,0.000000,1770903464.145523,0.000000
98.000000,22444.124215,22499.467134,4173.294207,2793.364560,26012.647273,-9370.633587,9819.590726,-3722.437170,18085.578750,17990.360318,-4494.019388,9036.653821,17692.970358,24016.860010,-2155.669291,18285.023366,0.008000,-0.010000,1.000000,192.000000,0.000000,0.000000,0.000000,0.000000,0.000000,0.000000,0.000000,0.000000,0.000000,1770903464.145540,0.000000
100.000000,22432.791881,22488.157152,4174.277684,2791.576420,26011.462630,-9364.330395,9816.819110,-3729.790894,18008.040548,17972.568330,-4487.067996,9036.318545,17679.380498,24011.652054,-2148.516732,18247.807711,0.004000,-0.018000,1.004000,192.000000,0.000000,16.000000,127.500000,56.000000,15.500000,48.000000,0.000000,0.000000,0.000000,1770903464.145557,0.000000
102.000000,22435.652904,22497.142553,4165.202876,2777.584228,26028.047625,-9375.036880,9810.225345,-3742.062001,18046.351438,17970.959004,-4503.094197,9020.694676,17674.329004,24008.969844,-2143.174665,18285.939787,0.004000,-0.018000,1.004000,192.000000,0.000000,0.000000,0.000000,0.000000,0.000000,0.000000,0.000000,0.000000,0.000000,1770903464.145575,0.000000
104.000000,22434.423558,22476.869521,4180.871449,2786.033188,26030.260447,-9366.945549,9814.315714,-3730.304984,18058.466084,17966.980394,-4494.980513,9019.241812,17691.852771,24011.137964,-2130.747095,18275.143895,0.004000,-0.018000,1.004000,192.000000,0.000000,0.000000,0.000000,0.000000,0.000000,0.000000,0.000000,0.000000,0.000000,1770903464.145592,0.000000
106.000000,22441.352599,22494.102716,4174.545905,2776.980731,26033.836726,-9379.864857,9814.829804,-3733.881263,18011.527420,17955.402190,-4491.471290,9023.846271,17693.104469,24006.153525,-2123.885110,18248.567670,0.004000,-0.018000,1.004000,192.000000,0.000000,0.000000,0.000000,0.000000,0.000000,0.000000,0.000000,0.000000,0.000000,1770903464.145610,0.000000
108.000000,22442.716055,22494.192123,4184.492431,2777.740690,26040.184622,-9385.609256,9818.495490,-3728.226272,18102.051986,17981.665490,-4495.449900,9021.722856,17702.380443,24014.758946,-2123.549834,18275.613281,0.004000,-0.018000,1.004000,192.000000,0.000000,0.000000,0.000000,0.000000,0.000000,0.000000,0.000000,0.000000,0.000000,1770903464.145627,0.000000
110.000000,22437.083416,22489.185332,4186.504088,2786.301409,26024.493697,-9392.471241,9821.535328,-3722.928908,18024.469081,17967.852112,-4477.926132,9032.898728,17694.266760,24012.344958,-2123.080447,18226.350036,0.002000,-0.014000,1.006000,192.000000,0.000000,8.000000,127.500000,72.000000,15.500000,56.000000,0.000000,0.000000,0.000000,1770903464.145645,0.000000
112.000000,22454.495425,22511.984111,4174.031815,2778.813574,26025.208953,-9403.445948,9819.478967,-3723.711219,18065.685697,17969.059106,-4487.380920,9028.048399,17704.995597,24004.186571,-2132.535235,18254.468531,0.002000,-0.014000,1.006000,192.000000,0.000000,0.000000,0.000000,0.000000,0.000000,0.000000,0.000000,0.000000,0.000000,1770903464.145663,0.000000
114.000000,22452.215547,22496.829629,4190.549754,2793.252801,26007.573427,-9388.805555,9825.156310,-3711.082484,18084.282349,17980.927882,-4476.517973,9037.145559,17712.818708,24017.508211,-2140.067773,18247.427731,0.002000,-0.014000,1.006000,192.000000,0.000000,0.000000,0.000000,0.000000,0.000000,0.000000,0.000000,0.000000,0.000000,1770903464.145680,0.000000
116.000000,22453.914279,22510.777117,4175.551733,2783.552144,26010.680319,-9397.746253,9820.976534,-3718.659725,18035.287325,17968.388554,-4473.567542,9040.095990,17681.012175,24018.178763,-2148.941415,18228.428749,0.002000,-0.014000,1.006000,192.000000,0.000000,0.000000,0.000000,0.000000,0.000000,0.000000,0.000000,0.000000,0.000000,1770903464.145698,0.000000
118.000000,22443.677180,22503.222227,4176.892838,2788.514231,26011.507334,-9387.732671,9818.763711,-3719.866719,18098.699224,17986.851095,-4489.414929,9031.870548,17698.737109,24020.972731,-2154.015261,18271.321746,0.002000,-0.014000,1.006000,192.000000,0.000000,0.000000,0.000000,0.000000,0.000000,0.000000,0.000000,0.000000,0.000000,1770903464.145716,0.000000
120.000000,22436.636381,22495.846152,4178.926847,2792.403435,26005.695880,-9382.278846,9818.428435,-3719.330277,18016.534211,17972.814199,-4479.244885,9038.732533,17685.549579,24011.652054,-2150.774258,18231.982676,0.002000,-0.014000,1.006000,192.000000,0.000000,0.000000,127.500000,80.000000,15.500000,72.000000,0.000000,0.000000,0.000000,1770903464.145736,0.000000
122.000000,22434.982352,22505.278588,4169.494411,2781.339321,26017.877581,-9382.457660,9812.773444,-3732.830731,18059.069581,17976.837513,-4494.868755,9031.334106,17687.136553,24014.513077,-2149.455506,18267.678412,0.002000,-0.014000,1.006000,192.000000,0.000000,0.000000,0.000000,0.000000,0.000000,0.000000,0.000000,0.000000,0.000000,1770903464.145757,0.000000
124.000000,22423.739424,22480.378745,4182.369015,2788.916563,26018.168154,-9364.151581,9814.852156,-3728.181568,18062.265880,17973.529455,-4493.371188,9027.042571,17697.820687,24016.860010,-2140.604215,18266.359659,0.002000,-0.014000,1.006000,192.000000,0.000000,0.000000,0.000000,0.000000,0.000000,0.000000,0.000000,0.000000,0.000000,1770903464.145775,0.000000
126.000000,22432.143680,22493.610977,4172.109565,2776.690158,26030.171040,-9373.807534,9809.152461,-3737.815170,18007.057072,17954.977507,-4491.292476,9023.734513,17687.672995,24004.566551,-2130.098895,18247.226566,0.002000,-0.014000,1.006000,192.000000,0.000000,0.000000,0.000000,0.000000,0.000000,0.000000,0.000000,0.000000,0.000000,1770903464.145792,0.000000
128.000000,22429.841450,22485.743163,4179.776213,2779.953513,26041.369264,-9367.794915,9810.270048,-3735.267071,18092.440735,17965.326365,-4500.233173,9015.598478,17708.370710,24006.578208,-2123.505130,18288.085555,0.002000,-0.014000,1.006000,192.000000,0.000000,0.000000,0.000000,0.000000,0.000000,0.000000,0.000000,0.000000,0.000000,1770903464.145804,0.000000
130.000000,22425.460509,22482.278643,4183.687768,2782.658074,26039.961104,-9359.345956,9812.192298,-3736.049382,18018.925848,17953.725809,-4486.799775,9021.476987,17707.163716,23999.313891,-2112.239851,18247.181862,0.005000,-0.012000,1.006000,192.000000,0.000000,32.000000,127.500000,88.000000,15.500000,56.000000,0.000000,0.000000,0.000000,1770903464.145816,0.000000
132.000000,22436.390512,22501.121164,4178.032777,2767.257722,26058.401294,-9367.370232,9808.481909,-3740.676193,18054.174549,17957.257385,-4499.450862,9014.950277,17703.140402,24008.165182,-2110.138787,18276.641461,0.005000,-0.012000,1.006000,192.000000,0.000000,0.000000,0.000000,0.000000,0.000000,0.000000,0.000000,0.000000,0.000000,1770903464.145828,0.000000
134.000000,22434.423558,22488.537131,4190.281533,2789.877688,26044.073825,-9365.045651,9817.355551,-3724.672344,18073.933491,17971.204873,-4487.716197,9023.578051,17728.174356,24014.758946,-2109.781159,18263.006897,0.005000,-0.012000,1.006000,192.000000,0.000000,0.000000,0.000000,0.000000,0.000000,0.000000,0.000000,0.000000,0.000000,1770903464.145840,0.000000
136.000000,22440.033846,22505.010367,4177.742204,2778.232429,26038.865869,-9386.056290,9816.282668,-3727.734533,18019.059958,17956.631536,-4480.027196,9027.020219,17717.892554,23996.117591,-2119.682982,18236.117749,0.005000,-0.012000,1.006000,192.000000,0.000000,0.000000,0.000000,0.000000,0.000000,0.000000,0.000000,0.000000,0.000000,1770903464.145853,0.000000
138.000000,22446.828776,22503.155172,4178.770385,2788.201307,26035.781328,-9380.557761,9818.942525,-3723.487702,18100.129735,17976.345775,-4491.672455,9024.919155,17721.781757,24012.501420,-2131.060020,18274.808618,0.005000,-0.012000,1.006000,192.000000,0.000000,0.000000,0.000000,0.000000,0.000000,0.000000,0.000000,0.000000,0.000000,1770903464.145864,0.000000
140.000000,22438.111596,22495.421469,4183.978341,2791.710531,26016.558828,-9383.821116,9820.440092,-3721.408990,18029.453520,17969.684955,-4476.585028,9036.586766,17719.256010,24010.757984,-2137.050287,18230.462757,0.005500,-0.012000,1.004000,192.000000,0.000000,24.000000,127.500000,80.000000,15.500000,40.000000,0.000000,0.000000,0.000000,1770903464.145876,0.000000
142.000000,22446.851128,22510.419489,4172.936579,2780.869935,26010.568560,-9396.740424,9816.595592,-3726.974574,18069.865473,17975.630519,-4491.605400,9026.975516,17690.422260,24006.041766,-2144.985157,18259.631784,0.005500,-0.012000,1.004000,192.000000,0.000000,0.000000,0.000000,0.000000,0.000000,0.000000,0.000000,0.000000,0.000000,1770903464.145893,0.000000
144.000000,22430.757872,22488.559483,4182.212553,2789.341246,25994.140028,-9390.861915,9819.210746,-3719.173815,18083.790610,17978.692708,-4483.111737,9030.998830,17705.219114,24009.998025,-2149.790782,18251.719266,0.005500,-0.012000,1.004000,192.000000,0.000000,0.000000,0.000000,0.000000,0.000000,0.000000,0.000000,0.000000,0.000000,1770903464.145910,0.000000
146.000000,22434.132985,22502.395213,4170.120260,2778.455946,26000.577331,-9399.444985,9815.925040,-3726.326373,18028.112415,17960.699554,-4484.385787,9028.562490,17690.802239,24001.437307,-2144.068735,18228.004066,0.005500,-0.012000,1.004000,192.000000,0.000000,0.000000,0.000000,0.000000,0.000000,0.000000,0.000000,0.000000,0.000000,1770903464.145928,0.000000
148.000000,22433.149509,22494.147419,4174.925885,2782.993350,26009.093345,-9389.766680,9815.098025,-3728.159216,18097.402823,17980.145571,-4498.109758,9025.790873,17703.028643,24003.247798,-2143.442886,18271.992299,0.005500,-0.012000,1.004000,192.000000,0.000000,0.000000,0.000000,0.000000,0.000000,0.000000,0.000000,0.000000,0.000000,1770903464.145946,0.000000
150.000000,22428.388587,22486.078439,4180.692635,2783.686254,26012.311996,-9384.603427,9816.036798,-3725.722876,18026.525441,17961.794789,-4484.832821,9028.003696,17703.095699,23998.732745,-2130.523578,18229.926316,0.003750,-0.014000,1.004000,192.000000,0.000000,8.000000,127.500000,64.000000,15.500000,48.000000,0.000000,0.000000,0.000000,1770903464.145963,0.000000
152.000000,22437.619858,22506.172658,4174.657664,2772.800955,26028.785232,-9390.705453,9811.901726,-3734.887092,18070.491322,17969.461437,-4496.165156,9021.834614,17709.912981,23996.721088,-2124.354497,18261.174054,0.003750,-0.014000,1.004000,192.000000,0.000000,0.000000,0.000000,0.000000,0.000000,0.000000,0.000000,0.000000,0.000000,1770903464.145981,0.000000
154.000000,22434.580020,22486.324309,4187.487565,2785.563801,26035.043721,-9375.170991,9817.512014,-3724.068847,18085.735212,17973.976490,-4487.827955,9023.868623,17723.860469,24001.616121,-2116.933717,18255.921394,0.003750,-0.014000,1.004000,192.000000,0.000000,0.000000,0.000000,0.000000,0.000000,0.000000,0.000000,0.000000,0.000000,1770903464.146002,0.000000
156.000000,22443.185442,22503.915132,4181.139670,2775.773737,26043.313866,-9387.129174,9816.617944,-3726.862815,18035.287325,17960.990126,-4482.172964,9029.188338,17709.242428,23996.944606,-2116.017296,18230.753330,0.003750,-0.014000,1.004000,192.000000,0.000000,0.000000,0.000000,0.000000,0.000000,0.000000,0.000000,0.000000,0.000000,1770903464.146020,0.000000
158.000000,22448.303991,22503.512800,4187.889896,2784.513269,26047.381884,-9382.703529,9820.171871,-3718.905594,18116.580619,17987.409888,-4489.079653,9028.651897,17728.420225,24012.993158,-2119.079485,18270.718249,0.003750,-0.014000,1.004000,192.000000,0.000000,0.000000,0.000000,0.000000,0.000000,0.000000,0.000000,0.000000,0.000000,1770903464.146038,0.000000
160.000000,22443.923049,22497.678995,4184.224210,2790.280019,26034.641389,-9382.547067,9822.228232,-3713.429417,18048.765427,17974.445876,-4472.517010,9037.927871,17735.192804,24001.236141,-2124.443903,18226.506499,0.003750,-0.014000,1.004000,192.000000,0.000000,0.000000,127.500000,64.000000,15.500000,48.000000,0.000000,0.000000,0.000000,1770903464.146056,0.000000
162.000000,22443.163090,22509.257198,4178.189239,2779.506478,26031.310979,-9395.578134,9818.495490,-3723.845330,18087.568055,17984.459458,-4484.631656,9033.479873,17717.065539,24008.187533,-2135.820941,18254.848511,0.003750,-0.014000,1.004000,192.000000,0.000000,0.000000,0.000000,0.000000,0.000000,0.000000,0.000000,0.000000,0.000000,1770903464.146074,0.000000
164.000000,22432.277791,22489.498256,4185.274742,2790.257667,26017.005863,-9384.044633,9820.663610,-3720.581975,18089.043270,17983.833609,-4484.542249,9034.016315,17716.193821,24009.930969,-2138.726668,18247.025400,0.003750,-0.014000,1.004000,192.000000,0.000000,0.000000,0.000000,0.000000,0.000000,0.000000,0.000000,0.000000,0.000000,1770903464.146092,0.000000
166.000000,22438.670389,22502.104640,4175.283513,2778.411243,26019.509258,-9393.968808,9817.579069,-3726.684001,18035.421435,17967.695650,-4481.189487,9035.536234,17709.957684,24002.130211,-2138.324337,18224.137214,0.003750,-0.014000,1.004000,192.000000,0.000000,0.000000,0.000000,0.000000,0.000000,0.000000,0.000000,0.000000,0.000000,1770903464.146110,0.000000
168.000000,22439.452701,22496.673166,4178.971550,2781.942818,26022.102061,-9392.247724,9818.584897,-3722.168949,18117.586448,17980.927882,-4493.326484,9030.574147,17723.100510,24003.426612,-2141.654747,18263.968022,0.003750,-0.014000,1.004000,192.000000,0.000000,0.000000,0.000000,0.000000,0.000000,0.000000,0.000000,0.000000,0.000000,1770903464.146128,0.000000
170.000000,22439.676218,22492.180466,4180.513821,2785.094414,26020.202162,-9392.583000,9819.166043,-3719.486740,18045.077389,17972.814199,-4478.887257,9037.279670,17720.328894,23998.956263,-2137.631433,18222.751406,0.002875,-0.014000,1.005000,192.000000,0.000000,8.000000,127.500000,72.000000,15.500000,56.000000,0.000000,0.000000,0.000000,1770903464.146146,0.000000
172.000000,22442.336076,22502.104640,4171.059033,2775.304350,26029.478136,-9399.266171,9814.338066,-3729.746190,18087.657462,17976.904568,-4491.203069,9032.630507,17716.909077,23997.682214,-2138.234930,18252.233357,0.002875,-0.014000,1.005000,192.000000,0.000000,0.000000,0.000000,0.000000,0.000000,0.000000,0.000000,0.000000,0.000000,1770903464.146164,0.000000
174.000000,22435.675256,22487.106620,4185.565315,2789.721225,26024.471345,-9381.854162,9818.763711,-3719.017353,18093.692433,17981.643138,-4484.072862,9032.898728,17722.497013,24006.779374,-2133.295194,18248.142987,0.002875,-0.014000,1.005000,192.000000,0.000000,0.000000,0.000000,0.000000,0.000000,0.000000,0.000000,0.000000,0.000000,1770903464.146182,0.000000
176.000000,22437.306933,22498.997748,4174.791774,2777.807746,26028.740529,-9392.940628,9813.891031,-3726.572243,18044.228023,17970.511969,-4478.127298,9034.731571,17712.595190,23999.358594,-2128.869549,18224.763063,0.002875,-0.014000,1.005000,192.000000,0.000000,0.000000,0.000000,0.000000,0.000000,0.000000,0.000000,0.000000,0.000000,1770903464.146200,0.000000
178.000000,22443.543070,22495.063841,4180.335007,2783.306275,26040.899878,-9384.648130,9813.958086,-3724.627641,18119.374587,17980.234978,-4492.074787,9026.997867,17729.358998,23995.044708,-2127.327279,18266.627880,0.002875,-0.014000,1.005000,192.000000,0.000000,0.000000,0.000000,0.000000,0.000000,0.000000,0.000000,0.000000,0.000000,1770903464.625995,0.000000
180.000000,22433.462433,22492.403983,4183.531306,2786.681388,26041.056340,-9377.160296,9816.953220,-3722.079542,18048.631316,17975.563464,-4478.060243,9037.994926,17712.639894,24015.317740,-2124.466255,18225.098339,0.003438,-0.016000,1.004500,192.000000,0.000000,16.000000,127.500000,56.000000,15.500000,48.000000,0.000000,0.000000,0.000000,1770903464.626069,0.000000
182.000000,22445.934706,22509.547771,4174.232981,2779.595885,26048.722988,-9384.737537,9814.718046,-3727.443961,18092.776012,17980.883179,-4488.744377,9033.748094,17717.445519,24008.299292,-2126.813188,18256.167264,0.003438,-0.016000,1.004500,192.000000,0.000000,0.000000,0.000000,0.000000,0.000000,0.000000,0.000000,0.000000,0.000000,1770903464.626124,0.000000
184.000000,22445.711189,22496.896684,4187.174641,2786.904906,26044.409102,-9370.477125,9818.830767,-3716.692772,18098.967445,17992.550789,-4483.223496,9039.671307,17729.023722,24020.056310,-2126.857892,18252.658040,0.003438,-0.016000,1.004500,192.000000,0.000000,0.000000,0.000000,0.000000,0.000000,0.000000,0.000000,0.000000,0.000000,1770903464.626179,0.000000
186.000000,22447.700494,22508.787812,4173.383614,2782.702778,26042.799776,-9382.994101,9817.489662,-3724.068847,18049.458331,17977.575121,-4479.490755,9042.867606,17718.674865,24006.578208,-2130.903558,18234.106092,0.003438,-0.016000,1.004500,192.000000,0.000000,0.000000,0.000000,0.000000,0.000000,0.000000,0.000000,0.000000,0.000000,1770903464.626244,0.000000
188.000000,22445.465320,22498.796582,4178.055129,2785.407339,26038.485889,-9384.558724,9816.930868,-3725.119379,18122.794404,17991.209685,-4492.745339,9033.591632,17740.333705,24009.439231,-2135.887997,18272.908720,0.003438,-0.016000,1.004500,192.000000,0.000000,0.000000,0.000000,0.000000,0.000000,0.000000,0.000000,0.000000,0.000000,1770903464.626298,0.000000
190.000000,22443.140738,22489.766477,4180.066786,2788.178955,26022.951427,-9382.301197,9818.406083,-3722.236004,18049.190110,17975.697574,-4480.496583,9037.972574,17696.658396,24003.158391,-2132.758752,18227.512327,0.003438,-0.016000,1.004500,192.000000,0.000000,0.000000,127.500000,80.000000,15.500000,32.000000,0.000000,0.000000,0.000000,1770903464.626321,0.000000
192.000000,22451.813215,22503.110469,4166.968664,2777.740690,26027.444127,-9391.644227,9812.527575,-3731.243757,18082.471857,17979.229150,-4493.617057,9031.468216,17703.810955,24010.154487,-2136.066811,18261.084647,0.003438,-0.016000,1.004500,192.000000,0.000000,0.000000,0.000000,0.000000,0.000000,0.000000,0.000000,0.000000,0.000000,1770903464.626339,0.000000
194.000000,22439.363294,22486.100791,4178.859792,2789.855336,26017.564656,-9379.753098,9815.723874,-3720.336106,18091.993701,17986.873446,-4488.476156,9035.424475,17709.175373,24006.511153,-2133.138732,18257.128389,0.003438,-0.016000,1.004500,192.000000,0.000000,0.000000,0.000000,0.000000,0.000000,0.000000,0.000000,0.000000,0.000000,1770903464.626356,0.000000
196.000000,22445.845299,22497.522533,4175.484678,2777.047786,26022.906723,-9394.505250,9814.583935,-3726.505187,18040.919964,17972.411868,-4480.407176,9037.614946,17689.282321,23995.871722,-2126.589671,18230.283943,0.003438,-0.016000,1.004500,192.000000,0.000000,0.000000,0.000000,0.000000,0.000000,0.000000,0.000000,0.000000,0.000000,1770903464.626373,0.000000
198.000000,22450.136834,22495.868504,4180.580876,2782.926295,26025.655988,-9387.866782,9816.215612,-3721.319583,18121.118024,17989.667414,-4490.867792,9031.624679,17715.076234,24004.879475,-2122.789874,18267.656060,0.003438,-0.016000,1.004500,192.000000,0.000000,0.000000,0.000000,0.000000,0.000000,0.000000,0.000000,0.000000,0.000000,1770903464.626390,0.000000
200.000000,22447.901660,22490.437030,4184.738300,2786.502574,26022.683206,-9389.073776,9819.009580,-3716.826882,18053.124017,17978.312728,-4474.282798,9041.571205,17700.592303,24005.102993,-2120.375886,18224.137214,0.003438,-0.016000,1.004500,192.000000,0.000000,0.000000,0.000000,0.000000,0.000000,0.000000,0.000000,0.000000,0.000000,1770903464.626408,0.000000
202.000000,22453.713114,22509.056033,4176.065824,2777.763042,26036.094253,-9401.166070,9816.215612,-3722.280708,18091.792535,17985.867618,-4484.229324,9038.017277,17705.420280,24004.834772,-2126.835540,18251.898080,0.002000,-0.010000,1.004000,192.000000,0.000000,8.000000,127.500000,88.000000,15.500000,48.000000,0.000000,0.000000,0.000000,1770903464.626426,0.000000
204.000000,22449.220413,22493.230998,4188.247524,2790.145909,26028.181735,-9383.619950,9820.529499,-3713.094141,18107.394052,17994.785964,-4477.546153,9042.666440,17715.702083,24016.189458,-2127.908424,18248.388856,0.002000,-0.010000,1.004000,192.000000,0.000000,0.000000,0.000000,0.000000,0.000000,0.000000,0.000000,0.000000,0.000000,1770903464.626442,0.000000
206.000000,22446.717017,22499.780059,4176.959893,2779.484127,26027.868811,-9391.264247,9816.595592,-3723.420647,18051.246470,17975.742278,-4473.589894,9041.213577,17706.694330,24009.126307,-2131.685869,18226.439443,0.002000,-0.010000,1.004000,192.000000,0.000000,0.000000,0.000000,0.000000,0.000000,0.000000,0.000000,0.000000,0.000000,1770903464.626460,0.000000
208.000000,22457.959945,22498.573065,4180.759690,2784.289752,26031.601552,-9381.809459,9817.221441,-3721.654859,18128.404692,17989.265083,-4488.476156,9032.295231,17720.641818,24016.591789,-2136.267976,18268.460723,0.002000,-0.010000,1.004000,192.000000,0.000000,0.000000,0.000000,0.000000,0.000000,0.000000,0.000000,0.000000,0.000000,1770903464.626478,0.000000
210.000000,22446.761721,22493.387460,4178.971550,2788.514231,26022.347930,-9376.489744,9819.546022,-3716.826882,18056.856758,17983.565388,-4470.974740,9044.923967,17720.060673,24018.357577,-2131.887034,18232.340304,0.002000,-0.010000,1.004000,192.000000,0.000000,0.000000,0.000000,0.000000,0.000000,0.000000,0.000000,0.000000,0.000000,1770903464.626494,0.000000
212.000000,22443.185442,22501.948178,4169.583818,2784.557972,26024.828973,-9386.860953,9812.862851,-3728.874472,18091.144334,17983.543036,-4488.118528,9038.799589,17709.689463,24011.517943,-2136.849122,18263.297470,-0.002000,-0.008000,0.998000,192.000000,127.500000,120.000000,127.500000,96.000000,15.500000,24.000000,0.000000,0.000000,0.000000,1770903464.626512,0.000000
214.000000,22440.167956,22480.982242,4177.406928,2791.621124,26019.911590,-9369.158372,9814.986266,-3724.739400,18091.010224,17987.700461,-4489.504336,9037.883167,17705.844963,24015.071871,-2134.569244,18264.996203,-0.002000,-0.008000,0.998000,192.000000,0.000000,0.000000,0.000000,0.000000,0.000000,0.000000,0.000000,0.000000,0.000000,1770903464.626529,0.000000
216.000000,22439.475052,22490.012347,4171.528419,2776.846621,26026.550058,-9386.123346,9812.169947,-3733.322469,18030.951086,17966.935690,-4486.933885,9037.056152,17688.857638,24008.276940,-2126.142636,18239.604621,-0.002000,-0.008000,0.998000,192.000000,0.000000,0.000000,0.000000,0.000000,0.000000,0.000000,0.000000,0.000000,0.000000,1770903464.626545,0.000000
218.000000,22435.608201,22486.145495,4179.507992,2778.210077,26044.789081,-9388.403224,9813.220479,-3732.361344,18109.450413,17978.223321,-4497.886240,9027.891937,17706.940199,24006.689967,-2117.090180,18275.009784,-0.002000,-0.008000,0.998000,192.000000,0.000000,0.000000,0.000000,0.000000,0.000000,0.000000,0.000000,0.000000,0.000000,1770903464.626566,0.000000
220.000000,22435.518794,22479.618785,4182.748995,2780.579362,26043.582087,-9384.670482,9815.008618,-3728.516844,18040.741150,17967.628594,-4483.424662,9034.552757,17706.850792,24002.912522,-2110.362304,18226.931182,-0.002000,-0.008000,0.998000,192.000000,0.000000,0.000000,0.000000,0.000000,0.000000,0.000000,0.000000,0.000000,0.000000,1770903464.626584,0.000000
222.000000,22445.487672,22498.014271,4174.255332,2774.969074,26050.354666,-9393.722939,9813.667514,-3732.786028,18087.076317,17977.217493,-4492.477118,9032.362286,17703.498030,24007.069946,-2112.798645,18254.468531,-0.002000,-0.008000,1.002000,192.000000,127.500000,120.000000,127.500000,96.000000,15.500000,40.000000,0.000000,0.000000,0.000000,1770903464.626601,0.000000
224.000000,22443.811291,22485.586701,4185.431204,2789.408301,26039.111738,-9381.295369,9818.294325,-3721.431341,18107.908143,17988.147496,-4484.139917,9037.100856,17722.139385,24013.820173,-2118.341877,18249.931127,-0.002000,-0.008000,1.002000,192.000000,0.000000,0.000000,0.000000,0.000000,0.000000,0.000000,0.000000,0.000000,0.000000,1770903464.626618,0.000000
226.000000,22448.147529,22500.517666,4173.182449,2781.629894,26038.217668,-9392.046558,9815.857985,-3727.689830,18045.055037,17973.104772,-4481.748281,9040.811246,17710.404719,24008.947493,-2123.169854,18228.451100,-0.002000,-0.008000,1.002000,192.000000,0.000000,0.000000,0.000000,0.000000,0.000000,0.000000,0.000000,0.000000,0.000000,1770903464.626636,0.000000
228.000000,22444.772416,22496.516704,4174.501201,2787.396644,26033.903782,-9388.336168,9817.601421,-3725.968745,18119.776919,17991.500257,-4492.857098,9036.229138,17717.601981,24025.465432,-2130.948261,18272.260520,-0.002000,-0.008000,1.002000,192.000000,0.000000,0.000000,0.000000,0.000000,0.000000,0.000000,0.000000,0.000000,0.000000,1770903464.626653,0.000000
230.000000,22443.252497,22486.257253,4177.831611,2794.929182,26018.905761,-9382.390604,9819.456615,-3722.481873,18052.229947,17978.536246,-4478.619037,9048.299080,17709.868277,24012.389661,-2135.418610,18231.535641,-0.002000,-0.008000,1.002000,192.000000,0.000000,0.000000,0.000000,0.000000,0.000000,0.000000,0.000000,0.000000,0.000000,1770903464.626671,0.000000
232.000000,22443.654829,22497.343719,4165.113469,2783.753310,26025.387767,-9388.939665,9813.354589,-3735.065905,18079.454372,17980.704365,-4493.572354,9036.385600,17702.425146,24013.641359,-2138.145523,18266.270252,0.004000,-0.008000,1.008000,192.000000,0.000000,16.000000,127.500000,96.000000,15.500000,64.000000,0.000000,0.000000,0.000000,1770903464.626688,0.000000
234.000000,22434.289448,22477.808294,4170.589646,2792.761063,26016.111793,-9364.643319,9815.410950,-3725.141731,18090.473782,17979.385612,-4493.997037,9034.932737,17720.932391,24015.295388,-2135.440962,18270.472380,0.004000,-0.008000,1.008000,192.000000,0.000000,0.000000,0.000000,0.000000,0.000000,0.000000,0.000000,0.000000,0.000000,1770903464.626706,0.000000
