Sample_index,EXG Channel 0,EXG Channel 1,EXG Channel 2,EXG Channel 3,EXG Channel 4,EXG Channel 5,EXG Channel 6,EXG Channel 7,EXG Channel 8,EXG Channel 9,EXG Channel 10,EXG Channel 11,EXG Channel 12,EXG Channel 13,EXG Channel 14,EXG Channel 15,Accel Channel 0,Accel Channel 1,Accel Channel 2,Not Used,Digital Channel 0 (D11),Digital Channel 1 (D12),Digital Channel 2 (D13),Digital Channel 3 (D17),Not Used,Digital Channel 4 (D18),Analog Channel 0,Analog Channel 1,Analog Channel 2,Timestamp,Marker Channel
210.000000,24325.537601,23541.796034,6946.810418,7191.651427,25128.971056,-7086.709987,11437.320583,-2022.363487,22037.300114,23160.832901,-4160.531361,9423.160186,24080.137799,25420.057824,13385.722147,23247.110635,0.006000,-0.010000,1.010000,192.000000,0.000000,0.000000,0.000000,0.000000,0.000000,0.000000,0.000000,0.000000,0.000000,1770904878.477605,101.000000
212.000000,24315.903999,23529.882554,6954.231197,7205.420101,25123.651340,-7079.579780,11441.142731,-2019.167187,21999.905646,23163.582166,-4149.623710,9427.407018,24104.903532,25427.031568,13382.078812,23211.169030,0.006000,-0.010000,1.010000,192.000000,0.000000,0.000000,0.000000,0.000000,0.000000,0.000000,0.000000,0.000000,0.000000,1770904878.477669,0.000000
214.000000,24317.938008,23540.209060,6943.748229,7191.629075,25129.507497,-7089.995693,11435.130112,-2028.621975,21999.950349,23154.328543,-4157.804448,9421.103826,24074.438104,25411.005367,13386.146830,23223.909524,0.006000,-0.010000,1.010000,192.000000,0.000000,0.000000,0.000000,0.000000,0.000000,0.000000,0.000000,0.000000,0.000000,1770904878.477711,0.000000
216.000000,24310.517229,23524.227562,6950.185531,7197.395825,25132.480280,-7076.830515,11436.247699,-2026.878539,22035.199050,23157.346029,-4161.760707,9417.751064,24090.307843,25420.638969,13394.394624,23251.357466,0.006000,-0.010000,1.000000,192.000000,0.000000,24.000000,127.500000,88.000000,15.500000,32.000000,0.000000,0.000000,0.000000,1770904878.477754,0.000000
218.000000,24306.203342,23524.741653,6944.307023,7192.701959,25124.903038,-7080.406795,11433.945469,-2031.840626,21967.674430,23142.705636,-4156.217474,9417.616954,24083.736430,25408.569027,13389.700757,23212.018396,0.006000,-0.010000,1.000000,192.000000,0.000000,0.000000,0.000000,0.000000,0.000000,0.000000,0.000000,0.000000,0.000000,1770904878.477806,0.000000
220.000000,24310.003139,23525.546315,6943.569415,7188.432776,25134.223716,-7081.703196,11431.531481,-2035.327498,22027.308885,23147.444206,-4171.327254,9408.922125,24075.443932,25403.875161,13395.959246,23259.247632,0.006000,-0.010000,1.000000,192.000000,0.000000,0.000000,0.000000,0.000000,0.000000,0.000000,0.000000,0.000000,0.000000,1770904878.477849,0.000000
222.000000,24311.366595,23523.489955,6953.582997,7202.044988,25132.189707,-7070.281454,11438.147597,-2023.548129,21995.636463,23143.175023,-4155.815143,9413.750102,24084.608148,25408.859600,13392.271208,23220.512059,0.006000,-0.010000,1.000000,192.000000,0.000000,0.000000,0.000000,0.000000,0.000000,0.000000,0.000000,0.000000,0.000000,1770904878.477871,0.000000
224.000000,24321.447232,23541.550164,6945.648127,7191.316151,25133.039073,-7082.619617,11436.717085,-2026.811484,22005.225361,23151.623982,-4155.323405,9417.013456,24085.412810,25413.732280,13387.934969,23226.323512,0.006000,-0.010000,1.000000,192.000000,0.000000,0.000000,0.000000,0.000000,0.000000,0.000000,0.000000,0.000000,0.000000,1770904878.477888,0.000000
226.000000,24322.587171,23533.883516,6954.946453,7200.815642,25132.524983,-7078.372786,11441.165083,-2018.563690,22045.056170,23163.068076,-4155.815143,9421.103826,24103.428317,25422.494164,13388.940798,23246.417731,0.008000,-0.010000,1.002000,192.000000,0.000000,32.000000,127.500000,88.000000,15.500000,40.000000,0.000000,0.000000,0.000000,1770904878.477907,0.000000
228.000000,24324.978808,23536.431615,6951.392526,7194.892430,25131.340341,-7082.373748,11440.583937,-2020.061257,21978.358564,23150.528747,-4143.566387,9425.350657,24087.647985,25408.189047,13382.682309,23200.149620,0.008000,-0.010000,1.002000,192.000000,0.000000,0.000000,0.000000,0.000000,0.000000,0.000000,0.000000,0.000000,0.000000,1770904878.477925,0.000000
230.000000,24328.823308,23540.365522,6948.978537,7192.299627,25125.573590,-7088.743995,11438.281708,-2023.302260,22041.301077,23159.581203,-4156.798620,9420.075645,24099.114430,25415.207495,13389.209019,23248.965829,0.008000,-0.010000,1.002000,192.000000,0.000000,0.000000,0.000000,0.000000,0.000000,0.000000,0.000000,0.000000,0.000000,1770904878.477943,0.000000
232.000000,24325.492898,23531.491879,6957.181627,7200.949752,25122.310236,-7079.311559,11441.947394,-2017.311992,22007.885219,23157.480139,-4146.561521,9421.796730,24092.073630,25417.755594,13385.677443,23216.131117,0.008000,-0.010000,1.002000,192.000000,0.000000,0.000000,0.000000,0.000000,0.000000,0.000000,0.000000,0.000000,0.000000,1770904878.477960,0.000000
234.000000,24327.035168,23536.453967,6945.514017,7185.638807,25132.904963,-7088.743995,11436.650030,-2029.493693,22004.621864,23150.439340,-4153.378803,9419.718018,24096.387517,25402.735222,13390.751289,23225.228277,0.008000,-0.010000,1.002000,192.000000,0.000000,0.000000,0.000000,0.000000,0.000000,0.000000,0.000000,0.000000,0.000000,1770904878.477978,0.000000
236.000000,24322.788337,23525.076929,6955.684061,7193.998360,25132.793204,-7073.254236,11438.929908,-2024.509254,22045.726722,23154.373247,-4157.647986,9413.906564,24106.736375,25414.268722,13397.210943,23253.503234,0.004000,-0.016000,1.002000,192.000000,0.000000,16.000000,127.500000,64.000000,15.500000,40.000000,0.000000,0.000000,0.000000,1770904878.477996,0.000000
238.000000,24315.658130,23523.691121,6951.392526,7195.518279,25132.167355,-7080.317388,11437.119417,-2031.147722,21978.984413,23140.068131,-4149.243730,9418.913355,24076.025078,25404.612768,13398.015606,23210.520829,0.004000,-0.016000,1.002000,192.000000,0.000000,0.000000,0.000000,0.000000,0.000000,0.000000,0.000000,0.000000,0.000000,1770904878.478014,0.000000
240.000000,24320.396700,23529.167298,6950.476104,7191.539668,25135.587172,-7081.077347,11435.443036,-2033.271138,22036.227231,23144.605535,-4164.286454,9411.961962,24083.267043,25408.770193,13405.414034,23259.292335,0.004000,-0.016000,1.002000,192.000000,0.000000,0.000000,0.000000,0.000000,0.000000,0.000000,0.000000,0.000000,0.000000,1770904878.478031,0.000000
242.000000,24319.256761,23523.400548,6958.589787,7199.385130,25130.110995,-7075.444707,11439.779274,-2023.034039,22001.000881,23146.147805,-4149.243730,9417.326381,24087.044488,25411.251236,13396.160411,23223.864820,0.004000,-0.016000,1.002000,192.000000,0.000000,0.000000,0.000000,0.000000,0.000000,0.000000,0.000000,0.000000,0.000000,1770904878.478050,0.000000
244.000000,24325.135270,23536.811595,6947.548026,7187.248133,25128.568724,-7089.615713,11436.426513,-2027.437333,22007.527591,23145.946639,-4152.507085,9419.203927,24086.731563,25409.708966,13392.897057,23226.569382,0.004000,-0.016000,1.002000,192.000000,0.000000,0.000000,0.000000,0.000000,0.000000,0.000000,0.000000,0.000000,0.000000,1770904878.478067,0.000000
246.000000,24319.949665,23524.741653,6955.527598,7195.987665,25122.980788,-7087.537001,11441.142731,-2019.882443,22040.429359,23150.595802,-4155.345756,9418.108692,24094.934654,25418.739071,13392.315911,23243.087321,0.004000,-0.016000,1.002000,192.000000,0.000000,0.000000,127.500000,80.000000,15.500000,40.000000,0.000000,0.000000,0.000000,1770904878.478085,0.000000
248.000000,24319.390871,23530.754272,6947.793895,7194.445395,25118.666901,-7091.828536,11440.695696,-2020.329478,21971.496579,23142.593878,-4148.260253,9424.858919,24095.962834,25403.204608,13382.056461,23196.260416,0.004000,-0.016000,1.002000,192.000000,0.000000,0.000000,0.000000,0.000000,0.000000,0.000000,0.000000,0.000000,0.000000,1770904878.478103,0.000000
250.000000,24323.861220,23533.794109,6946.676308,7189.326845,25121.840849,-7092.007350,11438.639335,-2025.783303,22035.377864,23149.366456,-4159.883161,9416.208794,24084.585796,25416.772117,13387.175010,23243.556707,0.004000,-0.016000,1.002000,192.000000,0.000000,0.000000,0.000000,0.000000,0.000000,0.000000,0.000000,0.000000,0.000000,1770904878.478120,0.000000
252.000000,24318.206229,23524.607542,6955.080563,7201.217973,25121.438518,-7083.513687,11443.668478,-2017.937841,22004.398346,23145.723122,-4148.304957,9420.455625,24095.761668,25412.279417,13383.106993,23213.650073,0.004000,-0.016000,1.002000,192.000000,0.000000,0.000000,0.000000,0.000000,0.000000,0.000000,0.000000,0.000000,0.000000,1770904878.478138,0.000000
254.000000,24324.397662,23536.565725,6946.855121,7189.930342,25118.823364,-7093.706083,11439.242833,-2022.542301,22002.140820,23141.252773,-4151.098925,9420.209756,24082.149456,25404.411603,13386.884437,23222.858992,0.004000,-0.016000,1.002000,192.000000,0.000000,0.000000,0.000000,0.000000,0.000000,0.000000,0.000000,0.000000,0.000000,1770904878.478156,0.000000
0.000000,24321.938970,23527.535621,6958.120401,7199.586296,25131.273285,-7078.126917,11442.707353,-2018.049600,22044.184452,23148.427683,-4154.205817,9419.896832,24107.563389,25414.469888,13394.148754,23249.435216,0.001000,-0.015000,1.002000,192.000000,127.500000,120.000000,127.500000,72.000000,15.500000,40.000000,0.000000,0.000000,0.000000,1770904878.478173,0.000000
2.000000,24322.073081,23530.597810,6955.684061,7198.356950,25139.610486,-7072.270760,11440.762751,-2023.034039,21987.433372,23144.449072,-4144.080477,9424.747160,24087.916206,25408.010233,13393.612313,23211.012567,0.001000,-0.015000,1.002000,192.000000,0.000000,0.000000,0.000000,0.000000,0.000000,0.000000,0.000000,0.000000,0.000000,1770904878.478190,0.000000
4.000000,24323.369482,23534.688179,6951.392526,7195.562982,25153.043884,-7062.100716,11436.895899,-2029.493693,22049.057132,23155.200261,-4157.893855,9419.695666,24096.432221,25426.316312,13407.693912,23267.048391,0.001000,-0.015000,1.002000,192.000000,0.000000,0.000000,0.000000,0.000000,0.000000,0.000000,0.000000,0.000000,0.000000,1770904878.478208,0.000000
6.000000,24319.055595,23526.842717,6959.752078,7199.988627,25152.350980,-7048.577910,11440.740399,-2021.223548,22012.266161,23156.317849,-4149.601358,9424.993029,24114.827706,25423.321178,13405.123461,23237.141757,0.001000,-0.015000,1.002000,192.000000,0.000000,0.000000,0.000000,0.000000,0.000000,0.000000,0.000000,0.000000,0.000000,1770904878.478226,0.000000
8.000000,24315.971055,23531.335417,6945.849293,7191.941999,25146.673637,-7067.934521,11435.152463,-2034.008745,22008.935751,23149.344104,-4156.239826,9419.919183,24093.392383,25423.902324,13407.336284,23238.438158,0.001000,-0.015000,1.002000,192.000000,0.000000,0.000000,0.000000,0.000000,0.000000,0.000000,0.000000,0.000000,0.000000,1770904878.478243,0.000000
10.000000,24315.322854,23525.211039,6951.839560,7203.676665,25128.792242,-7068.359204,11439.242833,-2026.006821,22041.032856,23154.932041,-4164.308806,9415.672352,24103.204799,25416.593303,13403.245914,23262.578042,0.001000,-0.015000,1.002000,192.000000,0.000000,0.000000,127.500000,88.000000,15.500000,24.000000,0.000000,0.000000,0.000000,1770904878.478261,0.000000
12.000000,24311.880685,23523.378196,6947.078639,7195.562982,25117.348149,-7084.944199,11439.488702,-2029.761914,21978.917358,23140.090482,-4153.937597,9420.209756,24079.534302,25403.830457,13387.130307,23213.895942,0.001000,-0.015000,1.002000,192.000000,0.000000,0.000000,0.000000,0.000000,0.000000,0.000000,0.000000,0.000000,0.000000,1770904878.478278,0.000000
14.000000,24316.798069,23528.429690,6943.770581,7191.807889,25111.894323,-7097.662341,11439.242833,-2030.901853,22039.714103,23145.968991,-4163.615902,9413.168956,24083.468209,25410.424222,13388.739632,23253.883213,0.001000,-0.015000,1.002000,192.000000,0.000000,0.000000,0.000000,0.000000,0.000000,0.000000,0.000000,0.000000,0.000000,1770904878.478296,0.000000
16.000000,24313.020624,23523.422900,6952.107781,7201.665008,25108.318044,-7091.627370,11443.936699,-2019.547167,22007.482887,23144.158500,-4152.507085,9422.601393,24084.049354,25409.843076,13378.636644,23216.779317,0.001000,-0.015000,1.002000,192.000000,0.000000,0.000000,0.000000,0.000000,0.000000,0.000000,0.000000,0.000000,0.000000,1770904878.478323,0.000000
18.000000,24317.915656,23536.275153,6941.602462,7191.696130,25119.717433,-7102.669132,11439.064019,-2028.152588,22003.280759,23147.623020,-4155.971605,9422.981372,24081.098924,25407.719661,13381.832943,23219.685044,0.001000,-0.015000,1.002000,192.000000,0.000000,0.000000,0.000000,0.000000,0.000000,0.000000,0.000000,0.000000,0.000000,1770904878.478341,0.000000
20.000000,24320.553162,23532.385949,6955.169970,7201.262677,25115.492954,-7085.972379,11442.059152,-2019.860091,22042.105739,23160.430570,-4157.871504,9423.093131,24099.516761,25411.184181,13387.309121,23251.290411,-0.001500,-0.012500,1.001000,192.000000,127.500000,112.000000,127.500000,88.000000,15.500000,32.000000,0.000000,0.000000,0.000000,1770904878.478359,0.000000
22.000000,24322.430709,23533.570592,6951.124305,7196.792328,25125.014797,-7082.530210,11439.667516,-2024.352792,21983.499465,23151.467520,-4145.354527,9426.378837,24114.157154,25407.742012,13387.018548,23208.062137,-0.001500,-0.012500,1.001000,192.000000,0.000000,0.000000,0.000000,0.000000,0.000000,0.000000,0.000000,0.000000,0.000000,1770904878.478378,0.000000
24.000000,24328.398624,23540.097301,6949.760848,7196.591162,25138.403492,-7076.361129,11438.684039,-2026.744428,22044.296210,23164.163311,-4159.592588,9419.226279,24104.232979,25419.521382,13398.552048,23262.823911,-0.001500,-0.012500,1.001000,192.000000,0.000000,0.000000,0.000000,0.000000,0.000000,0.000000,0.000000,0.000000,0.000000,1770904878.478397,0.000000
26.000000,24315.300502,23523.042920,6958.545084,7204.637790,25149.713474,-7060.357280,11441.500359,-2026.051524,22011.305036,23158.888299,-4149.355489,9426.915279,24103.853000,25414.805164,13401.681292,23236.404149,-0.001500,-0.012500,1.001000,192.000000,0.000000,0.000000,0.000000,0.000000,0.000000,0.000000,0.000000,0.000000,0.000000,1770904878.478414,0.000000
28.000000,24316.507496,23532.251839,6948.643261,7189.796232,25157.469530,-7068.001576,11435.018353,-2037.652080,21998.050451,23150.796968,-4160.039623,9415.158262,24096.029889,25414.492239,13412.544240,23243.422597,-0.001500,-0.012500,1.001000,192.000000,0.000000,0.000000,0.000000,0.000000,0.000000,0.000000,0.000000,0.000000,0.000000,1770904878.478432,0.000000
30.000000,24314.920523,23522.171202,6957.963938,7197.060549,25161.984582,-7054.255254,11436.270051,-2033.159379,22043.603306,23160.855253,-4163.168867,9414.711227,24106.959892,25417.621484,13420.344999,23269.752952,-0.001500,-0.012500,1.001000,192.000000,0.000000,0.000000,127.500000,64.000000,15.500000,48.000000,0.000000,0.000000,0.000000,1770904878.478450,0.000000
32.000000,24311.791278,23522.417071,6954.208845,7190.556191,25155.703742,-7052.422411,11436.404161,-2034.768705,21981.823085,23148.025352,-4155.904550,9413.727750,24108.099831,25426.316312,13416.031112,23226.144698,-0.001500,-0.012500,1.001000,192.000000,0.000000,0.000000,0.000000,0.000000,0.000000,0.000000,0.000000,0.000000,0.000000,1770904878.478468,0.000000
34.000000,24313.847639,23524.227562,6950.476104,7194.311284,25152.619201,-7059.507914,11435.621850,-2038.903777,22038.283591,23158.776541,-4167.885085,9412.543108,24102.646005,25405.193914,13419.249763,23271.742257,-0.001500,-0.012500,1.001000,192.000000,0.000000,0.000000,0.000000,0.000000,0.000000,0.000000,0.000000,0.000000,0.000000,1770904878.478486,0.000000
36.000000,24312.841810,23514.526905,6957.606311,7199.809813,25146.830099,-7055.797524,11440.785103,-2029.828969,22007.996977,23149.165290,-4158.184428,9416.186442,24110.446764,25411.072422,13409.459699,23232.157318,-0.001500,-0.012500,1.001000,192.000000,0.000000,0.000000,0.000000,0.000000,0.000000,0.000000,0.000000,0.000000,0.000000,1770904878.478504,0.000000
38.000000,24315.278150,23528.005007,6944.329374,7188.052796,25122.220829,-7075.735280,11437.186472,-2036.892120,22004.197181,23149.232346,-4159.838457,9417.684009,24094.666433,25403.450478,13398.932028,23233.386664,-0.001500,-0.012500,1.001000,192.000000,0.000000,0.000000,0.000000,0.000000,0.000000,0.000000,0.000000,0.000000,0.000000,1770904878.478521,0.000000
40.000000,24311.076023,23521.321836,6950.967842,7196.680569,25118.979826,-7077.188143,11440.360420,-2030.521873,22041.032856,23157.547195,-4165.895780,9415.471186,24100.969625,25411.072422,13393.679368,23260.029943,-0.002750,-0.012250,1.001500,192.000000,127.500000,112.000000,127.500000,80.000000,15.500000,40.000000,0.000000,0.000000,0.000000,1770904878.478539,0.000000
42.000000,24316.932180,23530.351940,6949.179703,7194.534802,25113.123669,-7084.564219,11441.545062,-2027.213815,21975.609300,23150.416988,-4154.317576,9422.601393,24091.827761,25409.060765,13386.862086,23214.857067,-0.002750,-0.012250,1.001500,192.000000,0.000000,0.000000,0.000000,0.000000,0.000000,0.000000,0.000000,0.000000,0.000000,1770904878.478568,0.000000
44.000000,24325.202325,23536.275153,6949.202055,7194.087767,25117.661073,-7090.487431,11441.880338,-2026.722077,22040.921097,23164.945622,-4160.821934,9420.902660,24085.479866,25406.535018,13388.672577,23260.901661,-0.002750,-0.012250,1.001500,192.000000,0.000000,0.000000,0.000000,0.000000,0.000000,0.000000,0.000000,0.000000,0.000000,1770904878.478586,0.000000
46.000000,24319.055595,23525.233391,6961.003776,7200.972104,25126.445308,-7079.065690,11444.942527,-2021.380010,22014.478983,23156.295497,-4149.467248,9426.110616,24096.454572,25412.614693,13391.935932,23229.162184,-0.002750,-0.012250,1.001500,192.000000,0.000000,0.000000,0.000000,0.000000,0.000000,0.000000,0.000000,0.000000,0.000000,1770904878.478604,0.000000
48.000000,24324.129441,23537.526850,6953.091258,7190.220915,25131.720320,-7090.733301,11440.829806,-2030.074838,22018.390539,23156.697828,-4152.484733,9422.444930,24090.285491,25407.674957,13399.133193,23232.693760,-0.002750,-0.012250,1.001500,192.000000,0.000000,0.000000,0.000000,0.000000,0.000000,0.000000,0.000000,0.000000,0.000000,1770904878.478621,0.000000
50.000000,24320.262589,23530.061368,6962.255473,7200.390959,25134.603695,-7081.390271,11444.786065,-2023.548129,22058.333106,23165.213843,-4155.658681,9419.293334,24098.935616,25414.961626,13407.716263,23258.465321,-0.003375,-0.014125,1.005750,192.000000,127.500000,112.000000,127.500000,64.000000,15.500000,72.000000,0.000000,0.000000,0.000000,1770904878.478640,0.000000
52.000000,24312.037148,23527.625028,6956.354613,7197.328770,25135.028378,-7081.323216,11443.556719,-2027.347926,21990.897893,23156.809587,-4148.014384,9429.195157,24100.701404,25408.613731,13405.928124,23215.907599,-0.003375,-0.014125,1.005750,192.000000,0.000000,0.000000,0.000000,0.000000,0.000000,0.000000,0.000000,0.000000,0.000000,1770904878.478657,0.000000
54.000000,24313.311197,23529.726092,6951.012546,7190.310322,25146.695989,-7080.295036,11438.169949,-2035.036926,22047.045475,23160.832901,-4164.062937,9418.153395,24094.867598,25417.040338,13412.276019,23266.377838,-0.003375,-0.014125,1.005750,192.000000,0.000000,0.000000,0.000000,0.000000,0.000000,0.000000,0.000000,0.000000,0.000000,1770904878.478675,0.000000
56.000000,24310.405470,23522.350016,6960.020299,7201.530898,25146.271306,-7064.246483,11440.874510,-2028.554920,22011.752070,23159.871776,-4155.748088,9420.723846,24105.372918,25419.901361,13410.867859,23236.761777,-0.003375,-0.014125,1.005750,192.000000,0.000000,0.000000,0.000000,0.000000,0.000000,0.000000,0.000000,0.000000,0.000000,1770904878.478693,0.000000
58.000000,24315.009930,23535.805766,6944.441133,7193.573677,25152.216870,-7069.052108,11436.962955,-2037.450914,22000.889123,23159.894128,-4163.437088,9420.969715,24097.549808,25411.362995,13403.782356,23243.891983,-0.003375,-0.014125,1.005750,192.000000,0.000000,0.000000,0.000000,0.000000,0.000000,0.000000,0.000000,0.000000,0.000000,1770904878.478711,0.000000
60.000000,24317.334511,23529.323760,6955.572302,7202.469671,25147.455948,-7065.811105,11441.500359,-2029.091362,22048.565394,23171.651145,-4164.420565,9421.841433,24096.722793,25429.333798,13404.139984,23269.372972,-0.003375,-0.014125,1.005750,192.000000,0.000000,0.000000,0.000000,0.000000,0.000000,0.000000,0.000000,0.000000,0.000000,1770904878.478729,0.000000
62.000000,24316.596903,23530.195478,6952.197188,7195.026540,25142.873841,-7067.845114,11443.020277,-2029.672507,21983.924149,23160.095294,-4152.842361,9426.267079,24095.784020,25414.626350,13396.965074,23224.937704,-0.002000,-0.020000,1.004000,192.000000,127.500000,120.000000,127.500000,48.000000,15.500000,48.000000,0.000000,0.000000,0.000000,1770904878.478747,0.000000
64.000000,24321.000197,23533.816461,6947.883302,7198.491061,25143.454986,-7075.690577,11440.650992,-2033.762876,22040.429359,23165.213843,-4168.130954,9421.506157,24106.445802,25414.156963,13400.362539,23273.128065,-0.002000,-0.020000,1.004000,192.000000,0.000000,0.000000,0.000000,0.000000,0.000000,0.000000,0.000000,0.000000,0.000000,1770904878.478765,0.000000
66.000000,24317.736842,23525.233391,6960.713203,7204.280162,25135.408358,-7071.019062,11445.389562,-2024.106923,22011.036815,23165.794988,-4154.004652,9427.339962,24096.745145,25414.000501,13398.484993,23240.539222,-0.002000,-0.020000,1.004000,192.000000,0.000000,0.000000,0.000000,0.000000,0.000000,0.000000,0.000000,0.000000,0.000000,1770904878.478782,0.000000
68.000000,24321.067252,23534.643475,6951.705450,7190.667950,25131.921486,-7085.748862,11442.036801,-2029.538397,22007.237018,23158.888299,-4154.898722,9421.640268,24074.527511,25412.100603,13402.128327,23239.019303,-0.002000,-0.020000,1.004000,192.000000,0.000000,0.000000,0.000000,0.000000,0.000000,0.000000,0.000000,0.000000,0.000000,1770904878.478800,0.000000
70.000000,24322.721281,23531.044845,6961.920197,7201.039159,25133.620218,-7082.038472,11447.512978,-2019.837739,22049.571222,23165.884395,-4159.749050,9424.523643,24106.423450,25419.074347,13407.135118,23262.198062,-0.002000,-0.020000,1.004000,192.000000,0.000000,0.000000,0.000000,0.000000,0.000000,0.000000,0.000000,0.000000,0.000000,1770904878.478818,0.000000
72.000000,24325.336435,23537.325685,6961.719032,7199.049854,25131.072120,-7086.106489,11448.652917,-2018.586042,21989.579140,23160.296459,-4143.879312,9434.984259,24087.960909,25411.385347,13406.442214,23212.130155,0.002000,-0.020000,0.998000,192.000000,0.000000,8.000000,127.500000,48.000000,15.500000,24.000000,0.000000,0.000000,0.000000,1770904878.478836,0.000000
74.000000,24330.969075,23544.254725,6955.549950,7196.166479,25131.586210,-7085.972379,11444.786065,-2023.726943,22051.985210,23168.074866,-4155.502219,9428.904585,24094.688784,25417.554428,13408.632685,23262.198062,0.002000,-0.020000,0.998000,192.000000,0.000000,0.000000,0.000000,0.000000,0.000000,0.000000,0.000000,0.000000,0.000000,1770904878.478853,0.000000
76.000000,24327.437499,23537.146871,6962.099011,7206.157709,25128.076986,-7075.847039,11449.792856,-2016.730847,22019.776347,23172.813436,-4146.896797,9435.028962,24108.993901,25425.355187,13400.653112,23234.884230,0.002000,-0.020000,0.998000,192.000000,0.000000,0.000000,0.000000,0.000000,0.000000,0.000000,0.000000,0.000000,0.000000,1770904878.957836,0.000000
78.000000,24328.756252,23544.746464,6949.403220,7197.127604,25135.073082,-7085.838268,11445.344859,-2027.459684,22012.646140,23166.599651,-4153.199989,9433.732561,24102.377785,25416.682710,13394.171106,23238.326399,0.002000,-0.020000,0.998000,192.000000,0.000000,0.000000,0.000000,0.000000,0.000000,0.000000,0.000000,0.000000,0.000000,1770904878.957903,0.000000
80.000000,24325.649360,23535.246972,6956.309909,7205.688322,25131.295637,-7069.499143,11447.088295,-2021.916452,22047.224289,23172.679326,-4159.190256,9428.368143,24088.832627,25428.573838,13397.233295,23271.429333,0.002000,-0.020000,0.998000,192.000000,0.000000,0.000000,0.000000,0.000000,0.000000,0.000000,0.000000,0.000000,0.000000,1770904878.957954,0.000000
82.000000,24323.838869,23540.365522,6950.789029,7204.280162,25131.563858,-7072.784850,11445.724838,-2023.123446,21983.790038,23166.264375,-4148.751992,9433.732561,24090.844284,25419.789603,13390.773641,23227.396396,0.002000,-0.014000,1.000000,192.000000,0.000000,8.000000,127.500000,72.000000,15.500000,32.000000,0.000000,0.000000,0.000000,1770904878.958016,0.000000
84.000000,24330.231468,23548.009819,6946.162217,7199.385130,25139.923410,-7073.075422,11443.422609,-2026.923242,22041.882222,23179.541311,-4163.660605,9430.737428,24099.516761,25428.529135,13399.513173,23277.620766,0.002000,-0.014000,1.000000,192.000000,0.000000,0.000000,0.000000,0.000000,0.000000,0.000000,0.000000,0.000000,0.000000,1770904878.958070,0.000000
86.000000,24332.265476,23541.438406,6965.451773,7208.795215,25130.401567,-7064.894684,11450.865740,-2014.830949,22014.680149,23183.586977,-4150.137800,9433.374933,24101.282549,25442.253106,13400.004911,23245.747178,0.002000,-0.014000,1.000000,192.000000,0.000000,0.000000,0.000000,0.000000,0.000000,0.000000,0.000000,0.000000,0.000000,1770904878.958118,0.000000
88.000000,24336.087625,23553.351885,6949.134999,7201.508546,25132.368521,-7075.511763,11446.149522,-2023.682239,22008.175791,23177.484951,-4147.701460,9442.449742,24082.060049,25424.349359,13400.094318,23242.237954,0.002000,-0.014000,1.000000,192.000000,0.000000,0.000000,0.000000,0.000000,0.000000,0.000000,0.000000,0.000000,0.000000,1770904878.958137,0.000000
90.000000,24333.718340,23540.745502,6955.751116,7204.637790,25136.369483,-7066.302844,11447.647088,-2021.447065,22059.048362,23190.493666,-4153.535265,9439.298146,24145.673114,25439.123862,13406.933952,23273.351583,0.002000,-0.014000,1.000000,192.000000,0.000000,0.000000,0.000000,0.000000,0.000000,0.000000,0.000000,0.000000,0.000000,1770904878.958154,0.000000
92.000000,24327.929238,23534.665827,6956.309909,7197.574639,25133.687274,-7077.277550,11446.708315,-2026.945594,21996.128201,23167.672535,-4150.428373,9433.956079,24095.404040,25421.957722,13408.230353,23221.696701,0.002000,-0.014000,1.000000,192.000000,0.000000,0.000000,127.500000,80.000000,15.500000,56.000000,0.000000,0.000000,0.000000,1770904878.958172,0.000000
94.000000,24328.532735,23539.829080,6958.343918,7191.651427,25135.251896,-7085.882972,11444.495493,-2031.103019,22052.253431,23170.622965,-4164.442916,9425.417712,24096.923959,25425.913981,13411.560763,23266.713115,0.002000,-0.014000,1.000000,192.000000,0.000000,0.000000,0.000000,0.000000,0.000000,0.000000,0.000000,0.000000,0.000000,1770904878.958190,0.000000
96.000000,24327.258686,23530.329589,6961.160238,7204.928363,25121.818497,-7080.026815,11448.988193,-2021.491769,22010.522724,23170.175930,-4151.680070,9431.452683,24106.088174,25416.548600,13401.368368,23235.510079,0.002000,-0.014000,1.000000,192.000000,0.000000,0.000000,0.000000,0.000000,0.000000,0.000000,0.000000,0.000000,0.000000,1770904878.958209,0.000000
98.000000,24335.484127,23545.640534,6950.744325,7195.026540,25125.014797,-7093.124937,11447.065943,-2023.726943,22007.706405,23167.627831,-4150.696594,9431.855015,24090.263139,25413.598170,13388.225542,23238.907544,0.002000,-0.014000,1.000000,192.000000,0.000000,0.000000,0.000000,0.000000,0.000000,0.000000,0.000000,0.000000,0.000000,1770904878.958227,0.000000
100.000000,24333.964209,23540.074949,6961.808439,7202.112043,25117.951646,-7082.329045,11450.664574,-2018.474283,22055.136806,23179.898939,-4152.328271,9429.932765,24093.615901,25424.662283,13387.979673,23269.663545,0.002000,-0.014000,1.000000,192.000000,0.000000,0.000000,0.000000,0.000000,0.000000,0.000000,0.000000,0.000000,0.000000,1770904878.958244,0.000000
102.000000,24331.796090,23541.773682,6953.001851,7202.156747,25119.136288,-7074.885914,11449.457580,-2021.759989,21990.674375,23176.724991,-4142.940538,9438.180558,24108.658625,25429.825536,13379.396603,23226.301161,0.004000,-0.016000,1.002000,192.000000,0.000000,16.000000,127.500000,64.000000,15.500000,40.000000,0.000000,0.000000,0.000000,1770904878.958262,0.000000
104.000000,24335.171203,23544.791167,6953.068906,7200.793290,25132.301466,-7075.243542,11445.546025,-2028.532568,22061.819978,23176.903805,-4162.833591,9428.368143,24105.842305,25423.745862,13393.500554,23281.711135,0.004000,-0.016000,1.002000,192.000000,0.000000,0.000000,0.000000,0.000000,0.000000,0.000000,0.000000,0.000000,0.000000,1770904878.958280,0.000000
106.000000,24330.052654,23533.682350,6970.212694,7205.554212,25134.558992,-7064.849980,11451.424533,-2017.468455,22024.358454,23170.421799,-4145.756858,9433.732561,24087.491523,25427.031568,13401.927161,23250.597507,0.004000,-0.016000,1.002000,192.000000,0.000000,0.000000,0.000000,0.000000,0.000000,0.000000,0.000000,0.000000,0.000000,1770904878.958297,0.000000
108.000000,24331.572572,23543.986505,6960.154409,7193.037235,25139.968114,-7085.570048,11446.730667,-2026.565615,22013.204934,23161.078770,-4150.093097,9432.525567,24115.654721,25411.228885,13412.208964,23243.333190,0.004000,-0.016000,1.002000,192.000000,0.000000,0.000000,0.000000,0.000000,0.000000,0.000000,0.000000,0.000000,0.000000,1770904878.958316,0.000000
110.000000,24328.443328,23534.308199,6968.335148,7200.458014,25138.537602,-7082.261989,11448.474103,-2021.491769,22064.479836,23175.182721,-4152.574140,9429.351619,24106.512857,25411.720623,13422.356656,23267.115446,0.004000,-0.016000,1.002000,192.000000,0.000000,0.000000,0.000000,0.000000,0.000000,0.000000,0.000000,0.000000,0.000000,1770904878.958334,0.000000
112.000000,24327.057520,23535.984580,6965.138848,7195.585334,25141.488033,-7087.425242,11447.870606,-2022.341135,21994.183599,23161.257584,-4144.393402,9430.178634,24091.738354,25402.310539,13420.523813,23214.521791,0.008000,-0.014000,1.004000,192.000000,0.000000,32.000000,127.500000,72.000000,15.500000,48.000000,0.000000,0.000000,0.000000,1770904878.958352,0.000000
114.000000,24332.131366,23542.667752,6957.718069,7192.344331,25138.269381,-7093.795490,11446.060115,-2024.218681,22062.244661,23175.786218,-4154.317576,9426.244727,24102.377785,25417.509725,13420.121481,23258.398266,0.008000,-0.014000,1.004000,192.000000,0.000000,0.000000,0.000000,0.000000,0.000000,0.000000,0.000000,0.000000,0.000000,1770904878.958373,0.000000
116.000000,24330.946723,23538.756196,6960.959072,7206.135357,25130.826250,-7081.479678,11450.731629,-2013.154568,22021.229210,23182.536445,-4146.829742,9432.123236,24094.174694,25410.960664,13406.106938,23233.543126,0.008000,-0.014000,1.004000,192.000000,0.000000,0.000000,0.000000,0.000000,0.000000,0.000000,0.000000,0.000000,0.000000,1770904878.958391,0.000000
118.000000,24334.813575,23550.155586,6956.198151,7190.198563,25130.870954,-7091.001521,11449.524635,-2018.071952,22008.891047,23180.457733,-4146.561521,9441.868596,24092.140686,25419.051995,13397.009778,23232.179669,0.008000,-0.014000,1.004000,192.000000,0.000000,0.000000,0.000000,0.000000,0.000000,0.000000,0.000000,0.000000,0.000000,1770904878.958409,0.000000
120.000000,24338.903944,23545.774644,6958.992119,7212.751474,25126.601771,-7074.997672,11453.615004,-2012.528719,22058.981306,23188.616119,-4152.149457,9437.487654,24102.109564,25416.414489,13391.198324,23270.088228,0.008000,-0.014000,1.004000,192.000000,0.000000,0.000000,0.000000,0.000000,0.000000,0.000000,0.000000,0.000000,0.000000,1770904878.958427,0.000000
122.000000,24340.759139,23550.155586,6961.048479,7208.214069,25130.535678,-7070.706138,11454.777295,-2010.964097,22005.694748,23189.465486,-4142.404096,9447.165960,24092.922997,25415.587475,13380.223618,23227.217582,0.002000,-0.012000,1.012000,192.000000,0.000000,8.000000,127.500000,80.000000,15.500000,80.000000,0.000000,0.000000,0.000000,1770904878.958445,0.000000
124.000000,24340.021532,23552.882499,6954.767639,7201.821470,25137.464719,-7072.091946,11451.044554,-2018.921318,22059.853024,23194.092297,-4145.801562,9439.633422,24090.754877,25423.120013,13389.521943,23274.133894,0.002000,-0.012000,1.012000,192.000000,0.000000,0.000000,0.000000,0.000000,0.000000,0.000000,0.000000,0.000000,0.000000,1770904878.958463,0.000000
126.000000,24331.974904,23537.817423,6963.551875,7209.421064,25140.281038,-7057.719774,11452.206844,-2015.590908,22029.141728,23194.405221,-4145.242768,9439.342849,24109.284474,25421.980074,13390.751289,23250.418693,0.002000,-0.012000,1.012000,192.000000,0.000000,0.000000,0.000000,0.000000,0.000000,0.000000,0.000000,0.000000,0.000000,1770904878.958481,0.000000
128.000000,24328.286866,23538.979714,6953.404183,7196.278238,25147.344190,-7071.644911,11446.149522,-2028.018478,22017.854097,23178.669593,-4150.048393,9433.084361,24100.679052,25417.867353,13401.211906,23248.585850,0.002000,-0.012000,1.012000,192.000000,0.000000,0.000000,0.000000,0.000000,0.000000,0.000000,0.000000,0.000000,0.000000,1770904878.958498,0.000000
130.000000,24326.118747,23532.073025,6961.987252,7203.900183,25149.422902,-7067.867466,11448.116475,-2024.509254,22062.915213,23183.139942,-4163.168867,9427.675239,24098.108601,25415.609827,13415.517022,23276.994917,0.002000,-0.012000,1.012000,192.000000,0.000000,0.000000,0.000000,0.000000,0.000000,0.000000,0.000000,0.000000,0.000000,1770904878.958516,0.000000
132.000000,24323.861220,23532.497708,6963.931854,7197.395825,25148.439425,-7077.657530,11447.892958,-2026.655022,21991.926073,23178.602538,-4146.248596,9432.503215,24100.924921,25410.223056,13418.869784,23223.373082,0.002000,-0.012000,1.012000,192.000000,0.000000,0.000000,127.500000,72.000000,15.500000,80.000000,0.000000,0.000000,0.000000,1770904878.958546,0.000000
134.000000,24330.589095,23540.119653,6960.668500,7189.148031,25150.093454,-7088.900457,11444.182568,-2029.739562,22049.325353,23181.664727,-4160.151382,9422.087302,24097.683918,25412.793507,13430.336229,23263.047428,0.002000,-0.012000,1.012000,192.000000,0.000000,0.000000,0.000000,0.000000,0.000000,0.000000,0.000000,0.000000,0.000000,1770904878.958565,0.000000
136.000000,24334.455947,23540.097301,6959.506209,7203.944886,25144.594925,-7079.445670,11449.636394,-2017.446103,22029.611114,23181.150637,-4148.617881,9432.726733,24102.824819,25413.397004,13420.590868,23233.587829,0.002000,-0.012000,1.012000,192.000000,0.000000,0.000000,0.000000,0.000000,0.000000,0.000000,0.000000,0.000000,0.000000,1770904878.958583,0.000000
138.000000,24340.848546,23557.442255,6954.544122,7192.411386,25153.848547,-7090.956818,11446.931833,-2021.335306,22021.385672,23186.760925,-4148.863751,9439.298146,24124.774232,25417.085042,13412.700702,23231.106786,0.002000,-0.012000,1.012000,192.000000,0.000000,0.000000,0.000000,0.000000,0.000000,0.000000,0.000000,0.000000,0.000000,1770904878.958601,0.000000
140.000000,24338.769834,23553.038961,6962.411936,7210.873927,25142.359751,-7075.355300,11451.782161,-2013.221623,22066.849120,23202.675367,-4154.496390,9436.660640,24096.856904,25436.396949,13404.430557,23269.082399,0.002000,-0.012000,1.012000,192.000000,0.000000,0.000000,0.000000,0.000000,0.000000,0.000000,0.000000,0.000000,0.000000,1770904878.958618,0.000000
142.000000,24343.687218,23559.364505,6959.305043,7211.008037,25133.530811,-7072.516629,11453.950280,-2008.572460,22004.599512,23194.896960,-4137.889044,9448.618823,24087.268005,25414.626350,13388.940798,23223.149565,0.004000,-0.012000,1.011000,192.000000,0.000000,24.000000,127.500000,80.000000,15.500000,72.000000,0.000000,0.000000,0.000000,1770904878.958635,0.000000
144.000000,24351.577383,23565.824159,6956.265206,7206.604744,25140.772777,-7071.846076,11452.542121,-2010.919393,22066.312679,23206.408108,-4144.907492,9445.780152,24102.377785,25429.981998,13386.862086,23272.591623,0.004000,-0.012000,1.011000,192.000000,0.000000,0.000000,0.000000,0.000000,0.000000,0.000000,0.000000,0.000000,0.000000,1770904878.958653,0.000000
146.000000,24344.760101,23550.468510,6967.038747,7211.723293,25142.695027,-7058.837361,11454.665536,-2008.885385,22039.200013,23199.255550,-4134.089247,9446.115428,24099.896741,25425.489298,13387.845562,23244.294315,0.004000,-0.012000,1.011000,192.000000,0.000000,0.000000,0.000000,0.000000,0.000000,0.000000,0.000000,0.000000,0.000000,1770904878.958673,0.000000
148.000000,24337.875764,23550.312048,6955.974633,7193.238401,25153.580326,-7069.789716,11446.305984,-2025.313917,22019.038739,23183.050535,-4143.722849,9436.727695,24104.992939,25418.582609,13396.294522,23243.467300,0.004000,-0.012000,1.011000,192.000000,0.000000,0.000000,0.000000,0.000000,0.000000,0.000000,0.000000,0.000000,0.000000,1770904878.958690,0.000000
150.000000,24330.454985,23536.923353,6960.690851,7202.804947,25150.987524,-7060.960777,11446.685963,-2025.783303,22060.791798,23183.721087,-4156.642158,9426.937631,24097.035718,25421.287170,13408.409167,23279.185388,0.004000,-0.012000,1.011000,192.000000,0.000000,0.000000,0.000000,0.000000,0.000000,0.000000,0.000000,0.000000,0.000000,1770904878.958708,0.000000
152.000000,24332.421938,23542.064255,6956.958110,7199.519241,25150.629896,-7068.470963,11446.797722,-2025.179806,21998.788059,23177.261433,-4146.181541,9430.558614,24116.772308,25409.507800,13407.135118,23232.224373,0.003000,-0.011000,1.007500,192.000000,0.000000,8.000000,127.500000,88.000000,15.500000,48.000000,0.000000,0.000000,0.000000,1770904878.958724,0.000000
154.000000,24336.132328,23544.210022,6961.786087,7192.299627,25152.105111,-7083.178411,11445.054286,-2028.778437,22050.688809,23184.525750,-4158.251483,9424.590698,24102.936578,25415.654530,13420.769682,23272.323402,0.003000,-0.011000,1.007500,192.000000,0.000000,0.000000,0.000000,0.000000,0.000000,0.000000,0.000000,0.000000,0.000000,1770904878.958741,0.000000
156.000000,24331.773738,23533.503536,6970.771488,7200.815642,25153.669733,-7079.222152,11449.770504,-2020.687106,22029.588762,23181.642375,-4145.153361,9428.882233,24103.718889,25408.166696,13420.680275,23242.394417,0.003000,-0.011000,1.007500,192.000000,0.000000,0.000000,0.000000,0.000000,0.000000,0.000000,0.000000,0.000000,0.000000,1770904878.958757,0.000000
158.000000,24334.433595,23546.333438,6956.734593,7191.226744,25162.766893,-7095.695388,11445.344859,-2029.069010,22009.673358,23176.657936,-4149.668413,9428.256384,24102.109564,25402.176428,13421.328476,23233.409015,0.003000,-0.011000,1.007500,192.000000,0.000000,0.000000,0.000000,0.000000,0.000000,0.000000,0.000000,0.000000,0.000000,1770904878.958774,0.000000
160.000000,24335.148851,23541.170185,6966.815229,7198.491061,25158.050675,-7084.407757,11448.943490,-2021.581176,22060.389466,23188.437306,-4157.290358,9424.054256,24107.988072,25426.159850,13421.261420,23265.595527,0.003000,-0.011000,1.007500,192.000000,0.000000,0.000000,0.000000,0.000000,0.000000,0.000000,0.000000,0.000000,0.000000,1770904878.958792,0.000000
162.000000,24341.206174,23550.088531,6947.615081,7208.079959,25153.625030,-7080.540905,11449.658745,-2017.401399,22003.638387,23182.983480,-4142.337041,9439.655774,24132.887916,25411.251236,13401.793051,23216.734614,0.004500,-0.010500,1.006750,192.000000,0.000000,24.000000,127.500000,88.000000,15.500000,56.000000,0.000000,0.000000,0.000000,1770904878.958809,0.000000
164.000000,24345.028322,23555.832929,6962.881322,7203.117872,25149.132329,-7084.139536,11451.491589,-2018.071952,22060.545929,23195.478105,-4154.250521,9437.465303,24100.768459,25421.086004,13396.316874,23265.863748,0.004500,-0.010500,1.006750,192.000000,0.000000,0.000000,0.000000,0.000000,0.000000,0.000000,0.000000,0.000000,0.000000,1770904878.958825,0.000000
166.000000,24344.558936,23549.708551,6970.682081,7214.606668,25149.087626,-7065.855809,11457.034821,-2006.225527,22033.545021,23201.535428,-4138.939576,9445.489579,24100.477886,25426.785699,13391.779469,23239.645152,0.004500,-0.010500,1.006750,192.000000,0.000000,0.000000,0.000000,0.000000,0.000000,0.000000,0.000000,0.000000,0.000000,1770904878.958842,0.000000
168.000000,24347.308200,23560.817368,6961.093183,7201.821470,25157.246012,-7073.187181,11450.753981,-2015.903832,22023.017350,23199.523771,-4140.884178,9442.226224,24086.731563,25431.859545,13396.182763,23238.348751,0.004500,-0.010500,1.006750,192.000000,0.000000,0.000000,0.000000,0.000000,0.000000,0.000000,0.000000,0.000000,0.000000,1770904878.958860,0.000000
170.000000,24345.028322,23552.189595,6963.283654,7213.377322,25155.234355,-7060.916073,11450.731629,-2011.388780,22068.212577,23214.924123,-4148.416716,9441.689782,24112.123145,25427.210382,13405.928124,23276.994917,0.004500,-0.010500,1.006750,192.000000,0.000000,0.000000,0.000000,0.000000,0.000000,0.000000,0.000000,0.000000,0.000000,1770904878.958877,0.000000
172.000000,24336.288790,23545.037037,6964.468296,7209.666933,25144.103187,-7062.838323,11449.278766,-2017.155530,22002.230227,23199.993157,-4138.313727,9447.657698,24102.422488,25421.488335,13402.284789,23233.766643,0.004250,-0.009250,1.004375,192.000000,0.000000,16.000000,127.500000,96.000000,15.500000,40.000000,0.000000,0.000000,0.000000,1770904878.958902,0.000000
174.000000,24338.836889,23545.528775,6953.694755,7199.653351,25147.567707,-7067.711004,11443.713181,-2027.794960,22054.779178,23203.234160,-4154.809315,9434.693686,24095.471095,25426.942161,13410.845507,23283.231054,0.004250,-0.009250,1.004375,192.000000,0.000000,0.000000,0.000000,0.000000,0.000000,0.000000,0.000000,0.000000,0.000000,1770904878.958919,0.000000
176.000000,24324.643531,23528.072063,6960.199113,7207.789386,25138.850527,-7064.827629,11446.484798,-2024.688068,22019.150498,23197.981500,-4154.138762,9433.397285,24107.541038,25427.277437,13411.896039,23258.130045,0.004250,-0.009250,1.004375,192.000000,0.000000,0.000000,0.000000,0.000000,0.000000,0.000000,0.000000,0.000000,0.000000,1770904878.958934,0.000000
178.000000,24327.683369,23535.649304,6946.743363,7189.148031,25151.523966,-7083.245466,11440.718048,-2033.651118,21991.032003,23182.871721,-4156.843323,9424.545994,24091.961872,25404.433954,13412.007798,23248.518795,0.004250,-0.009250,1.004375,192.000000,0.000000,0.000000,0.000000,0.000000,0.000000,0.000000,0.000000,0.000000,0.000000,1770904878.958970,0.000000
180.000000,24332.444290,23532.140080,6966.055270,7198.044026,25146.472472,-7079.669187,11444.629603,-2026.856187,22047.514862,23193.377041,-4161.984225,9421.059122,24101.059032,25421.845963,13415.695836,23276.726696,0.004250,-0.009250,1.004375,192.000000,0.000000,0.000000,0.000000,0.000000,0.000000,0.000000,0.000000,0.000000,0.000000,1770904878.958987,0.000000
182.000000,24338.412206,23540.097301,6962.657805,7199.139261,25146.181899,-7081.144402,11448.183530,-2019.748332,21986.114620,23183.296404,-4145.354527,9428.368143,24089.749049,25413.106431,13409.124423,23224.557725,0.003125,-0.010625,1.004188,192.000000,0.000000,8.000000,127.500000,80.000000,15.500000,48.000000,0.000000,0.000000,0.000000,1770904878.959004,0.000000
184.000000,24352.694971,23555.967040,6961.227293,7196.904087,25152.172166,-7080.183277,11448.272937,-2018.384876,22053.438074,23201.043689,-4151.054222,9435.006611,24106.468154,25412.860562,13403.380025,23272.010478,0.003125,-0.010625,1.004188,192.000000,0.000000,0.000000,0.000000,0.000000,0.000000,0.000000,0.000000,0.000000,0.000000,1770904878.959020,0.000000
186.000000,24352.225584,23552.301353,6970.413860,7210.359837,25150.473434,-7065.475829,11455.380792,-2005.264402,22038.216536,23203.882361,-4136.413829,9442.248576,24125.467137,25422.404757,13399.557877,23245.613068,0.003125,-0.010625,1.004188,192.000000,0.000000,0.000000,0.000000,0.000000,0.000000,0.000000,0.000000,0.000000,0.000000,1770904878.959036,0.000000
188.000000,24351.242107,23562.404342,6958.433325,7200.346255,25150.942820,-7073.611864,11451.156312,-2013.735713,22018.010559,23201.222503,-4140.526550,9440.862768,24103.473020,25418.984940,13395.556914,23242.327361,0.003125,-0.010625,1.004188,192.000000,0.000000,0.000000,0.000000,0.000000,0.000000,0.000000,0.000000,0.000000,0.000000,1770904878.959054,0.000000
190.000000,24350.482148,23552.234298,6972.045537,7207.230593,25157.737751,-7065.341719,11453.659708,-2010.025324,22068.301984,23208.464469,-4146.382707,9441.265099,24117.934599,25430.943123,13401.457775,23278.403077,0.003125,-0.010625,1.004188,192.000000,0.000000,0.000000,0.000000,0.000000,0.000000,0.000000,0.000000,0.000000,0.000000,1770904878.959072,0.000000
192.000000,24342.234354,23544.813519,6964.468296,7203.766072,25150.205213,-7067.040451,11450.463408,-2020.217719,22001.604378,23195.634567,-4136.033849,9442.360335,24093.437087,25417.308559,13400.898981,23230.927972,0.002563,-0.010312,1.003094,192.000000,0.000000,8.000000,127.500000,88.000000,15.500000,40.000000,0.000000,0.000000,0.000000,1770904878.959090,0.000000
194.000000,24339.932125,23544.433539,6954.007680,7194.355988,25153.960306,-7071.913132,11444.428437,-2029.918376,22047.134882,23196.506285,-4156.820972,9430.223337,24099.717927,25418.426146,13406.799842,23280.414734,0.002563,-0.010312,1.003094,192.000000,0.000000,0.000000,0.000000,0.000000,0.000000,0.000000,0.000000,0.000000,0.000000,1770904878.959107,0.000000
196.000000,24329.918543,23527.043882,6964.088316,7200.636828,25140.750425,-7062.033661,11445.009583,-2025.895062,22018.949332,23187.744401,-4151.255387,9426.937631,24108.770383,25415.520420,13409.727920,23260.901661,0.002563,-0.010312,1.003094,192.000000,0.000000,0.000000,0.000000,0.000000,0.000000,0.000000,0.000000,0.000000,0.000000,1770904879.438684,0.000000
198.000000,24329.359749,23534.822289,6946.519845,7188.991569,25149.445254,-7074.505934,11440.561585,-2034.880463,21998.542189,23172.321698,-4157.357413,9422.243765,24078.282604,25409.865428,13407.157470,23252.005667,0.002563,-0.010312,1.003094,192.000000,0.000000,0.000000,0.000000,0.000000,0.000000,0.000000,0.000000,0.000000,0.000000,1770904879.438763,0.000000
200.000000,24333.025436,23534.397606,6960.847314,7194.646561,25146.248954,-7070.281454,11444.517844,-2025.939766,22049.370056,23184.883378,-4162.990053,9418.265154,24089.436124,25413.061728,13409.392644,23283.163999,0.002563,-0.010312,1.003094,192.000000,0.000000,0.000000,0.000000,0.000000,0.000000,0.000000,0.000000,0.000000,0.000000,1770904879.438818,0.000000
202.000000,24339.306276,23544.008856,6961.227293,7200.189793,25146.718341,-7077.635178,11449.122304,-2018.966021,21993.066012,23186.962090,-4144.236939,9431.519739,24090.777229,25413.106431,13405.615199,23225.720015,0.002563,-0.010312,1.003094,192.000000,0.000000,0.000000,0.000000,0.000000,0.000000,0.000000,0.000000,0.000000,0.000000,1770904879.438872,0.000000
204.000000,24347.308200,23555.318839,6955.371136,7196.859383,25154.787320,-7081.256161,11448.764676,-2019.301298,22046.419626,23196.774506,-4155.345756,9432.726733,24111.363186,25416.414489,13404.519964,23266.713115,0.002000,-0.006000,1.006000,192.000000,0.000000,8.000000,127.500000,104.000000,15.500000,56.000000,0.000000,0.000000,0.000000,1770904879.438932,0.000000
206.000000,24345.877689,23549.239165,6969.609197,7206.872965,25157.514233,-7070.840248,11453.190321,-2008.103074,22028.940562,23200.417841,-4142.918187,9441.421561,24120.773270,25419.409623,13402.865935,23239.756911,0.002000,-0.006000,1.006000,192.000000,0.000000,0.000000,0.000000,0.000000,0.000000,0.000000,0.000000,0.000000,0.000000,1770904879.438982,0.000000
208.000000,24352.046770,23561.711438,6957.986290,7194.937133,25160.844643,-7082.060824,11449.144655,-2015.322687,22020.782175,23194.047593,-4138.872521,9440.706306,24106.155229,25415.520420,13400.675464,23233.923105,0.002000,-0.006000,1.006000,192.000000,0.000000,0.000000,0.000000,0.000000,0.000000,0.000000,0.000000,0.000000,0.000000,1770904879.438999,0.000000
210.000000,24349.185747,23551.742560,6966.122325,7204.302514,25158.922393,-7069.633254,11450.843388,-2013.378085,22062.982269,23201.758945,-4144.795733,9438.448779,24097.281587,25422.024777,13405.414034,23268.925937,0.002000,-0.006000,1.006000,192.000000,0.000000,0.000000,0.000000,0.000000,0.000000,0.000000,0.000000,0.000000,0.000000,1770904879.439022,0.000000
212.000000,24344.693046,23549.730903,6963.440116,7200.301552,25152.216870,-7072.986015,11451.178664,-2013.243975,22000.486791,23195.589864,-4136.100904,9441.980355,24114.246561,25427.322141,13398.239124,23225.183573,0.002000,-0.006000,1.006000,192.000000,0.000000,0.000000,0.000000,0.000000,0.000000,0.000000,0.000000,0.000000,0.000000,1770904879.439035,0.000000
214.000000,24341.049712,23548.523909,6955.751116,7195.562982,25156.977791,-7083.245466,11447.334164,-2021.759989,22045.950239,23196.148657,-4153.848190,9430.692724,24104.411793,25406.579722,13406.509269,23269.507083,0.004000,-0.008000,1.006000,192.000000,0.000000,16.000000,127.500000,96.000000,15.500000,56.000000,0.000000,0.000000,0.000000,1770904879.439051,0.000000
216.000000,24333.986561,23531.447176,6964.133020,7202.268505,25158.855338,-7071.197876,11451.022202,-2017.446103,22023.062053,23188.906692,-4147.120314,9428.345791,24099.270892,25403.450478,13404.296446,23246.060103,0.004000,-0.008000,1.006000,192.000000,0.000000,0.000000,0.000000,0.000000,0.000000,0.000000,0.000000,0.000000,0.000000,1770904879.439066,0.000000
218.000000,24333.852450,23536.006932,6954.633529,7187.963389,25152.395684,-7077.299902,11443.467312,-2029.806617,22006.745280,23175.495645,-4149.087268,9422.154358,24136.754768,25398.778963,13406.106938,23243.780225,0.004000,-0.008000,1.006000,192.000000,0.000000,0.000000,0.000000,0.000000,0.000000,0.000000,0.000000,0.000000,0.000000,1770904879.439078,0.000000
220.000000,24339.865069,23536.565725,6968.044575,7193.976008,25166.097303,-7069.119164,11445.702487,-2023.391667,22057.751960,23180.524788,-4155.703384,9414.308895,24098.868561,25402.623463,13414.488842,23277.240786,0.004000,-0.008000,1.006000,192.000000,0.000000,0.000000,0.000000,0.000000,0.000000,0.000000,0.000000,0.000000,0.000000,1770904879.439090,0.000000
222.000000,24342.994314,23541.997199,6966.502305,7194.959485,25164.309164,-7073.097774,11446.797722,-2021.536472,22008.555771,23181.508265,-4135.810332,9426.244727,24115.028872,25402.981091,13408.945609,23223.283675,0.004000,-0.008000,1.006000,192.000000,0.000000,0.000000,0.000000,0.000000,0.000000,0.000000,0.000000,0.000000,0.000000,1770904879.439102,0.000000
224.000000,24342.927258,23551.161415,6958.768601,7192.143165,25172.780475,-7084.273646,11444.249623,-2026.185635,22053.572184,23190.583073,-4153.267044,9423.741332,24117.241695,25404.858637,13412.879516,23263.829740,0.004000,-0.010000,1.006000,192.000000,0.000000,16.000000,127.500000,88.000000,15.500000,56.000000,0.000000,0.000000,0.000000,1770904879.439114,0.000000
226.000000,24343.553107,23547.227507,6960.802610,7207.320000,25163.057466,-7068.627425,11451.044554,-2013.869824,22038.596515,23200.574303,-4146.807390,9435.855977,24148.332971,25415.632178,13405.346978,23238.259344,0.004000,-0.010000,1.006000,192.000000,0.000000,0.000000,0.000000,0.000000,0.000000,0.000000,0.000000,0.000000,0.000000,1770904879.439126,0.000000
228.000000,24342.189651,23553.150720,6959.863837,7188.812755,25156.553108,-7083.603094,11447.535330,-2022.855225,22013.987245,23197.936797,-4145.667451,9434.671335,24113.263084,25420.326045,13401.144850,23227.530507,0.004000,-0.010000,1.006000,192.000000,0.000000,0.000000,0.000000,0.000000,0.000000,0.000000,0.000000,0.000000,0.000000,1770904879.439138,0.000000
230.000000,24335.595886,23544.232374,6964.758869,7202.402616,25152.820367,-7082.150231,11451.312775,-2016.149702,22058.400161,23200.775468,-4152.730602,9428.412846,24113.888933,25410.558332,13401.703644,23261.862786,0.004000,-0.010000,1.006000,192.000000,0.000000,0.000000,0.000000,0.000000,0.000000,0.000000,0.000000,0.000000,0.000000,1770904879.439149,0.000000
232.000000,24334.388892,23547.160452,6958.522732,7203.587258,25144.036131,-7081.949065,11451.111609,-2014.696838,21991.367279,23187.789105,-4140.057163,9440.125160,24105.954064,25409.843076,13394.640493,23214.030053,0.004000,-0.010000,1.006000,192.000000,0.000000,0.000000,0.000000,0.000000,0.000000,0.000000,0.000000,0.000000,0.000000,1770904879.439162,0.000000
234.000000,24337.674598,23553.731865,6957.181627,7197.641694,25149.579364,-7087.984036,11447.445923,-2019.770684,22047.023123,23193.891131,-4152.060050,9435.788922,24104.881180,25402.332890,13400.317836,23260.812254,0.006000,-0.008000,1.002000,192.000000,0.000000,24.000000,127.500000,96.000000,15.500000,40.000000,0.000000,0.000000,0.000000,1770904879.439173,0.000000
236.000000,24335.774700,23546.512252,6963.596578,7209.085787,25152.932126,-7070.437917,11451.066905,-2011.299373,22024.783137,23194.405221,-4145.645099,9438.381724,24120.393291,25408.613731,13396.741557,23241.276829,0.006000,-0.008000,1.002000,192.000000,0.000000,0.000000,0.000000,0.000000,0.000000,0.000000,0.000000,0.000000,0.000000,1770904879.439185,0.000000
238.000000,24340.379159,23558.157511,6959.774430,7197.999322,25149.892288,-7071.130821,11448.004716,-2018.876614,22011.796774,23187.654994,-4141.308861,9437.755875,24112.458421,25407.227922,13395.959246,23235.063044,0.006000,-0.008000,1.002000,192.000000,0.000000,0.000000,0.000000,0.000000,0.000000,0.000000,0.000000,0.000000,0.000000,1770904879.439197,0.000000
240.000000,24337.361674,23549.820310,6967.821058,7206.045950,25158.877690,-7061.676033,11450.374001,-2015.277984,22062.199958,23197.579169,-4151.322442,9433.374933,24111.206724,25418.046167,13404.654074,23275.318536,0.006000,-0.008000,1.002000,192.000000,0.000000,0.000000,0.000000,0.000000,0.000000,0.000000,0.000000,0.000000,0.000000,1770904879.439209,0.000000
242.000000,24340.490918,23551.854319,6970.369157,7203.229630,25164.465626,-7066.347547,11453.212673,-2010.002972,22001.716137,23188.683175,-4136.436181,9440.102808,24122.092023,25412.592341,13403.871763,23222.322550,0.006000,-0.008000,1.002000,192.000000,0.000000,0.000000,0.000000,0.000000,0.000000,0.000000,0.000000,0.000000,0.000000,1770904879.439223,0.000000
244.000000,24353.052599,23563.231357,6965.272959,7195.674741,25178.413114,-7077.813992,11450.396353,-2011.969925,22058.891899,23200.104916,-4141.152399,9435.900681,24142.700332,25418.739071,13412.343074,23255.380780,0.004000,-0.006000,1.004000,192.000000,0.000000,16.000000,127.500000,104.000000,15.500000,48.000000,0.000000,0.000000,0.000000,1770904879.439235,0.000000
246.000000,24352.605564,23554.380066,6979.108689,7208.348180,25174.210986,-7072.315463,11456.297214,-2001.978696,22040.675228,23199.412012,-4131.965832,9439.700477,24163.867434,25409.731318,13411.627819,23231.464414,0.004000,-0.006000,1.004000,192.000000,0.000000,0.000000,0.000000,0.000000,0.000000,0.000000,0.000000,0.000000,0.000000,1770904879.439248,0.000000
248.000000,24353.298468,23561.934955,6969.117459,7190.958523,25174.948594,-7086.844097,11451.513940,-2013.735713,22020.670416,23193.578207,-4132.055239,9440.572195,24121.130898,25412.391175,13410.756101,23224.781242,0.004000,-0.006000,1.004000,192.000000,0.000000,0.000000,0.000000,0.000000,0.000000,0.000000,0.000000,0.000000,0.000000,1770904879.439260,0.000000
250.000000,24352.762026,23556.548185,6972.425517,7205.420101,25168.600699,-7081.122050,11455.537254,-2007.678390,22073.688754,23209.023262,-4141.599434,9434.403114,24131.658570,25428.842059,13412.253667,23260.387571,0.004000,-0.006000,1.004000,192.000000,0.000000,0.000000,0.000000,0.000000,0.000000,0.000000,0.000000,0.000000,0.000000,1770904879.439272,0.000000
252.000000,24346.369427,23557.062275,6967.664596,7208.728160,25160.218794,-7081.032643,11455.805475,-2007.454873,22005.717099,23194.539332,-4130.490617,9448.261195,24128.462270,25413.486411,13400.474298,23213.068928,0.004000,-0.006000,1.004000,192.000000,0.000000,0.000000,0.000000,0.000000,0.000000,0.000000,0.000000,0.000000,0.000000,1770904879.439284,0.000000
254.000000,24351.912660,23566.092380,6958.433325,7202.603782,25163.213928,-7084.206591,11452.162141,-2011.299373,22056.924946,23200.976634,-4144.303995,9443.321460,24121.823802,25412.637045,13400.295484,23260.320516,0.004000,-0.006000,1.008000,192.000000,0.000000,16.000000,127.500000,104.000000,15.500000,64.000000,0.000000,0.000000,0.000000,1770904879.439296,0.000000
0.000000,24343.039017,23555.140025,6965.854104,7212.729122,25156.173129,-7071.779021,11455.313737,-2005.264402,22037.881260,23202.585960,-4136.972623,9447.098905,24123.902514,25416.839172,13397.099185,23243.690818,0.004000,-0.006000,1.008000,192.000000,0.000000,0.000000,0.000000,0.000000,0.000000,0.000000,0.000000,0.000000,0.000000,1770904879.439308,0.000000
2.000000,24343.418997,23559.543319,6954.253549,7198.826337,25145.801919,-7085.055957,11450.105780,-2016.820254,22013.383748,23195.008718,-4140.526550,9444.930785,24118.091061,25412.815858,13394.528734,23237.611143,0.004000,-0.006000,1.008000,192.000000,0.000000,0.000000,0.000000,0.000000,0.000000,0.000000,0.000000,0.000000,0.000000,1770904879.439319,0.000000
4.000000,24339.507441,23547.763949,6963.708337,7202.983761,25151.948649,-7071.488449,11452.162141,-2015.657963,22061.663516,23194.673442,-4150.070745,9435.431294,24126.160041,25401.841152,13400.004911,23273.575100,0.004000,-0.006000,1.008000,192.000000,0.000000,0.000000,0.000000,0.000000,0.000000,0.000000,0.000000,0.000000,0.000000,1770904879.439331,0.000000
6.000000,24337.741654,23543.114787,6963.663633,7201.150918,25158.005972,-7069.387385,11451.782161,-2015.970888,22002.856076,23183.542273,-4136.838512,9438.940518,24135.078387,25405.976225,13399.289656,23224.781242,0.004000,-0.006000,1.008000,192.000000,0.000000,0.000000,0.000000,0.000000,0.000000,0.000000,0.000000,0.000000,0.000000,1770904879.439343,0.000000
8.000000,24342.055540,23549.887365,6964.334186,7194.043063,25172.221681,-7073.142478,11448.205882,-2022.609356,22051.404065,23182.983480,-4151.233035,9429.284564,24116.884067,25406.646777,13412.700702,23264.768513,0.004000,-0.006000,1.008000,192.000000,0.000000,16.000000,127.500000,104.000000,15.500000,64.000000,0.000000,0.000000,0.000000,1770904879.439355,0.000000
10.000000,24344.380122,23546.333438,6974.705395,7208.638753,25178.100190,-7055.931634,11452.966804,-2011.880518,22038.283591,23190.627776,-4136.905567,9435.453646,24127.635256,25413.508763,13411.985446,23242.550879,0.004000,-0.006000,1.008000,192.000000,0.000000,0.000000,0.000000,0.000000,0.000000,0.000000,0.000000,0.000000,0.000000,1770904879.439366,0.000000
12.000000,24345.900040,23554.849452,6969.855067,7187.873982,25184.045754,-7067.353376,11447.289461,-2022.363487,22018.971684,23187.409125,-4136.682050,9437.018268,24125.958875,25414.715757,13412.566592,23230.257419,0.004000,-0.006000,1.008000,192.000000,0.000000,0.000000,0.000000,0.000000,0.000000,0.000000,0.000000,0.000000,0.000000,1770904879.439378,0.000000
14.000000,24344.178956,23546.691066,6969.519790,7205.643619,25184.805713,-7062.435992,11449.099952,-2019.301298,22069.821902,23187.789105,-4148.908454,9428.770474,24131.926791,25420.683673,13418.087473,23274.178597,0.004000,-0.006000,1.008000,192.000000,0.000000,0.000000,0.000000,0.000000,0.000000,0.000000,0.000000,0.000000,0.000000,1770904879.439390,0.000000
16.000000,24347.151738,23549.306220,6973.543104,7201.173270,25174.076876,-7065.542885,11450.686926,-2017.066123,22006.298245,23187.967919,-4137.330250,9439.633422,24146.298962,25407.406736,13407.649208,23224.602428,0.004000,-0.006000,1.008000,192.000000,0.000000,0.000000,0.000000,0.000000,0.000000,0.000000,0.000000,0.000000,0.000000,1770904879.439401,0.000000
18.000000,24356.226546,23561.174996,6964.624758,7199.251020,25169.740638,-7077.143440,11449.614042,-2018.407228,22064.524539,23196.014547,-4145.108657,9433.173768,24131.949142,25408.680786,13409.705569,23266.288431,0.004000,-0.006000,1.007000,192.000000,0.000000,16.000000,127.500000,104.000000,15.500000,56.000000,0.000000,0.000000,0.000000,1770904879.439415,0.000000
20.000000,24351.353866,23549.865013,6973.878381,7208.392883,25163.862129,-7071.354338,11453.905577,-2010.964097,22046.307867,23195.545160,-4135.944442,9441.779189,24117.979302,25411.564161,13401.167202,23246.261268,0.004000,-0.006000,1.007000,192.000000,0.000000,0.000000,0.000000,0.000000,0.000000,0.000000,0.000000,0.000000,0.000000,1770904879.439426,0.000000
22.000000,24351.666790,23558.202214,6959.953244,7196.971142,25171.618184,-7084.921847,11448.049420,-2021.782341,22021.810355,23189.778410,-4138.783114,9438.158207,24122.941389,25412.793507,13400.429595,23236.873536,0.004000,-0.006000,1.007000,192.000000,0.000000,0.000000,0.000000,0.000000,0.000000,0.000000,0.000000,0.000000,0.000000,1770904879.439438,0.000000
24.000000,24350.392741,23552.904851,6968.022223,7202.939058,25167.080780,-7078.372786,11449.412876,-2020.485940,22068.458446,23198.093259,-4147.142666,9433.933727,24126.562372,25405.596245,13410.420824,23278.313670,0.004000,-0.006000,1.007000,192.000000,0.000000,0.000000,0.000000,0.000000,0.000000,0.000000,0.000000,0.000000,0.000000,1770904879.439460,0.000000
26.000000,24346.414130,23553.217775,6967.865761,7199.742758,25170.031210,-7077.992806,11448.161179,-2022.654059,22002.811373,23185.151599,-4138.939576,9438.113503,24142.074483,25399.784791,13413.103034,23230.436233,0.004000,-0.006000,1.007000,192.000000,0.000000,0.000000,0.000000,0.000000,0.000000,0.000000,0.000000,0.000000,0.000000,1770904879.439471,0.000000
28.000000,24352.404398,23558.492787,6960.467334,7194.020712,25180.782399,-7080.272684,11445.680135,-2028.286699,22048.140710,23188.861989,-4152.216512,9431.005648,24111.966683,25401.461172,13423.407188,23271.630498,0.006000,-0.006000,1.009500,192.000000,0.000000,32.000000,127.500000,104.000000,15.500000,80.000000,0.000000,0.000000,0.000000,1770904879.439483,0.000000
30.000000,24349.409264,23547.898060,6974.593636,7203.475500,25180.603585,-7067.062803,11452.206844,-2017.960193,22030.147556,23186.023317,-4145.108657,9435.118369,24123.075500,25408.144344,13421.484938,23250.262231,0.006000,-0.006000,1.009500,192.000000,0.000000,0.000000,0.000000,0.000000,0.000000,0.000000,0.000000,0.000000,0.000000,1770904879.439495,0.000000
32.000000,24348.671657,23556.414074,6963.730689,7192.277276,25175.485036,-7076.204667,11447.490626,-2028.398458,22011.617960,23187.319718,-4142.359393,9436.370067,24116.012349,25406.467963,13414.734711,23237.454681,0.006000,-0.006000,1.009500,192.000000,0.000000,0.000000,0.000000,0.000000,0.000000,0.000000,0.000000,0.000000,0.000000,1770904879.439507,0.000000
34.000000,24344.938915,23547.227507,6970.033880,7196.837031,25179.240129,-7067.465135,11450.284594,-2024.933937,22061.216481,23193.555855,-4152.082402,9427.563480,24124.438956,25419.297864,13417.506327,23275.519702,0.006000,-0.006000,1.009500,192.000000,0.000000,0.000000,0.000000,0.000000,0.000000,0.000000,0.000000,0.000000,0.000000,1770904879.439519,0.000000
36.000000,24338.479261,23542.243068,6968.692776,7201.665008,25174.792132,-7069.007405,11451.424533,-2026.319745,21994.697689,23178.602538,-4141.062992,9435.833625,24129.155174,25395.806181,13408.409167,23226.882306,0.006000,-0.006000,1.009500,192.000000,0.000000,0.000000,0.000000,0.000000,0.000000,0.000000,0.000000,0.000000,0.000000,1770904879.439531,0.000000
38.000000,24341.876726,23548.456853,6962.546046,7193.908953,25180.268309,-7077.434013,11447.803551,-2031.527702,22041.658704,23180.658898,-4158.229131,9428.390494,24144.756692,25402.109373,13411.426653,23266.668411,0.005000,-0.006000,1.007750,192.000000,0.000000,16.000000,127.500000,104.000000,15.500000,56.000000,0.000000,0.000000,0.000000,1770904879.439543,0.000000
40.000000,24337.138157,23534.352903,6972.157296,7205.263639,25177.988431,-7067.152210,11453.123266,-2022.743466,22029.901687,23182.201169,-4145.958024,9432.860843,24133.714930,25409.708966,13406.978656,23252.430350,0.005000,-0.006000,1.007750,192.000000,0.000000,0.000000,0.000000,0.000000,0.000000,0.000000,0.000000,0.000000,0.000000,1770904879.439555,0.000000
42.000000,24338.993351,23543.360656,6963.708337,7193.707787,25181.385896,-7079.512725,11449.301118,-2029.985431,22001.939655,23172.746381,-4149.735469,9427.161148,24104.367090,25398.823666,13409.683217,23242.483824,0.005000,-0.006000,1.007750,192.000000,0.000000,0.000000,0.000000,0.000000,0.000000,0.000000,0.000000,0.000000,0.000000,1770904879.439567,0.000000
44.000000,24341.474395,23541.438406,6969.117459,7200.055683,25188.471399,-7076.137611,11450.418705,-2022.542301,22067.631432,23181.955300,-4153.870541,9428.166977,24118.091061,25405.328024,13415.181746,23282.962833,0.005000,-0.006000,1.007750,192.000000,0.000000,0.000000,0.000000,0.000000,0.000000,0.000000,0.000000,0.000000,0.000000,1770904879.439584,0.000000
46.000000,24337.495784,23541.796034,6968.335148,7197.529936,25177.317879,-7077.478716,11450.262243,-2021.312955,21998.296320,23177.328489,-4142.538207,9434.179596,24115.364148,25400.008309,13412.745406,23233.900754,0.005000,-0.006000,1.007750,192.000000,0.000000,0.000000,0.000000,0.000000,0.000000,0.000000,0.000000,0.000000,0.000000,1770904879.439598,0.000000
48.000000,24345.698875,23549.529737,6958.612139,7189.975046,25186.213873,-7087.782870,11446.373039,-2027.817312,22054.488606,23182.223521,-4154.004652,9427.541128,24132.686750,25401.885855,13419.026246,23275.027964,0.004500,-0.007000,1.004875,192.000000,0.000000,16.000000,127.500000,96.000000,15.500000,40.000000,0.000000,0.000000,0.000000,1770904879.439613,0.000000
50.000000,24337.831061,23535.828118,6973.677215,7202.290857,25175.820312,-7073.790678,11452.251548,-2021.782341,22040.943449,23182.111762,-4146.382707,9430.312744,24113.620712,25395.739126,13420.434406,23252.407998,0.004500,-0.007000,1.004875,192.000000,0.000000,0.000000,0.000000,0.000000,0.000000,0.000000,0.000000,0.000000,0.000000,1770904879.439632,0.000000
52.000000,24340.043883,23544.746464,6962.993081,7191.673778,25179.150722,-7084.385405,11448.965841,-2029.426638,22009.673358,23176.724991,-4149.869579,9427.876404,24109.083308,25397.236693,13413.393606,23238.080530,0.004500,-0.007000,1.004875,192.000000,0.000000,0.000000,0.000000,0.000000,0.000000,0.000000,0.000000,0.000000,0.000000,1770904879.439648,0.000000
54.000000,24344.246011,23539.985542,6972.917256,7197.440529,25183.822237,-7077.143440,11453.279728,-2022.184673,22066.670307,23188.146733,-4153.714079,9420.433273,24119.454517,25413.687576,13420.277944,23268.702420,0.004500,-0.007000,1.004875,192.000000,0.000000,0.000000,0.000000,0.000000,0.000000,0.000000,0.000000,0.000000,0.000000,1770904879.439661,0.000000
56.000000,24341.653209,23540.007894,6971.509096,7199.720406,25172.825178,-7080.049167,11454.039687,-2018.451931,22009.718062,23180.256567,-4135.005669,9435.744218,24139.168756,25400.343585,13409.414996,23217.427518,0.004500,-0.007000,1.004875,192.000000,0.000000,0.000000,0.000000,0.000000,0.000000,0.000000,0.000000,0.000000,0.000000,1770904879.439678,0.000000
58.000000,24349.588078,23549.686199,6963.842447,7197.708749,25171.282908,-7086.777042,11449.435228,-2022.877577,22052.946335,23182.379983,-4148.975509,9428.077570,24133.938448,25395.448553,13408.297409,23259.359391,0.001250,-0.007500,1.006438,192.000000,127.500000,120.000000,127.500000,96.000000,15.500000,64.000000,0.000000,0.000000,0.000000,1770904879.439694,0.000000
60.000000,24348.470491,23542.220717,6974.504229,7206.872965,25169.628879,-7072.896608,11454.687888,-2013.758065,22043.178623,23191.454791,-4135.698573,9435.386590,24120.572105,25408.278454,13404.564667,23243.288486,0.001250,-0.007500,1.006438,192.000000,0.000000,0.000000,0.000000,0.000000,0.000000,0.000000,0.000000,0.000000,0.000000,1770904879.921079,0.000000
62.000000,24345.765930,23549.797958,6961.383755,7197.284066,25175.373277,-7079.691539,11449.010545,-2025.828007,22016.065957,23180.256567,-4138.067858,9433.017305,24114.045395,25395.001518,13404.452909,23232.380835,0.001250,-0.007500,1.006438,192.000000,0.000000,0.000000,0.000000,0.000000,0.000000,0.000000,0.000000,0.000000,0.000000,1770904879.921144,0.000000
64.000000,24342.927258,23546.087569,6963.931854,7202.335561,25181.005917,-7068.493315,11448.831731,-2025.939766,22066.223272,23191.253625,-4153.714079,9428.524605,24134.810166,25402.824629,13412.812461,23277.732525,0.001250,-0.007500,1.006438,192.000000,0.000000,0.000000,0.000000,0.000000,0.000000,0.000000,0.000000,0.000000,0.000000,1770904879.921197,0.000000
66.000000,24338.211040,23543.561821,6968.782183,7201.799119,25172.959289,-7065.095850,11450.888091,-2025.157455,22003.504277,23182.759962,-4147.366184,9430.670372,24127.165869,25402.489353,13410.040845,23230.369178,0.001250,-0.007500,1.006438,192.000000,0.000000,0.000000,0.000000,0.000000,0.000000,0.000000,0.000000,0.000000,0.000000,1770904879.921248,0.000000
68.000000,24342.077892,23549.976772,6960.065002,7194.311284,25182.838760,-7072.047242,11446.440094,-2032.511179,22047.917193,23193.779372,-4157.335062,9432.145587,24144.332009,25402.869332,13416.299333,23271.541091,0.003625,-0.008750,1.006219,192.000000,0.000000,24.000000,127.500000,88.000000,15.500000,56.000000,0.000000,0.000000,0.000000,1770904879.921293,0.000000
70.000000,24334.768872,23535.336379,6976.538238,7201.843822,25181.274138,-7066.436954,11449.614042,-2028.443161,22036.182527,23191.275977,-4150.316614,9429.150454,24116.146459,25408.390213,13419.272115,23250.731617,0.003625,-0.008750,1.006219,192.000000,0.000000,0.000000,0.000000,0.000000,0.000000,0.000000,0.000000,0.000000,0.000000,1770904879.921345,0.000000
72.000000,24340.870898,23541.773682,6967.016395,7188.276313,25184.671603,-7082.127879,11443.847292,-2036.020402,22009.069861,23177.417895,-4150.808352,9423.875442,24137.179451,25401.617634,13421.015551,23235.398321,0.003625,-0.008750,1.006219,192.000000,0.000000,0.000000,0.000000,0.000000,0.000000,0.000000,0.000000,0.000000,0.000000,1770904879.921373,0.000000
74.000000,24344.737750,23537.728016,6976.627645,7190.489136,25189.209007,-7077.612827,11448.831731,-2027.549091,22080.662499,23185.375117,-4149.936634,9415.962924,24142.007427,25410.558332,13426.290563,23269.864711,0.003625,-0.008750,1.006219,192.000000,0.000000,0.000000,0.000000,0.000000,0.000000,0.000000,0.000000,0.000000,0.000000,1770904879.921391,0.000000
76.000000,24344.603639,23539.918487,6976.001796,7194.780671,25184.068106,-7080.339739,11453.279728,-2022.452894,22014.926018,23178.691945,-4134.648041,9426.848224,24144.242602,25415.028681,13418.422749,23215.259399,0.003625,-0.008750,1.006219,192.000000,0.000000,0.000000,0.000000,0.000000,0.000000,0.000000,0.000000,0.000000,0.000000,1770904879.921408,0.000000
78.000000,24350.348038,23554.804749,6964.423593,7194.311284,25185.856245,-7087.984036,11449.748152,-2026.610318,22058.914251,23184.391640,-4149.377841,9428.479901,24145.136672,25399.918902,13418.534508,23253.212661,0.003625,-0.008750,1.006219,192.000000,0.000000,0.000000,0.000000,0.000000,0.000000,0.000000,0.000000,0.000000,0.000000,1770904879.921425,0.000000
80.000000,24346.257668,23548.054522,6973.185476,7208.303476,25174.345097,-7072.226056,11454.151446,-2016.775550,22046.643143,23189.331375,-4145.220416,9436.839454,24142.633276,25403.606940,13410.487880,23239.421635,0.006000,-0.010000,1.000000,192.000000,0.000000,24.000000,127.500000,88.000000,15.500000,32.000000,0.000000,0.000000,0.000000,1770904879.921443,0.000000
82.000000,24346.369427,23555.520005,6960.914369,7198.692226,25176.602623,-7083.178411,11450.172836,-2023.682239,22017.697634,23189.554893,-4146.919149,9439.789884,24127.054110,25406.803239,13404.475260,23227.709321,0.006000,-0.010000,1.000000,192.000000,0.000000,0.000000,0.000000,0.000000,0.000000,0.000000,0.000000,0.000000,0.000000,1770904879.921468,0.000000
84.000000,24347.688180,23549.708551,6967.642244,7204.011941,25173.473379,-7070.124992,11451.625699,-2018.563690,22071.051248,23196.193361,-4152.685899,9433.419637,24129.177526,25412.234713,13405.190516,23272.569272,0.006000,-0.010000,1.000000,192.000000,0.000000,0.000000,0.000000,0.000000,0.000000,0.000000,0.000000,0.000000,0.000000,1770904879.921485,0.000000
86.000000,24344.670694,23547.853356,6969.743308,7203.699017,25173.026344,-7063.486524,11453.570301,-2017.267289,22010.947408,23187.654994,-4136.391477,9438.001745,24125.891820,25407.071460,13400.250781,23227.754024,0.006000,-0.010000,1.000000,192.000000,0.000000,0.000000,0.000000,0.000000,0.000000,0.000000,0.000000,0.000000,0.000000,1770904879.921502,0.000000
88.000000,24345.676523,23551.854319,6961.808439,7195.898258,25184.023402,-7068.560370,11447.512978,-2026.632670,22059.361286,23189.152561,-4150.338966,9431.676201,24149.294096,25408.054937,13411.449005,23273.351583,0.006000,-0.010000,1.000000,192.000000,0.000000,0.000000,0.000000,0.000000,0.000000,0.000000,0.000000,0.000000,0.000000,1770904879.921520,0.000000
90.000000,24335.864107,23540.074949,6978.393433,7204.324866,25180.871806,-7057.987995,11450.530464,-2023.257556,22047.045475,23188.482009,-4146.092134,9431.385628,24131.345645,25414.514591,13416.075816,23261.326344,0.008000,-0.012000,1.002000,192.000000,0.000000,32.000000,127.500000,80.000000,15.500000,40.000000,0.000000,0.000000,0.000000,1770904879.921537,0.000000
92.000000,24336.802880,23549.172109,6965.876456,7192.947828,25181.877635,-7075.556466,11447.892958,-2029.493693,22011.729719,23182.648204,-4147.276777,9430.379800,24126.204744,25406.825591,13419.003894,23245.635420,0.008000,-0.012000,1.002000,192.000000,0.000000,0.000000,0.000000,0.000000,0.000000,0.000000,0.000000,0.000000,0.000000,1770904879.921555,0.000000
94.000000,24334.567706,23545.796996,6972.917256,7195.786499,25185.409210,-7074.505934,11452.095086,-2023.905757,22066.513844,23194.673442,-4155.904550,9425.730637,24143.393236,25416.615655,13423.764816,23281.487618,0.008000,-0.012000,1.002000,192.000000,0.000000,0.000000,0.000000,0.000000,0.000000,0.000000,0.000000,0.000000,0.000000,1770904879.921572,0.000000
96.000000,24336.534659,23546.914583,6972.961959,7202.872002,25177.854321,-7080.809126,11456.006641,-2020.441237,22008.309902,23182.178817,-4142.135875,9437.599413,24131.524459,25397.013175,13415.829946,23224.423614,0.008000,-0.012000,1.002000,192.000000,0.000000,0.000000,0.000000,0.000000,0.000000,0.000000,0.000000,0.000000,0.000000,1770904879.921590,0.000000
98.000000,24346.950572,23558.783359,6965.764697,7193.864249,25181.341193,-7087.916981,11452.363307,-2023.078742,22056.544966,23191.857122,-4150.853056,9432.458512,24144.935506,25404.098678,13421.730807,23260.633440,0.008000,-0.012000,1.002000,192.000000,0.000000,0.000000,0.000000,0.000000,0.000000,0.000000,0.000000,0.000000,0.000000,1770904879.921607,0.000000
100.000000,24349.208099,23554.089493,6977.119383,7214.763131,25170.478245,-7075.265893,11460.901673,-2009.935917,22049.146539,23198.383832,-4141.979413,9440.303974,24137.671189,25420.191934,13414.645304,23243.064969,0.012000,-0.008000,1.000000,192.000000,0.000000,48.000000,127.500000,96.000000,15.500000,32.000000,0.000000,0.000000,0.000000,1770904879.921625,0.000000
102.000000,24358.081741,23571.076819,6965.384718,7206.671799,25161.492844,-7083.826611,11458.778257,-2012.931050,22023.151460,23204.351748,-4134.826855,9446.830684,24126.204744,25416.727414,13401.703644,23227.441100,0.012000,-0.008000,1.000000,192.000000,0.000000,0.000000,0.000000,0.000000,0.000000,0.000000,0.000000,0.000000,0.000000,1770904879.921643,0.000000
104.000000,24363.803788,23573.401400,6969.117459,7215.925421,25155.882556,-7072.717795,11461.728687,-2003.409207,22083.300004,23223.574248,-4143.208759,9448.484713,24140.643971,25432.977132,13398.954379,23268.814179,0.012000,-0.008000,1.000000,192.000000,0.000000,0.000000,0.000000,0.000000,0.000000,0.000000,0.000000,0.000000,0.000000,1770904879.921660,0.000000
106.000000,24357.835872,23566.695877,6970.212694,7214.181985,25155.368466,-7068.873294,11460.968728,-2003.498614,22021.609190,23215.214695,-4129.082457,9457.984204,24133.133785,25434.675865,13392.941760,23219.282713,0.012000,-0.008000,1.000000,192.000000,0.000000,0.000000,0.000000,0.000000,0.000000,0.000000,0.000000,0.000000,0.000000,1770904879.921678,0.000000
108.000000,24359.109921,23567.969926,6961.786087,7204.548383,25168.176015,-7072.695443,11453.883225,-2014.406266,22064.815112,23211.504306,-4144.125181,9446.853035,24114.045395,25417.777946,13400.228429,23269.283565,0.012000,-0.008000,1.000000,192.000000,0.000000,0.000000,0.000000,0.000000,0.000000,0.000000,0.000000,0.000000,0.000000,1770904879.921695,0.000000
110.000000,24347.911697,23546.311086,6974.459526,7212.170328,25160.554071,-7053.674108,11457.280690,-2011.634649,22050.107664,23201.289559,-4141.241806,9440.952175,24124.885991,25418.224981,13408.766795,23260.298164,0.004000,-0.008000,1.002000,192.000000,0.000000,16.000000,127.500000,96.000000,15.500000,40.000000,0.000000,0.000000,0.000000,1770904879.921712,0.000000
112.000000,24347.866994,23551.027304,6962.501343,7198.289895,25172.713420,-7056.490428,11451.737458,-2024.218681,22020.133975,23193.444096,-4141.621785,9436.012439,24115.744128,25415.609827,13410.197307,23245.255440,0.004000,-0.008000,1.002000,192.000000,0.000000,0.000000,0.000000,0.000000,0.000000,0.000000,0.000000,0.000000,0.000000,1770904879.921730,0.000000
114.000000,24344.469529,23542.801862,6972.202000,7206.627096,25182.391725,-7046.700364,11452.832693,-2024.665716,22079.366097,23199.680233,-4156.105716,9427.094093,24133.737282,25437.961571,13422.468415,23284.370993,0.004000,-0.008000,1.002000,192.000000,0.000000,0.000000,0.000000,0.000000,0.000000,0.000000,0.000000,0.000000,0.000000,1770904879.921749,0.000000
116.000000,24344.894212,23544.545298,6970.436212,7210.672761,25185.230396,-7047.437972,11454.330260,-2022.899928,22012.914361,23188.012622,-4141.375916,9436.213605,24134.676055,25407.920826,13418.690970,23235.778300,0.004000,-0.008000,1.002000,192.000000,0.000000,0.000000,0.000000,0.000000,0.000000,0.000000,0.000000,0.000000,0.000000,1770904879.921767,0.000000
118.000000,24353.030247,23556.369371,6968.737479,7195.786499,25186.213873,-7058.055050,11450.396353,-2028.152588,22068.413743,23198.003852,-4151.143628,9433.106712,24135.994808,25422.672978,13424.234202,23273.843321,0.004000,-0.008000,1.002000,192.000000,0.000000,0.000000,0.000000,0.000000,0.000000,0.000000,0.000000,0.000000,0.000000,1770904879.921784,0.000000
120.000000,24349.342209,23543.561821,6977.767584,7215.165462,25180.447123,-7055.708117,11456.207807,-2018.988373,22056.522615,23203.278864,-4143.119352,9435.923032,24140.286343,25430.272571,13421.686104,23257.593603,0.004000,-0.010000,1.002000,192.000000,0.000000,16.000000,127.500000,88.000000,15.500000,40.000000,0.000000,0.000000,0.000000,1770904879.921802,0.000000
122.000000,24355.779511,23552.748388,6966.502305,7202.402616,25179.620109,-7074.170658,11453.212673,-2024.509254,22028.202954,23189.063154,-4143.968719,9437.532358,24135.056035,25407.093812,13416.589906,23237.007646,0.004000,-0.010000,1.002000,192.000000,0.000000,0.000000,0.000000,0.000000,0.000000,0.000000,0.000000,0.000000,0.000000,1770904879.921819,0.000000
124.000000,24356.606526,23551.720208,6971.844372,7208.906973,25182.123504,-7072.203704,11456.386621,-2018.295469,22090.027879,23202.474201,-4151.344794,9435.252480,24145.427244,25419.253161,13417.305162,23275.139722,0.004000,-0.010000,1.002000,192.000000,0.000000,0.000000,0.000000,0.000000,0.000000,0.000000,0.000000,0.000000,0.000000,1770904879.921836,0.000000
126.000000,24356.204195,23551.049656,6975.018319,7208.415235,25169.628879,-7074.550638,11459.493513,-2010.897042,22028.001789,23196.103954,-4133.195178,9441.421561,24123.857811,25415.207495,13406.889249,23226.032940,0.004000,-0.010000,1.002000,192.000000,0.000000,0.000000,0.000000,0.000000,0.000000,0.000000,0.000000,0.000000,0.000000,1770904879.921853,0.000000
128.000000,24359.646363,23558.090455,6967.664596,7200.502718,25172.333440,-7084.295998,11456.476028,-2015.009763,22074.918100,23196.305120,-4141.353564,9434.693686,24132.731454,25418.627312,13407.828022,23261.147530,0.004000,-0.010000,1.002000,192.000000,0.000000,0.000000,0.000000,0.000000,0.000000,0.000000,0.000000,0.000000,0.000000,1770904879.921871,0.000000
130.000000,24355.868918,23548.993295,6978.549895,7212.371494,25168.913623,-7072.986015,11460.745211,-2004.102111,22062.959917,23203.278864,-4135.676221,9440.527492,24144.711989,25419.633141,13406.621028,23249.278754,0.010000,-0.008000,1.008000,192.000000,0.000000,40.000000,127.500000,96.000000,15.500000,64.000000,0.000000,0.000000,0.000000,1770904879.921888,0.000000
132.000000,24353.343171,23549.440330,6964.982386,7199.228668,25167.706629,-7078.641007,11453.860873,-2018.563690,22024.984303,23189.689003,-4136.592643,9440.952175,24129.579858,25408.546675,13406.531621,23232.716111,0.010000,-0.008000,1.008000,192.000000,0.000000,0.000000,0.000000,0.000000,0.000000,0.000000,0.000000,0.000000,0.000000,1770904879.921906,0.000000
134.000000,24349.118692,23541.863089,6966.837581,7204.503680,25176.133236,-7067.643949,11454.084391,-2017.870786,22078.941414,23191.365384,-4151.635367,9429.061047,24131.971494,25423.187068,13414.645304,23279.364202,0.010000,-0.008000,1.008000,192.000000,0.000000,0.000000,0.000000,0.000000,0.000000,0.000000,0.000000,0.000000,0.000000,1770904879.921924,0.000000
136.000000,24343.508404,23536.789243,6973.386642,7201.530898,25171.327611,-7063.285358,11454.799647,-2019.636574,22012.154402,23179.787180,-4141.733544,9434.492521,24127.970532,25396.186161,13412.276019,23237.052350,0.010000,-0.008000,1.008000,192.000000,0.000000,0.000000,0.000000,0.000000,0.000000,0.000000,0.000000,0.000000,0.000000,1770904879.921941,0.000000
138.000000,24352.694971,23547.249859,6964.714165,7201.709712,25178.681335,-7070.415565,11453.056211,-2022.877577,22057.349629,23186.000965,-4154.004652,9430.178634,24131.747977,25406.289149,13421.395531,23276.860807,0.010000,-0.008000,1.008000,192.000000,0.000000,0.000000,0.000000,0.000000,0.000000,0.000000,0.000000,0.000000,0.000000,1770904879.921958,0.000000
140.000000,24353.499633,23541.371350,6976.225314,7211.991514,25177.206120,-7059.932597,11458.666499,-2011.880518,22052.678114,23190.873646,-4143.074649,9433.062009,24147.617715,25414.201667,13417.238106,23261.102827,0.010000,-0.010000,1.004000,192.000000,0.000000,40.000000,127.500000,88.000000,15.500000,48.000000,0.000000,0.000000,0.000000,1770904879.921976,0.000000
142.000000,24357.679410,23552.390760,6968.692776,7199.496889,25181.497655,-7078.328082,11457.705373,-2019.100132,22024.559620,23184.726916,-4139.990108,9439.856939,24160.559375,25405.082155,13412.745406,23239.913373,0.010000,-0.010000,1.004000,192.000000,0.000000,0.000000,0.000000,0.000000,0.000000,0.000000,0.000000,0.000000,0.000000,1770904879.921993,0.000000
144.000000,24359.534604,23551.630801,6979.086337,7204.883659,25189.678394,-7074.260065,11461.862798,-2012.416960,22085.557531,23197.355652,-4145.913320,9435.788922,24118.359282,25411.474754,13422.937801,23278.805408,0.010000,-0.010000,1.004000,192.000000,0.000000,0.000000,0.000000,0.000000,0.000000,0.000000,0.000000,0.000000,0.000000,1770904879.922011,0.000000
146.000000,24357.277078,23552.167243,6979.958055,7207.655276,25180.581234,-7073.790678,11463.583882,-2008.773626,22023.039701,23188.951396,-4130.535320,9442.941480,24128.752843,25413.687576,13414.846470,23229.832736,0.010000,-0.010000,1.004000,192.000000,0.000000,0.000000,0.000000,0.000000,0.000000,0.000000,0.000000,0.000000,0.000000,1770904879.922030,0.000000
148.000000,24359.668715,23558.291621,6967.843410,7201.128566,25179.485998,-7082.418452,11457.928891,-2017.647268,22062.512882,23192.773544,-4146.405059,9440.706306,24140.040474,25411.966492,13416.791072,23266.869577,0.010000,-0.010000,1.004000,192.000000,0.000000,0.000000,0.000000,0.000000,0.000000,0.000000,0.000000,0.000000,0.000000,1770904879.922047,0.000000
150.000000,24355.958325,23548.903888,6976.895866,7214.696075,25178.234300,-7069.119164,11461.639281,-2009.108902,22055.852062,23193.824076,-4141.800599,9439.946346,24133.044378,25415.967454,13412.208964,23255.872519,0.009000,-0.010000,1.006000,192.000000,0.000000,32.000000,127.500000,88.000000,15.500000,64.000000,0.000000,0.000000,0.000000,1770904879.922064,0.000000
152.000000,24358.461721,23557.196386,6966.882285,7203.207279,25182.637594,-7080.384443,11458.688850,-2017.066123,22024.894896,23191.566550,-4138.693707,9443.813198,24143.303829,25408.859600,13407.738615,23240.315704,0.009000,-0.010000,1.006000,192.000000,0.000000,0.000000,0.000000,0.000000,0.000000,0.000000,0.000000,0.000000,0.000000,1770904879.922082,0.000000
154.000000,24357.992334,23551.362580,6975.219485,7206.202412,25189.924263,-7074.438879,11460.275824,-2015.233280,22083.523522,23199.121439,-4149.713117,9436.682992,24143.259125,25416.056861,13421.350827,23278.336022,0.009000,-0.010000,1.006000,192.000000,0.000000,0.000000,0.000000,0.000000,0.000000,0.000000,0.000000,0.000000,0.000000,1770904879.922098,0.000000
156.000000,24352.314991,23548.859185,6976.225314,7206.045950,25187.644385,-7073.097774,11461.169894,-2013.579251,22025.252524,23193.779372,-4135.877387,9438.918166,24135.614829,25425.846925,13421.440234,23228.022245,0.009000,-0.010000,1.006000,192.000000,0.000000,0.000000,0.000000,0.000000,0.000000,0.000000,0.000000,0.000000,0.000000,1770904879.922116,0.000000
158.000000,24354.349000,23555.721170,6967.351671,7203.050816,25187.465571,-7078.283379,11456.520731,-2022.564652,22062.021144,23193.377041,-4151.568312,9434.671335,24141.627448,25404.009271,13426.044694,23265.573176,0.009000,-0.010000,1.006000,192.000000,0.000000,0.000000,0.000000,0.000000,0.000000,0.000000,0.000000,0.000000,0.000000,1770904879.922133,0.000000
160.000000,24351.823253,23549.932069,6976.605293,7214.450206,25187.778495,-7063.844152,11461.527522,-2012.059332,22054.756827,23195.656919,-4145.756858,9436.750047,24133.781985,25416.593303,13425.217679,23255.604298,0.008500,-0.010000,1.006000,192.000000,0.000000,32.000000,127.500000,88.000000,15.500000,56.000000,0.000000,0.000000,0.000000,1770904879.922150,0.000000
162.000000,24352.404398,23557.822234,6966.703471,7203.587258,25178.167245,-7073.902437,11458.621795,-2020.642402,22021.720948,23194.919311,-4142.851131,9436.750047,24132.150308,25421.018949,13419.205060,23235.599486,0.008500,-0.010000,1.006000,192.000000,0.000000,0.000000,0.000000,0.000000,0.000000,0.000000,0.000000,0.000000,0.000000,1770904879.922167,0.000000
164.000000,24354.796035,23557.688124,6968.625721,7212.773825,25177.809617,-7064.693518,11460.678156,-2016.082646,22080.416629,23200.350785,-4153.691727,9433.911375,24153.987962,25409.127821,13418.713322,23281.398211,0.008500,-0.010000,1.006000,192.000000,0.000000,0.000000,0.000000,0.000000,0.000000,0.000000,0.000000,0.000000,0.000000,1770904879.922185,0.000000
166.000000,24354.505462,23558.313973,6976.560590,7213.176157,25171.461722,-7066.213437,11461.259301,-2012.416960,22022.123280,23198.964977,-4137.397306,9444.863730,24139.906363,25422.136536,13408.632685,23231.576172,0.008500,-0.010000,1.006000,192.000000,0.000000,0.000000,0.000000,0.000000,0.000000,0.000000,0.000000,0.000000,0.000000,1770904879.922202,0.000000
168.000000,24363.267346,23569.981583,6965.183552,7206.716503,25175.216815,-7076.785812,11456.096048,-2017.222585,22065.060981,23202.027166,-4148.684937,9438.337021,24158.637125,25415.185143,13413.237144,23266.556652,0.008500,-0.010000,1.006000,192.000000,0.000000,0.000000,0.000000,0.000000,0.000000,0.000000,0.000000,0.000000,0.000000,1770904879.922220,0.000000
170.000000,24357.791168,23558.068104,6976.426479,7215.277221,25173.965117,-7065.833457,11459.784086,-2010.807635,22058.958955,23200.887227,-4142.940538,9442.539149,24143.661457,25417.487373,13415.159394,23256.520719,0.005250,-0.012000,1.006000,192.000000,0.000000,8.000000,127.500000,72.000000,15.500000,56.000000,0.000000,0.000000,0.000000,1770904879.922237,0.000000
172.000000,24358.886404,23565.578290,6966.748174,7199.608648,25176.602623,-7077.031681,11455.358440,-2018.206062,22025.811318,23194.539332,-4140.414791,9440.236919,24128.574029,25417.912056,13410.979618,23239.376931,0.005250,-0.012000,1.006000,192.000000,0.000000,0.000000,0.000000,0.000000,0.000000,0.000000,0.000000,0.000000,0.000000,1770904879.922255,0.000000
174.000000,24357.411189,23558.313973,6971.173819,7210.203375,25180.424771,-7072.986015,11456.565435,-2018.317821,22084.976385,23198.652053,-4152.104754,9433.687858,24145.963686,25417.509725,13417.908659,23280.951176,0.005250,-0.012000,1.006000,192.000000,0.000000,0.000000,0.000000,0.000000,0.000000,0.000000,0.000000,0.000000,0.000000,1770904879.922272,0.000000
176.000000,24354.080779,23553.150720,6973.364290,7210.806872,25181.452952,-7077.545771,11458.554740,-2016.239109,22022.078576,23187.632643,-4141.420620,9437.889986,24145.941334,25420.728376,13414.891173,23233.096091,0.005250,-0.012000,1.006000,192.000000,0.000000,0.000000,0.000000,0.000000,0.000000,0.000000,0.000000,0.000000,0.000000,1770904879.922289,0.000000
178.000000,24362.015648,23561.465569,6969.497439,7199.563944,25191.935920,-7089.168678,11456.878359,-2019.636574,22065.060981,23190.337204,-4148.975509,9432.458512,24155.306715,25399.650681,13423.474243,23264.030905,0.005250,-0.012000,1.006000,192.000000,0.000000,0.000000,0.000000,0.000000,0.000000,0.000000,0.000000,0.000000,0.000000,1770904879.922309,0.000000
180.000000,24360.361619,23551.496691,6982.103822,7211.477424,25196.674490,-7075.847039,11461.862798,-2011.075856,22062.803455,23188.370250,-4139.945405,9433.218471,24151.283401,25407.317329,13431.856147,23247.423559,0.003625,-0.014000,1.005000,192.000000,0.000000,8.000000,127.500000,64.000000,15.500000,48.000000,0.000000,0.000000,0.000000,1770904880.399151,0.000000
182.000000,24362.820311,23558.515138,6973.744270,7200.659180,25192.360603,-7080.429146,11456.431324,-2017.401399,22032.740358,23181.910596,-4136.123256,9437.062971,24153.585631,25404.232789,13425.731769,23231.956152,0.003625,-0.014000,1.005000,192.000000,0.000000,0.000000,0.000000,0.000000,0.000000,0.000000,0.000000,0.000000,0.000000,1770904880.399219,0.000000
184.000000,24361.814482,23555.743522,6974.034843,7208.236421,25190.684222,-7070.035585,11456.766600,-2015.456798,22094.632339,23195.232236,-4146.896797,9432.637326,24164.940317,25422.807088,13426.558784,23278.380725,0.003625,-0.014000,1.005000,192.000000,0.000000,0.000000,0.000000,0.000000,0.000000,0.000000,0.000000,0.000000,0.000000,1770904880.399263,0.000000
186.000000,24353.343171,23550.893194,6971.620854,7211.566831,25186.437391,-7065.297015,11457.638318,-2015.702667,22030.616943,23191.387736,-4137.464361,9436.146550,24148.914116,25411.921789,13412.924220,23233.476071,0.003625,-0.014000,1.005000,192.000000,0.000000,0.000000,0.000000,0.000000,0.000000,0.000000,0.000000,0.000000,0.000000,1770904880.399323,0.000000
188.000000,24357.612354,23557.732827,6962.791915,7202.514375,25183.375202,-7075.467059,11453.816170,-2023.548129,22067.474969,23196.774506,-4153.088230,9435.498349,24143.974381,25414.581646,13412.454833,23269.216510,0.003625,-0.014000,1.005000,192.000000,0.000000,0.000000,0.000000,0.000000,0.000000,0.000000,0.000000,0.000000,0.000000,1770904880.399383,0.000000
190.000000,24350.906831,23546.065217,6975.465354,7209.912802,25180.000088,-7063.978262,11458.934719,-2015.434446,22059.964783,23196.975672,-4147.679108,9433.419637,24144.890802,25421.465984,13413.974752,23256.565423,0.003812,-0.016000,1.001500,192.000000,0.000000,16.000000,127.500000,56.000000,15.500000,24.000000,0.000000,0.000000,0.000000,1770904880.399438,0.000000
192.000000,24349.073988,23551.764912,6960.824962,7201.419139,25179.888329,-7075.422356,11455.626661,-2022.922280,22024.604323,23188.325547,-4146.606224,9435.811274,24162.012239,25410.424222,13411.270191,23237.968771,0.003812,-0.016000,1.001500,192.000000,0.000000,0.000000,0.000000,0.000000,0.000000,0.000000,0.000000,0.000000,0.000000,1770904880.399460,0.000000
194.000000,24346.794110,23546.713417,6971.307930,7206.917668,25182.950518,-7075.422356,11457.079525,-2020.485940,22086.272786,23197.422707,-4157.200951,9429.888061,24144.555526,25418.381443,13415.248801,23279.945347,0.003812,-0.016000,1.001500,192.000000,0.000000,0.000000,0.000000,0.000000,0.000000,0.000000,0.000000,0.000000,0.000000,1770904880.399480,0.000000
196.000000,24344.603639,23540.678446,6972.671386,7205.777729,25180.603585,-7076.338777,11457.817132,-2019.994202,22020.692768,23188.772582,-4143.946367,9433.397285,24142.789739,25403.964568,13412.544240,23230.860916,0.003812,-0.016000,1.001500,192.000000,0.000000,0.000000,0.000000,0.000000,0.000000,0.000000,0.000000,0.000000,0.000000,1770904880.399504,0.000000
198.000000,24347.039979,23543.226545,6966.189380,7195.138299,25191.913568,-7083.983074,11453.883225,-2027.571443,22072.772333,23182.469390,-4153.177637,9421.796730,24137.939410,25412.592341,13421.194365,23265.863748,0.003812,-0.016000,1.001500,192.000000,0.000000,0.000000,0.000000,0.000000,0.000000,0.000000,0.000000,0.000000,0.000000,1770904880.399519,0.000000
200.000000,24339.976828,23532.520060,6977.767584,7209.599878,25191.690051,-7073.745975,11459.113533,-2018.541338,22065.217443,23185.241006,-4150.048393,9426.401189,24162.682791,25401.014137,13425.552955,23254.419655,0.003812,-0.016000,1.001500,192.000000,0.000000,0.000000,127.500000,56.000000,15.500000,32.000000,0.000000,0.000000,0.000000,1770904880.399532,0.000000
202.000000,24345.788282,23543.606525,6969.452735,7200.055683,25191.891216,-7076.696405,11455.671365,-2024.151626,22033.030931,23179.809532,-4145.354527,9428.882233,24134.765462,25401.036489,13423.563650,23234.034864,0.003812,-0.016000,1.001500,192.000000,0.000000,0.000000,0.000000,0.000000,0.000000,0.000000,0.000000,0.000000,0.000000,1770904880.399544,0.000000
204.000000,24348.828119,23543.248897,6975.554761,7203.766072,25198.686147,-7070.594379,11457.303042,-2019.390705,22092.531275,23195.388698,-4153.691727,9427.116445,24158.055980,25421.331873,13428.615144,23280.146513,0.003812,-0.016000,1.001500,192.000000,0.000000,0.000000,0.000000,0.000000,0.000000,0.000000,0.000000,0.000000,0.000000,1770904880.399556,0.000000
206.000000,24345.967096,23539.672618,6973.677215,7206.470633,25193.388783,-7070.527324,11457.481856,-2018.496635,22033.723835,23184.503398,-4140.615957,9429.977468,24155.709047,25398.555445,13422.088435,23234.459547,0.003812,-0.016000,1.001500,192.000000,0.000000,0.000000,0.000000,0.000000,0.000000,0.000000,0.000000,0.000000,0.000000,1770904880.399568,0.000000
208.000000,24351.622087,23549.149758,6962.367232,7198.848688,25187.398516,-7082.619617,11453.883225,-2024.442199,22075.923929,23191.030108,-4153.959948,9426.937631,24172.003469,25401.036489,13417.908659,23268.545958,0.003812,-0.016000,1.001500,192.000000,0.000000,0.000000,0.000000,0.000000,0.000000,0.000000,0.000000,0.000000,0.000000,1770904880.399580,0.000000
210.000000,24351.979715,23541.863089,6975.778279,7208.795215,25182.838760,-7069.029757,11460.633452,-2013.176920,22067.519673,23198.137963,-4148.863751,9430.379800,24152.110416,25407.697309,13410.979618,23255.045504,0.003812,-0.016000,1.001500,192.000000,0.000000,0.000000,127.500000,64.000000,15.500000,48.000000,0.000000,0.000000,0.000000,1770904880.399600,0.000000
212.000000,24355.287773,23551.273173,6969.296273,7202.156747,25186.750315,-7084.184239,11457.660670,-2017.647268,22033.567373,23197.914445,-4143.007594,9439.678125,24167.756637,25411.541809,13409.191478,23229.609219,0.003812,-0.016000,1.001500,192.000000,0.000000,0.000000,0.000000,0.000000,0.000000,0.000000,0.000000,0.000000,0.000000,1770904880.399612,0.000000
214.000000,24359.534604,23551.451987,6975.465354,7208.348180,25190.930091,-7076.517591,11459.091182,-2011.142911,22097.538066,23205.134059,-4149.355489,9435.453646,24151.618678,25413.620521,13418.489804,23271.228167,0.003812,-0.016000,1.001500,192.000000,0.000000,0.000000,0.000000,0.000000,0.000000,0.000000,0.000000,0.000000,0.000000,1770904880.399624,0.000000
216.000000,24359.311087,23547.696894,6981.008587,7208.303476,25189.566635,-7074.237713,11461.527522,-2009.377123,22039.691751,23199.434364,-4132.345811,9441.958003,24161.900480,25419.588437,13413.393606,23219.707396,0.003812,-0.016000,1.001500,192.000000,0.000000,0.000000,0.000000,0.000000,0.000000,0.000000,0.000000,0.000000,0.000000,1770904880.399636,0.000000
218.000000,24355.310125,23549.708551,6971.330282,7198.558116,25200.720155,-7085.301827,11455.783123,-2022.654059,22077.220330,23197.646224,-4146.673280,9432.972602,24157.407779,25420.102527,13421.194365,23255.045504,0.003812,-0.016000,1.001500,192.000000,0.000000,0.000000,0.000000,0.000000,0.000000,0.000000,0.000000,0.000000,0.000000,1770904880.399648,0.000000
220.000000,24346.101206,23533.682350,6980.516849,7209.801043,25197.903836,-7069.476792,11457.057173,-2019.278946,22070.917138,23192.907654,-4146.717983,9431.765608,24158.011276,25416.034510,13425.843528,23249.524623,0.003812,-0.016000,1.001500,192.000000,0.000000,0.000000,0.000000,0.000000,0.000000,0.000000,0.000000,0.000000,0.000000,1770904880.399660,0.000000
222.000000,24338.993351,23534.464661,6970.011529,7198.289895,25197.590911,-7072.963664,11452.005679,-2031.706516,22028.962914,23179.675422,-4149.266082,9427.652887,24164.515634,25401.595283,13428.279868,23232.939629,0.002000,-0.008000,1.012000,192.000000,0.000000,8.000000,127.500000,96.000000,15.500000,80.000000,0.000000,0.000000,0.000000,1770904880.399672,0.000000
224.000000,24331.416110,23524.920467,6975.375947,7202.089691,25197.456801,-7058.323271,11451.960975,-2035.193388,22082.875321,23185.397468,-4164.800544,9419.695666,24159.866471,25405.596245,13435.097150,23282.001708,0.002000,-0.008000,1.012000,192.000000,0.000000,0.000000,0.000000,0.000000,0.000000,0.000000,0.000000,0.000000,0.000000,1770904880.399684,0.000000
226.000000,24328.868011,23523.512307,6975.755927,7202.760244,25195.892179,-7050.880140,11453.749115,-2032.198254,22018.189373,23176.009736,-4153.736431,9420.813253,24154.569108,25407.272626,13427.855185,23237.924068,0.002000,-0.008000,1.012000,192.000000,0.000000,0.000000,0.000000,0.000000,0.000000,0.000000,0.000000,0.000000,0.000000,1770904880.399696,0.000000
228.000000,24336.244087,23534.866993,6965.518828,7195.719444,25203.156495,-7062.659509,11450.351650,-2036.825065,22056.276745,23180.077753,-4163.571198,9419.963887,24156.178433,25410.804201,13430.023304,23271.652850,0.002000,-0.008000,1.012000,192.000000,0.000000,0.000000,0.000000,0.000000,0.000000,0.000000,0.000000,0.000000,0.000000,1770904880.399708,0.000000
230.000000,24334.366540,23526.395682,6975.174782,7209.085787,25202.709461,-7060.692556,11455.738420,-2026.945594,22056.902594,23186.872683,-4156.731565,9424.523643,24163.532157,25419.946065,13428.525737,23258.957059,0.002000,-0.008000,1.012000,192.000000,0.000000,0.000000,0.000000,0.000000,0.000000,0.000000,0.000000,0.000000,0.000000,1770904880.399720,0.000000
232.000000,24340.915601,23537.370388,6962.166066,7202.000284,25201.346004,-7079.870353,11455.313737,-2030.633632,22021.676245,23179.630718,-4154.406983,9426.267079,24175.333878,25403.294015,13421.596697,23230.100957,0.002000,-0.010000,1.004000,192.000000,0.000000,8.000000,127.500000,88.000000,15.500000,48.000000,0.000000,0.000000,0.000000,1770904880.399732,0.000000
234.000000,24340.647380,23535.448138,6970.346805,7205.151880,25197.210931,-7082.373748,11458.957071,-2026.319745,22087.368022,23191.767715,-4162.833591,9424.322477,24164.023896,25417.196800,13421.641400,23267.629536,0.002000,-0.010000,1.004000,192.000000,0.000000,0.000000,0.000000,0.000000,0.000000,0.000000,0.000000,0.000000,0.000000,1770904880.399744,0.000000
236.000000,24336.624066,23530.776624,6973.632511,7205.464805,25183.777533,-7086.575876,11461.460467,-2023.525777,22023.889068,23178.513131,-4148.819047,9430.424503,24150.992829,25398.935425,13412.477185,23213.247742,0.002000,-0.010000,1.004000,192.000000,0.000000,0.000000,0.000000,0.000000,0.000000,0.000000,0.000000,0.000000,0.000000,1770904880.399755,0.000000
238.000000,24335.752348,23531.447176,6969.385680,7192.813717,25183.419905,-7094.555449,11456.364269,-2034.947519,22058.847196,23175.696811,-4161.201914,9420.053294,24153.406817,25395.359146,13414.690008,23247.758835,0.002000,-0.010000,1.004000,192.000000,0.000000,0.000000,0.000000,0.000000,0.000000,0.000000,0.000000,0.000000,0.000000,1770904880.399767,0.000000
240.000000,24329.493860,23517.790260,6981.410918,7203.542555,25177.854321,-7080.272684,11459.717030,-2027.794960,22059.540100,23175.540349,-4153.512913,9418.511023,24154.189128,25406.222094,13416.656961,23241.030960,0.002000,-0.010000,1.004000,192.000000,0.000000,0.000000,0.000000,0.000000,0.000000,0.000000,0.000000,0.000000,0.000000,1770904880.399779,0.000000
242.000000,24327.728072,23524.696949,6967.351671,7195.138299,25177.183768,-7087.916981,11457.392449,-2035.260443,22015.797736,23165.236195,-4156.061012,9419.382741,24152.222175,25388.340698,13416.835775,23221.026149,0.002000,-0.012000,1.000000,192.000000,0.000000,8.000000,127.500000,80.000000,15.500000,32.000000,0.000000,0.000000,0.000000,1770904880.399792,0.000000
244.000000,24327.906886,23522.148850,6968.268093,7199.027502,25177.072010,-7080.585609,11458.219464,-2033.896987,22072.213539,23173.461637,-4166.543980,9412.498404,24152.691561,25403.897512,13421.462586,23265.908452,0.002000,-0.012000,1.000000,192.000000,0.000000,0.000000,0.000000,0.000000,0.000000,0.000000,0.000000,0.000000,0.000000,1770904880.399804,0.000000
246.000000,24325.627008,23518.371405,6967.150505,7205.040122,25169.137140,-7068.448611,11458.621795,-2031.237129,22010.813297,23165.549119,-4158.542056,9419.270983,24144.868451,25391.782867,13412.857164,23222.747233,0.002000,-0.012000,1.000000,192.000000,0.000000,0.000000,0.000000,0.000000,0.000000,0.000000,0.000000,0.000000,0.000000,1770904880.399816,0.000000
248.000000,24332.176069,23531.603638,6961.204941,7193.506622,25178.301356,-7070.303806,11455.581958,-2034.567539,22051.247603,23172.612270,-4168.980321,9416.141738,24139.436977,25400.991786,13416.388740,23260.521681,0.002000,-0.012000,1.000000,192.000000,0.000000,0.000000,0.000000,0.000000,0.000000,0.000000,0.000000,0.000000,0.000000,1770904880.399828,0.000000
250.000000,24327.951590,23520.986560,6972.023186,7212.639715,25179.173074,-7054.523475,11459.225292,-2026.789132,22055.315620,23172.679326,-4160.039623,9420.656791,24145.673114,25406.535018,13415.584077,23251.692742,0.002000,-0.012000,1.000000,192.000000,0.000000,0.000000,0.000000,0.000000,0.000000,0.000000,0.000000,0.000000,0.000000,1770904880.399839,0.000000
252.000000,24334.366540,23533.078853,6963.820096,7201.486194,25181.072972,-7062.860675,11457.370097,-2031.192426,22016.289475,23169.259509,-4155.233998,9422.735503,24154.122073,25396.901416,13410.554935,23225.965884,0.006000,-0.008000,1.002000,192.000000,0.000000,24.000000,127.500000,96.000000,15.500000,40.000000,0.000000,0.000000,0.000000,1770904880.399851,0.000000
254.000000,24336.735825,23529.703740,6972.783145,7202.894354,25191.265367,-7062.123068,11458.219464,-2028.063181,22081.690679,23179.854236,-4163.325329,9418.153395,24160.224099,25401.461172,13415.092339,23268.881234,0.006000,-0.008000,1.002000,192.000000,0.000000,0.000000,0.000000,0.000000,0.000000,0.000000,0.000000,0.000000,0.000000,1770904880.399863,0.000000
0.000000,24336.847584,23528.027359,6977.655825,7203.251982,25182.905815,-7065.766402,11460.633452,-2024.710420,22025.431338,23170.578262,-4147.656756,9424.545994,24153.518576,25396.923768,13407.649208,23217.293408,0.006000,-0.008000,1.002000,192.000000,0.000000,0.000000,0.000000,0.000000,0.000000,0.000000,0.000000,0.000000,0.000000,1770904880.399875,0.000000
2.000000,24337.316971,23532.810632,6968.022223,7192.634904,25186.169170,-7082.127879,11455.514903,-2036.310975,22066.312679,23175.540349,-4157.469172,9417.616954,24151.506919,25394.062745,13415.382912,23250.172824,0.006000,-0.008000,1.002000,192.000000,0.000000,0.000000,0.000000,0.000000,0.000000,0.000000,0.000000,0.000000,0.000000,1770904880.399887,0.000000
4.000000,24328.711549,23514.772775,6979.958055,7203.631962,25189.119600,-7075.757632,11459.404106,-2033.762876,22059.383638,23167.940756,-4158.586759,9413.012494,24162.727495,25393.816876,13419.495633,23244.003742,0.006000,-0.008000,1.002000,192.000000,0.000000,0.000000,0.000000,0.000000,0.000000,0.000000,0.000000,0.000000,0.000000,1770904880.399903,0.000000
6.000000,24331.751386,23527.759138,6969.095107,7192.836069,25188.247882,-7089.906286,11456.096048,-2038.881426,22016.982379,23158.977706,-4157.692690,9411.179651,24164.448579,25383.043335,13419.428577,23216.332283,0.002000,-0.012000,1.010000,192.000000,0.000000,8.000000,127.500000,80.000000,15.500000,72.000000,0.000000,0.000000,0.000000,1770904880.399920,0.000000
8.000000,24338.121633,23531.648342,6972.224351,7200.212145,25185.297452,-7086.687635,11457.392449,-2033.047620,22082.852970,23176.747343,-4165.135821,9410.710265,24144.533175,25399.784791,13423.742464,23261.281641,0.002000,-0.012000,1.010000,192.000000,0.000000,0.000000,0.000000,0.000000,0.000000,0.000000,0.000000,0.000000,0.000000,1770904880.399937,0.000000
10.000000,24342.055540,23536.453967,6977.275846,7204.660142,25184.023402,-7075.712928,11460.856969,-2025.336269,22026.057187,23175.339183,-4147.947329,9426.490596,24144.577878,25390.575873,13415.472319,23215.773489,0.002000,-0.012000,1.010000,192.000000,0.000000,0.000000,0.000000,0.000000,0.000000,0.000000,0.000000,0.000000,0.000000,1770904880.399953,0.000000
12.000000,24351.666790,23550.580269,6969.855067,7196.971142,25190.170132,-7072.427222,11457.258339,-2030.320708,22066.580900,23188.616119,-4154.876370,9426.490596,24155.664343,25410.200704,13420.099130,23252.765626,0.002000,-0.012000,1.010000,192.000000,0.000000,0.000000,0.000000,0.000000,0.000000,0.000000,0.000000,0.000000,0.000000,1770904880.399970,0.000000
14.000000,24352.069122,23543.427711,6981.768546,7217.870023,25191.801809,-7055.775172,11462.890978,-2017.580213,22072.437057,23195.388698,-4146.695631,9430.692724,24171.422323,25416.235675,13415.628781,23248.965829,0.002000,-0.012000,1.010000,192.000000,0.000000,0.000000,0.000000,0.000000,0.000000,0.000000,0.000000,0.000000,0.000000,1770904880.399988,0.000000
16.000000,24351.331514,23545.618182,6970.302101,7205.531860,25188.314937,-7065.989919,11458.800609,-2025.917414,22033.500318,23183.721087,-4142.426448,9432.570271,24154.345590,25399.516571,13411.292542,23222.031977,0.002000,-0.012000,1.010000,192.000000,0.000000,0.000000,127.500000,72.000000,15.500000,64.000000,0.000000,0.000000,0.000000,1770904880.400004,0.000000
18.000000,24355.265421,23546.422845,6976.605293,7208.817566,25190.103077,-7063.821800,11461.974557,-2021.625879,22095.459353,23189.867817,-4153.602320,9424.098959,24167.019030,25407.674957,13412.767758,23268.188330,0.002000,-0.012000,1.010000,192.000000,0.000000,0.000000,0.000000,0.000000,0.000000,0.000000,0.000000,0.000000,0.000000,1770904880.400023,0.000000
20.000000,24350.303334,23540.946667,6979.600427,7211.388017,25182.771705,-7060.625501,11464.254435,-2020.754161,22043.536251,23187.185608,-4137.665527,9431.139759,24163.330992,25402.645815,13406.442214,23216.466393,0.002000,-0.012000,1.010000,192.000000,0.000000,0.000000,0.000000,0.000000,0.000000,0.000000,0.000000,0.000000,0.000000,1770904880.400040,0.000000
22.000000,24351.599735,23546.288734,6972.604331,7198.625171,25191.913568,-7070.102640,11459.337051,-2029.583100,22068.883129,23190.113686,-4150.517780,9425.194195,24160.984058,25411.698271,13408.766795,23250.239879,0.002000,-0.012000,1.010000,192.000000,0.000000,0.000000,0.000000,0.000000,0.000000,0.000000,0.000000,0.000000,0.000000,1770904880.400057,0.000000
24.000000,24340.647380,23525.926295,6982.170878,7209.711636,25190.080725,-7063.173600,11462.175722,-2029.292527,22070.693621,23183.318756,-4149.154323,9420.477977,24168.069561,25401.125896,13417.461624,23245.098978,0.002000,-0.012000,1.010000,192.000000,0.000000,0.000000,0.000000,0.000000,0.000000,0.000000,0.000000,0.000000,0.000000,1770904880.400076,0.000000
26.000000,24337.920468,23532.743577,6973.185476,7198.200488,25190.818333,-7075.578818,11458.979423,-2037.696783,22024.783137,23170.399448,-4151.165980,9419.315686,24154.032666,25391.022908,13417.729845,23221.786108,0.002000,-0.008000,1.010000,192.000000,0.000000,8.000000,127.500000,96.000000,15.500000,72.000000,0.000000,0.000000,0.000000,1770904880.400093,0.000000
28.000000,24337.026398,23527.759138,6976.515886,7198.580468,25197.322690,-7073.522457,11458.822961,-2036.288623,22085.781048,23178.177855,-4164.979358,9408.743311,24162.101646,25397.862541,13426.849357,23265.059085,0.002000,-0.008000,1.010000,192.000000,0.000000,0.000000,0.000000,0.000000,0.000000,0.000000,0.000000,0.000000,0.000000,1770904880.400122,0.000000
30.000000,24339.552145,23530.195478,6981.880305,7202.648485,25198.529684,-7064.671166,11461.974557,-2027.616147,22029.611114,23174.489817,-4148.573178,9420.947363,24166.639050,25398.443687,13425.642362,23216.242876,0.002000,-0.008000,1.010000,192.000000,0.000000,0.000000,0.000000,0.000000,0.000000,0.000000,0.000000,0.000000,0.000000,1770904880.400141,0.000000
32.000000,24345.073026,23543.919449,6971.464392,7202.044988,25204.609359,-7075.511763,11458.510036,-2032.421772,22067.474969,23181.485913,-4157.558579,9421.528509,24160.984058,25400.567102,13428.525737,23252.273888,0.002000,-0.008000,1.010000,192.000000,0.000000,0.000000,0.000000,0.000000,0.000000,0.000000,0.000000,0.000000,0.000000,1770904880.400159,0.000000
34.000000,24343.597811,23536.923353,6979.779241,7214.606668,25204.408193,-7059.351451,11463.203903,-2021.268251,22067.810245,23190.784239,-4151.680070,9425.328305,24192.567073,25408.434917,13424.010685,23251.782149,0.002000,-0.008000,1.010000,192.000000,0.000000,0.000000,0.000000,0.000000,0.000000,0.000000,0.000000,0.000000,0.000000,1770904880.400177,0.000000
36.000000,24350.392741,23550.088531,6968.536314,7207.945848,25198.417926,-7065.811105,11461.169894,-2024.889234,22030.326370,23187.096201,-4144.303995,9434.403114,24163.688620,25409.530152,13409.660865,23229.206887,0.005000,-0.009000,1.009000,192.000000,0.000000,32.000000,127.500000,88.000000,15.500000,64.000000,0.000000,0.000000,0.000000,1770904880.400195,0.000000
38.000000,24348.984581,23545.886403,6973.900732,7213.131453,25195.087516,-7057.965643,11461.974557,-2024.822178,22089.267920,23196.752154,-4155.099887,9428.859881,24168.583652,25406.959701,13410.867859,23278.805408,0.005000,-0.009000,1.009000,192.000000,0.000000,0.000000,0.000000,0.000000,0.000000,0.000000,0.000000,0.000000,0.000000,1770904880.400213,0.000000
40.000000,24347.196442,23541.147833,6977.097032,7216.104235,25176.535568,-7053.718812,11463.986214,-2021.424713,22027.085367,23189.644300,-4141.867655,9432.704381,24169.365963,25415.431013,13400.049615,23230.592696,0.005000,-0.009000,1.009000,192.000000,0.000000,0.000000,0.000000,0.000000,0.000000,0.000000,0.000000,0.000000,0.000000,1770904880.400230,0.000000
42.000000,24347.442311,23545.640534,6969.586846,7206.336523,25183.263443,-7067.800411,11459.560568,-2030.879501,22062.311716,23188.124381,-4152.887065,9428.681067,24159.978230,25408.725489,13400.898981,23258.353562,0.005000,-0.009000,1.009000,192.000000,0.000000,0.000000,0.000000,0.000000,0.000000,0.000000,0.000000,0.000000,0.000000,1770904880.400248,0.000000
44.000000,24346.168261,23536.006932,6983.534334,7213.086750,25185.208045,-7060.044355,11463.203903,-2024.755123,22062.848158,23186.537407,-4150.741297,9423.987201,24173.948070,25411.161829,13401.927161,23250.284582,0.005000,-0.009000,1.009000,192.000000,0.000000,0.000000,0.000000,0.000000,0.000000,0.000000,0.000000,0.000000,0.000000,1770904880.880882,0.000000
46.000000,24341.921430,23539.829080,6974.638340,7200.189793,25183.084629,-7076.875219,11460.521693,-2031.907681,22022.458556,23176.635584,-4146.159189,9426.602355,24152.915079,25400.097716,13405.235220,23220.176783,0.004500,-0.010500,1.005500,192.000000,0.000000,16.000000,127.500000,80.000000,15.500000,40.000000,0.000000,0.000000,0.000000,1770904880.880953,0.000000
48.000000,24338.568668,23533.190612,6978.795764,7200.010979,25189.097248,-7083.446632,11460.298176,-2032.980565,22079.075525,23184.391640,-4159.927864,9417.236974,24167.242547,25403.361071,13410.398473,23260.946365,0.004500,-0.010500,1.005500,192.000000,0.000000,0.000000,0.000000,0.000000,0.000000,0.000000,0.000000,0.000000,0.000000,1770904880.881007,0.000000
50.000000,24332.131366,23523.981693,6981.209753,7200.949752,25188.225530,-7083.916018,11461.549874,-2031.728867,22015.641274,23166.845520,-4149.556655,9420.768550,24154.345590,25388.318347,13413.907696,23211.727823,0.004500,-0.010500,1.005500,192.000000,0.000000,0.000000,0.000000,0.000000,0.000000,0.000000,0.000000,0.000000,0.000000,1770904880.881079,0.000000
52.000000,24333.517174,23531.558935,6971.240875,7186.197601,25192.226492,-7084.474812,11456.677193,-2041.965966,22048.140710,23170.712372,-4163.459440,9411.269058,24162.705143,25406.132687,13419.965019,23247.110635,0.004500,-0.010500,1.005500,192.000000,0.000000,0.000000,0.000000,0.000000,0.000000,0.000000,0.000000,0.000000,0.000000,1770904880.881132,0.000000
54.000000,24330.834965,23523.601714,6982.327340,7209.197546,25194.439315,-7073.321292,11462.108667,-2032.287661,22056.589670,23174.400410,-4158.787925,9411.917259,24154.904384,25386.731373,13422.781339,23246.954172,0.004500,-0.010500,1.005500,192.000000,0.000000,0.000000,0.000000,0.000000,0.000000,0.000000,0.000000,0.000000,0.000000,1770904880.881186,0.000000
56.000000,24334.232430,23532.810632,6973.140773,7199.228668,25192.673527,-7073.276588,11459.515865,-2036.154513,22019.351664,23165.996154,-4153.535265,9415.471186,24155.709047,25385.300861,13419.294467,23222.926047,0.003250,-0.012250,1.004750,192.000000,0.000000,8.000000,127.500000,72.000000,15.500000,48.000000,0.000000,0.000000,0.000000,1770904880.881222,0.000000
58.000000,24335.931162,23533.190612,6977.186439,7206.157709,25202.620054,-7060.446687,11460.074658,-2032.220606,22086.541007,23178.155503,-4162.967701,9414.130081,24165.365000,25409.485449,13425.172976,23275.653812,0.003250,-0.012250,1.004750,192.000000,0.000000,0.000000,0.000000,0.000000,0.000000,0.000000,0.000000,0.000000,0.000000,1770904880.881241,0.000000
60.000000,24333.628933,23531.134251,6979.063985,7212.036218,25191.555940,-7053.674108,11461.952205,-2027.727905,22024.179640,23176.456770,-4148.372012,9422.333172,24169.835349,25404.635120,13415.986409,23230.816213,0.003250,-0.012250,1.004750,192.000000,0.000000,0.000000,0.000000,0.000000,0.000000,0.000000,0.000000,0.000000,0.000000,1770904880.881260,0.000000
62.000000,24341.295581,23543.762987,6970.033880,7202.670837,25189.633690,-7065.520533,11459.962900,-2033.315841,22059.316583,23181.374154,-4158.184428,9419.516852,24162.235756,25408.233751,13414.354731,23260.655792,0.003250,-0.012250,1.004750,192.000000,0.000000,0.000000,0.000000,0.000000,0.000000,0.000000,0.000000,0.000000,0.000000,1770904880.881279,0.000000
64.000000,24337.786357,23532.140080,6980.338035,7210.940982,25179.173074,-7060.133762,11465.215560,-2022.944632,22067.363211,23183.497570,-4152.752954,9420.053294,24164.582689,25412.592341,13407.246877,23253.704399,0.003250,-0.012250,1.004750,192.000000,0.000000,0.000000,0.000000,0.000000,0.000000,0.000000,0.000000,0.000000,0.000000,1770904880.881297,0.000000
66.000000,24341.116767,23540.387874,6973.140773,7199.988627,25179.754219,-7076.227018,11463.047440,-2026.230338,22026.683036,23173.126361,-4144.013422,9420.992067,24144.823747,25405.953873,13398.462641,23219.036844,0.003625,-0.012125,1.001375,192.000000,0.000000,16.000000,127.500000,80.000000,15.500000,24.000000,0.000000,0.000000,0.000000,1770904880.881316,0.000000
68.000000,24343.240183,23539.136176,6976.918218,7203.743721,25176.580271,-7077.679882,11462.801571,-2024.196330,22089.558493,23185.933910,-4152.440030,9417.527547,24150.456387,25411.899437,13399.803746,23262.287469,0.003625,-0.012125,1.001375,192.000000,0.000000,0.000000,0.000000,0.000000,0.000000,0.000000,0.000000,0.000000,0.000000,1770904880.881335,0.000000
70.000000,24339.686255,23533.928220,6980.047462,7207.543517,25172.646364,-7076.048204,11464.880283,-2020.865920,22031.376902,23179.764829,-4138.939576,9424.545994,24157.676000,25405.708004,13397.456813,23213.806535,0.003625,-0.012125,1.001375,192.000000,0.000000,0.000000,0.000000,0.000000,0.000000,0.000000,0.000000,0.000000,0.000000,1770904880.881354,0.000000
72.000000,24343.128424,23541.773682,6972.246703,7199.161613,25181.944690,-7084.295998,11462.063964,-2028.264347,22062.199958,23175.987384,-4151.970643,9420.343866,24163.889785,25397.907245,13399.356711,23247.468263,0.003625,-0.012125,1.001375,192.000000,0.000000,0.000000,0.000000,0.000000,0.000000,0.000000,0.000000,0.000000,0.000000,1770904880.881373,0.000000
74.000000,24330.432633,23524.339321,6982.014416,7208.147014,25181.341193,-7067.420431,11465.237911,-2025.135103,22066.245623,23181.642375,-4151.389498,9419.695666,24170.416495,25406.847943,13404.050577,23250.217527,0.003625,-0.012125,1.001375,192.000000,0.000000,0.000000,0.000000,0.000000,0.000000,0.000000,0.000000,0.000000,0.000000,1770904880.881391,0.000000
76.000000,24331.751386,23531.491879,6972.850200,7202.402616,25186.079763,-7074.081251,11460.007603,-2034.232263,22016.848268,23168.633660,-4148.282605,9417.929878,24135.927753,25402.645815,13405.235220,23226.547030,0.003812,-0.015063,0.998687,192.000000,0.000000,16.000000,127.500000,56.000000,15.500000,16.000000,0.000000,0.000000,0.000000,1770904880.881410,0.000000
78.000000,24331.818441,23527.222696,6976.784107,7205.129529,25193.858170,-7063.754745,11459.314699,-2036.221568,22073.711106,23175.853273,-4164.286454,9413.168956,24149.629372,25403.852809,13417.595734,23276.883158,0.003812,-0.015063,0.998687,192.000000,0.000000,0.000000,0.000000,0.000000,0.000000,0.000000,0.000000,0.000000,0.000000,1770904880.881429,0.000000
80.000000,24326.006988,23518.527868,6979.756889,7205.218936,25190.684222,-7058.122105,11460.052307,-2036.556844,22017.898800,23167.180797,-4152.641195,9413.437177,24159.642954,25404.724527,13418.266287,23233.587829,0.003812,-0.015063,0.998687,192.000000,0.000000,0.000000,0.000000,0.000000,0.000000,0.000000,0.000000,0.000000,0.000000,1770904880.881447,0.000000
82.000000,24330.231468,23526.999179,6969.095107,7196.345293,25187.174998,-7071.041414,11456.408972,-2044.670528,22046.151405,23165.392657,-4165.024062,9404.362369,24146.522480,25402.489353,13421.395531,23264.187367,0.003812,-0.015063,0.998687,192.000000,0.000000,0.000000,0.000000,0.000000,0.000000,0.000000,0.000000,0.000000,0.000000,1770904880.881470,0.000000
84.000000,24332.421938,23521.277132,6981.768546,7208.929325,25187.487923,-7061.117239,11462.443943,-2031.393591,22056.209690,23169.974765,-4158.944387,9409.190346,24154.412646,25410.290111,13421.730807,23261.348696,0.003812,-0.015063,0.998687,192.000000,0.000000,0.000000,0.000000,0.000000,0.000000,0.000000,0.000000,0.000000,0.000000,1770904880.881489,0.000000
86.000000,24340.446215,23536.252801,6974.213657,7204.816604,25183.352850,-7074.572989,11462.175722,-2031.371240,22017.362358,23169.281861,-4150.763649,9417.259326,24162.258108,25405.171562,13413.304199,23230.570344,0.003812,-0.015063,0.998687,192.000000,0.000000,0.000000,127.500000,48.000000,15.500000,32.000000,0.000000,0.000000,0.000000,1770904880.881508,0.000000
88.000000,24348.068160,23541.617220,6978.684006,7208.169366,25182.257614,-7074.796507,11465.103801,-2025.582138,22086.675118,23185.062192,-4158.027966,9418.801596,24178.351364,25411.295940,13414.086510,23272.010478,0.003812,-0.015063,0.998687,192.000000,0.000000,0.000000,0.000000,0.000000,0.000000,0.000000,0.000000,0.000000,0.000000,1770904880.881526,0.000000
90.000000,24349.051636,23540.901964,6984.540163,7213.556136,25169.584175,-7075.087079,11470.043536,-2015.479149,22037.367170,23180.569491,-4138.023154,9427.250555,24146.410721,25410.960664,13398.552048,23220.132079,0.003812,-0.015063,0.998687,192.000000,0.000000,0.000000,0.000000,0.000000,0.000000,0.000000,0.000000,0.000000,0.000000,1770904880.881545,0.000000
92.000000,24356.181843,23554.983563,6974.303064,7204.257811,25176.155588,-7084.586571,11465.662595,-2021.044734,22066.871472,23190.672480,-4146.583873,9425.931803,24151.059884,25410.066594,13397.233295,23249.166995,0.003812,-0.015063,0.998687,192.000000,0.000000,0.000000,0.000000,0.000000,0.000000,0.000000,0.000000,0.000000,0.000000,1770904880.881563,0.000000
94.000000,24353.745503,23545.372313,6985.255418,7213.310267,25173.562786,-7072.248408,11470.870551,-2012.327553,22075.901577,23199.546122,-4141.353564,9429.642192,24171.019992,25419.543734,13395.780432,23245.970696,0.003812,-0.015063,0.998687,192.000000,0.000000,0.000000,0.000000,0.000000,0.000000,0.000000,0.000000,0.000000,0.000000,1770904880.881581,0.000000
96.000000,24350.526851,23548.434502,6974.392471,7211.902107,25174.054524,-7080.160925,11465.662595,-2022.989335,22025.610152,23187.252663,-4138.984280,9434.470169,24148.891765,25415.408661,13388.940798,23217.181649,0.003812,-0.015063,0.998687,192.000000,0.000000,0.000000,127.500000,88.000000,15.500000,48.000000,0.000000,0.000000,0.000000,1770904880.881600,0.000000
