Sample_index,EXG Channel 0,EXG Channel 1,EXG Channel 2,EXG Channel 3,EXG Channel 4,EXG Channel 5,EXG Channel 6,EXG Channel 7,EXG Channel 8,EXG Channel 9,EXG Channel 10,EXG Channel 11,EXG Channel 12,EXG Channel 13,EXG Channel 14,EXG Channel 15,Accel Channel 0,Accel Channel 1,Accel Channel 2,Not Used,Digital Channel 0 (D11),Digital Channel 1 (D12),Digital Channel 2 (D13),Digital Channel 3 (D17),Not Used,Digital Channel 4 (D18),Analog Channel 0,Analog Channel 1,Analog Channel 2,Timestamp,Marker Channel
90.000000,-12802.766300,-17761.701973,2702.080035,-31010.832609,10524.788263,2862.274988,-22367.055400,-28413.090517,3045.179313,-1815.229871,6215.304877,213.257994,7896.781909,7008.925916,-11100.211573,-5256.795020,0.006000,-0.016000,1.006000,192.000000,0.000000,0.000000,0.000000,0.000000,0.000000,0.000000,0.000000,0.000000,0.000000,1772722290.764618,101.000000
92.000000,-12806.610800,-17768.608662,2694.189870,-31014.163019,10519.692066,2856.597645,-22377.873645,-28425.451031,3060.892589,-1808.010257,6227.978316,222.690430,7921.413531,7009.775282,-11084.453593,-5249.217778,0.006000,-0.016000,1.006000,192.000000,0.000000,0.000000,0.000000,0.000000,0.000000,0.000000,0.000000,0.000000,0.000000,1772722290.764670,0.000000
94.000000,-12816.154995,-17779.851589,2692.848765,-31024.176600,10520.027342,2847.411078,-22384.065078,-28435.397558,3057.651586,-1815.878071,6211.706246,204.339648,7907.957781,7004.142643,-11107.095910,-5245.596796,0.012000,-0.018000,1.002000,192.000000,0.000000,48.000000,127.500000,56.000000,15.500000,40.000000,0.000000,0.000000,0.000000,1772722290.764708,0.000000
96.000000,-12804.263866,-17765.278252,2711.847748,-31016.420545,10539.294546,2850.227398,-22367.345973,-28414.364566,3066.279360,-1808.770217,6227.598337,214.487340,7930.622450,7015.720846,-11090.846192,-5257.018537,0.012000,-0.018000,1.002000,192.000000,0.000000,0.000000,0.000000,0.000000,0.000000,0.000000,0.000000,0.000000,0.000000,1772722290.764745,0.000000
98.000000,-12812.466957,-17775.135371,2696.559155,-31029.585723,10519.893231,2835.564653,-22379.348860,-28421.204200,3065.809973,-1807.920850,6226.726619,217.638936,7930.845968,7008.970619,-11099.317503,-5270.429584,0.012000,-0.018000,1.002000,192.000000,0.000000,0.000000,0.000000,0.000000,0.000000,0.000000,0.000000,0.000000,0.000000,1772722290.764782,0.000000
100.000000,-12792.976236,-17759.489150,2714.842882,-31007.211626,10539.451008,2858.341081,-22363.501473,-28404.261578,3069.095679,-1805.059827,6228.984145,218.108322,7920.810034,7005.684913,-11100.166869,-5269.379052,0.012000,-0.018000,1.002000,192.000000,0.000000,0.000000,0.000000,0.000000,0.000000,0.000000,0.000000,0.000000,0.000000,1772722290.764819,0.000000
102.000000,-12785.622512,-17755.421132,2714.775826,-31008.932711,10542.803769,2853.535456,-22368.552967,-28408.731927,3087.178241,-1793.079292,6249.190122,231.742887,7950.873131,7039.123123,-11079.089174,-5276.308093,0.012000,-0.018000,1.002000,192.000000,0.000000,0.000000,0.000000,0.000000,0.000000,0.000000,0.000000,0.000000,0.000000,1772722290.764848,0.000000
104.000000,-12795.412576,-17761.992545,2710.819568,-31017.806353,10541.306203,2853.490752,-22376.465485,-28416.979720,3081.523249,-1794.867432,6231.688706,218.600061,7934.288136,7013.016285,-11098.646951,-5275.637540,0.008000,-0.014000,1.008000,192.000000,0.000000,32.000000,127.500000,72.000000,15.500000,64.000000,0.000000,0.000000,0.000000,1772722290.764858,0.000000
106.000000,-12787.254189,-17748.201519,2723.560062,-31009.782077,10553.420848,2848.506313,-22360.618098,-28396.773743,3088.094662,-1784.317408,6247.290224,234.045116,7951.856607,7029.176596,-11084.140668,-5281.650160,0.008000,-0.014000,1.008000,192.000000,0.000000,0.000000,0.000000,0.000000,0.000000,0.000000,0.000000,0.000000,0.000000,1772722290.764869,0.000000
108.000000,-12800.575829,-17765.322955,2699.219012,-31029.161039,10525.034133,2827.652136,-22376.599595,-28409.111906,3077.701101,-1795.605039,6240.964680,227.540759,7939.809017,7004.522622,-11096.501183,-5284.734700,0.008000,-0.014000,1.008000,192.000000,0.000000,0.000000,0.000000,0.000000,0.000000,0.000000,0.000000,0.000000,0.000000,1772722290.764882,0.000000
110.000000,-12802.095747,-17765.680583,2705.276335,-31014.252426,10535.517101,2844.974738,-22365.982517,-28403.099287,3070.839115,-1803.964591,6230.481712,218.957689,7928.722552,6999.493480,-11103.340817,-5276.553962,0.008000,-0.014000,1.008000,192.000000,0.000000,0.000000,0.000000,0.000000,0.000000,0.000000,0.000000,0.000000,0.000000,1772722290.764892,0.000000
112.000000,-12818.412521,-17782.958482,2693.407559,-31015.660586,10530.443255,2849.087459,-22376.018450,-28417.404403,3062.837191,-1804.903365,6230.593470,224.746790,7927.493206,7018.961849,-11085.168849,-5263.053508,0.008000,-0.014000,1.008000,192.000000,0.000000,0.000000,0.000000,0.000000,0.000000,0.000000,0.000000,0.000000,0.000000,1772722290.764902,0.000000
114.000000,-12819.999495,-17792.502677,2690.747701,-31020.577970,10526.755217,2851.747316,-22383.483932,-28428.826145,3059.193857,-1816.928603,6211.862709,206.217194,7914.864470,6996.453642,-11103.184355,-5247.250825,0.004000,-0.012000,1.002000,192.000000,0.000000,16.000000,127.500000,80.000000,15.500000,40.000000,0.000000,0.000000,0.000000,1772722290.764913,0.000000
116.000000,-12817.719617,-17791.966235,2708.427931,-31016.085269,10535.450046,2863.303168,-22369.804665,-28419.125488,3067.754575,-1816.079237,6229.609994,207.312430,7924.654534,7014.178576,-11081.972549,-5241.305261,0.004000,-0.012000,1.002000,192.000000,0.000000,0.000000,0.000000,0.000000,0.000000,0.000000,0.000000,0.000000,0.000000,1772722290.764923,0.000000
118.000000,-12841.345411,-17813.043930,2688.780748,-31039.889877,10515.244069,2846.472305,-22386.099087,-28439.107947,3050.029641,-1829.803208,6216.891851,193.029665,7911.265839,7007.249535,-11096.970570,-5242.668717,0.004000,-0.012000,1.002000,192.000000,0.000000,0.000000,0.000000,0.000000,0.000000,0.000000,0.000000,0.000000,0.000000,1772722290.764933,0.000000
120.000000,-12826.347390,-17795.162534,2707.533861,-31022.924903,10533.214871,2853.155476,-22367.502435,-28419.192543,3042.027717,-1824.975231,6207.370008,192.716741,7913.925697,6995.470166,-11099.965703,-5249.351889,0.004000,-0.012000,1.002000,192.000000,0.000000,0.000000,0.000000,0.000000,0.000000,0.000000,0.000000,0.000000,0.000000,1772722290.764943,0.000000
122.000000,-12819.440701,-17793.217932,2707.265640,-31022.701385,10526.531699,2841.353755,-22369.290575,-28414.699842,3056.489296,-1819.454350,6226.614860,213.883843,7927.470854,7015.094997,-11083.023081,-5261.667700,0.004000,-0.012000,1.002000,192.000000,0.000000,0.000000,0.000000,0.000000,0.000000,0.000000,0.000000,0.000000,0.000000,1772722290.764953,0.000000
124.000000,-12815.596201,-17789.954578,2707.399751,-31017.024042,10518.127444,2841.554921,-22370.743438,-28409.469534,3068.045147,-1821.890691,6224.692610,212.319221,7924.408665,6983.489631,-11107.051206,-5268.283816,0.010000,-0.014000,1.004000,192.000000,0.000000,40.000000,127.500000,72.000000,15.500000,48.000000,0.000000,0.000000,0.000000,1772722290.764964,0.000000
126.000000,-12812.779881,-17780.544493,2720.073190,-31004.685879,10530.957345,2846.651119,-22358.472330,-28401.959348,3069.319197,-1807.250298,6239.891796,229.686526,7934.154026,7008.680047,-11090.443860,-5277.246866,0.010000,-0.014000,1.004000,192.000000,0.000000,0.000000,0.000000,0.000000,0.000000,0.000000,0.000000,0.000000,0.000000,1772722290.764974,0.000000
128.000000,-12827.777902,-17800.951636,2702.571774,-31022.991958,10518.552127,2845.868808,-22374.453828,-28419.952502,3065.631159,-1815.855720,6232.135741,218.600061,7928.230814,7005.260230,-11097.350549,-5281.001959,0.010000,-0.014000,1.004000,192.000000,0.000000,0.000000,0.000000,0.000000,0.000000,0.000000,0.000000,0.000000,0.000000,1772722290.764984,0.000000
130.000000,-12809.874154,-17784.523104,2713.300611,-31010.720850,10539.406304,2859.995110,-22362.406237,-28407.457877,3068.179258,-1819.990792,6226.838377,209.949936,7930.801264,7007.450701,-11098.222267,-5273.111793,0.010000,-0.014000,1.004000,192.000000,0.000000,0.000000,0.000000,0.000000,0.000000,0.000000,0.000000,0.000000,0.000000,1772722290.764994,0.000000
132.000000,-12810.701169,-17783.494924,2705.835129,-31015.280606,10533.617202,2856.016500,-22367.502435,-28410.989453,3078.461060,-1810.044266,6240.763514,225.104418,7934.534005,7032.439951,-11081.212590,-5271.033081,0.010000,-0.014000,1.004000,192.000000,0.000000,0.000000,0.000000,0.000000,0.000000,0.000000,0.000000,0.000000,0.000000,1772722290.765005,0.000000
134.000000,-12816.020884,-17791.027461,2701.633001,-31021.561446,10531.739656,2854.250712,-22375.146732,-28419.594874,3071.174392,-1820.393124,6219.372895,209.704066,7922.687581,7004.097939,-11097.015273,-5261.354776,0.011000,-0.011000,1.005000,192.000000,0.000000,48.000000,127.500000,96.000000,15.500000,56.000000,0.000000,0.000000,0.000000,1772722290.765015,0.000000
136.000000,-12811.751701,-17779.583368,2718.441512,-31008.217455,10554.918415,2862.610264,-22362.696810,-28403.278101,3079.042206,-1815.609850,6230.794636,221.103456,7941.507750,7023.409846,-11072.942444,-5254.962177,0.011000,-0.011000,1.005000,192.000000,0.000000,0.000000,0.000000,0.000000,0.000000,0.000000,0.000000,0.000000,0.000000,1772722290.765027,0.000000
138.000000,-12828.470806,-17796.794211,2694.100463,-31020.287397,10531.292621,2858.318729,-22382.165180,-28419.863095,3068.358072,-1812.368847,6227.575985,222.019878,7933.639936,7019.230070,-11083.805392,-5246.043831,0.011000,-0.011000,1.005000,192.000000,0.000000,0.000000,0.000000,0.000000,0.000000,0.000000,0.000000,0.000000,0.000000,1772722290.765038,0.000000
140.000000,-12832.091788,-17800.370491,2700.694227,-31004.797638,10541.708534,2869.047567,-22367.971822,-28419.840744,3053.248293,-1821.287193,6215.886023,212.095703,7919.133654,7010.937573,-11096.143555,-5237.281947,0.011000,-0.011000,1.005000,192.000000,0.000000,0.000000,0.000000,0.000000,0.000000,0.000000,0.000000,0.000000,0.000000,1772722290.765049,0.000000
142.000000,-12837.009172,-17807.366587,2697.140300,-31015.749993,10532.276098,2864.376052,-22376.107857,-28435.665779,3056.243426,-1824.394086,6217.942383,215.046133,7930.108360,7016.681971,-11084.990035,-5237.080781,0.011000,-0.011000,1.005000,192.000000,0.000000,0.000000,0.000000,0.000000,0.000000,0.000000,0.000000,0.000000,0.000000,1772722290.765059,0.000000
144.000000,-12827.129701,-17801.868057,2705.030466,-31025.115374,10535.874729,2863.057299,-22376.912520,-28432.335369,3059.752650,-1839.101534,6204.620743,197.522366,7926.241508,7007.316590,-11106.648875,-5239.092438,0.011500,-0.013500,1.005500,192.000000,0.000000,48.000000,127.500000,64.000000,15.500000,56.000000,0.000000,0.000000,0.000000,1772722290.765069,0.000000
146.000000,-12807.974256,-17785.730098,2725.191739,-31015.504124,10554.449028,2879.955218,-22361.176891,-28410.229493,3085.434805,-1825.243452,6233.432142,212.140407,7960.104401,7023.141625,-11082.106660,-5259.521933,0.011500,-0.013500,1.005500,192.000000,0.000000,0.000000,0.000000,0.000000,0.000000,0.000000,0.000000,0.000000,0.000000,1772722290.765079,0.000000
148.000000,-12821.966448,-17801.689244,2709.322001,-31036.268894,10524.676505,2834.670584,-22369.715258,-28415.415098,3078.952799,-1832.083086,6231.196968,206.351305,7934.466950,7021.018210,-11092.544924,-5276.173982,0.011500,-0.013500,1.005500,192.000000,0.000000,0.000000,0.000000,0.000000,0.000000,0.000000,0.000000,0.000000,0.000000,1772722290.765089,0.000000
150.000000,-12820.960620,-17796.794211,2717.435684,-31022.589627,10526.397589,2839.118581,-22354.024333,-28402.629900,3068.939217,-1831.680755,6225.966659,205.971325,7930.376581,6992.385625,-11105.553640,-5294.502413,0.011500,-0.013500,1.005500,192.000000,0.000000,0.000000,0.000000,0.000000,0.000000,0.000000,0.000000,0.000000,0.000000,1772722290.765099,0.000000
152.000000,-12829.119006,-17804.147935,2707.913841,-31022.813144,10508.784414,2830.826084,-22362.897976,-28414.588084,3072.202572,-1831.568996,6233.521549,218.197729,7928.431979,7007.964791,-11094.757747,-5298.033988,0.011500,-0.013500,1.005500,192.000000,0.000000,0.000000,0.000000,0.000000,0.000000,0.000000,0.000000,0.000000,0.000000,1772722290.765110,0.000000
154.000000,-12835.623364,-17806.897200,2700.828338,-31021.427336,10501.408339,2822.377124,-22372.799799,-28424.936941,3062.993653,-1836.106400,6212.868537,206.820691,7912.249316,6986.238895,-11117.198898,-5287.729834,0.011750,-0.015750,1.009750,192.000000,0.000000,48.000000,127.500000,56.000000,15.500000,88.000000,0.000000,0.000000,0.000000,1772722290.765120,0.000000
156.000000,-12829.968373,-17804.684377,2712.540652,-31007.479847,10521.815481,2843.633633,-22361.825092,-28414.878656,3065.921732,-1831.636051,6222.703305,214.643802,7925.056866,7005.327285,-11095.338892,-5284.220610,0.011750,-0.015750,1.009750,192.000000,0.000000,0.000000,0.000000,0.000000,0.000000,0.000000,0.000000,0.000000,0.000000,1772722290.765131,0.000000
158.000000,-12833.164672,-17811.881639,2695.083939,-31022.142592,10515.355827,2835.654060,-22375.482008,-28420.846572,3066.033490,-1838.900368,6217.651810,207.491244,7922.151139,7007.562459,-11105.061901,-5272.932979,0.011750,-0.015750,1.009750,192.000000,0.000000,0.000000,0.000000,0.000000,0.000000,0.000000,0.000000,0.000000,0.000000,1772722290.765141,0.000000
160.000000,-12821.318247,-17801.577485,2712.942983,-31011.637272,10543.295508,2868.555828,-22360.975726,-28401.087630,3072.582552,-1838.140409,6222.233918,204.920793,7928.007296,7009.775282,-11103.497279,-5255.677432,0.011750,-0.015750,1.009750,192.000000,0.000000,0.000000,0.000000,0.000000,0.000000,0.000000,0.000000,0.000000,0.000000,1772722290.765151,0.000000
162.000000,-12829.901317,-17810.048796,2706.796254,-31023.953083,10542.736714,2860.419793,-22371.838674,-28412.911703,3078.483412,-1832.217196,6236.404924,212.140407,7938.780837,7022.046390,-11082.307825,-5249.642461,0.011750,-0.015750,1.009750,192.000000,0.000000,0.000000,0.000000,0.000000,0.000000,0.000000,0.000000,0.000000,0.000000,1772722290.765161,0.000000
164.000000,-12845.212262,-17826.142052,2703.018809,-31035.352473,10538.802807,2863.034947,-22381.114648,-28429.831973,3056.377537,-1848.913950,6210.990991,188.000523,7921.860566,7000.387549,-11094.645988,-5238.511293,0.011875,-0.014875,1.009875,192.000000,0.000000,48.000000,127.500000,72.000000,15.500000,72.000000,0.000000,0.000000,0.000000,1772722290.765171,0.000000
166.000000,-12829.476634,-17809.042967,2721.079018,-31022.880199,10558.449991,2871.148631,-22369.268223,-28417.292645,3065.944083,-1844.600063,6222.658601,198.774063,7946.805113,7008.344770,-11072.987148,-5236.142008,0.011875,-0.014875,1.009875,192.000000,0.000000,0.000000,0.000000,0.000000,0.000000,0.000000,0.000000,0.000000,0.000000,1772722290.765181,0.000000
168.000000,-12832.561175,-17813.110985,2707.913841,-31036.224191,10541.440313,2842.761915,-22379.572377,-28422.210028,3072.135517,-1843.996566,6223.418560,200.830424,7947.945052,7000.298142,-11080.586741,-5239.919453,0.011875,-0.014875,1.009875,192.000000,0.000000,0.000000,0.000000,0.000000,0.000000,0.000000,0.000000,0.000000,0.000000,1772722290.765192,0.000000
170.000000,-12820.558288,-17799.431717,2718.240347,-31020.041528,10550.001031,2851.613206,-22362.540348,-28406.295586,3075.488278,-1834.117095,6226.592508,206.306601,7933.706991,7007.853032,-11092.656683,-5259.164305,0.011875,-0.014875,1.009875,192.000000,0.000000,0.000000,0.000000,0.000000,0.000000,0.000000,0.000000,0.000000,0.000000,1772722290.765202,0.000000
172.000000,-12835.757474,-17817.335465,2704.762245,-31025.003615,10533.840720,2828.613261,-22367.837711,-28418.901970,3073.253104,-1832.954804,6234.594433,212.162758,7932.969383,7013.038637,-11091.226171,-5281.359587,0.011875,-0.014875,1.009875,192.000000,0.000000,0.000000,0.000000,0.000000,0.000000,0.000000,0.000000,0.000000,0.000000,1772722290.765212,0.000000
174.000000,-12845.100504,-17821.984627,2694.994532,-31026.523534,10528.588060,2828.769723,-22375.705525,-28430.927209,3061.518438,-1843.907159,6212.197985,195.510709,7911.087026,6994.866669,-11122.026875,-5292.714273,0.010937,-0.014437,1.007938,192.000000,0.000000,40.000000,127.500000,72.000000,15.500000,56.000000,0.000000,0.000000,0.000000,1772722290.765222,0.000000
176.000000,-12829.230765,-17808.350063,2711.199547,-31009.089173,10548.950499,2853.803677,-22362.249775,-28417.963197,3071.666130,-1834.966461,6222.122159,206.686581,7932.321183,7017.129006,-11095.942389,-5288.758014,0.010937,-0.014437,1.007938,192.000000,0.000000,0.000000,0.000000,0.000000,0.000000,0.000000,0.000000,0.000000,0.000000,1772722290.765239,0.000000
178.000000,-12833.768169,-17811.635770,2693.564021,-31020.309749,10520.675542,2841.420810,-22376.130209,-28426.054528,3071.934351,-1835.726420,6216.780092,206.552471,7933.841101,7018.984201,-11101.820898,-5280.778442,0.010937,-0.014437,1.007938,192.000000,0.000000,0.000000,0.000000,0.000000,0.000000,0.000000,0.000000,0.000000,0.000000,1772722290.765249,0.000000
180.000000,-12821.631172,-17798.381185,2710.394884,-31006.943406,10529.459778,2847.075802,-22361.713333,-28406.563807,3070.973226,-1827.545682,6213.024999,205.881918,7925.213328,7019.364180,-11101.731491,-5272.128316,0.010937,-0.014437,1.007938,192.000000,0.000000,0.000000,0.000000,0.000000,0.000000,0.000000,0.000000,0.000000,0.000000,1772722290.765260,0.000000
182.000000,-12827.599088,-17807.053662,2703.778768,-31011.369051,10510.304333,2833.105961,-22367.100104,-28404.641557,3077.499935,-1827.098647,6231.487540,220.432904,7935.562186,7030.785922,-11088.700424,-5274.028215,0.010937,-0.014437,1.007938,192.000000,0.000000,0.000000,0.000000,0.000000,0.000000,0.000000,0.000000,0.000000,0.000000,1772722290.765270,0.000000
184.000000,-12835.466902,-17816.217877,2700.269544,-31019.683900,10500.246048,2836.324613,-22373.649165,-28412.755241,3069.229790,-1838.632147,6219.439950,206.619526,7915.847947,7004.612029,-11112.348570,-5261.287720,0.010469,-0.015219,1.009969,192.000000,0.000000,40.000000,127.500000,64.000000,15.500000,80.000000,0.000000,0.000000,0.000000,1772722290.765280,0.000000
186.000000,-12825.050989,-17806.338406,2717.547443,-31012.620749,10518.976810,2851.479095,-22360.528691,-28403.568674,3076.918790,-1836.128752,6236.069648,211.380447,7934.086971,7015.787901,-11091.650855,-5255.208046,0.010469,-0.015219,1.009969,192.000000,0.000000,0.000000,0.000000,0.000000,0.000000,0.000000,0.000000,0.000000,0.000000,1772722290.765290,0.000000
188.000000,-12832.807044,-17813.066281,2700.940096,-31031.709138,10513.813557,2828.948537,-22376.934871,-28417.471459,3073.744842,-1836.933415,6234.795598,205.859566,7929.594270,6996.498346,-11097.507012,-5251.721174,0.010469,-0.015219,1.009969,192.000000,0.000000,0.000000,0.000000,0.000000,0.000000,0.000000,0.000000,0.000000,0.000000,1772722290.765300,0.000000
190.000000,-12827.152053,-17803.611494,2710.998381,-31018.253388,10545.061296,2843.343060,-22366.831883,-28415.236284,3070.392081,-1834.273557,6226.257232,202.663267,7930.063657,7002.242744,-11101.105642,-5249.284834,0.010469,-0.015219,1.009969,192.000000,0.000000,0.000000,0.000000,0.000000,0.000000,0.000000,0.000000,0.000000,0.000000,1772722290.765310,0.000000
192.000000,-12845.234614,-17820.621171,2695.575678,-31023.148420,10543.519025,2858.251674,-22377.918348,-28436.626904,3073.946008,-1834.027688,6222.412732,205.792511,7937.417381,7020.146492,-11081.726680,-5247.988432,0.010469,-0.015219,1.009969,192.000000,0.000000,0.000000,0.000000,0.000000,0.000000,0.000000,0.000000,0.000000,0.000000,1772722290.765320,0.000000
194.000000,-12851.046068,-17829.316000,2691.664123,-31028.199914,10546.692973,2865.091308,-22385.361479,-28446.416968,3054.544694,-1847.975176,6193.824851,183.753691,7913.590421,6995.961904,-11099.161041,-5236.656098,0.010234,-0.015609,1.004984,192.000000,0.000000,40.000000,127.500000,64.000000,15.500000,32.000000,0.000000,0.000000,0.000000,1772722290.765330,0.000000
196.000000,-12833.812873,-17808.998264,2710.439588,-31014.811220,10564.395555,2868.466421,-22369.849368,-28428.334406,3068.961569,-1835.838179,6212.980296,196.874165,7942.111247,7021.688762,-11076.585779,-5241.014688,0.010234,-0.015609,1.004984,192.000000,0.000000,0.000000,0.000000,0.000000,0.000000,0.000000,0.000000,0.000000,0.000000,1772722290.765341,0.000000
198.000000,-12849.481445,-17820.375302,2688.780748,-31031.910304,10522.642496,2835.631709,-22384.422706,-28440.918439,3060.266740,-1840.085011,6205.537165,192.649685,7924.922755,7015.899660,-11093.394291,-5246.312052,0.010234,-0.015609,1.004984,192.000000,0.000000,0.000000,0.000000,0.000000,0.000000,0.000000,0.000000,0.000000,0.000000,1772722290.765351,0.000000
200.000000,-12837.880890,-17805.489040,2700.805986,-31019.728603,10521.703723,2828.948537,-22368.597671,-28423.059395,3054.567046,-1840.196769,6199.301028,191.241526,7909.924735,7014.826776,-11114.896669,-5264.528723,0.010234,-0.015609,1.004984,192.000000,0.000000,0.000000,0.000000,0.000000,0.000000,0.000000,0.000000,0.000000,0.000000,1772722290.765361,0.000000
202.000000,-12841.501873,-17805.846668,2697.050893,-31020.779135,10500.067234,2822.310069,-22369.692906,-28422.612360,3059.149153,-1826.875130,6213.606145,210.151101,7924.475720,7017.531337,-11108.258201,-5284.779404,0.010234,-0.015609,1.004984,192.000000,0.000000,0.000000,0.000000,0.000000,0.000000,0.000000,0.000000,0.000000,0.000000,1772722290.765371,0.000000
204.000000,-12839.266698,-17804.125584,2697.341466,-31024.511877,10500.223696,2829.373220,-22373.738572,-28421.695938,3050.320214,-1830.943147,6201.692665,201.389218,7907.890726,7013.508023,-11127.033666,-5284.310017,0.010234,-0.015609,1.004984,192.000000,0.000000,0.000000,0.000000,0.000000,0.000000,0.000000,0.000000,0.000000,0.000000,1772722290.765381,0.000000
206.000000,-12822.882870,-17785.506581,2712.183024,-31008.239807,10521.167281,2852.574331,-22362.473293,-28404.865075,3062.412508,-1819.454350,6222.390380,216.454293,7935.316317,7039.368992,-11102.200878,-5281.851325,0.012000,-0.020000,1.002000,192.000000,0.000000,48.000000,127.500000,48.000000,15.500000,40.000000,0.000000,0.000000,0.000000,1772722290.765391,0.000000
208.000000,-12830.214242,-17799.208200,2692.781710,-31019.013348,10499.866068,2838.380973,-22376.554892,-28414.990415,3064.714738,-1816.727438,6223.284450,215.783741,7929.638973,7039.883082,-11109.062863,-5272.083613,0.012000,-0.020000,1.002000,192.000000,0.000000,0.000000,0.000000,0.000000,0.000000,0.000000,0.000000,0.000000,0.000000,1772722290.765401,0.000000
210.000000,-12823.195794,-17795.050775,2704.158748,-31003.836513,10509.052635,2844.840627,-22362.674458,-28403.300453,3065.340586,-1816.056885,6220.579889,211.715723,7918.686619,7024.594489,-11115.611925,-5263.724061,0.012000,-0.020000,1.002000,192.000000,0.000000,0.000000,0.000000,0.000000,0.000000,0.000000,0.000000,0.000000,0.000000,1772722291.245545,0.000000
212.000000,-12833.678762,-17808.327712,2695.530974,-31011.123182,10494.367539,2839.789133,-22370.072886,-28414.386918,3069.810935,-1819.230833,6230.459360,219.404724,7926.934412,7029.489521,-11103.005541,-5255.632729,0.012000,-0.020000,1.002000,192.000000,0.000000,0.000000,0.000000,0.000000,0.000000,0.000000,0.000000,0.000000,0.000000,1772722291.245602,0.000000
214.000000,-12835.466902,-17809.847630,2693.161689,-31013.134839,10490.724205,2828.434447,-22373.336240,-28415.593912,3058.456249,-1833.647708,6215.684857,202.707970,7907.488395,7005.528451,-11129.894689,-5249.575406,0.012000,-0.020000,1.002000,192.000000,0.000000,0.000000,0.000000,0.000000,0.000000,0.000000,0.000000,0.000000,0.000000,1772722291.245642,0.000000
216.000000,-12825.967410,-17803.522087,2709.947850,-31002.808333,10513.925316,2846.718174,-22359.388752,-28401.087630,3068.738052,-1823.388257,6239.355354,220.276442,7927.090875,7014.625611,-11112.437977,-5246.379107,0.010000,-0.022000,1.004000,192.000000,0.000000,40.000000,127.500000,40.000000,15.500000,48.000000,0.000000,0.000000,0.000000,1772722291.245683,0.000000
218.000000,-12840.652506,-17821.247020,2694.346332,-31024.757746,10510.639609,2849.132162,-22375.437304,-28415.951540,3066.726395,-1837.738077,6234.415619,209.905232,7918.105473,7004.969657,-11117.377712,-5242.691069,0.010000,-0.022000,1.004000,192.000000,0.000000,0.000000,0.000000,0.000000,0.000000,0.000000,0.000000,0.000000,0.000000,1772722291.245738,0.000000
220.000000,-12827.196756,-17806.986607,2715.580489,-31017.269911,10546.134179,2868.622883,-22361.020429,-28402.249921,3066.525229,-1836.754601,6226.860729,204.585517,7928.141407,7004.410863,-11112.527384,-5238.623051,0.010000,-0.022000,1.004000,192.000000,0.000000,0.000000,0.000000,0.000000,0.000000,0.000000,0.000000,0.000000,0.000000,1772722291.245779,0.000000
222.000000,-12825.050989,-17808.327712,2714.641716,-31025.897685,10555.365450,2861.090346,-22368.888243,-28407.234360,3083.624313,-1833.804170,6239.087133,213.280346,7955.432887,7022.605183,-11082.352529,-5254.448087,0.010000,-0.022000,1.004000,192.000000,0.000000,0.000000,0.000000,0.000000,0.000000,0.000000,0.000000,0.000000,0.000000,1772722291.245798,0.000000
224.000000,-12830.884794,-17814.988531,2711.087788,-31030.770365,10547.631746,2840.169113,-22374.856159,-28417.225589,3074.951836,-1844.197732,6223.239746,194.191956,7939.473741,7009.819986,-11096.031796,-5264.104040,0.010000,-0.022000,1.004000,192.000000,0.000000,0.000000,0.000000,0.000000,0.000000,0.000000,0.000000,0.000000,0.000000,1772722291.245809,0.000000
226.000000,-12817.026713,-17795.609569,2722.554233,-31013.626577,10559.075839,2837.084572,-22360.729857,-28408.553113,3082.283209,-1828.149179,6237.097828,205.256069,7958.651538,7033.132855,-11081.838439,-5280.331407,0.006000,-0.016000,1.002000,192.000000,0.000000,24.000000,127.500000,64.000000,15.500000,40.000000,0.000000,0.000000,0.000000,1772722291.245820,0.000000
228.000000,-12840.071361,-17817.938962,2692.200564,-31031.060938,10515.802862,2828.300336,-22379.080639,-28431.530706,3071.733185,-1829.758505,6224.960831,199.332857,7934.489302,7022.180500,-11099.943352,-5286.411081,0.006000,-0.016000,1.002000,192.000000,0.000000,0.000000,0.000000,0.000000,0.000000,0.000000,0.000000,0.000000,0.000000,1772722291.245831,0.000000
230.000000,-12820.871213,-17791.809772,2704.426969,-31014.207722,10520.764949,2842.828970,-22364.037915,-28408.866037,3065.005310,-1827.702144,6217.070665,197.634124,7914.328028,7022.851053,-11111.409797,-5277.805660,0.006000,-0.016000,1.002000,192.000000,0.000000,0.000000,0.000000,0.000000,0.000000,0.000000,0.000000,0.000000,0.000000,1772722291.245843,0.000000
232.000000,-12825.878003,-17794.804906,2695.866250,-31024.198952,10507.018627,2831.742505,-22372.129246,-28408.463706,3066.391118,-1819.655516,6234.057991,216.230776,7923.425188,7034.920995,-11098.334026,-5278.990302,0.006000,-0.016000,1.002000,192.000000,0.000000,0.000000,0.000000,0.000000,0.000000,0.000000,0.000000,0.000000,0.000000,1772722291.245854,0.000000
234.000000,-12822.905221,-17793.329691,2694.189870,-31027.462307,10506.817461,2826.489845,-22375.213787,-28407.860208,3060.780830,-1826.852778,6223.910299,207.334782,7909.075369,7005.304933,-11115.790739,-5272.307130,0.006000,-0.016000,1.002000,192.000000,0.000000,0.000000,0.000000,0.000000,0.000000,0.000000,0.000000,0.000000,0.000000,1772722291.245866,0.000000
236.000000,-12806.387282,-17776.118848,2712.518300,-31013.492467,10523.871842,2841.443162,-22360.953374,-28392.191636,3077.209363,-1809.932507,6243.512779,226.154950,7942.088895,7023.409846,-11093.014311,-5268.596741,0.006000,-0.016000,1.002000,192.000000,0.000000,0.000000,127.500000,64.000000,15.500000,48.000000,0.000000,0.000000,0.000000,1772722291.245878,0.000000
238.000000,-12823.620477,-17796.771860,2698.324942,-31030.971531,10507.152737,2822.935918,-22374.073848,-28409.067203,3074.616560,-1817.040362,6235.264985,218.309488,7928.834311,7025.063875,-11104.011369,-5264.126392,0.006000,-0.016000,1.002000,192.000000,0.000000,0.000000,0.000000,0.000000,0.000000,0.000000,0.000000,0.000000,0.000000,1772722291.245890,0.000000
240.000000,-12815.707960,-17789.418136,2715.871062,-31019.415679,10523.290697,2850.786191,-22361.534519,-28398.383069,3073.677787,-1822.807112,6231.062857,211.916889,7930.510691,7016.659619,-11113.264991,-5261.444183,0.006000,-0.016000,1.002000,192.000000,0.000000,0.000000,0.000000,0.000000,0.000000,0.000000,0.000000,0.000000,0.000000,1772722291.245901,0.000000
242.000000,-12815.730311,-17791.809772,2713.859405,-31023.997787,10522.575441,2845.287662,-22368.463560,-28402.495790,3081.791470,-1824.304679,6245.926767,216.163721,7948.280328,7026.092056,-11093.237828,-5261.108906,0.006000,-0.016000,1.002000,192.000000,0.000000,0.000000,0.000000,0.000000,0.000000,0.000000,0.000000,0.000000,0.000000,1772722291.245913,0.000000
244.000000,-12816.266753,-17790.334557,2710.461940,-31025.025967,10524.542394,2837.397496,-22372.866854,-28406.094421,3079.422185,-1824.081162,6234.527377,208.541776,7934.936337,7019.319477,-11110.225154,-5262.293549,0.006000,-0.016000,1.002000,192.000000,0.000000,0.000000,0.000000,0.000000,0.000000,0.000000,0.000000,0.000000,0.000000,1772722291.245924,0.000000
246.000000,-12808.376587,-17779.203389,2720.631983,-31012.888970,10542.937880,2852.440220,-22361.400409,-28400.931168,3087.155889,-1811.340667,6244.943290,224.970308,7950.426096,7036.306803,-11086.174677,-5272.664758,0.002000,-0.018000,1.002000,192.000000,0.000000,8.000000,127.500000,56.000000,15.500000,40.000000,0.000000,0.000000,0.000000,1772722291.245935,0.000000
248.000000,-12833.052913,-17809.981741,2698.660219,-31037.051205,10522.418979,2819.426694,-22381.494627,-28429.027310,3076.449403,-1828.484455,6228.425351,209.234680,7934.735171,7025.108579,-11093.483698,-5282.678340,0.002000,-0.018000,1.002000,192.000000,0.000000,0.000000,0.000000,0.000000,0.000000,0.000000,0.000000,0.000000,0.000000,1772722291.245947,0.000000
250.000000,-12833.812873,-17806.740738,2712.160672,-31024.578932,10540.389781,2828.143874,-22371.168121,-28425.093403,3057.450421,-1842.119019,6211.303915,191.956781,7925.436845,7014.625611,-11098.714006,-5289.629732,0.002000,-0.018000,1.002000,192.000000,0.000000,0.000000,0.000000,0.000000,0.000000,0.000000,0.000000,0.000000,0.000000,1772722291.245960,0.000000
252.000000,-12837.098579,-17808.171249,2702.325905,-31030.412737,10527.090493,2828.166226,-22381.919310,-28432.447127,3063.463040,-1834.340612,6222.926822,201.277459,7935.606889,7028.774265,-11083.201895,-5294.189488,0.002000,-0.018000,1.002000,192.000000,0.000000,0.000000,0.000000,0.000000,0.000000,0.000000,0.000000,0.000000,0.000000,1772722291.245971,0.000000
254.000000,-12834.528128,-17809.467651,2696.827376,-31029.049281,10519.133272,2835.631709,-22383.372174,-28431.486002,3054.790563,-1841.694336,6210.096921,188.291095,7911.712874,7015.586736,-11106.045378,-5283.930037,0.002000,-0.018000,1.002000,192.000000,0.000000,0.000000,0.000000,0.000000,0.000000,0.000000,0.000000,0.000000,0.000000,1772722291.245982,0.000000
0.000000,-12815.752663,-17788.479363,2708.360876,-31011.637272,10534.444217,2843.633633,-22367.927118,-28415.660967,3072.917828,-1829.445580,6232.113389,205.434883,7932.120017,7034.026925,-11091.628503,-5276.732776,0.006000,-0.014000,1.010000,192.000000,0.000000,24.000000,127.500000,72.000000,15.500000,72.000000,0.000000,0.000000,0.000000,1772722291.245993,0.000000
2.000000,-12829.923669,-17804.572619,2691.418253,-31026.523534,10510.617257,2820.879557,-22382.723973,-28431.173078,3072.336682,-1828.327993,6226.391342,204.138482,7925.414494,7033.334021,-11102.111471,-5270.451936,0.006000,-0.014000,1.010000,192.000000,0.000000,0.000000,0.000000,0.000000,0.000000,0.000000,0.000000,0.000000,0.000000,1772722291.246005,0.000000
4.000000,-12812.243439,-17785.663043,2711.445416,-31005.602301,10528.252784,2846.047621,-22364.037915,-28405.557979,3073.409566,-1826.249281,6224.044409,206.753636,7921.011200,7023.633364,-11113.488509,-5263.411136,0.006000,-0.014000,1.010000,192.000000,0.000000,0.000000,0.000000,0.000000,0.000000,0.000000,0.000000,0.000000,0.000000,1772722291.246017,0.000000
6.000000,-12814.791538,-17788.457011,2707.869137,-31013.827743,10522.486034,2838.626842,-22369.648203,-28406.586159,3081.791470,-1817.576804,6240.316479,222.802189,7937.149160,7037.290280,-11098.803413,-5257.331462,0.006000,-0.014000,1.010000,192.000000,0.000000,0.000000,0.000000,0.000000,0.000000,0.000000,0.000000,0.000000,0.000000,1772722291.246028,0.000000
8.000000,-12818.636038,-17793.083822,2708.494986,-31024.243656,10512.226583,2830.915490,-22373.403296,-28410.385956,3078.125784,-1826.629260,6229.766456,206.105436,7925.481549,7024.125102,-11123.591497,-5258.940787,0.006000,-0.014000,1.010000,192.000000,0.000000,0.000000,0.000000,0.000000,0.000000,0.000000,0.000000,0.000000,0.000000,1772722291.246039,0.000000
10.000000,-12809.538878,-17784.076069,2724.767056,-31010.229112,10530.599717,2844.013613,-22359.321697,-28400.640595,3086.753558,-1821.935394,6247.178465,217.594232,7947.945052,7041.313594,-11102.357340,-5265.579255,0.010000,-0.010000,1.010000,192.000000,0.000000,40.000000,127.500000,88.000000,15.500000,72.000000,0.000000,0.000000,0.000000,1772722291.246050,0.000000
12.000000,-12826.928535,-17802.672720,2706.840957,-31024.601284,10512.628914,2830.669621,-22377.001927,-28419.438412,3079.288075,-1829.400877,6237.053125,210.799302,7942.915910,7030.696515,-11109.711064,-5269.580218,0.010000,-0.010000,1.010000,192.000000,0.000000,0.000000,0.000000,0.000000,0.000000,0.000000,0.000000,0.000000,0.000000,1772722291.246061,0.000000
14.000000,-12815.216221,-17792.145049,2722.040143,-31014.453592,10537.238185,2840.124409,-22365.691944,-28407.100249,3077.455232,-1828.931490,6229.498235,205.233718,7937.484436,7027.924899,-11108.526422,-5275.972816,0.010000,-0.010000,1.010000,192.000000,0.000000,0.000000,0.000000,0.000000,0.000000,0.000000,0.000000,0.000000,0.000000,1772722291.246072,0.000000
16.000000,-12824.291029,-17803.320921,2712.384190,-31028.624598,10544.010764,2829.216758,-22377.761886,-28418.164363,3084.876011,-1829.914967,6241.098790,208.295907,7953.465933,7037.402038,-11086.107622,-5286.433433,0.010000,-0.010000,1.010000,192.000000,0.000000,0.000000,0.000000,0.000000,0.000000,0.000000,0.000000,0.000000,0.000000,1772722291.246083,0.000000
18.000000,-12833.477596,-17811.926342,2704.270506,-31036.514763,10546.290642,2829.216758,-22384.333299,-28430.591933,3071.867296,-1839.079182,6219.261136,188.961648,7936.165683,7021.599355,-11096.545887,-5285.941694,0.010000,-0.010000,1.010000,192.000000,0.000000,0.000000,0.000000,0.000000,0.000000,0.000000,0.000000,0.000000,0.000000,1772722291.246094,0.000000
20.000000,-12829.253117,-17802.650369,2718.039181,-31021.762612,10562.495656,2837.039868,-22367.636546,-28417.538514,3071.844944,-1830.518464,6225.318459,200.025761,7949.844950,7037.334983,-11073.545942,-5288.445090,0.011000,-0.011000,1.012000,192.000000,0.000000,48.000000,127.500000,80.000000,15.500000,88.000000,0.000000,0.000000,0.000000,1772722291.246106,0.000000
22.000000,-12843.558233,-17810.719348,2701.275373,-31036.268894,10536.478226,2822.667697,-22382.589863,-28430.547229,3049.023813,-1835.771124,6212.801482,197.589421,7926.576784,7029.020134,-11086.577009,-5291.082596,0.011000,-0.011000,1.012000,192.000000,0.000000,0.000000,0.000000,0.000000,0.000000,0.000000,0.000000,0.000000,0.000000,1772722291.246117,0.000000
24.000000,-12814.232744,-17783.919607,2720.475521,-31014.878275,10552.124447,2837.732773,-22365.915461,-28404.708613,3058.836229,-1835.726420,6219.171729,201.590383,7929.102532,7020.861747,-11092.679035,-5282.566581,0.011000,-0.011000,1.012000,192.000000,0.000000,0.000000,0.000000,0.000000,0.000000,0.000000,0.000000,0.000000,0.000000,1772722291.246128,0.000000
26.000000,-12806.946076,-17778.689298,2712.495948,-31014.319481,10535.807673,2837.777476,-22368.240043,-28401.802886,3081.389139,-1816.302754,6246.194988,225.998488,7945.396953,7040.352469,-11083.358357,-5270.518991,0.011000,-0.011000,1.012000,192.000000,0.000000,0.000000,0.000000,0.000000,0.000000,0.000000,0.000000,0.000000,0.000000,1772722291.246141,0.000000
28.000000,-12806.364930,-17781.796191,2706.304515,-31014.140667,10526.039961,2835.475246,-22368.038877,-28400.640595,3079.064557,-1824.595252,6234.035639,214.532043,7928.521386,7028.438989,-11113.913192,-5262.673529,0.011000,-0.011000,1.012000,192.000000,0.000000,0.000000,0.000000,0.000000,0.000000,0.000000,0.000000,0.000000,0.000000,1772722291.246152,0.000000
30.000000,-12804.353273,-17771.648499,2715.379323,-30993.174731,10535.986487,2859.905703,-22354.046685,-28389.375316,3085.501860,-1810.670115,6246.932596,231.742887,7945.978099,7048.555559,-11102.402044,-5262.494715,0.010500,-0.011500,1.012000,192.000000,0.000000,40.000000,127.500000,80.000000,15.500000,80.000000,0.000000,0.000000,0.000000,1772722291.246164,0.000000
32.000000,-12824.134567,-17792.100345,2697.564983,-31008.396269,10515.914621,2842.940729,-22372.978613,-28412.151743,3069.118031,-1813.642897,6231.688706,224.769142,7929.862491,7045.247501,-11113.242640,-5256.504447,0.010500,-0.011500,1.012000,192.000000,0.000000,0.000000,0.000000,0.000000,0.000000,0.000000,0.000000,0.000000,0.000000,1772722291.246175,0.000000
34.000000,-12810.857631,-17781.080935,2718.463864,-31000.461400,10536.053543,2852.686090,-22361.355705,-28402.585197,3067.441650,-1816.190996,6227.173654,216.163721,7931.538872,7043.593471,-11113.957896,-5258.381994,0.010500,-0.011500,1.012000,192.000000,0.000000,0.000000,0.000000,0.000000,0.000000,0.000000,0.000000,0.000000,0.000000,1772722291.246186,0.000000
36.000000,-12818.345465,-17791.809772,2715.289916,-31017.426374,10532.276098,2841.040831,-22368.977650,-28412.866999,3078.617523,-1816.772141,6242.752819,221.326974,7949.979061,7045.985108,-11090.779137,-5268.037947,0.010500,-0.011500,1.012000,192.000000,0.000000,0.000000,0.000000,0.000000,0.000000,0.000000,0.000000,0.000000,0.000000,1772722291.246198,0.000000
38.000000,-12824.179271,-17797.822392,2708.115006,-31029.473964,10528.185729,2837.419848,-22374.699697,-28417.963197,3070.168563,-1832.910101,6225.474921,200.629258,7931.270651,7028.573099,-11104.436052,-5274.117622,0.010500,-0.011500,1.012000,192.000000,0.000000,0.000000,0.000000,0.000000,0.000000,0.000000,0.000000,0.000000,0.000000,1772722291.246209,0.000000
40.000000,-12817.607858,-17789.306377,2712.674762,-31019.102754,10541.015630,2846.807581,-22364.306136,-28407.949615,3071.375557,-1829.289118,6234.080343,208.161796,7946.715706,7033.266966,-11084.185372,-5275.548133,0.008250,-0.013750,1.011000,192.000000,0.000000,24.000000,127.500000,64.000000,15.500000,72.000000,0.000000,0.000000,0.000000,1772722291.246220,0.000000
42.000000,-12835.891585,-17807.008959,2684.176288,-31035.464231,10521.659019,2831.518988,-22384.333299,-28424.713424,3059.976168,-1836.016993,6223.329153,200.226927,7925.079218,7023.946288,-11090.443860,-5275.637540,0.008250,-0.013750,1.011000,192.000000,0.000000,0.000000,0.000000,0.000000,0.000000,0.000000,0.000000,0.000000,0.000000,1772722291.246231,0.000000
44.000000,-12824.603954,-17792.592084,2700.358951,-31015.973510,10554.449028,2848.193389,-22368.843540,-28410.229493,3049.292034,-1836.128752,6214.835491,197.634124,7912.785758,7021.778169,-11092.656683,-5272.240075,0.008250,-0.013750,1.011000,192.000000,0.000000,0.000000,0.000000,0.000000,0.000000,0.000000,0.000000,0.000000,0.000000,1772722291.246255,0.000000
46.000000,-12829.566041,-17799.454069,2699.576640,-31017.359318,10563.702651,2846.785229,-22373.760924,-28423.640540,3063.261874,-1828.417400,6229.051200,210.888709,7940.166645,7044.085210,-11065.566369,-5269.982549,0.008250,-0.013750,1.011000,192.000000,0.000000,0.000000,0.000000,0.000000,0.000000,0.000000,0.000000,0.000000,0.000000,1772722291.246266,0.000000
48.000000,-12828.359047,-17800.236380,2700.515413,-31019.572141,10556.617148,2839.006822,-22378.074810,-28426.680377,3063.217171,-1832.060734,6215.707209,198.975229,7931.695334,7030.115370,-11087.359320,-5263.925226,0.008250,-0.013750,1.011000,192.000000,0.000000,0.000000,0.000000,0.000000,0.000000,0.000000,0.000000,0.000000,0.000000,1772722291.246278,0.000000
50.000000,-12806.521393,-17773.682508,2722.531882,-31006.161094,10561.311014,2845.868808,-22357.667668,-28399.523008,3076.091775,-1815.587499,6237.589566,218.197729,7950.560206,7053.048259,-11077.658663,-5260.550113,0.007125,-0.016875,1.007500,192.000000,0.000000,24.000000,127.500000,48.000000,15.500000,48.000000,0.000000,0.000000,0.000000,1772722291.246305,0.000000
52.000000,-12811.349369,-17775.984737,2708.383227,-31024.936560,10529.795054,2815.515139,-22369.134112,-28406.273235,3072.336682,-1812.458254,6237.164883,220.790532,7939.518444,7049.561387,-11097.216439,-5273.938808,0.007125,-0.016875,1.007500,192.000000,0.000000,0.000000,0.000000,0.000000,0.000000,0.000000,0.000000,0.000000,0.000000,1772722291.246317,0.000000
54.000000,-12801.536954,-17771.000298,2722.911861,-31011.681975,10530.487958,2822.980621,-22352.996153,-28392.415153,3070.503839,-1810.334839,6233.521549,216.878976,7934.645764,7032.439951,-11112.527384,-5288.042758,0.007125,-0.016875,1.007500,192.000000,0.000000,0.000000,0.000000,0.000000,0.000000,0.000000,0.000000,0.000000,0.000000,1772722291.246328,0.000000
56.000000,-12805.984951,-17783.718441,2717.703905,-31013.336004,10519.535603,2816.096284,-22357.175929,-28394.382107,3076.471755,-1818.493225,6248.094886,222.198692,7948.168570,7050.388402,-11101.999712,-5293.965971,0.007125,-0.016875,1.007500,192.000000,0.000000,0.000000,0.000000,0.000000,0.000000,0.000000,0.000000,0.000000,0.000000,1772722291.246340,0.000000
58.000000,-12814.433910,-17793.486153,2714.149977,-31017.001691,10510.170223,2814.598717,-22363.568528,-28401.557017,3072.649607,-1830.227891,6237.120180,210.955764,7939.160817,7025.108579,-11124.530271,-5287.998055,0.007125,-0.016875,1.007500,192.000000,0.000000,0.000000,0.000000,0.000000,0.000000,0.000000,0.000000,0.000000,0.000000,1772722291.246353,0.000000
60.000000,-12805.873192,-17781.371508,2727.359858,-31004.305900,10527.202252,2825.774589,-22355.879528,-28398.383069,3081.769119,-1830.563167,6248.854846,220.008221,7956.170494,7032.931689,-11104.190183,-5284.153555,0.008563,-0.017438,1.002750,192.000000,0.000000,40.000000,127.500000,56.000000,15.500000,24.000000,0.000000,0.000000,0.000000,1772722291.246365,0.000000
62.000000,-12829.074303,-17804.840839,2702.258849,-31023.081365,10504.448176,2806.015647,-22376.241967,-28427.440337,3073.677787,-1837.827484,6231.554595,210.218157,7939.384334,7025.846186,-11113.197936,-5281.136069,0.008563,-0.017438,1.002750,192.000000,0.000000,0.000000,0.000000,0.000000,0.000000,0.000000,0.000000,0.000000,0.000000,1772722291.246377,0.000000
64.000000,-12829.141358,-17805.131412,2705.321038,-31011.190237,10515.065255,2827.115694,-22366.742476,-28423.886409,3058.858580,-1847.952825,6212.242688,194.638991,7920.787683,7017.754855,-11119.232907,-5276.844534,0.008563,-0.017438,1.002750,192.000000,0.000000,0.000000,0.000000,0.000000,0.000000,0.000000,0.000000,0.000000,0.000000,1772722291.246387,0.000000
66.000000,-12840.786617,-17817.849555,2684.556268,-31022.857848,10512.248935,2821.863034,-22379.460618,-28434.771709,3052.153057,-1851.484400,6213.717903,194.862508,7922.262898,7028.282527,-11102.267933,-5274.631712,0.008563,-0.017438,1.002750,192.000000,0.000000,0.000000,0.000000,0.000000,0.000000,0.000000,0.000000,0.000000,0.000000,1772722291.246399,0.000000
68.000000,-12838.417332,-17815.144994,2679.393015,-31029.161039,10524.855319,2838.246863,-22386.099087,-28437.453918,3041.826551,-1856.446487,6192.863726,178.232810,7907.510746,7024.616840,-11108.593477,-5261.622997,0.008563,-0.017438,1.002750,192.000000,0.000000,0.000000,0.000000,0.000000,0.000000,0.000000,0.000000,0.000000,0.000000,1772722291.246410,0.000000
70.000000,-12823.307553,-17799.096441,2699.710751,-31018.812182,10555.231339,2864.197238,-22375.437304,-28425.831011,3058.143325,-1845.292967,6209.918107,187.531136,7929.393104,7038.363163,-11071.377822,-5254.716307,0.010281,-0.017719,1.003375,192.000000,0.000000,48.000000,127.500000,56.000000,15.500000,48.000000,0.000000,0.000000,0.000000,1772722291.246422,0.000000
72.000000,-12827.062646,-17806.293703,2692.245268,-31033.251409,10548.816389,2859.637482,-22391.888188,-28439.130299,3063.887723,-1838.542740,6209.269906,186.659418,7940.345459,7030.517701,-11073.076555,-5250.871807,0.010281,-0.017719,1.003375,192.000000,0.000000,0.000000,0.000000,0.000000,0.000000,0.000000,0.000000,0.000000,0.000000,1772722291.246433,0.000000
74.000000,-12802.989817,-17779.158685,2722.464826,-31017.068746,10579.907665,2866.030081,-22371.615156,-28414.342214,3074.996540,-1828.998545,6218.478825,191.599153,7947.140389,7045.515722,-11074.775287,-5251.721174,0.010281,-0.017719,1.003375,192.000000,0.000000,0.000000,0.000000,0.000000,0.000000,0.000000,0.000000,0.000000,0.000000,1772722291.726374,0.000000
76.000000,-12794.607913,-17770.977947,2728.700963,-31016.688766,10571.346947,2851.523799,-22365.982517,-28401.154685,3094.375502,-1813.642897,6246.507912,218.980040,7970.408555,7061.877198,-11059.687860,-5272.038909,0.010281,-0.017719,1.003375,192.000000,0.000000,0.000000,0.000000,0.000000,0.000000,0.000000,0.000000,0.000000,0.000000,1772722291.726468,0.000000
78.000000,-12792.618608,-17769.010993,2725.214091,-31017.895760,10548.525816,2824.075857,-22363.345011,-28393.108057,3090.776872,-1817.018010,6238.885968,217.616584,7956.572826,7044.867521,-11094.377767,-5286.142860,0.010281,-0.017719,1.003375,192.000000,0.000000,0.000000,0.000000,0.000000,0.000000,0.000000,0.000000,0.000000,0.000000,1772722291.726546,0.000000
80.000000,-12775.273654,-17751.576632,2740.189760,-30998.896777,10545.262461,2821.348944,-22342.781406,-28368.968173,3105.596078,-1802.064693,6263.942273,239.543645,7975.437698,7053.584701,-11092.679035,-5302.414930,0.010141,-0.017859,1.003688,192.000000,0.000000,40.000000,127.500000,56.000000,15.500000,48.000000,0.000000,0.000000,0.000000,1772722291.726617,0.000000
82.000000,-12791.948055,-17769.860359,2716.139283,-31012.218417,10508.180917,2805.747426,-22358.673496,-28387.721287,3099.225831,-1799.538946,6262.869389,240.683584,7968.083974,7050.902492,-11112.214459,-5299.151575,0.010141,-0.017859,1.003688,192.000000,0.000000,0.000000,0.000000,0.000000,0.000000,0.000000,0.000000,0.000000,0.000000,1772722291.726688,0.000000
84.000000,-12789.757584,-17766.194673,2720.855501,-30996.527493,10507.108034,2824.165264,-22349.933964,-28385.486112,3087.871145,-1808.323182,6248.765439,228.524235,7939.518444,7045.269852,-11127.950088,-5288.556849,0.010141,-0.017859,1.003688,192.000000,0.000000,0.000000,0.000000,0.000000,0.000000,0.000000,0.000000,0.000000,0.000000,1772722291.726760,0.000000
86.000000,-12810.097672,-17786.870037,2707.489158,-31006.384612,10492.445289,2808.720208,-22360.662801,-28405.155647,3084.227810,-1811.295964,6252.140552,230.647651,7941.798322,7057.742126,-11117.712989,-5286.567543,0.010141,-0.017859,1.003688,192.000000,0.000000,0.000000,0.000000,0.000000,0.000000,0.000000,0.000000,0.000000,0.000000,1772722291.726830,0.000000
88.000000,-12830.169538,-17806.561924,2696.134471,-31016.264083,10483.661054,2801.590002,-22370.296403,-28421.897104,3060.624368,-1837.134580,6220.490482,199.891651,7916.160872,7018.894794,-11134.253279,-5280.152593,0.010141,-0.017859,1.003688,192.000000,0.000000,0.000000,0.000000,0.000000,0.000000,0.000000,0.000000,0.000000,0.000000,1772722291.726877,0.000000
90.000000,-12828.359047,-17802.963293,2704.114044,-31000.215530,10506.415129,2834.312956,-22360.394580,-28419.214895,3056.109316,-1842.163723,6218.523528,199.221098,7927.493206,7025.667372,-11112.125052,-5265.221627,0.010141,-0.017859,1.003688,192.000000,0.000000,0.000000,0.000000,0.000000,0.000000,0.000000,0.000000,0.000000,0.000000,1772722291.726896,0.000000
92.000000,-12848.788541,-17825.963238,2684.891544,-31017.940464,10502.503574,2835.810523,-22380.645261,-28449.300343,3048.465019,-1850.970310,6200.932706,190.235697,7921.949973,7034.205739,-11107.520593,-5248.793095,0.010000,-0.016000,1.002000,192.000000,0.000000,40.000000,127.500000,64.000000,15.500000,40.000000,0.000000,0.000000,0.000000,1772722291.726907,0.000000
94.000000,-12843.334716,-17817.179002,2697.296762,-31008.485676,10530.510310,2852.887255,-22373.559758,-28444.181793,3042.854731,-1854.211313,6187.320493,177.897534,7919.334819,7028.036657,-11101.910305,-5240.858226,0.010000,-0.016000,1.002000,192.000000,0.000000,0.000000,0.000000,0.000000,0.000000,0.000000,0.000000,0.000000,0.000000,1772722291.726919,0.000000
96.000000,-12839.557271,-17814.474441,2694.033407,-31019.482734,10538.333421,2844.617110,-22381.695793,-28442.885392,3058.255083,-1843.348365,6208.509947,191.353284,7943.161779,7041.715925,-11076.116392,-5244.680374,0.010000,-0.016000,1.002000,192.000000,0.000000,0.000000,0.000000,0.000000,0.000000,0.000000,0.000000,0.000000,0.000000,1772722291.726931,0.000000
98.000000,-12843.960565,-17822.856346,2690.166556,-31031.329159,10536.947612,2850.741488,-22387.283729,-28447.668665,3053.717679,-1853.294892,6198.250496,171.639046,7927.984944,7026.852015,-11091.293227,-5245.775610,0.010000,-0.016000,1.002000,192.000000,0.000000,0.000000,0.000000,0.000000,0.000000,0.000000,0.000000,0.000000,0.000000,1772722291.726942,0.000000
100.000000,-12829.051951,-17806.427813,2710.707809,-31018.208685,10559.008784,2874.791965,-22370.765790,-28432.380072,3062.703080,-1846.209389,6213.606145,181.026778,7951.767200,7042.475884,-11071.310767,-5250.022441,0.010000,-0.016000,1.002000,192.000000,0.000000,0.000000,0.000000,0.000000,0.000000,0.000000,0.000000,0.000000,0.000000,1772722291.726954,0.000000
102.000000,-12828.850785,-17807.992435,2707.176233,-31025.696519,10556.013650,2854.742450,-22379.259453,-28437.699787,3068.335720,-1846.812886,6211.840357,179.551563,7953.287119,7040.397172,-11075.378785,-5248.390764,0.012000,-0.018000,1.002000,192.000000,0.000000,48.000000,127.500000,56.000000,15.500000,40.000000,0.000000,0.000000,0.000000,1772722291.726966,0.000000
104.000000,-12800.329959,-17779.806886,2729.773847,-31001.266062,10581.338177,2870.567485,-22357.242984,-28408.731927,3086.172412,-1831.792513,6224.133816,190.883898,7957.332785,7046.096867,-11081.547866,-5252.592892,0.012000,-0.018000,1.002000,192.000000,0.000000,0.000000,0.000000,0.000000,0.000000,0.000000,0.000000,0.000000,0.000000,1772722291.726977,0.000000
106.000000,-12798.653579,-17777.124676,2718.240347,-31003.434182,10570.698747,2844.661813,-22358.449979,-28401.445258,3100.075197,-1816.794493,6251.022965,216.119017,7970.632073,7063.687690,-11069.254407,-5265.266331,0.012000,-0.018000,1.002000,192.000000,0.000000,0.000000,0.000000,0.000000,0.000000,0.000000,0.000000,0.000000,0.000000,1772722291.726989,0.000000
108.000000,-12802.766300,-17779.382203,2710.596050,-31009.960891,10538.713400,2817.057409,-22358.092351,-28393.666851,3082.909057,-1820.571938,6238.237767,211.715723,7945.553415,7041.179483,-11103.117299,-5274.542305,0.012000,-0.018000,1.002000,192.000000,0.000000,0.000000,0.000000,0.000000,0.000000,0.000000,0.000000,0.000000,0.000000,1772722291.727000,0.000000
110.000000,-12796.977198,-17770.419153,2724.141207,-31001.869560,10539.562766,2815.492787,-22346.290630,-28383.496807,3084.384273,-1818.202653,6252.274663,225.953785,7953.711802,7048.533207,-11094.847154,-5286.545192,0.012000,-0.018000,1.002000,192.000000,0.000000,0.000000,0.000000,0.000000,0.000000,0.000000,0.000000,0.000000,0.000000,1772722291.727011,0.000000
112.000000,-12816.602029,-17792.525028,2704.784597,-31020.913246,10508.225621,2794.236278,-22367.033049,-28407.033194,3075.734148,-1829.512635,6237.075476,214.330878,7939.518444,7026.919070,-11108.794643,-5287.975703,0.010000,-0.016000,1.002000,192.000000,0.000000,40.000000,127.500000,64.000000,15.500000,40.000000,0.000000,0.000000,0.000000,1772722291.727023,0.000000
114.000000,-12809.605933,-17786.043022,2716.876890,-31010.653795,10520.742598,2812.274136,-22355.924232,-28398.852455,3068.223961,-1839.280348,6224.424389,201.858604,7931.337706,7012.233974,-11116.863622,-5281.650160,0.010000,-0.016000,1.002000,192.000000,0.000000,0.000000,0.000000,0.000000,0.000000,0.000000,0.000000,0.000000,0.000000,1772722291.727035,0.000000
116.000000,-12817.406692,-17795.363700,2704.002285,-31016.733470,10517.613353,2815.895118,-22365.468426,-28410.274197,3077.790508,-1838.207464,6237.164883,209.614660,7944.435828,7031.612936,-11097.596419,-5269.781383,0.010000,-0.016000,1.002000,192.000000,0.000000,0.000000,0.000000,0.000000,0.000000,0.000000,0.000000,0.000000,0.000000,1772722291.727046,0.000000
118.000000,-12829.409579,-17804.170287,2692.044102,-31021.293225,10519.580307,2831.675450,-22375.504360,-28425.540438,3063.843019,-1849.808019,6214.008476,188.447558,7932.812921,7020.749989,-11112.750901,-5258.136124,0.010000,-0.016000,1.002000,192.000000,0.000000,0.000000,0.000000,0.000000,0.000000,0.000000,0.000000,0.000000,0.000000,1772722291.727058,0.000000
120.000000,-12814.255096,-17785.506581,2703.979934,-31005.736411,10547.631746,2867.862924,-22367.323621,-28416.085650,3072.135517,-1833.737115,6224.603203,200.383389,7947.140389,7043.414658,-11086.129974,-5249.441296,0.010000,-0.016000,1.002000,192.000000,0.000000,0.000000,0.000000,0.000000,0.000000,0.000000,0.000000,0.000000,0.000000,1772722291.727070,0.000000
122.000000,-12821.921745,-17794.514334,2692.267620,-31019.907417,10545.508331,2859.928055,-22384.378002,-28435.464613,3073.454270,-1830.987851,6218.031790,196.382427,7943.184131,7047.437972,-11086.331139,-5247.429639,0.010000,-0.018000,1.004000,192.000000,0.000000,40.000000,127.500000,56.000000,15.500000,48.000000,0.000000,0.000000,0.000000,1772722291.727085,0.000000
124.000000,-12810.187079,-17784.344290,2714.015867,-31013.827743,10573.403308,2861.671491,-22372.911557,-28427.149764,3075.264761,-1824.997583,6209.851052,190.325104,7945.218139,7048.108524,-11083.201895,-5258.784325,0.010000,-0.018000,1.004000,192.000000,0.000000,0.000000,0.000000,0.000000,0.000000,0.000000,0.000000,0.000000,0.000000,1772722291.727096,0.000000
126.000000,-12804.085053,-17780.745659,2714.060570,-31024.154249,10572.866866,2848.819238,-22374.856159,-28425.026348,3089.815747,-1815.788664,6228.268889,200.808072,7968.240436,7058.636195,-11065.476962,-5273.782346,0.010000,-0.018000,1.004000,192.000000,0.000000,0.000000,0.000000,0.000000,0.000000,0.000000,0.000000,0.000000,0.000000,1772722291.727107,0.000000
128.000000,-12798.832393,-17775.828275,2711.914803,-31029.563371,10562.093325,2838.224511,-22374.185607,-28415.660967,3086.418281,-1821.175435,6222.144511,195.488357,7955.455238,7037.178521,-11090.980302,-5279.750261,0.010000,-0.018000,1.004000,192.000000,0.000000,0.000000,0.000000,0.000000,0.000000,0.000000,0.000000,0.000000,0.000000,1772722291.727119,0.000000
130.000000,-12776.391241,-17752.761275,2729.572681,-31010.095001,10568.575331,2843.477171,-22352.549118,-28389.062391,3100.410473,-1808.122016,6245.658546,219.628241,7971.950826,7048.063820,-11079.603264,-5292.669570,0.010000,-0.018000,1.004000,192.000000,0.000000,0.000000,0.000000,0.000000,0.000000,0.000000,0.000000,0.000000,0.000000,1772722291.727130,0.000000
132.000000,-12791.322206,-17770.262691,2710.327829,-31023.506048,10536.098246,2822.868862,-22365.893110,-28403.591025,3100.164604,-1811.541833,6243.758648,218.376543,7956.259901,7039.748971,-11094.511878,-5289.987360,0.008000,-0.018000,1.002000,192.000000,0.000000,32.000000,127.500000,56.000000,15.500000,40.000000,0.000000,0.000000,0.000000,1772722291.727141,0.000000
134.000000,-12781.018052,-17757.321031,2724.431780,-31010.877313,10541.730886,2829.082647,-22353.398484,-28389.218854,3096.364808,-1813.441731,6241.501122,214.532043,7950.135523,7035.658602,-11108.772291,-5288.735663,0.008000,-0.018000,1.002000,192.000000,0.000000,0.000000,0.000000,0.000000,0.000000,0.000000,0.000000,0.000000,0.000000,1772722291.727152,0.000000
136.000000,-12788.058852,-17766.306432,2716.832187,-31017.761650,10525.458816,2821.661868,-22361.288650,-28396.907854,3103.003276,-1812.949993,6258.354337,223.316279,7961.244340,7053.204722,-11095.651817,-5287.796889,0.008000,-0.018000,1.002000,192.000000,0.000000,0.000000,0.000000,0.000000,0.000000,0.000000,0.000000,0.000000,0.000000,1772722291.727164,0.000000
138.000000,-12797.603047,-17777.325842,2707.623268,-31021.360281,10513.947667,2820.365467,-22367.703601,-28405.893255,3086.261819,-1831.457237,6238.684802,200.495148,7932.522348,7018.537166,-11118.964686,-5278.655026,0.008000,-0.018000,1.002000,192.000000,0.000000,0.000000,0.000000,0.000000,0.000000,0.000000,0.000000,0.000000,0.000000,1772722291.727176,0.000000
140.000000,-12804.956771,-17783.584331,2711.467768,-31007.278682,10524.341229,2836.212854,-22357.242984,-28407.837857,3084.361921,-1828.395048,6242.439895,205.993677,7938.311450,7027.053181,-11101.686788,-5272.754165,0.008000,-0.018000,1.002000,192.000000,0.000000,0.000000,0.000000,0.000000,0.000000,0.000000,0.000000,0.000000,0.000000,1772722291.727187,0.000000
142.000000,-12829.901317,-17808.908857,2687.573753,-31024.511877,10502.995313,2818.778493,-22378.611252,-28432.447127,3065.072365,-1844.890636,6218.657639,189.162813,7923.715761,7028.461340,-11109.286381,-5263.858171,0.004000,-0.020000,1.004000,192.000000,0.000000,16.000000,127.500000,48.000000,15.500000,48.000000,0.000000,0.000000,0.000000,1772722291.727199,0.000000
144.000000,-12819.261887,-17796.101307,2703.555251,-31006.764592,10525.436464,2851.568502,-22369.223519,-28424.735776,3059.506781,-1850.366813,6203.547860,182.189069,7916.294982,7018.581869,-11110.716893,-5249.217778,0.004000,-0.020000,1.004000,192.000000,0.000000,0.000000,0.000000,0.000000,0.000000,0.000000,0.000000,0.000000,0.000000,1772722291.727210,0.000000
146.000000,-12822.547593,-17796.704805,2699.822509,-31008.820952,10520.697894,2853.647215,-22374.252662,-28432.357720,3069.788583,-1838.743906,6213.695552,194.817805,7935.629241,7038.027887,-11088.074575,-5242.691069,0.004000,-0.020000,1.004000,192.000000,0.000000,0.000000,0.000000,0.000000,0.000000,0.000000,0.000000,0.000000,0.000000,1772722291.727221,0.000000
148.000000,-12821.787634,-17796.995377,2699.040198,-31018.029871,10519.021513,2850.875598,-22377.739534,-28434.659950,3063.753612,-1840.129714,6200.038636,181.920848,7920.295944,7034.630422,-11108.124090,-5250.536531,0.004000,-0.020000,1.004000,192.000000,0.000000,0.000000,0.000000,0.000000,0.000000,0.000000,0.000000,0.000000,0.000000,1772722291.727233,0.000000
150.000000,-12798.206544,-17773.257825,2722.062495,-31009.402097,10539.048676,2858.698709,-22355.767769,-28408.508409,3081.567953,-1823.097685,6228.224185,199.534023,7947.855645,7053.607053,-11086.755823,-5266.294511,0.004000,-0.020000,1.004000,192.000000,0.000000,0.000000,0.000000,0.000000,0.000000,0.000000,0.000000,0.000000,0.000000,1772722291.727245,0.000000
152.000000,-12794.920837,-17773.436639,2714.507605,-31025.294188,10527.202252,2827.406267,-22366.429551,-28407.189656,3087.714683,-1819.186129,6235.220282,206.373657,7951.521331,7048.019117,-11096.121203,-5280.465517,0.002000,-0.022000,1.008000,192.000000,0.000000,8.000000,127.500000,40.000000,15.500000,64.000000,0.000000,0.000000,0.000000,1772722291.727257,0.000000
154.000000,-12781.576846,-17755.935223,2732.858388,-31008.060993,10543.519025,2838.000993,-22351.275069,-28385.553168,3095.180165,-1809.843100,6240.294127,215.940203,7962.630148,7038.564329,-11096.747052,-5287.506317,0.002000,-0.022000,1.008000,192.000000,0.000000,0.000000,0.000000,0.000000,0.000000,0.000000,0.000000,0.000000,0.000000,1772722291.727270,0.000000
156.000000,-12790.048157,-17764.428886,2718.419161,-31013.313653,10522.977772,2823.315897,-22358.248813,-28388.481246,3098.778796,-1806.132711,6250.374764,231.206445,7955.589349,7044.129913,-11088.946293,-5292.446052,0.002000,-0.022000,1.008000,192.000000,0.000000,0.000000,0.000000,0.000000,0.000000,0.000000,0.000000,0.000000,0.000000,1772722291.727281,0.000000
158.000000,-12798.139488,-17773.615452,2705.969239,-31020.645025,10509.209098,2811.000086,-22364.373191,-28396.930205,3084.585438,-1818.873205,6233.700363,213.839139,7932.052962,7027.544919,-11115.701332,-5291.931962,0.002000,-0.022000,1.008000,192.000000,0.000000,0.000000,0.000000,0.000000,0.000000,0.000000,0.000000,0.000000,0.000000,1772722291.727292,0.000000
160.000000,-12791.031634,-17767.245205,2712.831225,-31013.224246,10521.837833,2822.622993,-22355.141920,-28394.113886,3087.692331,-1818.672039,6246.150285,215.068485,7939.160817,7044.688707,-11101.150346,-5292.781328,0.002000,-0.022000,1.008000,192.000000,0.000000,0.000000,0.000000,0.000000,0.000000,0.000000,0.000000,0.000000,0.000000,1772722291.727304,0.000000
162.000000,-12805.090881,-17782.019708,2690.814756,-31028.222266,10503.844679,2810.128368,-22374.990270,-28412.665834,3083.333741,-1830.719630,6237.701325,201.612735,7939.272575,7026.539090,-11108.504070,-5284.421776,0.008000,-0.018000,1.008000,192.000000,0.000000,32.000000,127.500000,56.000000,15.500000,64.000000,0.000000,0.000000,0.000000,1772722291.727315,0.000000
164.000000,-12792.037462,-17765.166493,2708.003248,-31004.238844,10526.598755,2827.786246,-22359.858139,-28395.432639,3081.567953,-1824.863473,6230.079380,201.970363,7928.543738,7031.434122,-11116.729512,-5273.804697,0.008000,-0.018000,1.008000,192.000000,0.000000,0.000000,0.000000,0.000000,0.000000,0.000000,0.000000,0.000000,0.000000,1772722291.727327,0.000000
166.000000,-12794.183230,-17767.401668,2704.963410,-31005.065859,10524.274173,2829.127351,-22364.440246,-28397.131371,3092.408549,-1814.134635,6245.636194,220.879939,7947.050982,7047.326213,-11095.070671,-5266.138049,0.008000,-0.018000,1.008000,192.000000,0.000000,0.000000,0.000000,0.000000,0.000000,0.000000,0.000000,0.000000,0.000000,1772722291.727349,0.000000
168.000000,-12797.401881,-17771.894368,2701.521242,-31008.329214,10518.350961,2836.883406,-22368.463560,-28402.115810,3080.428014,-1822.762409,6231.465188,208.899404,7926.062694,7040.039544,-11110.985113,-5252.950520,0.008000,-0.018000,1.008000,192.000000,0.000000,0.000000,0.000000,0.000000,0.000000,0.000000,0.000000,0.000000,0.000000,1772722291.727361,0.000000
170.000000,-12782.962654,-17755.354077,2717.390980,-30989.866673,10535.405342,2863.079651,-22355.097217,-28390.761124,3094.554316,-1812.704124,6246.977299,219.650593,7953.175360,7060.178466,-11090.376805,-5240.858226,0.008000,-0.018000,1.008000,192.000000,0.000000,0.000000,0.000000,0.000000,0.000000,0.000000,0.000000,0.000000,0.000000,1772722291.727372,0.000000
172.000000,-12795.881962,-17767.200502,2698.257887,-31003.098905,10513.746502,2855.748279,-22372.978613,-28412.956406,3090.709816,-1809.507824,6236.539034,216.878976,7954.449410,7062.771268,-11102.536154,-5231.895176,0.008000,-0.019000,1.006000,192.000000,0.000000,32.000000,127.500000,48.000000,15.500000,48.000000,0.000000,0.000000,0.000000,1772722291.727384,0.000000
174.000000,-12781.442735,-17750.548452,2714.127626,-30990.425466,10524.117711,2856.865866,-22356.304211,-28396.706688,3089.100491,-1804.813958,6229.051200,218.398895,7934.913985,7059.329100,-11109.375788,-5244.658022,0.008000,-0.019000,1.006000,192.000000,0.000000,0.000000,0.000000,0.000000,0.000000,0.000000,0.000000,0.000000,0.000000,1772722291.727396,0.000000
176.000000,-12779.431078,-17750.660211,2709.076131,-31006.049336,10512.919487,2836.011688,-22358.494682,-28393.465685,3094.599020,-1801.371789,6244.831532,232.547549,7946.961575,7066.079326,-11099.183392,-5265.959235,0.008000,-0.019000,1.006000,192.000000,0.000000,0.000000,0.000000,0.000000,0.000000,0.000000,0.000000,0.000000,0.000000,1772722291.727407,0.000000
178.000000,-12783.007357,-17753.521234,2702.907050,-31024.288359,10507.577420,2808.161415,-22364.484950,-28394.158589,3088.340531,-1811.005391,6231.465188,217.460122,7930.622450,7042.207663,-11121.691599,-5282.387767,0.008000,-0.019000,1.006000,192.000000,0.000000,0.000000,0.000000,0.000000,0.000000,0.000000,0.000000,0.000000,0.000000,1772722291.727419,0.000000
180.000000,-12771.943244,-17742.702990,2712.898280,-31016.889932,10522.351923,2823.986450,-22356.170101,-28384.301470,3097.996485,-1804.165757,6250.240654,226.445523,7951.655442,7047.974413,-11101.977360,-5290.233229,0.008000,-0.019000,1.006000,192.000000,0.000000,0.000000,0.000000,0.000000,0.000000,0.000000,0.000000,0.000000,0.000000,1772722291.727431,0.000000
182.000000,-12788.058852,-17761.903138,2694.793367,-31035.374824,10504.939914,2802.841699,-22376.018450,-28406.899083,3092.274438,-1814.089932,6243.579834,215.515520,7937.372677,7039.190178,-11114.203765,-5291.194354,0.007000,-0.017500,1.007000,192.000000,0.000000,24.000000,127.500000,64.000000,15.500000,64.000000,0.000000,0.000000,0.000000,1772722291.727443,0.000000
184.000000,-12783.633206,-17756.494016,2711.400713,-31020.935598,10524.050656,2814.777531,-22364.887281,-28403.434563,3085.188935,-1813.017048,6231.934575,207.625354,7925.414494,7030.093018,-11114.807262,-5290.344988,0.007000,-0.017500,1.007000,192.000000,0.000000,0.000000,0.000000,0.000000,0.000000,0.000000,0.000000,0.000000,0.000000,1772722291.727454,0.000000
186.000000,-12790.830468,-17763.624223,2703.823472,-31019.818010,10522.933069,2812.587060,-22368.575319,-28410.855342,3088.988732,-1810.625411,6237.276642,217.393067,7945.821636,7045.649832,-11089.840363,-5286.500488,0.007000,-0.017500,1.007000,192.000000,0.000000,0.000000,0.000000,0.000000,0.000000,0.000000,0.000000,0.000000,0.000000,1772722291.727468,0.000000
188.000000,-12800.218201,-17768.876883,2692.669951,-31019.035699,10512.338342,2818.599679,-22375.973746,-28417.650273,3074.862429,-1817.576804,6215.036656,206.328953,7927.940241,7039.838378,-11111.700369,-5275.928113,0.007000,-0.017500,1.007000,192.000000,0.000000,0.000000,0.000000,0.000000,0.000000,0.000000,0.000000,0.000000,0.000000,1772722291.727480,0.000000
190.000000,-12779.855762,-17748.134464,2713.054742,-30997.488618,10530.219737,2839.118581,-22358.181758,-28394.203293,3082.394967,-1805.551565,6231.219319,225.149122,7942.334764,7054.858751,-11095.025968,-5268.954369,0.007000,-0.017500,1.007000,192.000000,0.000000,0.000000,0.000000,0.000000,0.000000,0.000000,0.000000,0.000000,0.000000,1772722291.727491,0.000000
192.000000,-12789.556419,-17764.272423,2700.805986,-31015.504124,10515.467586,2832.502464,-22374.386772,-28408.419002,3085.412453,-1811.228908,6235.600261,221.036401,7932.790569,7048.443800,-11099.853945,-5262.382956,0.009500,-0.016750,1.006500,192.000000,0.000000,48.000000,127.500000,64.000000,15.500000,56.000000,0.000000,0.000000,0.000000,1772722291.727502,0.000000
194.000000,-12768.881055,-17742.725342,2720.542576,-31000.126123,10540.993278,2861.000939,-22359.500511,-28390.403496,3092.944991,-1809.105493,6238.148360,215.850796,7942.379468,7051.237768,-11099.541020,-5249.910682,0.009500,-0.016750,1.006500,192.000000,0.000000,0.000000,0.000000,0.000000,0.000000,0.000000,0.000000,0.000000,0.000000,1772722292.206925,0.000000
196.000000,-12773.418459,-17746.078103,2716.318097,-31005.825818,10532.141987,2860.889180,-22364.596708,-28398.852455,3108.814729,-1794.845080,6256.946177,232.256977,7962.808962,7068.739184,-11083.268950,-5241.372316,0.009500,-0.016750,1.006500,192.000000,0.000000,0.000000,0.000000,0.000000,0.000000,0.000000,0.000000,0.000000,0.000000,1772722292.206985,0.000000
198.000000,-12784.035538,-17754.661173,2709.389056,-31013.291301,10521.748426,2849.243921,-22368.642374,-28407.949615,3093.749654,-1803.718722,6232.716886,217.393067,7939.831369,7055.864579,-11109.264029,-5243.182807,0.009500,-0.016750,1.006500,192.000000,0.000000,0.000000,0.000000,0.000000,0.000000,0.000000,0.000000,0.000000,0.000000,1772722292.207032,0.000000
200.000000,-12775.497171,-17744.982868,2719.559100,-31006.563426,10529.035095,2842.873674,-22355.924232,-28390.939938,3093.235563,-1802.668190,6239.847093,225.260881,7949.241453,7057.540960,-11096.523535,-5262.338252,0.009500,-0.016750,1.006500,192.000000,0.000000,0.000000,0.000000,0.000000,0.000000,0.000000,0.000000,0.000000,0.000000,1772722292.207079,0.000000
202.000000,-12790.808116,-17763.735981,2699.777806,-31030.300978,10499.888420,2817.124464,-22372.285708,-28403.747488,3089.324008,-1811.631240,6236.539034,220.432904,7939.451389,7039.525454,-11109.487547,-5273.625883,0.010750,-0.016375,1.005250,192.000000,0.000000,48.000000,127.500000,64.000000,15.500000,48.000000,0.000000,0.000000,0.000000,1772722292.207125,0.000000
204.000000,-12787.857686,-17761.523159,2707.958544,-31025.651816,10508.739711,2810.888327,-22362.339182,-28396.282005,3083.199630,-1821.823635,6231.889872,207.066561,7923.134616,7024.594489,-11116.148366,-5288.020407,0.010750,-0.016375,1.005250,192.000000,0.000000,0.000000,0.000000,0.000000,0.000000,0.000000,0.000000,0.000000,0.000000,1772722292.207170,0.000000
206.000000,-12789.422308,-17766.440543,2701.454187,-31026.456478,10500.558972,2809.815444,-22367.055400,-28399.925339,3089.413415,-1823.544720,6247.156113,212.453331,7933.997564,7043.638175,-11103.139651,-5297.676360,0.010750,-0.016375,1.005250,192.000000,0.000000,0.000000,0.000000,0.000000,0.000000,0.000000,0.000000,0.000000,0.000000,1772722292.207194,0.000000
208.000000,-12787.164782,-17763.020726,2697.587335,-31025.584760,10502.123595,2808.340229,-22373.850331,-28397.265482,3081.746767,-1826.741019,6233.476845,203.847909,7919.647744,7019.699457,-11121.021047,-5293.362474,0.010750,-0.016375,1.005250,192.000000,0.000000,0.000000,0.000000,0.000000,0.000000,0.000000,0.000000,0.000000,0.000000,1772722292.207206,0.000000
210.000000,-12769.015165,-17742.233603,2715.625193,-31007.524551,10521.904888,2818.979659,-22360.349877,-28379.607604,3099.337590,-1804.612792,6253.369898,229.552416,7944.592290,7043.369954,-11097.976398,-5294.234192,0.010750,-0.016375,1.005250,192.000000,0.000000,0.000000,0.000000,0.000000,0.000000,0.000000,0.000000,0.000000,0.000000,1772722292.207217,0.000000
212.000000,-12787.611817,-17761.679621,2698.101425,-31024.243656,10500.558972,2812.050618,-22375.996098,-28403.501618,3094.710779,-1806.445635,6241.903453,224.992660,7941.887729,7055.395193,-11101.284456,-5290.724968,0.009375,-0.019187,1.003625,192.000000,0.000000,32.000000,127.500000,40.000000,15.500000,40.000000,0.000000,0.000000,0.000000,1772722292.207229,0.000000
214.000000,-12782.292102,-17757.633955,2716.496911,-31012.307824,10522.195461,2826.445142,-22363.501473,-28398.651290,3086.954723,-1813.978173,6227.017191,210.128750,7931.717686,7035.479788,-11103.720797,-5283.930037,0.009375,-0.019187,1.003625,192.000000,0.000000,0.000000,0.000000,0.000000,0.000000,0.000000,0.000000,0.000000,0.000000,1772722292.207240,0.000000
216.000000,-12780.481610,-17755.734057,2715.871062,-31017.806353,10520.586135,2828.300336,-22369.089409,-28400.037098,3097.080063,-1812.547661,6240.115314,217.169549,7946.223968,7047.147399,-11084.610055,-5278.252694,0.009375,-0.019187,1.003625,192.000000,0.000000,0.000000,0.000000,0.000000,0.000000,0.000000,0.000000,0.000000,0.000000,1772722292.207251,0.000000
218.000000,-12782.269750,-17756.873996,2712.339486,-31022.902551,10520.161452,2844.862979,-22374.006793,-28400.998223,3094.844889,-1815.118112,6230.369953,204.697276,7936.679773,7042.006498,-11100.524497,-5263.008805,0.009375,-0.019187,1.003625,192.000000,0.000000,0.000000,0.000000,0.000000,0.000000,0.000000,0.000000,0.000000,0.000000,1772722292.207270,0.000000
220.000000,-12759.292157,-17735.684542,2730.958489,-31002.361298,10542.423790,2870.053395,-22355.767769,-28375.427827,3110.982849,-1802.310562,6256.365032,223.562148,7962.205465,7057.093925,-11078.932712,-5252.816409,0.009375,-0.019187,1.003625,192.000000,0.000000,0.000000,0.000000,0.000000,0.000000,0.000000,0.000000,0.000000,0.000000,1772722292.207281,0.000000
222.000000,-12775.519523,-17755.421132,2712.294783,-31018.901589,10515.780510,2851.188523,-22371.682211,-28390.425848,3107.898308,-1804.545737,6260.164828,224.925604,7961.847837,7051.126009,-11090.890895,-5251.095325,0.008688,-0.017594,1.005812,192.000000,0.000000,32.000000,127.500000,64.000000,15.500000,64.000000,0.000000,0.000000,0.000000,1772722292.207293,0.000000
224.000000,-12771.317395,-17750.168473,2724.275318,-31012.956025,10527.425769,2867.594703,-22362.138016,-28390.939938,3099.091720,-1811.385371,6249.324232,211.380447,7945.084029,7047.326213,-11101.776195,-5252.727002,0.008688,-0.017594,1.005812,192.000000,0.000000,0.000000,0.000000,0.000000,0.000000,0.000000,0.000000,0.000000,0.000000,1772722292.207319,0.000000
226.000000,-12784.035538,-17760.718496,2710.037256,-31030.010406,10512.450100,2839.185636,-22373.269185,-28410.721232,3099.426997,-1815.363981,6249.190122,207.401837,7953.778857,7051.640099,-11085.995863,-5267.479154,0.008688,-0.017594,1.005812,192.000000,0.000000,0.000000,0.000000,0.000000,0.000000,0.000000,0.000000,0.000000,0.000000,1772722292.207340,0.000000
228.000000,-12791.992759,-17768.027516,2697.095596,-31035.799508,10493.160545,2823.204139,-22377.404258,-28417.985549,3084.138403,-1827.411571,6222.949174,186.547659,7928.811959,7032.395248,-11114.740207,-5283.997093,0.008688,-0.017594,1.005812,192.000000,0.000000,0.000000,0.000000,0.000000,0.000000,0.000000,0.000000,0.000000,0.000000,1772722292.207352,0.000000
230.000000,-12778.067622,-17751.643688,2708.137358,-31017.605188,10495.865106,2826.400438,-22360.260470,-28396.393764,3091.737997,-1818.716743,6235.264985,203.467930,7942.982965,7049.114352,-11105.620695,-5296.223497,0.008688,-0.017594,1.005812,192.000000,0.000000,0.000000,0.000000,0.000000,0.000000,0.000000,0.000000,0.000000,0.000000,1772722292.207363,0.000000
232.000000,-12793.378567,-17767.602833,2689.831279,-31030.636255,10474.854466,2806.283868,-22375.593767,-28410.922397,3085.278342,-1816.861548,6230.705229,208.027686,7922.464063,7035.189216,-11120.082273,-5299.710369,0.009344,-0.015797,1.005906,192.000000,0.000000,40.000000,127.500000,72.000000,15.500000,56.000000,0.000000,0.000000,0.000000,1772722292.207375,0.000000
234.000000,-12776.190075,-17750.727266,2707.153881,-31017.672243,10497.809708,2824.098208,-22364.574357,-28398.584235,3084.943066,-1814.581670,6226.659563,205.054904,7920.340648,7042.364126,-11123.747960,-5293.988322,0.009344,-0.015797,1.005906,192.000000,0.000000,0.000000,0.000000,0.000000,0.000000,0.000000,0.000000,0.000000,0.000000,1772722292.207386,0.000000
236.000000,-12776.681814,-17752.873034,2707.913841,-31023.237827,10499.866068,2817.124464,-22370.274051,-28403.903950,3097.437691,-1809.977211,6245.680898,216.074314,7953.108305,7045.873349,-11097.484660,-5295.396482,0.009344,-0.015797,1.005906,192.000000,0.000000,0.000000,0.000000,0.000000,0.000000,0.000000,0.000000,0.000000,0.000000,1772722292.207398,0.000000
238.000000,-12781.733308,-17759.779723,2711.512472,-31026.747051,10502.704740,2823.584118,-22373.649165,-28407.301415,3096.297752,-1814.849891,6234.728543,206.127787,7937.551491,7031.143550,-11110.023988,-5286.254619,0.009344,-0.015797,1.005906,192.000000,0.000000,0.000000,0.000000,0.000000,0.000000,0.000000,0.000000,0.000000,0.000000,1772722292.207410,0.000000
240.000000,-12769.663366,-17746.323973,2731.338469,-31009.893836,10528.453950,2851.702613,-22356.572432,-28387.877749,3104.143215,-1804.501033,6251.984090,217.907157,7954.561168,7045.716887,-11086.040567,-5275.302264,0.009344,-0.015797,1.005906,192.000000,0.000000,0.000000,0.000000,0.000000,0.000000,0.000000,0.000000,0.000000,0.000000,1772722292.207421,0.000000
242.000000,-12783.454392,-17761.500807,2711.557175,-31026.188257,10519.960287,2840.571444,-22374.945566,-28404.619206,3106.132520,-1804.813958,6251.581758,217.057790,7954.561168,7047.214454,-11091.427337,-5266.875656,0.009344,-0.015797,1.005906,192.000000,0.000000,0.000000,0.000000,0.000000,0.000000,0.000000,0.000000,0.000000,0.000000,1772722292.207433,0.000000
244.000000,-12772.479686,-17749.967307,2723.783579,-31011.592568,10543.541377,2859.704537,-22361.400409,-28395.700860,3101.662171,-1809.194900,6244.071572,207.558299,7951.566035,7045.381611,-11096.948218,-5255.386860,0.008000,-0.016000,1.004000,192.000000,0.000000,32.000000,127.500000,64.000000,15.500000,48.000000,0.000000,0.000000,0.000000,1772722292.207444,0.000000
246.000000,-12782.448564,-17760.316165,2710.439588,-31023.126068,10532.298450,2852.574331,-22370.765790,-28406.496752,3105.216098,-1809.865452,6249.458343,212.632145,7966.362890,7055.171675,-11080.698500,-5257.733793,0.008000,-0.016000,1.004000,192.000000,0.000000,0.000000,0.000000,0.000000,0.000000,0.000000,0.000000,0.000000,0.000000,1772722292.207455,0.000000
248.000000,-12784.750794,-17761.724324,2703.801120,-31030.837420,10526.598755,2839.632671,-22376.599595,-28408.709575,3092.252087,-1821.041324,6229.721752,198.148215,7944.480532,7030.271832,-11101.351512,-5264.081688,0.008000,-0.016000,1.004000,192.000000,0.000000,0.000000,0.000000,0.000000,0.000000,0.000000,0.000000,0.000000,0.000000,1772722292.207466,0.000000
250.000000,-12771.049174,-17745.564013,2720.319059,-31016.845228,10543.563729,2846.449953,-22362.450941,-28394.024479,3103.718532,-1807.697333,6243.602186,217.415418,7966.318186,7045.694535,-11083.917151,-5276.889238,0.008000,-0.016000,1.004000,192.000000,0.000000,0.000000,0.000000,0.000000,0.000000,0.000000,0.000000,0.000000,0.000000,1772722292.207480,0.000000
252.000000,-12785.778974,-17762.372525,2703.912879,-31033.497278,10518.015685,2823.382953,-22381.494627,-28412.039985,3105.283154,-1808.926679,6239.712982,211.894537,7955.499942,7043.526416,-11094.735395,-5283.751224,0.008000,-0.016000,1.004000,192.000000,0.000000,0.000000,0.000000,0.000000,0.000000,0.000000,0.000000,0.000000,0.000000,1772722292.207491,0.000000
254.000000,-12770.848008,-17748.961478,2717.256870,-31018.052222,10526.956383,2832.256595,-22369.447037,-28395.611453,3101.952744,-1811.653592,6235.488502,203.087950,7948.079163,7033.132855,-11107.140613,-5288.914477,0.010000,-0.014000,1.002000,192.000000,0.000000,40.000000,127.500000,72.000000,15.500000,40.000000,0.000000,0.000000,0.000000,1772722292.207502,0.000000
0.000000,-12768.255206,-17746.323973,2715.178158,-31017.247560,10521.726074,2830.468456,-22368.038877,-28391.118752,3112.323953,-1806.982077,6255.985052,216.476645,7965.222951,7048.913187,-11093.237828,-5294.413006,0.010000,-0.014000,1.002000,192.000000,0.000000,0.000000,0.000000,0.000000,0.000000,0.000000,0.000000,0.000000,0.000000,1772722292.207513,0.000000
2.000000,-12773.865494,-17750.302583,2707.019771,-31019.885066,10516.898098,2828.121522,-22371.413990,-28396.505522,3103.226793,-1808.166719,6238.863616,212.520386,7946.447485,7036.373858,-11116.662457,-5286.433433,0.010000,-0.014000,1.002000,192.000000,0.000000,0.000000,0.000000,0.000000,0.000000,0.000000,0.000000,0.000000,0.000000,1772722292.207525,0.000000
4.000000,-12770.155104,-17744.781702,2719.112065,-31009.402097,10533.639554,2840.683203,-22360.171063,-28392.191636,3106.490148,-1800.209498,6246.709078,224.791494,7959.366794,7068.113335,-11096.411776,-5285.069976,0.010000,-0.014000,1.002000,192.000000,0.000000,0.000000,0.000000,0.000000,0.000000,0.000000,0.000000,0.000000,0.000000,1772722292.207536,0.000000
6.000000,-12783.968482,-17761.903138,2705.030466,-31028.825763,10530.778531,2825.819293,-22380.645261,-28420.108964,3104.389084,-1807.406760,6233.655659,211.894537,7956.550474,7047.102695,-11096.098852,-5282.454822,0.010000,-0.014000,1.002000,192.000000,0.000000,0.000000,0.000000,0.000000,0.000000,0.000000,0.000000,0.000000,0.000000,1772722292.207548,0.000000
8.000000,-12777.441773,-17755.555243,2723.202434,-31015.459420,10559.746392,2857.782287,-22371.034011,-28417.069127,3104.120863,-1813.642897,6222.748008,196.740055,7968.106326,7043.615823,-11088.968645,-5273.312959,0.010000,-0.018000,1.000000,192.000000,0.000000,40.000000,127.500000,56.000000,15.500000,32.000000,0.000000,0.000000,0.000000,1772722292.207559,0.000000
10.000000,-12781.912122,-17757.745714,2716.385152,-31019.460382,10548.995203,2852.708441,-22377.158389,-28420.667758,3111.854567,-1806.490339,6234.907357,206.775988,7983.260808,7066.012271,-11065.253444,-5259.857209,0.010000,-0.018000,1.000000,192.000000,0.000000,0.000000,0.000000,0.000000,0.000000,0.000000,0.000000,0.000000,0.000000,1772722292.207570,0.000000
12.000000,-12783.521448,-17758.885653,2706.885661,-31025.785926,10536.880557,2838.515084,-22379.393563,-28414.342214,3099.225831,-1811.385371,6218.858805,197.745883,7945.843988,7034.965698,-11092.209648,-5253.397555,0.010000,-0.018000,1.000000,192.000000,0.000000,0.000000,0.000000,0.000000,0.000000,0.000000,0.000000,0.000000,0.000000,1772722292.207582,0.000000
14.000000,-12767.919930,-17742.948859,2719.894376,-31014.028908,10551.297432,2856.038851,-22362.942679,-28394.717383,3108.322991,-1802.422321,6238.573043,216.655459,7953.622395,7049.851960,-11076.742241,-5262.450011,0.010000,-0.018000,1.000000,192.000000,0.000000,0.000000,0.000000,0.000000,0.000000,0.000000,0.000000,0.000000,0.000000,1772722292.207593,0.000000
16.000000,-12782.917951,-17759.176226,2702.236498,-31032.625560,10532.857243,2842.314880,-22380.399392,-28414.543380,3104.433787,-1806.915022,6236.270813,215.984907,7954.851741,7054.009384,-11081.547866,-5268.127354,0.010000,-0.018000,1.000000,192.000000,0.000000,0.000000,0.000000,0.000000,0.000000,0.000000,0.000000,0.000000,0.000000,1772722292.207604,0.000000
18.000000,-12774.759564,-17747.575670,2716.474559,-31017.694595,10543.608432,2843.790095,-22366.094275,-28403.702784,3099.851680,-1808.792568,6226.234880,208.407665,7947.542721,7047.482675,-11090.577971,-5281.247828,0.012000,-0.016000,0.994000,192.000000,0.000000,48.000000,127.500000,64.000000,15.500000,8.000000,0.000000,0.000000,0.000000,1772722292.207616,0.000000
20.000000,-12779.364023,-17752.493054,2711.110140,-31020.443859,10527.582231,2832.234243,-22367.189511,-28407.994319,3106.490148,-1803.606964,6238.282470,220.567014,7958.428020,7048.801428,-11080.586741,-5295.620000,0.012000,-0.016000,0.994000,192.000000,0.000000,0.000000,0.000000,0.000000,0.000000,0.000000,0.000000,0.000000,0.000000,1772722292.207627,0.000000
22.000000,-12780.302796,-17754.594118,2708.159710,-31025.003615,10519.960287,2816.900947,-22370.005831,-28406.541456,3095.873069,-1816.235699,6221.809235,204.674924,7939.674907,7031.970564,-11108.146442,-5300.380921,0.012000,-0.016000,0.994000,192.000000,0.000000,0.000000,0.000000,0.000000,0.000000,0.000000,0.000000,0.000000,0.000000,1772722292.207638,0.000000
24.000000,-12761.773200,-17734.499900,2725.504664,-31008.172751,10536.746447,2831.742505,-22355.588955,-28381.820426,3107.630087,-1805.484510,6242.775171,223.137465,7960.037346,7049.427277,-11090.890895,-5296.111738,0.012000,-0.016000,0.994000,192.000000,0.000000,0.000000,0.000000,0.000000,0.000000,0.000000,0.000000,0.000000,0.000000,1772722292.207649,0.000000
26.000000,-12775.810096,-17751.800150,2704.382265,-31023.975435,10509.522022,2816.588022,-22373.023316,-28397.086668,3105.037284,-1808.814920,6245.882064,225.126770,7954.203541,7037.737314,-11104.458404,-5287.416910,0.012000,-0.016000,0.994000,192.000000,0.000000,0.000000,0.000000,0.000000,0.000000,0.000000,0.000000,0.000000,0.000000,1772722292.207662,0.000000
28.000000,-12778.559360,-17757.209272,2716.586318,-31014.498295,10518.306258,2825.841645,-22361.668630,-28396.192598,3095.873069,-1818.627336,6239.176540,213.414456,7931.963555,7024.505082,-11111.208631,-5281.516049,0.014000,-0.014000,1.002000,192.000000,0.000000,56.000000,127.500000,72.000000,15.500000,40.000000,0.000000,0.000000,0.000000,1772722292.207674,0.000000
30.000000,-12789.288198,-17768.832179,2711.847748,-31021.315577,10516.652228,2819.806674,-22368.016525,-28411.190618,3097.929430,-1822.091856,6245.815008,214.353229,7937.395029,7040.173655,-11093.036663,-5283.773575,0.014000,-0.014000,1.002000,192.000000,0.000000,0.000000,0.000000,0.000000,0.000000,0.000000,0.000000,0.000000,0.000000,1772722292.207685,0.000000
32.000000,-12798.407709,-17775.425944,2701.007152,-31025.584760,10521.122577,2822.868862,-22377.806589,-28423.908761,3085.613619,-1831.457237,6219.104674,194.661342,7931.628279,7020.884099,-11103.564334,-5274.654064,0.014000,-0.014000,1.002000,192.000000,0.000000,0.000000,0.000000,0.000000,0.000000,0.000000,0.000000,0.000000,0.000000,1772722292.207696,0.000000
34.000000,-12779.989872,-17750.839025,2717.882719,-31003.255368,10554.225511,2847.813409,-22362.875624,-28406.183828,3090.866279,-1819.633164,6224.156168,208.519424,7950.716668,7045.471018,-11075.937578,-5259.209008,0.014000,-0.014000,1.002000,192.000000,0.000000,0.000000,0.000000,0.000000,0.000000,0.000000,0.000000,0.000000,0.000000,1772722292.207708,0.000000
36.000000,-12788.975273,-17759.377391,2699.084902,-31019.616845,10539.272194,2844.326537,-22378.968880,-28420.578351,3092.073273,-1816.012182,6217.361238,208.228851,7947.095686,7042.699402,-11080.743203,-5246.557921,0.014000,-0.014000,1.002000,192.000000,0.000000,0.000000,0.000000,0.000000,0.000000,0.000000,0.000000,0.000000,0.000000,1772722292.207719,0.000000
38.000000,-12772.770259,-17745.184034,2716.385152,-31005.423487,10557.824142,2874.434337,-22362.450941,-28402.987528,3092.430901,-1812.212385,6215.461339,205.837215,7938.914947,7050.142533,-11088.767480,-5237.080781,0.016000,-0.012000,1.000000,192.000000,0.000000,64.000000,127.500000,80.000000,15.500000,32.000000,0.000000,0.000000,0.000000,1772722292.207731,0.000000
40.000000,-12774.290177,-17749.922603,2714.664068,-31015.414717,10551.588005,2854.764802,-22365.155502,-28406.116772,3108.412398,-1802.668190,6239.109485,220.857587,7963.121887,7062.279530,-11073.635349,-5246.312052,0.016000,-0.012000,1.000000,192.000000,0.000000,0.000000,0.000000,0.000000,0.000000,0.000000,0.000000,0.000000,0.000000,1772722292.207742,0.000000
42.000000,-12790.405785,-17767.915758,2706.237460,-31028.691653,10533.147816,2832.077781,-22367.815360,-28415.348043,3096.185994,-1815.811016,6224.044409,200.986886,7940.591328,7036.910300,-11097.618770,-5269.110831,0.016000,-0.012000,1.000000,192.000000,0.000000,0.000000,0.000000,0.000000,0.000000,0.000000,0.000000,0.000000,0.000000,1772722292.207753,0.000000
44.000000,-12779.699299,-17756.046981,2720.877853,-31016.129972,10541.306203,2830.960194,-22352.973801,-28403.747488,3099.516404,-1817.375638,6231.465188,205.770159,7958.048041,7057.339794,-11088.208686,-5290.903782,0.016000,-0.012000,1.000000,192.000000,0.000000,0.000000,0.000000,0.000000,0.000000,0.000000,0.000000,0.000000,0.000000,1772722292.207764,0.000000
46.000000,-12786.762451,-17762.350173,2705.455149,-31026.657644,10518.485071,2817.973830,-22369.335278,-28413.805773,3094.509613,-1820.549586,6221.518662,206.597174,7944.793456,7043.749934,-11101.798547,-5294.904744,0.016000,-0.012000,1.000000,192.000000,0.000000,0.000000,0.000000,0.000000,0.000000,0.000000,0.000000,0.000000,0.000000,1772722292.207776,0.000000
48.000000,-12771.362099,-17740.847795,2723.761228,-31011.033775,10533.594851,2831.206063,-22354.717237,-28392.437505,3098.421168,-1810.424246,6222.390380,219.158854,7946.268671,7040.777152,-11109.152270,-5294.971799,0.010000,-0.018000,1.006000,192.000000,0.000000,40.000000,127.500000,56.000000,15.500000,56.000000,0.000000,0.000000,0.000000,1772722292.207787,0.000000
50.000000,-12777.441773,-17747.754484,2719.447341,-31014.207722,10519.781473,2820.879557,-22359.388752,-28394.203293,3104.791415,-1801.863528,6239.914148,235.788552,7963.524218,7048.957890,-11096.367073,-5295.664703,0.010000,-0.018000,1.006000,192.000000,0.000000,0.000000,0.000000,0.000000,0.000000,0.000000,0.000000,0.000000,0.000000,1772722292.207799,0.000000
52.000000,-12779.788706,-17757.209272,2711.937155,-31015.370013,10506.772757,2812.095322,-22361.623926,-28394.940900,3099.896383,-1815.274574,6231.487540,218.153026,7940.121942,7030.830625,-11120.819881,-5292.848384,0.010000,-0.018000,1.006000,192.000000,0.000000,0.000000,0.000000,0.000000,0.000000,0.000000,0.000000,0.000000,0.000000,1772722292.207810,0.000000
54.000000,-12771.764430,-17752.247185,2722.397771,-31005.937577,10523.380104,2818.420865,-22348.995191,-28382.558034,3107.205404,-1813.240565,6248.318404,227.116075,7949.532026,7038.541977,-11103.162003,-5295.329427,0.010000,-0.018000,1.006000,192.000000,0.000000,0.000000,0.000000,0.000000,0.000000,0.000000,0.000000,0.000000,0.000000,1772722292.207821,0.000000
56.000000,-12789.623474,-17769.435676,2704.359913,-31030.189220,10512.181880,2804.808653,-22370.385810,-28406.317938,3100.857508,-1821.935394,6238.126008,215.806093,7941.977136,7029.355410,-11103.609038,-5288.981532,0.010000,-0.018000,1.006000,192.000000,0.000000,0.000000,0.000000,0.000000,0.000000,0.000000,0.000000,0.000000,0.000000,1772722292.207834,0.000000
58.000000,-12786.963616,-17766.127618,2717.301573,-31023.282531,10544.122522,2829.306165,-22365.602537,-28404.909778,3090.352188,-1832.708935,6220.713999,199.109340,7940.211349,7022.493425,-11096.009445,-5276.531610,0.010000,-0.017000,1.008000,192.000000,0.000000,40.000000,127.500000,64.000000,15.500000,72.000000,0.000000,0.000000,0.000000,1772722292.688478,0.000000
60.000000,-12794.540858,-17778.175208,2709.657277,-31034.503106,10543.228453,2830.691973,-22377.828941,-28419.416060,3096.141290,-1833.625356,6230.861691,200.159872,7958.495076,7042.274719,-11063.510008,-5272.731814,0.010000,-0.017000,1.008000,192.000000,0.000000,0.000000,0.000000,0.000000,0.000000,0.000000,0.000000,0.000000,0.000000,1772722292.688558,0.000000
62.000000,-12799.525297,-17784.724269,2702.839995,-31033.877258,10541.037982,2849.266273,-22382.746325,-28426.814488,3087.133537,-1843.750697,6213.203813,177.271685,7930.309526,7019.699457,-11080.854962,-5263.142915,0.010000,-0.017000,1.008000,192.000000,0.000000,0.000000,0.000000,0.000000,0.000000,0.000000,0.000000,0.000000,0.000000,1772722292.688618,0.000000
64.000000,-12780.906294,-17761.612566,2716.362800,-31009.312690,10553.622014,2876.535401,-22364.283784,-28406.876732,3097.348284,-1824.908176,6228.581813,193.700217,7946.425134,7046.767419,-11066.683956,-5255.722136,0.010000,-0.017000,1.008000,192.000000,0.000000,0.000000,0.000000,0.000000,0.000000,0.000000,0.000000,0.000000,0.000000,1772722292.688678,0.000000
66.000000,-12786.181305,-17766.373487,2701.409483,-31022.477868,10531.449083,2857.447011,-22377.046630,-28414.766898,3098.018837,-1820.884862,6226.681915,197.835290,7947.252148,7054.232902,-11084.922979,-5252.637595,0.010000,-0.017000,1.008000,192.000000,0.000000,0.000000,0.000000,0.000000,0.000000,0.000000,0.000000,0.000000,0.000000,1772722292.688736,0.000000
68.000000,-12767.249378,-17747.732132,2720.922556,-31009.603263,10539.853339,2855.301244,-22360.036952,-28392.973947,3103.137386,-1817.487397,6226.145473,200.629258,7947.855645,7047.996765,-11096.992921,-5259.991319,0.009000,-0.017500,1.007000,192.000000,0.000000,32.000000,127.500000,56.000000,15.500000,56.000000,0.000000,0.000000,0.000000,1772722292.688763,0.000000
70.000000,-12771.920892,-17752.850682,2718.620326,-31018.923941,10519.513252,2825.662831,-22360.260470,-28392.057525,3119.275346,-1805.350400,6251.514703,224.769142,7964.060660,7059.463210,-11090.823840,-5282.007787,0.009000,-0.017500,1.007000,192.000000,0.000000,0.000000,0.000000,0.000000,0.000000,0.000000,0.000000,0.000000,0.000000,1772722292.688788,0.000000
72.000000,-12793.512677,-17775.291833,2709.210242,-31030.748013,10501.274228,2802.685237,-22368.150636,-28408.419002,3097.951782,-1824.014106,6230.794636,204.563165,7933.036439,7024.370971,-11119.724646,-5298.235154,0.009000,-0.017500,1.007000,192.000000,0.000000,0.000000,0.000000,0.000000,0.000000,0.000000,0.000000,0.000000,0.000000,1772722292.688814,0.000000
74.000000,-12785.756622,-17766.418191,2722.621289,-31014.922978,10514.618220,2810.798920,-22354.471368,-28400.350022,3098.264706,-1824.997583,6237.991898,208.519424,7948.235625,7031.836454,-11102.245581,-5309.679247,0.009000,-0.017500,1.007000,192.000000,0.000000,0.000000,0.000000,0.000000,0.000000,0.000000,0.000000,0.000000,0.000000,1772722292.688840,0.000000
76.000000,-12800.464070,-17782.466743,2704.359913,-31028.378728,10493.987560,2798.170185,-22373.604461,-28418.700805,3086.462985,-1831.859569,6225.318459,200.115168,7935.450427,7028.483692,-11111.365093,-5308.740474,0.009000,-0.017500,1.007000,192.000000,0.000000,0.000000,0.000000,0.000000,0.000000,0.000000,0.000000,0.000000,0.000000,1772722292.688866,0.000000
78.000000,-12789.802288,-17767.401668,2720.699039,-31013.604225,10512.807728,2814.464607,-22362.182720,-28404.440392,3080.629180,-1830.004374,6217.875328,198.304677,7930.801264,7032.194082,-11114.874317,-5296.156442,0.009500,-0.016750,1.004500,192.000000,0.000000,40.000000,127.500000,64.000000,15.500000,40.000000,0.000000,0.000000,0.000000,1772722292.688891,0.000000
80.000000,-12788.461183,-17766.306432,2716.072227,-31016.152324,10506.593943,2813.749351,-22365.513130,-28402.674604,3090.508651,-1818.314411,6233.566252,217.683639,7949.621433,7047.907358,-11093.930732,-5292.624866,0.009500,-0.016750,1.004500,192.000000,0.000000,0.000000,0.000000,0.000000,0.000000,0.000000,0.000000,0.000000,0.000000,1772722292.688916,0.000000
82.000000,-12789.690529,-17769.882711,2709.746684,-31021.203818,10499.173164,2820.276060,-22369.357630,-28405.267406,3085.971246,-1823.321202,6223.396209,207.804168,7924.095741,7029.914204,-11112.102701,-5279.169116,0.009500,-0.016750,1.004500,192.000000,0.000000,0.000000,0.000000,0.000000,0.000000,0.000000,0.000000,0.000000,0.000000,1772722292.688941,0.000000
84.000000,-12783.096764,-17761.634917,2717.927422,-31008.575083,10514.148833,2837.732773,-22361.422761,-28400.730002,3098.018837,-1817.420342,6241.344659,217.214253,7947.810942,7046.096867,-11090.801488,-5276.084575,0.009500,-0.016750,1.004500,192.000000,0.000000,0.000000,0.000000,0.000000,0.000000,0.000000,0.000000,0.000000,0.000000,1772722292.688967,0.000000
86.000000,-12803.928590,-17780.812714,2693.921649,-31023.774269,10504.805804,2832.770685,-22382.433400,-28427.730909,3087.357055,-1825.243452,6224.871424,206.105436,7931.002430,7040.732448,-11091.181468,-5263.947578,0.009500,-0.016750,1.004500,192.000000,0.000000,0.000000,0.000000,0.000000,0.000000,0.000000,0.000000,0.000000,0.000000,1772722292.688992,0.000000
88.000000,-12798.251247,-17771.603795,2703.331733,-31007.524551,10530.376200,2864.174886,-22374.342069,-28421.651235,3078.930447,-1828.082124,6207.906450,197.187090,7925.012162,7042.855864,-11089.952122,-5249.843627,0.006750,-0.015375,1.006250,192.000000,0.000000,16.000000,127.500000,72.000000,15.500000,64.000000,0.000000,0.000000,0.000000,1772722292.689017,0.000000
90.000000,-12794.473802,-17767.602833,2700.314248,-31008.642138,10538.132255,2870.321616,-22374.677345,-28417.985549,3084.674845,-1818.604984,6215.059008,211.782779,7942.804151,7061.296053,-11074.283549,-5251.005918,0.006750,-0.015375,1.006250,192.000000,0.000000,0.000000,0.000000,0.000000,0.000000,0.000000,0.000000,0.000000,0.000000,1772722292.689058,0.000000
92.000000,-12786.784802,-17760.249109,2701.588297,-31014.498295,10543.966060,2863.638444,-22373.671517,-28410.117735,3084.630142,-1819.230833,6207.414711,206.686581,7929.683677,7047.773248,-11097.618770,-5261.131258,0.006750,-0.015375,1.006250,192.000000,0.000000,0.000000,0.000000,0.000000,0.000000,0.000000,0.000000,0.000000,0.000000,1772722292.689083,0.000000
94.000000,-12767.294081,-17740.400760,2718.374457,-31005.155266,10555.745429,2863.616093,-22356.125397,-28389.777647,3104.143215,-1802.154100,6238.237767,222.779837,7956.908102,7071.376690,-11082.598398,-5275.637540,0.006750,-0.015375,1.006250,192.000000,0.000000,0.000000,0.000000,0.000000,0.000000,0.000000,0.000000,0.000000,0.000000,1772722292.689108,0.000000
96.000000,-12777.128849,-17753.588289,2701.700056,-31024.556580,10524.207118,2830.937842,-22366.809531,-28403.143990,3103.025627,-1807.384408,6239.511816,216.297831,7956.282253,7060.245521,-11094.310712,-5293.585991,0.006750,-0.015375,1.006250,192.000000,0.000000,0.000000,0.000000,0.000000,0.000000,0.000000,0.000000,0.000000,0.000000,1772722292.689134,0.000000
98.000000,-12766.020032,-17743.194728,2718.463864,-31016.845228,10527.492824,2816.476264,-22350.045723,-28386.626051,3098.845851,-1815.654554,6234.773247,209.972287,7942.066543,7036.776189,-11112.281515,-5307.868756,0.005375,-0.012688,1.005125,192.000000,0.000000,16.000000,127.500000,88.000000,15.500000,48.000000,0.000000,0.000000,0.000000,1772722292.689159,0.000000
100.000000,-12772.390279,-17752.157778,2710.394884,-31023.081365,10508.672656,2810.620107,-22355.588955,-28394.359755,3110.289944,-1810.513653,6249.324232,221.952822,7962.227817,7044.733410,-11103.877259,-5321.905651,0.005375,-0.012688,1.005125,192.000000,0.000000,0.000000,0.000000,0.000000,0.000000,0.000000,0.000000,0.000000,0.000000,1772722292.689184,0.000000
102.000000,-12789.891695,-17769.010993,2703.264678,-31031.262103,10500.201345,2804.808653,-22366.742476,-28409.514238,3090.195726,-1827.277461,6224.603203,202.909136,7928.811959,7026.986125,-11128.710047,-5313.456692,0.005375,-0.012688,1.005125,192.000000,0.000000,0.000000,0.000000,0.000000,0.000000,0.000000,0.000000,0.000000,0.000000,1772722292.689209,0.000000
104.000000,-12784.549628,-17763.490112,2724.364725,-31022.410813,10525.257650,2820.968964,-22360.260470,-28407.569636,3095.671904,-1826.808074,6233.096866,205.345476,7943.206482,7040.173655,-11103.318465,-5312.272049,0.005375,-0.012688,1.005125,192.000000,0.000000,0.000000,0.000000,0.000000,0.000000,0.000000,0.000000,0.000000,0.000000,1772722292.689234,0.000000
106.000000,-12800.464070,-17779.806886,2710.305477,-31037.609999,10518.865051,2812.721171,-22382.343993,-28429.653159,3095.984828,-1835.234682,6225.005534,192.739092,7951.208407,7044.711059,-11100.256276,-5304.895974,0.005375,-0.012688,1.005125,192.000000,0.000000,0.000000,0.000000,0.000000,0.000000,0.000000,0.000000,0.000000,0.000000,1772722292.689259,0.000000
108.000000,-12795.233762,-17771.559092,2714.798178,-31024.288359,10532.745484,2831.988374,-22375.526711,-28424.355796,3091.536831,-1833.021859,6214.835491,185.072444,7947.118038,7035.859768,-11096.769404,-5291.909610,0.005687,-0.012344,1.002563,192.000000,0.000000,24.000000,127.500000,80.000000,15.500000,32.000000,0.000000,0.000000,0.000000,1772722292.689285,0.000000
110.000000,-12803.481555,-17778.823409,2702.035332,-31031.060938,10523.625973,2825.282851,-22382.411049,-28430.077842,3087.915848,-1828.104476,6220.289316,195.622467,7947.140389,7046.745067,-11074.484715,-5283.952389,0.005687,-0.012344,1.002563,192.000000,0.000000,0.000000,0.000000,0.000000,0.000000,0.000000,0.000000,0.000000,0.000000,1772722292.689310,0.000000
112.000000,-12801.983989,-17776.454124,2695.039236,-31032.066766,10513.880612,2821.237185,-22382.388697,-28424.936941,3073.387214,-1835.480551,6202.698493,186.257087,7925.213328,7028.394285,-11092.388462,-5270.988377,0.005687,-0.012344,1.002563,192.000000,0.000000,0.000000,0.000000,0.000000,0.000000,0.000000,0.000000,0.000000,0.000000,1772722292.689335,0.000000
114.000000,-12794.607913,-17767.513426,2704.494024,-31017.158153,10526.062313,2848.461610,-22367.144807,-28411.570598,3079.243371,-1827.165702,6218.076494,201.880956,7937.596194,7033.825759,-11074.819991,-5270.295473,0.005687,-0.012344,1.002563,192.000000,0.000000,0.000000,0.000000,0.000000,0.000000,0.000000,0.000000,0.000000,0.000000,1772722292.689360,0.000000
116.000000,-12812.757529,-17788.345252,2683.125756,-31034.324292,10514.528813,2851.344985,-22385.495589,-28432.804755,3071.353206,-1840.062659,6206.542993,191.018008,7924.386313,7037.357335,-11084.632407,-5266.428622,0.005687,-0.012344,1.002563,192.000000,0.000000,0.000000,0.000000,0.000000,0.000000,0.000000,0.000000,0.000000,0.000000,1772722292.689386,0.000000
118.000000,-12797.044253,-17770.039173,2698.704922,-31019.125106,10544.770723,2880.983398,-22373.447999,-28418.142011,3068.134554,-1844.309490,6197.177612,183.977209,7916.853776,7038.631384,-11094.444823,-5258.493752,0.008844,-0.015172,0.999281,192.000000,0.000000,48.000000,127.500000,56.000000,15.500000,16.000000,0.000000,0.000000,0.000000,1772722292.689411,0.000000
120.000000,-12783.767317,-17759.153874,2703.376437,-31020.823839,10554.538435,2871.573314,-22375.638470,-28413.112868,3090.151023,-1824.818769,6221.965697,204.965497,7943.675869,7056.848056,-11074.194142,-5259.723098,0.008844,-0.015172,0.999281,192.000000,0.000000,0.000000,0.000000,0.000000,0.000000,0.000000,0.000000,0.000000,0.000000,1772722292.689436,0.000000
122.000000,-12768.903407,-17745.251089,2705.343390,-31020.712080,10551.967985,2866.208895,-22373.895034,-28403.121639,3101.885689,-1815.363981,6222.658601,204.049075,7942.826503,7049.762553,-11087.158154,-5264.148744,0.008844,-0.015172,0.999281,192.000000,0.000000,0.000000,0.000000,0.000000,0.000000,0.000000,0.000000,0.000000,0.000000,1772722292.689464,0.000000
124.000000,-12749.233872,-17725.134519,2721.526053,-31006.317557,10552.236206,2860.509200,-22355.298383,-28381.418095,3123.343363,-1795.403873,6250.598282,225.931433,7962.987776,7066.459306,-11075.088212,-5275.101098,0.008844,-0.015172,0.999281,192.000000,0.000000,0.000000,0.000000,0.000000,0.000000,0.000000,0.000000,0.000000,0.000000,1772722292.689490,0.000000
126.000000,-12765.371831,-17741.361885,2704.404617,-31028.155211,10513.612391,2814.129330,-22366.988345,-28394.158589,3119.185939,-1799.985981,6246.977299,221.572843,7953.980023,7052.534169,-11097.931695,-5294.301247,0.008844,-0.015172,0.999281,192.000000,0.000000,0.000000,0.000000,0.000000,0.000000,0.000000,0.000000,0.000000,0.000000,1772722292.689515,0.000000
128.000000,-12765.260072,-17741.138368,2718.709733,-31023.260179,10513.411225,2810.553051,-22355.074865,-28385.106133,3105.394912,-1814.648725,6234.706191,209.458197,7939.272575,7031.814102,-11116.640105,-5309.545137,0.008844,-0.015172,0.999281,192.000000,0.000000,0.000000,0.000000,0.000000,0.000000,0.000000,0.000000,0.000000,0.000000,1772722292.689540,0.000000
130.000000,-12777.307663,-17756.248147,2718.217995,-31034.994845,10503.419996,2795.085644,-22363.345011,-28397.712517,3103.629125,-1821.287193,6244.518607,216.096665,7945.843988,7033.155207,-11102.491451,-5321.816244,0.012000,-0.014000,0.996000,192.000000,0.000000,48.000000,127.500000,72.000000,15.500000,16.000000,0.000000,0.000000,0.000000,1772722292.689565,0.000000
132.000000,-12788.371776,-17768.899234,2716.072227,-31041.700368,10498.100281,2794.079816,-22372.866854,-28410.542418,3089.703988,-1837.849836,6225.877252,194.303715,7931.829444,7005.640209,-11119.255259,-5316.250660,0.012000,-0.014000,0.996000,192.000000,0.000000,0.000000,0.000000,0.000000,0.000000,0.000000,0.000000,0.000000,0.000000,1772722292.689590,0.000000
134.000000,-12780.839238,-17759.019763,2726.488140,-31026.456478,10515.892269,2812.743522,-22364.283784,-28402.518142,3093.369674,-1828.417400,6238.729505,204.093779,7942.513578,7027.723733,-11094.198953,-5312.428512,0.012000,-0.014000,0.996000,192.000000,0.000000,0.000000,0.000000,0.000000,0.000000,0.000000,0.000000,0.000000,0.000000,1772722292.689615,0.000000
136.000000,-12802.229858,-17780.253921,2703.778768,-31041.365092,10500.223696,2803.355790,-22384.668575,-28427.082709,3086.485337,-1834.206502,6227.084247,195.801281,7935.383372,7034.071628,-11095.271837,-5302.437282,0.012000,-0.014000,0.996000,192.000000,0.000000,0.000000,0.000000,0.000000,0.000000,0.000000,0.000000,0.000000,0.000000,1772722292.689640,0.000000
138.000000,-12790.159916,-17769.614490,2718.776789,-31022.343757,10522.486034,2825.662831,-22370.475217,-28413.962235,3083.423148,-1840.956729,6217.294182,183.619581,7935.293965,7029.444817,-11092.433166,-5290.412043,0.012000,-0.014000,0.996000,192.000000,0.000000,0.000000,0.000000,0.000000,0.000000,0.000000,0.000000,0.000000,0.000000,1772722292.689666,0.000000
140.000000,-12797.290122,-17776.699993,2706.796254,-31025.808278,10520.630839,2832.323650,-22375.660822,-28424.221685,3096.945953,-1828.998545,6231.174616,198.841119,7959.567959,7051.997727,-11071.444878,-5286.880468,0.012000,-0.012000,1.000000,192.000000,0.000000,48.000000,127.500000,80.000000,15.500000,32.000000,0.000000,0.000000,0.000000,1772722292.689691,0.000000
142.000000,-12813.092806,-17786.959444,2690.390073,-31031.887952,10511.846603,2822.108903,-22380.667613,-28436.515145,3075.532982,-1842.655461,6197.736406,180.758557,7928.230814,7017.352523,-11098.065805,-5281.605456,0.012000,-0.012000,1.000000,192.000000,0.000000,0.000000,0.000000,0.000000,0.000000,0.000000,0.000000,0.000000,0.000000,1772722292.689716,0.000000
144.000000,-12806.767262,-17778.823409,2697.564983,-31013.738336,10518.820348,2835.341136,-22364.104970,-28422.321787,3072.068461,-1838.051002,6203.637267,192.649685,7931.494168,7032.708172,-11088.007520,-5285.651122,0.012000,-0.012000,1.000000,192.000000,0.000000,0.000000,0.000000,0.000000,0.000000,0.000000,0.000000,0.000000,0.000000,1772722292.689742,0.000000
146.000000,-12814.478614,-17793.217932,2682.254038,-31025.964740,10506.303371,2830.043772,-22379.751191,-28435.486965,3065.809973,-1845.918816,6200.731540,188.559316,7918.194880,7028.818968,-11106.939448,-5281.672511,0.012000,-0.012000,1.000000,192.000000,0.000000,0.000000,0.000000,0.000000,0.000000,0.000000,0.000000,0.000000,0.000000,1772722292.689767,0.000000
148.000000,-12791.366910,-17772.296700,2708.316172,-31005.892874,10535.986487,2854.831857,-22358.226461,-28411.615302,3073.677787,-1843.080144,6210.700418,187.397026,7917.859604,7035.971527,-11110.381616,-5274.207029,0.012000,-0.012000,1.000000,192.000000,0.000000,0.000000,0.000000,0.000000,0.000000,0.000000,0.000000,0.000000,0.000000,1772722292.689794,0.000000
150.000000,-12780.302796,-17758.773894,2710.104312,-31009.804429,10540.926223,2854.362470,-22359.858139,-28404.306281,3093.101453,-1823.410609,6237.656622,213.146235,7954.427058,7056.624538,-11090.153288,-5282.320712,0.008000,-0.010000,1.002000,192.000000,0.000000,32.000000,127.500000,88.000000,15.500000,40.000000,0.000000,0.000000,0.000000,1772722292.689852,0.000000
152.000000,-12775.675985,-17752.783627,2712.250079,-31021.695557,10541.015630,2855.234188,-22366.407200,-28405.669738,3094.174337,-1815.073408,6225.854901,208.966459,7941.150122,7049.561387,-11108.504070,-5281.069014,0.008000,-0.010000,1.002000,192.000000,0.000000,0.000000,0.000000,0.000000,0.000000,0.000000,0.000000,0.000000,0.000000,1772722292.689896,0.000000
154.000000,-12755.782933,-17734.522251,2733.551292,-31015.235903,10556.818313,2861.336215,-22350.246888,-28391.454028,3111.921622,-1808.211423,6244.384497,217.683639,7965.021785,7061.050184,-11088.700424,-5291.104947,0.008000,-0.010000,1.002000,192.000000,0.000000,0.000000,0.000000,0.000000,0.000000,0.000000,0.000000,0.000000,0.000000,1772722292.689948,0.000000
156.000000,-12770.557436,-17754.057676,2716.318097,-31037.811165,10533.348982,2837.129275,-22369.178816,-28410.251845,3113.732113,-1815.274574,6242.104619,210.776950,7961.423154,7052.847094,-11098.065805,-5294.837689,0.008000,-0.010000,1.002000,192.000000,0.000000,0.000000,0.000000,0.000000,0.000000,0.000000,0.000000,0.000000,0.000000,1772722292.689974,0.000000
158.000000,-12770.468029,-17750.883728,2726.801065,-31026.501182,10536.992316,2835.899930,-22360.483987,-28400.282967,3104.143215,-1825.936356,6234.460322,199.198747,7955.209369,7033.736352,-11105.888916,-5294.547116,0.008000,-0.010000,1.002000,192.000000,0.000000,0.000000,0.000000,0.000000,0.000000,0.000000,0.000000,0.000000,0.000000,1772722292.689999,0.000000
160.000000,-12774.692509,-17751.666039,2719.223823,-31023.260179,10527.693990,2825.126389,-22365.311964,-28400.662947,3104.277325,-1820.057848,6245.725601,215.560224,7967.189904,7047.527379,-11088.029872,-5299.553907,0.010000,-0.012000,1.004000,192.000000,0.000000,40.000000,127.500000,80.000000,15.500000,48.000000,0.000000,0.000000,0.000000,1772722292.690024,0.000000
162.000000,-12780.235741,-17753.968269,2706.639791,-31022.276702,10517.993333,2821.706572,-22373.135075,-28408.530761,3092.676770,-1818.984964,6228.045372,210.128750,7945.888692,7041.872387,-11105.285419,-5287.953351,0.010000,-0.012000,1.004000,192.000000,0.000000,0.000000,0.000000,0.000000,0.000000,0.000000,0.000000,0.000000,0.000000,1772722292.690049,0.000000
164.000000,-12770.289215,-17740.132539,2714.395847,-31004.752935,10534.153644,2842.784267,-22359.835787,-28399.791229,3100.388122,-1802.735246,6239.757686,222.735133,7951.163703,7058.770306,-11084.945331,-5286.344026,0.010000,-0.012000,1.004000,192.000000,0.000000,0.000000,0.000000,0.000000,0.000000,0.000000,0.000000,0.000000,0.000000,1772722292.690074,0.000000
166.000000,-12791.746890,-17761.098476,2691.150032,-31019.952121,10511.444272,2837.911587,-22376.666650,-28421.383014,3087.647627,-1809.619583,6221.943345,212.475683,7938.423209,7054.501123,-11088.767480,-5277.336273,0.010000,-0.012000,1.004000,192.000000,0.000000,0.000000,0.000000,0.000000,0.000000,0.000000,0.000000,0.000000,0.000000,1772722292.690100,0.000000
168.000000,-12779.498134,-17750.213176,2710.327829,-31006.518722,10526.688162,2848.461610,-22360.931022,-28403.523970,3079.869220,-1818.202653,6212.175633,204.697276,7930.957726,7040.330117,-11090.488564,-5270.206066,0.010000,-0.012000,1.004000,192.000000,0.000000,0.000000,0.000000,0.000000,0.000000,0.000000,0.000000,0.000000,0.000000,1772722292.690125,0.000000
170.000000,-12787.075375,-17761.053772,2704.538727,-31012.039603,10520.809653,2847.366374,-22366.809531,-28412.285854,3089.122842,-1817.420342,6231.219319,215.627279,7937.372677,7051.103658,-11070.416697,-5266.652139,0.016000,-0.016000,1.004000,192.000000,0.000000,64.000000,127.500000,64.000000,15.500000,48.000000,0.000000,0.000000,0.000000,1772722292.690149,0.000000
172.000000,-12797.468936,-17771.246168,2694.323980,-31024.042490,10520.899060,2839.967947,-22374.319717,-28426.881543,3071.889647,-1832.418362,6206.677104,194.147252,7920.340648,7026.337925,-11093.170773,-5261.466534,0.016000,-0.016000,1.004000,192.000000,0.000000,0.000000,0.000000,0.000000,0.000000,0.000000,0.000000,0.000000,0.000000,1772722292.690174,0.000000
174.000000,-12784.996663,-17756.963403,2712.048913,-31013.224246,10546.983546,2861.336215,-22359.053476,-28414.252807,3080.986807,-1821.063676,6216.467168,205.121959,7937.909119,7044.286376,-11075.065860,-5263.701709,0.016000,-0.016000,1.004000,192.000000,0.000000,0.000000,0.000000,0.000000,0.000000,0.000000,0.000000,0.000000,0.000000,1772722292.690217,0.000000
176.000000,-12791.366910,-17767.401668,2703.823472,-31031.910304,10539.003973,2840.705555,-22372.531578,-28424.445203,3088.117014,-1822.650650,6216.042485,200.986886,7948.347384,7037.402038,-11080.251465,-5266.182752,0.016000,-0.016000,1.004000,192.000000,0.000000,0.000000,0.000000,0.000000,0.000000,0.000000,0.000000,0.000000,0.000000,1772722292.690243,0.000000
178.000000,-12774.401936,-17755.130560,2724.185911,-31022.120240,10553.554959,2851.412040,-22356.684191,-28404.462743,3099.382293,-1821.957746,6225.899604,197.567069,7951.588386,7035.055105,-11086.420546,-5274.966988,0.016000,-0.016000,1.004000,192.000000,0.000000,0.000000,0.000000,0.000000,0.000000,0.000000,0.000000,0.000000,0.000000,1772722293.168368,0.000000
180.000000,-12784.437869,-17768.496903,2719.089713,-31035.441880,10544.658964,2837.777476,-22364.306136,-28412.822296,3110.491110,-1821.890691,6243.982165,203.423226,7971.146163,7044.107562,-11068.203875,-5287.819241,0.008000,-0.018000,1.000000,192.000000,0.000000,32.000000,127.500000,56.000000,15.500000,32.000000,0.000000,0.000000,0.000000,1772722293.168427,0.000000
182.000000,-12796.284294,-17778.622243,2712.004210,-31044.986075,10527.246955,2820.432522,-22372.509226,-28422.232380,3093.146156,-1835.569958,6219.819930,185.072444,7950.582558,7018.961849,-11090.600323,-5292.267238,0.008000,-0.018000,1.000000,192.000000,0.000000,0.000000,0.000000,0.000000,0.000000,0.000000,0.000000,0.000000,0.000000,1772722293.168471,0.000000
184.000000,-12786.918913,-17765.367659,2726.309326,-31030.300978,10534.511272,2825.863996,-22361.020429,-28413.917531,3094.733130,-1829.602042,6225.541976,197.052979,7965.602930,7029.042486,-11079.469154,-5300.872660,0.008000,-0.018000,1.000000,192.000000,0.000000,0.000000,0.000000,0.000000,0.000000,0.000000,0.000000,0.000000,0.000000,1772722293.168512,0.000000
186.000000,-12795.881962,-17776.007089,2708.651448,-31039.509897,10508.404435,2813.816406,-22375.660822,-28427.596799,3091.089796,-1824.952880,6219.529357,199.310505,7958.405669,7023.409846,-11087.940465,-5298.972762,0.008000,-0.018000,1.000000,192.000000,0.000000,0.000000,0.000000,0.000000,0.000000,0.000000,0.000000,0.000000,0.000000,1772722293.168562,0.000000
188.000000,-12786.248360,-17768.899234,2719.514396,-31022.455516,10524.475339,2835.855226,-22363.322659,-28414.051642,3082.506726,-1828.015069,6213.896717,196.360075,7930.510691,7017.419579,-11095.808279,-5293.720102,0.008000,-0.018000,1.000000,192.000000,0.000000,0.000000,0.000000,0.000000,0.000000,0.000000,0.000000,0.000000,0.000000,1772722293.168605,0.000000
190.000000,-12786.270712,-17769.681545,2712.965335,-31022.947255,10528.141025,2839.766781,-22369.625851,-28415.459802,3089.391063,-1824.505845,6231.264023,208.541776,7945.151084,7032.886986,-11070.841380,-5292.446052,0.014000,-0.016000,1.000000,192.000000,0.000000,56.000000,127.500000,64.000000,15.500000,32.000000,0.000000,0.000000,0.000000,1772722293.168641,0.000000
192.000000,-12780.369852,-17760.696144,2704.181099,-31018.119278,10523.313048,2844.751220,-22372.106895,-28408.307243,3082.171450,-1827.456275,6219.819930,202.417398,7932.678811,7031.054143,-11087.649892,-5276.084575,0.014000,-0.016000,1.000000,192.000000,0.000000,0.000000,0.000000,0.000000,0.000000,0.000000,0.000000,0.000000,0.000000,1772722293.168653,0.000000
194.000000,-12763.315471,-17739.573746,2719.223823,-30993.845283,10535.964136,2860.956235,-22351.498586,-28385.664926,3096.722436,-1808.256126,6244.004517,227.272538,7956.841046,7054.389364,-11079.446802,-5273.111793,0.014000,-0.016000,1.000000,192.000000,0.000000,0.000000,0.000000,0.000000,0.000000,0.000000,0.000000,0.000000,0.000000,1772722293.168666,0.000000
196.000000,-12776.503000,-17752.604813,2704.874004,-31008.575083,10511.488975,2852.574331,-22364.127322,-28400.931168,3094.755482,-1806.892670,6240.115314,227.406648,7942.871206,7060.603149,-11097.328198,-5264.439316,0.014000,-0.016000,1.000000,192.000000,0.000000,0.000000,0.000000,0.000000,0.000000,0.000000,0.000000,0.000000,0.000000,1772722293.168679,0.000000
198.000000,-12760.968537,-17736.243336,2724.543539,-30997.242748,10532.767836,2861.760898,-22348.637563,-28385.262595,3096.387159,-1806.356228,6238.461284,223.495093,7943.161779,7033.602242,-11107.945276,-5260.550113,0.014000,-0.016000,1.000000,192.000000,0.000000,0.000000,0.000000,0.000000,0.000000,0.000000,0.000000,0.000000,0.000000,1772722293.168691,0.000000
200.000000,-12766.221197,-17744.178205,2720.989611,-31009.290339,10531.426732,2847.589892,-22353.331429,-28391.185807,3110.446407,-1800.343609,6256.499142,235.945014,7965.960558,7050.656623,-11087.716948,-5271.658930,0.013000,-0.014000,1.000000,192.000000,0.000000,48.000000,127.500000,80.000000,15.500000,32.000000,0.000000,0.000000,0.000000,1772722293.168705,0.000000
202.000000,-12772.010299,-17752.828330,2713.792350,-31024.176600,10521.681371,2834.782342,-22363.769694,-28401.601720,3096.364808,-1815.743961,6231.867520,214.599099,7951.878959,7033.266966,-11108.504070,-5277.090404,0.013000,-0.014000,1.000000,192.000000,0.000000,0.000000,0.000000,0.000000,0.000000,0.000000,0.000000,0.000000,0.000000,1772722293.168717,0.000000
204.000000,-12761.773200,-17739.640801,2725.459960,-31015.705289,10537.484054,2842.381935,-22351.766807,-28387.296604,3103.271497,-1807.920850,6242.171674,224.255052,7965.424116,7048.823780,-11087.247561,-5287.193392,0.013000,-0.014000,1.000000,192.000000,0.000000,0.000000,0.000000,0.000000,0.000000,0.000000,0.000000,0.000000,0.000000,1772722293.168729,0.000000
206.000000,-12783.007357,-17758.952708,2709.746684,-31034.637217,10515.780510,2818.867900,-22367.614194,-28403.546322,3090.866279,-1814.380504,6233.141569,217.035439,7952.683622,7037.625556,-11093.483698,-5295.418834,0.013000,-0.014000,1.000000,192.000000,0.000000,0.000000,0.000000,0.000000,0.000000,0.000000,0.000000,0.000000,0.000000,1772722293.168741,0.000000
208.000000,-12780.235741,-17753.700048,2730.779675,-31023.170772,10532.656077,2820.700743,-22356.483025,-28398.964214,3085.725377,-1816.772141,6229.632345,208.385314,7946.045154,7033.490483,-11093.550753,-5300.224459,0.013000,-0.014000,1.000000,192.000000,0.000000,0.000000,0.000000,0.000000,0.000000,0.000000,0.000000,0.000000,0.000000,1772722293.168753,0.000000
210.000000,-12788.796459,-17759.511502,2719.827321,-31021.472039,10524.430636,2823.338249,-22366.474255,-28411.436488,3092.252087,-1812.614717,6240.875273,218.488302,7956.773991,7042.162960,-11073.992976,-5307.846404,0.012500,-0.013000,1.000000,192.000000,0.000000,48.000000,127.500000,80.000000,15.500000,32.000000,0.000000,0.000000,0.000000,1772722293.168765,0.000000
212.000000,-12792.685663,-17761.009069,2710.417236,-31018.387499,10525.861147,2827.540377,-22370.899900,-28417.896142,3080.070386,-1812.011220,6217.160072,212.833311,7938.222043,7038.318460,-11091.963779,-5295.016503,0.012500,-0.013000,1.000000,192.000000,0.000000,0.000000,0.000000,0.000000,0.000000,0.000000,0.000000,0.000000,0.000000,1772722293.168777,0.000000
214.000000,-12784.527276,-17751.800150,2719.447341,-31006.071687,10546.447104,2845.891159,-22355.454845,-28404.842723,3086.083005,-1803.316391,6225.251403,228.256014,7950.023764,7044.867521,-11066.303976,-5292.311942,0.012500,-0.013000,1.000000,192.000000,0.000000,0.000000,0.000000,0.000000,0.000000,0.000000,0.000000,0.000000,0.000000,1772722293.168789,0.000000
216.000000,-12798.050081,-17768.563958,2698.257887,-31023.371938,10531.270269,2847.120505,-22372.263357,-28421.226552,3078.014025,-1817.889728,6216.131892,216.767218,7945.732229,7038.609032,-11072.607168,-5283.415947,0.012500,-0.013000,1.000000,192.000000,0.000000,0.000000,0.000000,0.000000,0.000000,0.000000,0.000000,0.000000,0.000000,1772722293.168801,0.000000
218.000000,-12785.935436,-17758.282156,2707.846786,-31005.468190,10544.971889,2880.156384,-22360.305173,-28410.207142,3073.700139,-1822.695353,6209.135796,207.982982,7933.863453,7044.711059,-11078.262160,-5260.840685,0.012500,-0.013000,1.000000,192.000000,0.000000,0.000000,0.000000,0.000000,0.000000,0.000000,0.000000,0.000000,0.000000,1772722293.168814,0.000000
220.000000,-12789.712881,-17765.747638,2704.091692,-31012.732507,10536.053543,2870.902761,-22363.255604,-28415.482153,3085.948895,-1819.744923,6228.447703,212.520386,7956.528122,7065.744050,-11066.929825,-5253.464610,0.012250,-0.014500,1.001000,192.000000,0.000000,48.000000,127.500000,64.000000,15.500000,40.000000,0.000000,0.000000,0.000000,1772722293.168826,0.000000
222.000000,-12797.424233,-17776.655290,2705.119873,-31022.343757,10520.384970,2848.103982,-22364.194377,-28418.857267,3076.605866,-1833.334784,6216.020133,192.537927,7946.983927,7031.635288,-11101.016235,-5254.358680,0.012250,-0.014500,1.001000,192.000000,0.000000,0.000000,0.000000,0.000000,0.000000,0.000000,0.000000,0.000000,0.000000,1772722293.168838,0.000000
224.000000,-12783.454392,-17760.763199,2725.929347,-31016.442897,10534.421865,2847.925168,-22349.889261,-28403.836894,3086.641799,-1828.573862,6236.002593,204.943145,7951.364869,7045.716887,-11088.387500,-5260.125430,0.012250,-0.014500,1.001000,192.000000,0.000000,0.000000,0.000000,0.000000,0.000000,0.000000,0.000000,0.000000,0.000000,1772722293.168850,0.000000
226.000000,-12801.335788,-17778.108153,2704.739893,-31041.342740,10513.143005,2814.621069,-22370.810493,-28422.992339,3083.244334,-1836.531083,6230.794636,203.423226,7945.978099,7019.006553,-11096.925866,-5274.028215,0.012250,-0.014500,1.001000,192.000000,0.000000,0.000000,0.000000,0.000000,0.000000,0.000000,0.000000,0.000000,0.000000,1772722293.168862,0.000000
228.000000,-12798.698282,-17772.922548,2712.428893,-31032.223228,10525.816444,2819.493749,-22359.254641,-28414.543380,3069.453307,-1844.063621,6215.997781,197.365904,7933.505825,7007.808329,-11103.765500,-5287.908648,0.012250,-0.014500,1.001000,192.000000,0.000000,0.000000,0.000000,0.000000,0.000000,0.000000,0.000000,0.000000,0.000000,1772722293.168873,0.000000
230.000000,-12809.941210,-17784.925435,2701.185966,-31039.219324,10507.823289,2811.894156,-22365.401371,-28424.758127,3069.766232,-1847.036403,6222.636249,203.311468,7939.473741,7027.053181,-11088.678073,-5299.330389,0.009125,-0.016250,1.001500,192.000000,0.000000,24.000000,127.500000,56.000000,15.500000,40.000000,0.000000,0.000000,0.000000,1772722293.168885,0.000000
