Sample_index,EXG Channel 0,EXG Channel 1,EXG Channel 2,EXG Channel 3,EXG Channel 4,EXG Channel 5,EXG Channel 6,EXG Channel 7,EXG Channel 8,EXG Channel 9,EXG Channel 10,EXG Channel 11,EXG Channel 12,EXG Channel 13,EXG Channel 14,EXG Channel 15,Accel Channel 0,Accel Channel 1,Accel Channel 2,Not Used,Digital Channel 0 (D11),Digital Channel 1 (D12),Digital Channel 2 (D13),Digital Channel 3 (D17),Not Used,Digital Channel 4 (D18),Analog Channel 0,Analog Channel 1,Analog Channel 2,Timestamp,Marker Channel
90.000000,-10486.007987,-17985.018252,866.152449,-26291.015898,10450.289899,6094.538402,-18756.376953,-29057.983048,6864.846571,3054.187066,9953.947062,3053.784734,11675.791344,7302.918411,-13033.346895,-3486.872135,0.010000,-0.008000,1.002000,192.000000,0.000000,0.000000,0.000000,0.000000,0.000000,0.000000,0.000000,0.000000,0.000000,1772721171.838900,101.000000
92.000000,-10494.680464,-17996.618807,850.103897,-26311.892427,10426.306477,6069.795021,-18769.296261,-29066.208490,6859.839780,3037.780885,9938.278489,3035.344545,11654.065449,7276.521000,-13063.991137,-3488.459109,0.010000,-0.008000,1.002000,192.000000,0.000000,0.000000,0.000000,0.000000,0.000000,0.000000,0.000000,0.000000,0.000000,1772721171.838963,0.000000
94.000000,-10462.717469,-17960.274870,880.166993,-26281.337593,10453.262681,6079.898009,-18741.200118,-29031.093899,6870.613321,3051.638967,9959.020908,3053.717679,11665.554245,7285.104070,-13052.837617,-3499.299705,0.008000,-0.008000,0.998000,192.000000,0.000000,32.000000,127.500000,96.000000,15.500000,24.000000,0.000000,0.000000,0.000000,1772721171.839008,0.000000
96.000000,-10485.449193,-17985.018252,855.870647,-26305.902160,10428.675762,6059.133239,-18766.681107,-29059.525318,6876.737699,3054.544694,9963.513608,3059.149153,11682.765088,7285.729919,-13049.686021,-3502.741874,0.008000,-0.008000,0.998000,192.000000,0.000000,0.000000,0.000000,0.000000,0.000000,0.000000,0.000000,0.000000,0.000000,1772721171.839060,0.000000
98.000000,-10482.722280,-17980.614958,865.124269,-26294.927453,10433.235518,6060.362585,-18756.712229,-29056.977219,6866.679414,3039.725487,9940.580719,3036.998574,11652.701992,7265.993329,-13072.037765,-3493.510603,0.008000,-0.008000,0.998000,192.000000,0.000000,0.000000,0.000000,0.000000,0.000000,0.000000,0.000000,0.000000,0.000000,1772721171.839156,0.000000
100.000000,-10499.821365,-17998.049319,856.809420,-26299.196637,10419.735064,6058.887370,-18755.035848,-29069.561251,6868.869885,3043.212359,9955.556387,3053.292996,11678.250036,7278.666768,-13048.724896,-3504.418254,0.008000,-0.008000,0.998000,192.000000,0.000000,0.000000,0.000000,0.000000,0.000000,0.000000,0.000000,0.000000,0.000000,1772721171.839236,0.000000
102.000000,-10537.037019,-18039.690618,824.734667,-26334.825317,10386.475669,6030.880634,-18782.617901,-29110.308481,6837.242167,3004.655600,9911.992837,3008.276583,11629.567937,7242.814570,-13076.239893,-3495.991647,0.008000,-0.008000,0.998000,192.000000,0.000000,0.000000,0.000000,0.000000,0.000000,0.000000,0.000000,0.000000,0.000000,1772721171.839264,0.000000
104.000000,-10527.448121,-18024.469081,845.901769,-26314.351119,10410.727311,6065.056451,-18762.724848,-29093.321156,6825.261632,2994.776129,9907.075454,2998.844147,11626.058713,7239.528863,-13063.409992,-3496.326923,0.006000,-0.008000,1.000000,192.000000,0.000000,24.000000,127.500000,96.000000,15.500000,32.000000,0.000000,0.000000,0.000000,1772721171.839290,0.000000
106.000000,-10549.933976,-18050.151235,822.521844,-26340.167384,10391.482459,6051.712460,-18785.590683,-29112.811877,6819.919565,2993.166803,9907.857765,2993.904411,11626.170471,7242.345183,-13052.569396,-3488.794385,0.006000,-0.008000,1.000000,192.000000,0.000000,0.000000,0.000000,0.000000,0.000000,0.000000,0.000000,0.000000,0.000000,1772721171.839316,0.000000
108.000000,-10523.782435,-18021.898630,843.934815,-26316.787459,10415.644695,6066.397556,-18766.591700,-29085.140417,6817.572632,2989.411710,9897.799480,2989.881097,11615.307524,7241.942852,-13065.913387,-3469.974216,0.006000,-0.008000,1.000000,192.000000,0.000000,0.000000,0.000000,0.000000,0.000000,0.000000,0.000000,0.000000,0.000000,1772721171.839342,0.000000
110.000000,-10499.821365,-17998.809278,858.128173,-26297.810828,10426.731160,6090.492736,-18751.504272,-29067.080208,6848.976833,3027.163807,9942.927652,3031.075362,11662.246187,7272.318872,-13038.510148,-3476.858554,0.006000,-0.008000,1.000000,192.000000,0.000000,0.000000,0.000000,0.000000,0.000000,0.000000,0.000000,0.000000,0.000000,1772721171.839360,0.000000
112.000000,-10503.755272,-18003.927827,845.857065,-26310.260750,10411.442567,6081.037948,-18764.714153,-29073.539862,6852.754277,3029.913071,9932.467035,3027.566138,11650.489169,7272.788259,-13065.645166,-3460.362966,0.006000,-0.008000,1.000000,192.000000,0.000000,0.000000,0.000000,0.000000,0.000000,0.000000,0.000000,0.000000,0.000000,1772721171.839373,0.000000
114.000000,-10468.506571,-17962.733562,879.451737,-26273.872110,10446.512454,6102.965010,-18734.315781,-29033.217315,6867.104097,3054.365880,9953.656489,3051.706022,11682.027481,7292.703663,-13055.005736,-3474.601027,0.008000,-0.016000,1.006000,192.000000,0.000000,32.000000,127.500000,64.000000,15.500000,56.000000,0.000000,0.000000,0.000000,1772721171.839386,0.000000
116.000000,-10483.817516,-17981.598435,860.273941,-26300.649500,10418.840995,6073.371300,-18759.416790,-29049.869364,6872.490868,3066.704043,9964.519437,3062.054880,11677.244208,7292.882477,-13050.468332,-3483.720539,0.008000,-0.016000,1.006000,192.000000,0.000000,0.000000,0.000000,0.000000,0.000000,0.000000,0.000000,0.000000,0.000000,1772721171.839397,0.000000
118.000000,-10474.139210,-17972.344812,873.863801,-26293.698107,10425.434759,6079.450974,-18749.671429,-29037.777071,6868.579312,3050.767249,9952.337736,3044.844037,11652.366716,7279.493782,-13069.176742,-3482.938228,0.008000,-0.016000,1.006000,192.000000,0.000000,0.000000,0.000000,0.000000,0.000000,0.000000,0.000000,0.000000,0.000000,1772721171.839409,0.000000
120.000000,-10480.777679,-17982.738374,874.243781,-26297.386145,10424.875966,6069.370338,-18745.871633,-29045.175498,6874.726042,3060.020871,9975.918827,3059.037394,11686.363719,7300.549126,-13042.533462,-3509.805025,0.008000,-0.016000,1.006000,192.000000,0.000000,0.000000,0.000000,0.000000,0.000000,0.000000,0.000000,0.000000,0.000000,1772721171.839420,0.000000
122.000000,-10514.238240,-18018.277647,844.873589,-26322.397747,10395.505773,6046.526855,-18770.100924,-29083.218167,6849.423867,3032.304708,9938.122027,3026.157978,11651.964385,7270.396622,-13066.472181,-3498.539746,0.008000,-0.016000,1.006000,192.000000,0.000000,0.000000,0.000000,0.000000,0.000000,0.000000,0.000000,0.000000,0.000000,1772721171.839430,0.000000
124.000000,-10498.524964,-17994.942426,868.454679,-26289.652442,10426.552347,6081.730852,-18750.453740,-29069.605955,6845.199388,3034.785752,9932.154111,3027.923766,11657.664079,7271.693024,-13055.475122,-3498.942077,0.007000,-0.016000,1.007000,192.000000,0.000000,24.000000,127.500000,64.000000,15.500000,64.000000,0.000000,0.000000,0.000000,1772721171.839441,0.000000
126.000000,-10528.990391,-18028.224174,835.642318,-26318.687358,10398.858535,6067.917474,-18785.031889,-29104.966415,6838.627975,3028.460208,9924.822739,3024.280432,11649.438637,7271.693024,-13049.015468,-3490.537821,0.007000,-0.016000,1.007000,192.000000,0.000000,0.000000,0.000000,0.000000,0.000000,0.000000,0.000000,0.000000,0.000000,1772721171.839453,0.000000
128.000000,-10528.073970,-18026.927772,841.587882,-26317.547419,10409.207393,6067.112811,-18779.890988,-29095.891606,6822.758236,3005.348504,9898.268866,2997.078359,11627.712742,7252.269358,-13065.779277,-3471.650597,0.007000,-0.016000,1.007000,192.000000,0.000000,0.000000,0.000000,0.000000,0.000000,0.000000,0.000000,0.000000,0.000000,1772721171.839464,0.000000
130.000000,-10527.157548,-18026.324275,847.600501,-26321.123698,10423.221937,6063.804753,-18774.727735,-29090.773057,6826.021591,3012.501062,9922.609916,3015.786769,11646.331745,7265.590997,-13028.965953,-3481.351254,0.007000,-0.016000,1.007000,192.000000,0.000000,0.000000,0.000000,0.000000,0.000000,0.000000,0.000000,0.000000,0.000000,1772721171.839476,0.000000
132.000000,-10545.374220,-18048.832482,827.774504,-26341.799062,10409.877945,6057.725079,-18790.418659,-29111.873104,6814.689257,2989.344655,9902.292180,2986.148356,11622.750655,7236.578433,-13045.729762,-3458.351309,0.007000,-0.016000,1.007000,192.000000,0.000000,0.000000,0.000000,0.000000,0.000000,0.000000,0.000000,0.000000,0.000000,1772721171.839486,0.000000
134.000000,-10514.707627,-18016.444804,853.657824,-26303.287006,10436.118893,6095.164251,-18755.706400,-29082.704077,6825.082818,3002.778054,9914.809157,3000.520527,11636.273460,7246.748477,-13039.203052,-3459.603007,0.006500,-0.016000,1.004500,192.000000,0.000000,24.000000,127.500000,64.000000,15.500000,40.000000,0.000000,0.000000,0.000000,1772721171.839498,0.000000
136.000000,-10529.415075,-18033.812110,828.847388,-26325.147012,10410.012056,6079.115698,-18778.885159,-29107.067479,6831.855396,3010.489405,9920.978239,3008.768321,11643.627184,7264.585169,-13043.181663,-3457.077260,0.006500,-0.016000,1.004500,192.000000,0.000000,0.000000,0.000000,0.000000,0.000000,0.000000,0.000000,0.000000,0.000000,1772721171.839509,0.000000
138.000000,-10512.472452,-18009.806336,846.259397,-26306.706823,10417.119910,6092.951428,-18764.110656,-29084.380458,6826.155701,3010.712923,9904.952038,2997.815966,11625.119939,7255.979747,-13077.022204,-3452.249283,0.006500,-0.016000,1.004500,192.000000,0.000000,0.000000,0.000000,0.000000,0.000000,0.000000,0.000000,0.000000,0.000000,1772721171.839520,0.000000
140.000000,-10487.125574,-17986.895798,866.621836,-26296.246206,10417.231669,6086.178849,-18748.419732,-29053.356237,6851.122600,3042.564159,9950.795466,3039.904301,11669.197580,7287.942742,-13054.893977,-3474.489269,0.006500,-0.016000,1.004500,192.000000,0.000000,0.000000,0.000000,0.000000,0.000000,0.000000,0.000000,0.000000,0.000000,1772721171.839531,0.000000
142.000000,-10487.058519,-17993.936598,857.614083,-26317.547419,10394.902276,6050.237244,-18763.283642,-29052.395112,6863.349004,3034.785752,9951.242501,3036.842112,11658.222873,7270.754250,-13076.888094,-3482.021806,0.006500,-0.016000,1.004500,192.000000,0.000000,0.000000,0.000000,0.000000,0.000000,0.000000,0.000000,0.000000,0.000000,1772721171.839542,0.000000
144.000000,-10449.507588,-17955.692763,892.348694,-26287.841950,10423.870137,6063.804753,-18730.270115,-29011.290254,6885.298417,3053.963548,9983.473716,3059.596188,11692.063414,7279.650245,-13062.471218,-3502.563060,0.005250,-0.015000,1.001250,192.000000,0.000000,16.000000,127.500000,72.000000,15.500000,24.000000,0.000000,0.000000,0.000000,1772721171.839553,0.000000
146.000000,-10482.275245,-17989.466249,862.397356,-26317.569771,10394.209372,6031.640593,-18758.075685,-29048.617667,6884.672568,3050.677842,9984.703062,3062.859543,11686.073147,7272.005948,-13055.832750,-3513.738932,0.005250,-0.015000,1.001250,192.000000,0.000000,0.000000,0.000000,0.000000,0.000000,0.000000,0.000000,0.000000,0.000000,1772721171.839564,0.000000
148.000000,-10483.593998,-17986.225246,864.543124,-26301.923549,10404.826451,6044.604605,-18752.890081,-29053.669161,6860.331519,3028.884891,9945.699268,3035.322194,11649.706858,7253.029317,-13078.609178,-3504.619420,0.005250,-0.015000,1.001250,192.000000,0.000000,0.000000,0.000000,0.000000,0.000000,0.000000,0.000000,0.000000,0.000000,1772721171.839575,0.000000
150.000000,-10488.936065,-17993.802487,863.224371,-26298.637843,10410.682608,6054.461724,-18752.867729,-29059.480615,6862.700804,3040.865426,9957.791562,3049.783772,11668.571731,7276.632759,-13050.669497,-3513.537766,0.005250,-0.015000,1.001250,192.000000,0.000000,0.000000,0.000000,0.000000,0.000000,0.000000,0.000000,0.000000,0.000000,1772721171.839586,0.000000
152.000000,-10517.546298,-18026.503089,841.051440,-26326.421061,10394.969332,6039.955442,-18779.913340,-29089.253138,6842.785399,3012.255193,9927.616707,3018.357220,11638.866262,7248.491913,-13067.947396,-3493.778824,0.005250,-0.015000,1.001250,192.000000,0.000000,0.000000,0.000000,0.000000,0.000000,0.000000,0.000000,0.000000,0.000000,1772721171.839597,0.000000
154.000000,-10491.953551,-17996.462345,868.633493,-26302.214122,10434.889547,6069.325634,-18757.360429,-29062.967487,6842.852455,3010.534109,9934.121064,3017.709019,11643.962460,7256.650300,-13050.423628,-3489.666103,0.005625,-0.014500,1.001625,192.000000,0.000000,24.000000,127.500000,72.000000,15.500000,40.000000,0.000000,0.000000,0.000000,1772721171.839608,0.000000
156.000000,-10508.493842,-18015.170755,843.577187,-26329.438547,10418.081035,6051.220721,-18781.276796,-29085.766266,6846.942824,3017.373743,9939.060800,3023.162845,11657.395858,7256.203265,-13034.464483,-3486.827432,0.005625,-0.014500,1.001625,192.000000,0.000000,0.000000,0.000000,0.000000,0.000000,0.000000,0.000000,0.000000,0.000000,1772721171.839619,0.000000
158.000000,-10500.000179,-18002.921999,852.517885,-26314.105250,10433.973126,6077.416966,-18769.609185,-29076.557347,6839.097361,3010.779978,9918.899526,3006.689609,11641.973155,7242.300480,-13052.591747,-3465.973254,0.005625,-0.014500,1.001625,192.000000,0.000000,0.000000,0.000000,0.000000,0.000000,0.000000,0.000000,0.000000,0.000000,1772721171.839630,0.000000
160.000000,-10504.761100,-18005.559505,856.116516,-26304.337538,10440.298669,6091.677379,-18763.685973,-29082.189987,6848.887426,3036.529188,9939.530187,3032.997612,11663.631995,7270.731899,-13028.317753,-3465.839143,0.005625,-0.014500,1.001625,192.000000,0.000000,0.000000,0.000000,0.000000,0.000000,0.000000,0.000000,0.000000,0.000000,1772721171.839641,0.000000
162.000000,-10529.705647,-18035.264973,833.474199,-26325.884619,10417.969277,6088.212858,-18785.098944,-29113.102450,6832.257728,3012.881042,9906.069625,2999.447644,11638.978021,7253.990442,-13056.927986,-3446.750754,0.005625,-0.014500,1.001625,192.000000,0.000000,0.000000,0.000000,0.000000,0.000000,0.000000,0.000000,0.000000,0.000000,1772721171.839652,0.000000
164.000000,-10487.729071,-17989.533304,868.946417,-26289.048945,10451.720411,6124.825016,-18747.168034,-29066.700228,6843.724173,3022.000554,9925.627402,3012.389304,11657.641728,7269.100221,-13053.798742,-3452.942187,0.005812,-0.015250,1.004813,192.000000,0.000000,24.000000,127.500000,64.000000,15.500000,64.000000,0.000000,0.000000,0.000000,1772721171.839664,0.000000
166.000000,-10504.112900,-18006.118298,847.220522,-26314.753451,10410.146166,6089.777480,-18764.960023,-29080.893586,6858.565731,3038.943176,9944.335812,3031.969432,11666.470667,7281.706605,-13055.944509,-3463.939245,0.005812,-0.015250,1.004813,192.000000,0.000000,0.000000,0.000000,0.000000,0.000000,0.000000,0.000000,0.000000,0.000000,1772721171.839674,0.000000
168.000000,-10488.533734,-17988.236903,865.548952,-26302.951730,10411.688436,6061.860152,-18746.609240,-29054.965562,6847.926301,3032.461170,9929.337791,3026.247385,11643.984812,7255.599768,-13087.035786,-3482.670007,0.005812,-0.015250,1.004813,192.000000,0.000000,0.000000,0.000000,0.000000,0.000000,0.000000,0.000000,0.000000,0.000000,1772721171.839685,0.000000
170.000000,-10488.556086,-17988.482772,874.199077,-26298.816657,10405.988742,6050.706631,-18738.696723,-29045.197850,6859.482152,3046.900397,9963.401850,3059.395022,11671.432754,7269.122573,-13062.761791,-3523.059609,0.005812,-0.015250,1.004813,192.000000,0.000000,0.000000,0.000000,0.000000,0.000000,0.000000,0.000000,0.000000,0.000000,1772721171.839707,0.000000
172.000000,-10509.276153,-18016.109528,852.406127,-26331.204335,10378.518448,6012.999238,-18763.283642,-29068.845996,6842.360716,3016.658487,9945.900434,3028.683725,11642.174320,7240.266471,-13088.868629,-3519.751551,0.005812,-0.015250,1.004813,192.000000,0.000000,0.000000,0.000000,0.000000,0.000000,0.000000,0.000000,0.000000,0.000000,1772721171.839718,0.000000
174.000000,-10482.699929,-17987.253426,878.535316,-26310.171343,10404.066492,6029.092494,-18740.350752,-29039.542859,6851.100248,3019.273641,9961.457248,3033.087019,11655.294794,7240.087657,-13074.719974,-3530.301575,0.006906,-0.017625,1.004406,192.000000,0.000000,32.000000,127.500000,48.000000,15.500000,48.000000,0.000000,0.000000,0.000000,1772721171.839728,0.000000
176.000000,-10507.599772,-18013.404967,851.713222,-26340.145032,10380.507753,6009.087683,-18769.832703,-29072.824606,6847.188693,3015.563251,9959.333832,3033.981089,11667.409440,7238.970070,-13063.901730,-3533.073191,0.006906,-0.017625,1.004406,192.000000,0.000000,0.000000,0.000000,0.000000,0.000000,0.000000,0.000000,0.000000,0.000000,1772721171.839739,0.000000
178.000000,-10502.615333,-18007.526458,862.151487,-26331.673721,10404.200602,6031.908814,-18766.725810,-29072.757551,6837.197463,2999.872327,9929.136625,3007.717789,11628.629163,7230.096427,-13072.328338,-3514.923574,0.006906,-0.017625,1.004406,192.000000,0.000000,0.000000,0.000000,0.000000,0.000000,0.000000,0.000000,0.000000,0.000000,1772721171.839750,0.000000
180.000000,-10499.150813,-18005.335987,867.739423,-26325.683454,10419.355085,6044.761067,-18765.272947,-29069.874176,6849.915606,3020.704153,9951.242501,3026.157978,11656.702954,7252.694041,-13034.620945,-3525.808874,0.006906,-0.017625,1.004406,192.000000,0.000000,0.000000,0.000000,0.000000,0.000000,0.000000,0.000000,0.000000,0.000000,1772721171.839760,0.000000
182.000000,-10518.328609,-18028.179470,846.393507,-26341.128509,10411.174346,6041.877692,-18788.496409,-29091.756534,6837.488036,3003.470958,9926.186195,3001.861632,11633.680658,7241.093485,-13050.289518,-3505.088807,0.006906,-0.017625,1.004406,192.000000,0.000000,0.000000,0.000000,0.000000,0.000000,0.000000,0.000000,0.000000,0.000000,1772721171.839771,0.000000
184.000000,-10489.628969,-17992.237865,874.847278,-26294.927453,10459.856446,6084.211896,-18757.919223,-29059.257097,6842.740696,3018.044295,9935.775094,3016.569080,11649.952728,7253.252834,-13033.592765,-3495.343446,0.007453,-0.017813,1.003203,192.000000,0.000000,32.000000,127.500000,56.000000,15.500000,40.000000,0.000000,0.000000,0.000000,1772721171.839782,0.000000
186.000000,-10511.220755,-18014.164926,845.454734,-26313.077070,10449.328774,6081.395576,-18782.416735,-29087.487350,6846.071106,3024.660411,9937.540881,3030.069534,11663.341422,7270.955416,-13020.248773,-3475.159821,0.007453,-0.017813,1.003203,192.000000,0.000000,0.000000,0.000000,0.000000,0.000000,0.000000,0.000000,0.000000,0.000000,1772721171.839793,0.000000
188.000000,-10503.419996,-18004.531324,850.103897,-26303.532875,10462.806876,6088.302265,-18773.163113,-29082.122932,6841.265481,3014.959754,9914.965619,3010.891737,11644.722419,7263.154657,-13041.929965,-3455.356175,0.007453,-0.017813,1.003203,192.000000,0.000000,0.000000,0.000000,0.000000,0.000000,0.000000,0.000000,0.000000,0.000000,1772721171.839804,0.000000
190.000000,-10502.034188,-18003.726662,851.668519,-26302.392936,10460.951681,6094.940733,-18768.983337,-29082.502911,6850.832027,3033.265833,9938.032620,3030.158941,11675.701937,7277.079794,-13018.482985,-3469.504830,0.007453,-0.017813,1.003203,192.000000,0.000000,0.000000,0.000000,0.000000,0.000000,0.000000,0.000000,0.000000,0.000000,1772721171.839815,0.000000
192.000000,-10521.167281,-18023.507955,833.898882,-26325.795212,10426.775864,6072.812506,-18788.854037,-29104.318214,6838.672678,3013.462187,9914.071550,3005.750836,11649.304527,7260.807724,-13049.440151,-3459.513600,0.007453,-0.017813,1.003203,192.000000,0.000000,0.000000,0.000000,0.000000,0.000000,0.000000,0.000000,0.000000,0.000000,1772721171.839826,0.000000
194.000000,-10492.087661,-17992.461382,870.935723,-26294.323956,10442.913823,6086.670588,-18754.164130,-29067.437836,6844.975870,3021.642926,9928.756646,3016.077342,11660.234530,7268.183800,-13053.262300,-3475.249228,0.007453,-0.017813,1.003203,192.000000,0.000000,0.000000,0.000000,0.000000,0.000000,0.000000,0.000000,0.000000,0.000000,1772721171.839837,0.000000
196.000000,-10514.349999,-18018.724682,852.696699,-26321.324864,10401.183117,6046.012765,-18771.106752,-29084.380458,6846.339327,3020.480635,9940.357201,3028.236691,11659.765143,7259.198398,-13057.151503,-3492.728292,0.012000,-0.018000,0.998000,192.000000,0.000000,48.000000,127.500000,56.000000,15.500000,24.000000,0.000000,0.000000,0.000000,1772721171.839848,0.000000
198.000000,-10499.351978,-18000.955045,862.509115,-26315.334596,10394.902276,6037.563805,-18757.807464,-29060.508795,6833.777646,3008.164824,9924.956849,3015.764417,11626.170471,7235.013811,-13087.281655,-3504.060627,0.012000,-0.018000,0.998000,192.000000,0.000000,0.000000,0.000000,0.000000,0.000000,0.000000,0.000000,0.000000,0.000000,1772721171.839859,0.000000
200.000000,-10489.696025,-17991.232036,867.672368,-26311.847724,10393.695282,6024.689200,-18747.346848,-29046.069568,6847.948652,3027.432028,9958.797390,3050.677842,11651.964385,7253.766925,-13067.343899,-3533.564929,0.012000,-0.018000,0.998000,192.000000,0.000000,0.000000,0.000000,0.000000,0.000000,0.000000,0.000000,0.000000,0.000000,1772721171.839869,0.000000
202.000000,-10516.741635,-18023.887935,842.750173,-26338.826280,10363.878055,5992.547392,-18769.787999,-29073.115179,6831.430713,3000.766397,9936.155073,3026.605013,11626.908079,7229.559985,-13090.008568,-3529.251043,0.012000,-0.018000,0.998000,192.000000,0.000000,0.000000,0.000000,0.000000,0.000000,0.000000,0.000000,0.000000,0.000000,1772721171.839880,0.000000
204.000000,-10501.944781,-18006.453574,866.264208,-26313.904084,10393.918800,6011.524023,-18748.620897,-29056.217260,6829.664925,2999.045312,9940.223091,3021.285298,11631.221966,7231.593994,-13080.866704,-3533.989612,0.012000,-0.018000,0.998000,192.000000,0.000000,0.000000,0.000000,0.000000,0.000000,0.000000,0.000000,0.000000,0.000000,1772721171.839891,0.000000
206.000000,-10528.856281,-18033.454482,838.726859,-26336.211125,10376.976177,6002.516270,-18775.666508,-29085.743914,6827.452103,3000.140548,9936.624460,3021.173539,11632.272498,7224.776712,-13068.193265,-3526.747647,0.012000,-0.012000,1.002000,192.000000,0.000000,48.000000,127.500000,80.000000,15.500000,40.000000,0.000000,0.000000,0.000000,1772721171.839902,0.000000
208.000000,-10506.348074,-18007.884086,850.729746,-26314.909913,10398.858535,6033.875767,-18764.088305,-29067.080208,6816.566803,2995.312571,9910.092939,3013.708057,11620.090797,7225.804892,-13083.660672,-3498.182118,0.012000,-0.012000,1.002000,192.000000,0.000000,0.000000,0.000000,0.000000,0.000000,0.000000,0.000000,0.000000,0.000000,1772721171.839912,0.000000
210.000000,-10487.907885,-17991.008519,866.308912,-26301.588273,10418.371608,6046.079820,-18754.722924,-29052.730388,6845.534664,3027.677897,9945.811027,3048.599130,11655.048925,7259.779544,-13048.859006,-3502.406597,0.012000,-0.012000,1.002000,192.000000,0.000000,0.000000,0.000000,0.000000,0.000000,0.000000,0.000000,0.000000,0.000000,1772721172.319705,0.000000
212.000000,-10501.117766,-18009.783984,853.568417,-26316.943922,10407.151032,6053.075916,-18772.537264,-29069.315382,6852.307242,3021.777036,9936.758570,3033.265833,11645.147102,7253.051669,-13063.030012,-3483.519373,0.012000,-0.012000,1.002000,192.000000,0.000000,0.000000,0.000000,0.000000,0.000000,0.000000,0.000000,0.000000,0.000000,1772721172.319768,0.000000
214.000000,-10465.466734,-17973.663565,889.442967,-26284.511540,10450.736934,6086.268256,-18743.211775,-29030.848030,6863.550170,3031.701211,9953.745896,3041.088944,11666.850646,7272.318872,-13050.691849,-3481.239495,0.012000,-0.012000,1.002000,192.000000,0.000000,0.000000,0.000000,0.000000,0.000000,0.000000,0.000000,0.000000,0.000000,1772721172.319821,0.000000
216.000000,-10484.957455,-17995.858848,868.074699,-26314.194657,10430.709771,6070.443221,-18766.703459,-29052.439815,6869.383975,3040.820723,9969.280358,3051.504857,11680.596969,7288.210963,-13038.867776,-3480.323074,0.004000,-0.018000,1.002000,192.000000,0.000000,16.000000,127.500000,56.000000,15.500000,40.000000,0.000000,0.000000,0.000000,1772721172.319869,0.000000
218.000000,-10483.012853,-17989.399193,876.411900,-26307.533837,10445.864254,6077.573428,-18761.227281,-29048.930591,6858.453972,3023.609879,9942.815893,3030.583624,11662.357946,7261.835904,-13057.263262,-3473.148164,0.004000,-0.018000,1.002000,192.000000,0.000000,0.000000,0.000000,0.000000,0.000000,0.000000,0.000000,0.000000,0.000000,1772721172.319926,0.000000
220.000000,-10477.559027,-17982.850132,877.529487,-26290.904139,10457.867141,6091.453861,-18754.409999,-29047.991818,6869.115754,3045.000499,9966.396983,3059.506781,11690.431737,7285.104070,-13028.451863,-3486.894487,0.004000,-0.018000,1.002000,192.000000,0.000000,0.000000,0.000000,0.000000,0.000000,0.000000,0.000000,0.000000,0.000000,1772721172.319975,0.000000
222.000000,-10506.236316,-18012.108566,846.795839,-26312.317111,10431.380323,6064.899989,-18779.108677,-29079.664240,6857.828123,3025.129798,9936.222128,3032.416467,11666.314204,7262.081774,-13055.251605,-3478.065548,0.004000,-0.018000,1.002000,192.000000,0.000000,0.000000,0.000000,0.000000,0.000000,0.000000,0.000000,0.000000,0.000000,1772721172.319988,0.000000
224.000000,-10483.996330,-17986.739336,870.354577,-26286.858474,10450.938100,6088.481079,-18752.174825,-29056.932516,6852.575463,3029.913071,9934.657506,3030.449513,11672.013899,7272.520038,-13052.636451,-3487.475632,0.004000,-0.018000,1.002000,192.000000,0.000000,0.000000,0.000000,0.000000,0.000000,0.000000,0.000000,0.000000,0.000000,1772721172.320002,0.000000
226.000000,-10512.405397,-18017.160060,843.823057,-26325.325826,10403.552401,6047.286814,-18780.002747,-29092.561196,6848.149818,3026.537958,9931.438855,3027.141455,11668.214103,7276.163373,-13054.111666,-3501.534879,0.002000,-0.018000,1.006000,192.000000,0.000000,8.000000,127.500000,56.000000,15.500000,56.000000,0.000000,0.000000,0.000000,1772721172.320019,0.000000
228.000000,-10518.418016,-18021.786871,854.820115,-26327.806869,10397.450375,6034.345154,-18771.665546,-29087.085019,6831.341306,3000.699341,9906.203736,3002.353370,11633.703009,7237.651317,-13083.392451,-3502.406597,0.002000,-0.018000,1.006000,192.000000,0.000000,0.000000,0.000000,0.000000,0.000000,0.000000,0.000000,0.000000,0.000000,1772721172.320034,0.000000
230.000000,-10525.883499,-18027.643028,859.648092,-26330.913762,10398.031521,6024.845663,-18766.099962,-29087.822627,6822.378257,3006.779016,9930.343620,3021.173539,11647.002297,7242.300480,-13054.178721,-3527.060572,0.002000,-0.018000,1.006000,192.000000,0.000000,0.000000,0.000000,0.000000,0.000000,0.000000,0.000000,0.000000,0.000000,1772721172.320046,0.000000
232.000000,-10557.980604,-18061.014183,828.400353,-26355.321867,10376.126811,6005.310238,-18790.128087,-29117.639854,6793.589210,2975.151297,9896.234858,2991.266905,11613.407625,7206.425930,-13073.222407,-3516.443493,0.002000,-0.018000,1.006000,192.000000,0.000000,0.000000,0.000000,0.000000,0.000000,0.000000,0.000000,0.000000,0.000000,1772721172.320059,0.000000
234.000000,-10528.386894,-18029.028836,852.339071,-26319.648483,10411.017884,6032.869939,-18762.098999,-29086.079191,6791.868125,2978.861687,9899.341750,2997.301876,11617.386236,7202.872002,-13067.187436,-3511.995496,0.002000,-0.018000,1.006000,192.000000,0.000000,0.000000,0.000000,0.000000,0.000000,0.000000,0.000000,0.000000,0.000000,1772721172.320072,0.000000
236.000000,-10527.649287,-18033.946220,838.235121,-26328.388015,10396.466898,6033.294622,-18773.610148,-29093.075287,6808.453120,2990.216373,9916.731407,3009.103597,11631.780759,7215.992476,-13057.330317,-3504.552365,0.004000,-0.020000,1.006000,192.000000,0.000000,16.000000,127.500000,48.000000,15.500000,56.000000,0.000000,0.000000,0.000000,1772721172.320085,0.000000
238.000000,-10501.855374,-18008.599342,858.552856,-26306.863285,10414.907088,6056.294567,-18760.154398,-29070.254155,6819.740751,2991.602181,9914.451529,3000.945211,11627.846852,7220.820453,-13079.100916,-3486.447452,0.004000,-0.020000,1.006000,192.000000,0.000000,0.000000,0.000000,0.000000,0.000000,0.000000,0.000000,0.000000,0.000000,1772721172.320098,0.000000
240.000000,-10480.889437,-17987.856923,879.764662,-26294.279253,10432.252041,6072.231361,-18753.515929,-29055.770225,6845.489960,3026.537958,9955.087001,3039.591377,11678.026519,7269.748422,-13046.959108,-3497.958600,0.004000,-0.020000,1.006000,192.000000,0.000000,0.000000,0.000000,0.000000,0.000000,0.000000,0.000000,0.000000,0.000000,1772721172.320111,0.000000
242.000000,-10501.073063,-18007.481755,864.587827,-26322.755375,10414.236535,6050.594872,-18779.354546,-29081.027696,6844.819408,3019.988897,9938.591413,3023.676935,11668.459972,7256.583244,-13058.872588,-3490.493118,0.004000,-0.020000,1.006000,192.000000,0.000000,0.000000,0.000000,0.000000,0.000000,0.000000,0.000000,0.000000,0.000000,1772721172.320124,0.000000
244.000000,-10467.143114,-17967.896815,898.450720,-26292.580520,10446.154826,6070.622035,-18748.822063,-29042.336827,6853.491885,3033.645813,9949.163788,3033.243481,11670.873960,7262.260587,-13044.634526,-3502.540708,0.004000,-0.020000,1.006000,192.000000,0.000000,0.000000,0.000000,0.000000,0.000000,0.000000,0.000000,0.000000,0.000000,1772721172.320137,0.000000
246.000000,-10479.011891,-17977.798638,870.153412,-26312.540628,10423.713675,6049.343175,-18766.636403,-29053.959734,6860.890312,3043.637042,9962.552483,3055.349357,11676.461896,7265.613349,-13032.475177,-3510.743798,0.006000,-0.018000,1.004000,192.000000,0.000000,24.000000,127.500000,56.000000,15.500000,48.000000,0.000000,0.000000,0.000000,1772721172.320150,0.000000
248.000000,-10472.753402,-17965.549882,864.543124,-26297.386145,10436.454169,6049.767858,-18759.260328,-29048.461205,6845.288795,3038.496141,9936.669163,3049.090868,11651.472646,7251.531750,-13056.905634,-3503.211260,0.006000,-0.018000,1.004000,192.000000,0.000000,0.000000,0.000000,0.000000,0.000000,0.000000,0.000000,0.000000,0.000000,1772721172.320163,0.000000
250.000000,-10477.000234,-17965.840455,857.614083,-26288.020764,10438.801102,6067.381032,-18757.271022,-29050.003475,6852.776629,3059.037394,9956.450457,3073.834249,11676.640710,7278.800878,-13032.743398,-3509.916784,0.006000,-0.018000,1.004000,192.000000,0.000000,0.000000,0.000000,0.000000,0.000000,0.000000,0.000000,0.000000,0.000000,1772721172.320178,0.000000
252.000000,-10513.165356,-18006.386519,823.751190,-26319.134393,10396.735119,6034.546320,-18786.194180,-29085.051010,6828.167358,3028.907243,9921.671143,3040.776019,11639.514463,7254.795105,-13060.079582,-3493.108272,0.006000,-0.018000,1.004000,192.000000,0.000000,0.000000,0.000000,0.000000,0.000000,0.000000,0.000000,0.000000,0.000000,1772721172.320191,0.000000
254.000000,-10501.922429,-17996.685862,846.192342,-26294.905102,10401.764262,6049.007898,-18761.227281,-29068.398961,6816.298582,3017.373743,9919.257154,3028.817836,11629.992620,7246.703773,-13062.493570,-3499.791443,0.006000,-0.018000,1.004000,192.000000,0.000000,0.000000,0.000000,0.000000,0.000000,0.000000,0.000000,0.000000,0.000000,1772721172.320204,0.000000
0.000000,-10535.651211,-18032.336895,822.857120,-26323.336521,10362.916930,6029.517177,-18785.590683,-29099.512589,6804.273344,3004.454434,9917.021980,3020.190063,11628.718570,7238.388924,-13063.052364,-3499.545574,0.006000,-0.018000,1.002000,192.000000,0.000000,24.000000,127.500000,56.000000,15.500000,40.000000,0.000000,0.000000,0.000000,1772721172.320217,0.000000
2.000000,-10522.776606,-18018.657627,842.638414,-26312.093593,10375.702128,6039.106076,-18774.191293,-29083.441685,6795.131480,2989.858745,9898.358273,3001.816929,11605.830384,7225.022581,-13090.477954,-3486.626266,0.006000,-0.018000,1.002000,192.000000,0.000000,0.000000,0.000000,0.000000,0.000000,0.000000,0.000000,0.000000,0.000000,1772721172.320230,0.000000
4.000000,-10494.456946,-17991.723775,862.777336,-26295.240378,10403.999436,6050.036079,-18756.309897,-29054.026789,6822.199443,3018.826606,9943.329983,3038.920824,11638.910966,7247.664898,-13060.839541,-3504.641772,0.006000,-0.018000,1.002000,192.000000,0.000000,0.000000,0.000000,0.000000,0.000000,0.000000,0.000000,0.000000,0.000000,1772721172.320243,0.000000
6.000000,-10510.684313,-18012.287380,840.827923,-26316.698052,10391.795384,6041.520064,-18776.873502,-29072.489330,6823.607603,3008.500100,9932.176463,3031.678859,11624.516442,7235.013811,-13073.580035,-3489.330827,0.006000,-0.018000,1.002000,192.000000,0.000000,0.000000,0.000000,0.000000,0.000000,0.000000,0.000000,0.000000,0.000000,1772721172.320256,0.000000
8.000000,-10485.359786,-17982.850132,871.852144,-26287.283157,10428.295783,6073.103079,-18751.280755,-29045.957809,6829.754332,3020.838263,9940.692477,3039.636080,11646.599966,7247.575491,-13059.073753,-3488.503812,0.006000,-0.018000,1.002000,192.000000,0.000000,0.000000,0.000000,0.000000,0.000000,0.000000,0.000000,0.000000,0.000000,1772721172.320269,0.000000
10.000000,-10500.335455,-18000.172734,849.634510,-26314.954616,10400.154936,6045.722192,-18777.231130,-29067.527243,6839.365582,3027.588490,9953.030640,3049.336737,11657.954652,7258.483143,-13047.942585,-3494.650542,0.006000,-0.016000,1.005000,192.000000,0.000000,24.000000,127.500000,72.000000,15.500000,64.000000,0.000000,0.000000,0.000000,1772721172.320282,0.000000
12.000000,-10494.613408,-17995.769441,859.737499,-26312.183000,10400.356102,6050.907797,-18771.978470,-29059.882946,6831.274251,3012.545766,9939.127855,3024.526301,11628.204480,7238.612442,-13071.747192,-3488.012074,0.006000,-0.016000,1.005000,192.000000,0.000000,0.000000,0.000000,0.000000,0.000000,0.000000,0.000000,0.000000,0.000000,1772721172.320295,0.000000
14.000000,-10488.913714,-17989.645063,871.069833,-26301.521218,10404.312361,6051.891273,-18762.724848,-29051.635152,6840.818446,3027.275566,9973.437783,3047.190970,11656.166513,7252.738744,-13045.193320,-3503.613592,0.006000,-0.016000,1.005000,192.000000,0.000000,0.000000,0.000000,0.000000,0.000000,0.000000,0.000000,0.000000,0.000000,1772721172.320308,0.000000
16.000000,-10520.586135,-18020.088139,842.884283,-26326.130489,10386.430965,6039.798980,-18790.664529,-29086.146246,6819.852509,3006.868423,9937.339716,3025.152150,11632.898347,7231.392828,-13059.923120,-3488.213240,0.006000,-0.016000,1.005000,192.000000,0.000000,0.000000,0.000000,0.000000,0.000000,0.000000,0.000000,0.000000,0.000000,1772721172.320321,0.000000
18.000000,-10500.827193,-17991.232036,866.487726,-26298.973119,10419.288030,6067.358681,-18767.195197,-29063.950963,6815.873899,3018.424275,9922.945192,3028.214339,11648.991603,7243.663936,-13047.316736,-3486.201583,0.006000,-0.016000,1.005000,192.000000,0.000000,0.000000,0.000000,0.000000,0.000000,0.000000,0.000000,0.000000,0.000000,1772721172.320335,0.000000
20.000000,-10521.167281,-18014.924886,838.771562,-26324.722329,10396.824526,6047.443276,-18789.166962,-29087.353240,6815.382161,3022.402885,9919.950058,3037.646775,11662.447353,7254.616291,-13035.649125,-3488.012074,0.005000,-0.015000,1.003500,192.000000,0.000000,16.000000,127.500000,72.000000,15.500000,40.000000,0.000000,0.000000,0.000000,1772721172.320347,0.000000
22.000000,-10511.332513,-18007.369996,842.101972,-26317.882695,10398.947942,6046.392744,-18782.304976,-29081.072400,6811.828233,3008.790673,9902.470994,3014.937403,11622.236564,7236.489026,-13060.794838,-3476.925609,0.005000,-0.015000,1.003500,192.000000,0.000000,0.000000,0.000000,0.000000,0.000000,0.000000,0.000000,0.000000,0.000000,1772721172.320360,0.000000
24.000000,-10499.843717,-17994.830667,851.355595,-26301.029480,10396.623361,6054.171151,-18767.664584,-29065.336772,6825.082818,3025.174502,9932.668201,3035.545711,11653.976042,7254.213959,-13043.472236,-3485.687493,0.005000,-0.015000,1.003500,192.000000,0.000000,0.000000,0.000000,0.000000,0.000000,0.000000,0.000000,0.000000,0.000000,1772721172.320373,0.000000
26.000000,-10514.439406,-18009.761633,825.494626,-26320.050814,10363.833352,6032.668773,-18785.210703,-29081.385324,6816.790320,3022.201720,9920.888832,3025.621536,11622.102454,7244.714468,-13077.201018,-3475.204524,0.005000,-0.015000,1.003500,192.000000,0.000000,0.000000,0.000000,0.000000,0.000000,0.000000,0.000000,0.000000,0.000000,1772721172.320389,0.000000
28.000000,-10481.716452,-17966.801580,861.413880,-26283.081029,10401.965428,6062.843628,-18750.565499,-29044.817870,6820.947745,3038.674955,9930.030695,3039.010231,11639.089780,7271.760079,-13082.744251,-3484.502850,0.005000,-0.015000,1.003500,192.000000,0.000000,0.000000,0.000000,0.000000,0.000000,0.000000,0.000000,0.000000,0.000000,1772721172.320402,0.000000
30.000000,-10489.003121,-17977.597472,854.104859,-26304.538704,10393.851744,6047.599739,-18767.955156,-29060.553498,6837.309222,3057.986862,9947.912091,3060.266740,11663.319071,7284.746442,-13070.808419,-3501.423121,0.004500,-0.015500,1.001750,192.000000,0.000000,16.000000,127.500000,64.000000,15.500000,32.000000,0.000000,0.000000,0.000000,1772721172.320415,0.000000
32.000000,-10474.094507,-17966.734525,873.036787,-26302.705860,10418.595126,6050.036079,-18760.556729,-29049.288219,6839.902024,3048.912054,9939.083152,3043.368822,11658.558149,7268.362614,-13084.197114,-3502.965391,0.004500,-0.015500,1.001750,192.000000,0.000000,0.000000,0.000000,0.000000,0.000000,0.000000,0.000000,0.000000,0.000000,1772721172.320429,0.000000
34.000000,-10466.025527,-17959.134931,886.023150,-26299.151933,10435.805969,6052.651233,-18749.671429,-29035.743062,6862.477286,3063.463040,9977.259931,3067.329892,11697.025501,7283.450041,-13042.689925,-3524.445417,0.004500,-0.015500,1.001750,192.000000,0.000000,0.000000,0.000000,0.000000,0.000000,0.000000,0.000000,0.000000,0.000000,1772721172.320442,0.000000
36.000000,-10496.066272,-17992.394327,860.765679,-26330.913762,10415.152957,6031.618241,-18775.733563,-29065.850862,6842.830103,3038.786714,9951.890701,3041.491275,11656.166513,7256.113858,-13057.866759,-3514.163615,0.004500,-0.015500,1.001750,192.000000,0.000000,0.000000,0.000000,0.000000,0.000000,0.000000,0.000000,0.000000,0.000000,1772721172.320455,0.000000
38.000000,-10480.218885,-17971.830722,884.547935,-26304.046965,10447.004193,6057.635672,-18752.800674,-29047.187155,6839.589100,3038.026755,9951.398963,3037.736182,11660.078068,7262.327643,-13047.897881,-3513.023676,0.004500,-0.015500,1.001750,192.000000,0.000000,0.000000,0.000000,0.000000,0.000000,0.000000,0.000000,0.000000,0.000000,1772721172.320468,0.000000
40.000000,-10506.124557,-17999.859810,858.619912,-26333.350102,10418.975105,6031.797055,-18782.148514,-29078.121969,6838.605623,3038.563196,9954.103524,3041.535979,11667.297681,7267.490896,-13034.173910,-3516.264679,0.006250,-0.018750,1.000875,192.000000,0.000000,32.000000,127.500000,40.000000,15.500000,32.000000,0.000000,0.000000,0.000000,1772721172.320481,0.000000
42.000000,-10507.420958,-18000.619769,858.374042,-26332.590143,10412.426044,6030.478302,-18783.266101,-29079.060743,6824.747542,3015.496196,9927.348486,3012.322248,11638.553338,7242.523997,-13052.390582,-3498.696208,0.006250,-0.018750,1.000875,192.000000,0.000000,0.000000,0.000000,0.000000,0.000000,0.000000,0.000000,0.000000,0.000000,1772721172.320493,0.000000
44.000000,-10502.637685,-17997.065842,861.436231,-26322.889486,10417.455187,6027.416113,-18776.873502,-29073.159882,6827.541510,3024.883929,9946.660393,3028.639022,11660.547454,7251.643509,-13027.848366,-3512.375475,0.006250,-0.018750,1.000875,192.000000,0.000000,0.000000,0.000000,0.000000,0.000000,0.000000,0.000000,0.000000,0.000000,1772721172.320506,0.000000
46.000000,-10527.358714,-18024.066749,833.228330,-26343.631905,10385.983930,6005.377293,-18799.985206,-29102.105391,6814.108111,3008.701266,9922.073474,3009.751798,11642.867225,7231.057552,-13047.741419,-3500.193775,0.006250,-0.018750,1.000875,192.000000,0.000000,0.000000,0.000000,0.000000,0.000000,0.000000,0.000000,0.000000,0.000000,1772721172.320518,0.000000
48.000000,-10498.033225,-17992.841362,865.392490,-26307.198561,10414.974143,6047.286814,-18769.944462,-29070.924708,6811.805881,3014.199795,9921.291163,3016.434969,11636.385219,7237.159578,-13039.784198,-3493.309437,0.006250,-0.018750,1.000875,192.000000,0.000000,0.000000,0.000000,0.000000,0.000000,0.000000,0.000000,0.000000,0.000000,1772721172.320531,0.000000
50.000000,-10506.504536,-18004.598380,853.836638,-26323.560038,10401.876021,6045.856302,-18783.824895,-29079.753647,6822.959402,3023.743990,9933.763437,3031.410638,11648.253995,7255.979747,-13026.864889,-3484.167574,0.008125,-0.017375,1.003437,192.000000,0.000000,40.000000,127.500000,64.000000,15.500000,56.000000,0.000000,0.000000,0.000000,1772721172.320544,0.000000
52.000000,-10478.788373,-17979.318557,871.159240,-26310.148991,10411.911954,6050.304300,-18769.050392,-29053.065664,6830.089608,3020.659449,9928.846053,3019.072475,11642.509597,7247.441381,-13052.792913,-3476.500926,0.008125,-0.017375,1.003437,192.000000,0.000000,0.000000,0.000000,0.000000,0.000000,0.000000,0.000000,0.000000,0.000000,1772721172.320557,0.000000
54.000000,-10455.453152,-17955.379838,885.442005,-26296.961462,10419.176271,6053.411192,-18752.487749,-29026.131812,6858.901007,3056.131668,9979.562161,3058.389194,11684.106193,7272.318872,-13035.358552,-3503.121853,0.008125,-0.017375,1.003437,192.000000,0.000000,0.000000,0.000000,0.000000,0.000000,0.000000,0.000000,0.000000,0.000000,1772721172.320570,0.000000
56.000000,-10468.461867,-17973.708269,863.738461,-26323.604742,10393.069433,6018.564823,-18769.452723,-29043.052082,6857.649309,3050.476676,9973.460135,3049.157923,11671.186885,7259.645433,-13066.047498,-3512.554289,0.008125,-0.017375,1.003437,192.000000,0.000000,0.000000,0.000000,0.000000,0.000000,0.000000,0.000000,0.000000,0.000000,1772721172.320582,0.000000
58.000000,-10449.999326,-17952.585870,888.101862,-26292.982852,10421.880832,6040.357773,-18738.517909,-29019.694509,6862.991376,3051.281339,9979.696271,3052.823609,11675.701937,7265.166314,-13063.342936,-3522.076133,0.008125,-0.017375,1.003437,192.000000,0.000000,0.000000,0.000000,0.000000,0.000000,0.000000,0.000000,0.000000,0.000000,1772721172.320597,0.000000
60.000000,-10483.839868,-17987.901627,857.994063,-26315.558114,10397.606837,6017.000200,-18763.015421,-29057.692475,6855.414135,3049.046165,9975.136516,3056.958682,11681.334577,7264.160486,-13052.748210,-3527.261737,0.009063,-0.016688,1.004719,192.000000,0.000000,40.000000,127.500000,64.000000,15.500000,56.000000,0.000000,0.000000,0.000000,1772721172.320610,0.000000
62.000000,-10489.628969,-17991.969644,859.804554,-26305.410422,10408.738006,6040.402477,-18762.233110,-29063.168652,6834.090571,3030.784789,9938.703172,3024.101618,11654.758353,7246.457904,-13073.088297,-3507.100464,0.009063,-0.016688,1.004719,192.000000,0.000000,0.000000,0.000000,0.000000,0.000000,0.000000,0.000000,0.000000,0.000000,1772721172.320622,0.000000
64.000000,-10484.309254,-17985.621749,864.543124,-26299.084878,10422.260812,6054.037041,-18759.819121,-29060.352333,6843.120675,3047.883874,9958.551521,3043.860560,11673.757335,7271.849486,-13042.824035,-3512.621345,0.009063,-0.016688,1.004719,192.000000,0.000000,0.000000,0.000000,0.000000,0.000000,0.000000,0.000000,0.000000,0.000000,1772721172.320636,0.000000
66.000000,-10508.158566,-18013.248505,836.894016,-26328.902105,10402.501869,6038.927262,-18789.971625,-29087.532054,6828.122655,3022.961679,9935.126893,3020.838263,11647.181111,7248.223692,-13056.972689,-3497.288048,0.009063,-0.016688,1.004719,192.000000,0.000000,0.000000,0.000000,0.000000,0.000000,0.000000,0.000000,0.000000,0.000000,1772721172.320649,0.000000
68.000000,-10492.400586,-17993.690728,863.917275,-26300.425983,10441.595071,6080.300341,-18766.010555,-29065.001495,6824.099341,3022.782865,9935.283355,3019.139531,11651.249129,7248.514265,-13045.461541,-3486.693321,0.009063,-0.016688,1.004719,192.000000,0.000000,0.000000,0.000000,0.000000,0.000000,0.000000,0.000000,0.000000,0.000000,1772721172.320663,0.000000
70.000000,-10518.574478,-18021.272781,840.805571,-26327.896276,10423.423102,6070.756146,-18791.335081,-29098.059726,6821.975925,3022.916975,9936.088018,3020.145359,11665.598949,7261.411221,-13024.517956,-3480.367777,0.008531,-0.015344,1.005359,192.000000,0.000000,32.000000,127.500000,72.000000,15.500000,56.000000,0.000000,0.000000,0.000000,1772721172.320676,0.000000
72.000000,-10518.105092,-18019.506993,846.751135,-26323.470631,10433.771960,6091.140937,-18791.066860,-29103.088868,6811.805881,3003.649772,9906.874288,2991.266905,11642.151969,7244.490951,-13039.851253,-3456.987853,0.008531,-0.015344,1.005359,192.000000,0.000000,0.000000,0.000000,0.000000,0.000000,0.000000,0.000000,0.000000,0.000000,1772721172.320688,0.000000
74.000000,-10507.957400,-18009.091080,855.602426,-26309.031404,10447.630042,6103.233230,-18781.120334,-29094.036412,6822.758236,3019.318345,9929.851881,3011.696400,11664.861341,7265.702756,-13004.311979,-3455.177361,0.008531,-0.015344,1.005359,192.000000,0.000000,0.000000,0.000000,0.000000,0.000000,0.000000,0.000000,0.000000,0.000000,1772721172.799866,0.000000
76.000000,-10528.275136,-18032.560412,829.674402,-26332.008997,10418.595126,6077.774594,-18800.901628,-29112.856580,6809.593059,2999.402940,9905.466128,2991.624533,11640.185015,7241.048782,-13026.104930,-3439.486437,0.008531,-0.015344,1.005359,192.000000,0.000000,0.000000,0.000000,0.000000,0.000000,0.000000,0.000000,0.000000,0.000000,1772721172.799930,0.000000
78.000000,-10482.275245,-17981.307862,864.967807,-26291.529988,10448.904091,6093.957257,-18761.786075,-29060.352333,6818.645515,3018.200757,9918.787768,3006.756664,11656.859417,7258.818419,-13029.033009,-3444.895559,0.008531,-0.015344,1.005359,192.000000,0.000000,0.000000,0.000000,0.000000,0.000000,0.000000,0.000000,0.000000,0.000000,1772721172.799976,0.000000
80.000000,-10471.389946,-17971.696612,855.825943,-26298.861360,10421.433797,6070.331463,-18763.753028,-29045.734292,6846.249920,3045.201665,9956.070477,3048.844999,11679.971120,7273.503515,-13027.736608,-3470.465955,0.008531,-0.015344,1.005359,192.000000,0.000000,0.000000,0.000000,0.000000,0.000000,0.000000,0.000000,0.000000,0.000000,1772721172.800036,0.000000
82.000000,-10451.720411,-17952.407056,867.448851,-26289.540683,10410.235573,6056.942768,-18747.682124,-29018.263998,6853.357774,3049.649662,9956.830437,3052.823609,11654.847760,7264.384003,-13063.633509,-3483.429966,0.004000,-0.014000,1.006000,192.000000,0.000000,16.000000,127.500000,72.000000,15.500000,56.000000,0.000000,0.000000,0.000000,1772721172.800082,0.000000
84.000000,-10442.891472,-17944.919222,877.820060,-26285.159741,10411.777843,6038.904910,-18735.232202,-29010.664405,6871.060356,3069.386252,9992.682635,3083.289037,11683.815620,7283.248876,-13047.696715,-3520.869138,0.004000,-0.014000,1.006000,192.000000,0.000000,0.000000,0.000000,0.000000,0.000000,0.000000,0.000000,0.000000,0.000000,1772721172.800130,0.000000
86.000000,-10482.387004,-17984.414754,847.220522,-26319.872000,10379.323110,6007.634819,-18768.066915,-29054.965562,6849.401516,3042.653566,9960.809047,3051.638967,11659.631033,7256.337375,-13073.691794,-3525.183025,0.004000,-0.014000,1.006000,192.000000,0.000000,0.000000,0.000000,0.000000,0.000000,0.000000,0.000000,0.000000,0.000000,1772721172.800149,0.000000
88.000000,-10472.015795,-17968.835589,869.147583,-26294.100439,10401.741910,6031.059448,-18747.391551,-29040.414577,6837.689202,3041.334813,9949.074381,3042.117124,11654.110152,7253.610462,-13076.374003,-3531.732086,0.004000,-0.014000,1.006000,192.000000,0.000000,0.000000,0.000000,0.000000,0.000000,0.000000,0.000000,0.000000,0.000000,1772721172.800162,0.000000
90.000000,-10495.485126,-17996.149420,849.589807,-26315.535762,10381.737099,6017.424884,-18770.525607,-29067.080208,6833.174149,3037.579720,9950.884873,3047.794467,11656.814713,7254.571587,-13061.532445,-3532.715563,0.004000,-0.014000,1.006000,192.000000,0.000000,0.000000,0.000000,0.000000,0.000000,0.000000,0.000000,0.000000,0.000000,1772721172.800182,0.000000
92.000000,-10497.586190,-17996.887028,853.411955,-26313.054718,10390.588390,6022.454026,-18771.240863,-29067.773112,6815.650382,3018.245461,9923.951021,3022.022906,11627.891556,7245.943814,-13080.576131,-3516.644659,0.010000,-0.016000,1.008000,192.000000,0.000000,40.000000,127.500000,64.000000,15.500000,64.000000,0.000000,0.000000,0.000000,1772721172.800194,0.000000
94.000000,-10491.282998,-17984.370051,862.732632,-26299.286044,10410.973181,6044.068163,-18762.702496,-29056.686647,6824.434617,3041.357165,9950.907225,3049.716717,11660.078068,7270.418974,-13047.428494,-3518.768074,0.010000,-0.016000,1.008000,192.000000,0.000000,0.000000,0.000000,0.000000,0.000000,0.000000,0.000000,0.000000,0.000000,1772721172.800206,0.000000
96.000000,-10523.067179,-18017.875316,833.898882,-26330.466727,10395.259904,6020.308259,-18796.118354,-29090.683650,6812.252916,3026.403848,9926.789692,3028.348449,11629.970268,7247.888416,-13060.236044,-3503.233612,0.010000,-0.016000,1.008000,192.000000,0.000000,0.000000,0.000000,0.000000,0.000000,0.000000,0.000000,0.000000,0.000000,1772721172.800218,0.000000
98.000000,-10501.430690,-17995.657682,862.732632,-26306.371547,10441.952698,6060.384936,-18773.967776,-29073.651621,6808.698989,3021.911147,9920.888832,3017.373743,11636.161701,7249.765962,-13047.182625,-3495.388150,0.010000,-0.016000,1.008000,192.000000,0.000000,0.000000,0.000000,0.000000,0.000000,0.000000,0.000000,0.000000,0.000000,1772721172.800234,0.000000
100.000000,-10516.674580,-18019.663455,845.678251,-26329.773823,10443.070286,6063.849457,-18797.861790,-29101.747763,6815.650382,3023.721638,9929.807178,3017.150225,11656.702954,7258.304329,-13021.120491,-3485.329865,0.010000,-0.016000,1.008000,192.000000,0.000000,0.000000,0.000000,0.000000,0.000000,0.000000,0.000000,0.000000,0.000000,1772721172.800248,0.000000
102.000000,-10499.709606,-17999.457478,849.612158,-26317.703881,10467.500742,6087.497602,-18791.022157,-29090.258967,6815.940954,3012.903394,9910.584678,2995.312571,11649.103361,7251.554102,-13032.721047,-3459.424193,0.010000,-0.018000,1.004000,192.000000,0.000000,40.000000,127.500000,56.000000,15.500000,48.000000,0.000000,0.000000,0.000000,1772721172.800261,0.000000
104.000000,-10472.552237,-17971.853074,865.839525,-26295.463895,10492.534696,6105.177832,-18769.162151,-29061.648734,6845.266443,3044.329947,9949.297899,3032.192949,11693.605684,7285.461698,-13000.646293,-3473.170516,0.010000,-0.018000,1.004000,192.000000,0.000000,0.000000,0.000000,0.000000,0.000000,0.000000,0.000000,0.000000,0.000000,1772721172.800273,0.000000
106.000000,-10481.805859,-17983.699499,850.796801,-26320.274332,10478.877780,6075.539419,-18785.009537,-29074.590394,6851.547283,3042.720621,9940.491312,3027.297917,11680.328748,7278.934989,-13017.767729,-3473.081109,0.010000,-0.018000,1.004000,192.000000,0.000000,0.000000,0.000000,0.000000,0.000000,0.000000,0.000000,0.000000,0.000000,1772721172.800286,0.000000
108.000000,-10446.758324,-17942.572289,882.223354,-26286.433790,10503.732920,6094.896030,-18750.789017,-29036.547725,6869.674548,3061.898418,9953.991765,3040.016060,11696.131432,7293.307161,-13014.727892,-3488.012074,0.010000,-0.018000,1.004000,192.000000,0.000000,0.000000,0.000000,0.000000,0.000000,0.000000,0.000000,0.000000,0.000000,1772721172.800298,0.000000
110.000000,-10458.761210,-17955.558652,860.229237,-26299.397802,10464.595016,6061.100192,-18762.523682,-29048.125928,6878.503487,3076.829383,9971.783754,3067.195781,11713.610496,7297.397530,-13010.145785,-3503.233612,0.010000,-0.018000,1.004000,192.000000,0.000000,0.000000,0.000000,0.000000,0.000000,0.000000,0.000000,0.000000,0.000000,1772721172.800310,0.000000
112.000000,-10458.627100,-17955.089266,865.079566,-26295.843875,10443.964355,6049.946672,-18753.314764,-29036.257152,6859.929187,3055.550522,9947.867387,3050.297862,11676.931283,7281.304274,-13049.417800,-3500.797272,0.006000,-0.016000,1.006000,192.000000,0.000000,24.000000,127.500000,64.000000,15.500000,56.000000,0.000000,0.000000,0.000000,1772721172.800322,0.000000
114.000000,-10450.759286,-17947.981411,880.725787,-26285.651479,10438.108198,6050.192541,-18737.176804,-29021.572056,6866.254731,3068.045147,9977.528152,3072.001406,11702.591086,7290.289675,-13034.240965,-3521.606746,0.006000,-0.016000,1.006000,192.000000,0.000000,0.000000,0.000000,0.000000,0.000000,0.000000,0.000000,0.000000,0.000000,1772721172.800334,0.000000
116.000000,-10483.169315,-17981.933711,854.350728,-26319.402614,10398.567962,6015.167357,-18767.686935,-29055.233783,6855.011804,3048.286205,9958.909149,3049.180275,11672.125658,7257.656128,-13058.470256,-3514.141263,0.006000,-0.016000,1.006000,192.000000,0.000000,0.000000,0.000000,0.000000,0.000000,0.000000,0.000000,0.000000,0.000000,1772721172.800346,0.000000
118.000000,-10466.629024,-17961.437161,878.602371,-26287.886654,10421.634963,6045.543378,-18746.318668,-29033.172611,6849.356812,3044.397002,9957.389230,3043.838208,11673.109135,7253.096372,-13060.616024,-3513.291897,0.006000,-0.016000,1.006000,192.000000,0.000000,0.000000,0.000000,0.000000,0.000000,0.000000,0.000000,0.000000,0.000000,1772721172.800358,0.000000
120.000000,-10495.999217,-17996.104717,855.065984,-26307.466782,10404.580582,6031.260613,-18771.307918,-29064.576812,6845.914644,3040.932481,9963.558312,3050.744897,11671.768030,7259.354861,-13046.534425,-3508.352161,0.006000,-0.016000,1.006000,192.000000,0.000000,0.000000,0.000000,0.000000,0.000000,0.000000,0.000000,0.000000,0.000000,1772721172.800370,0.000000
122.000000,-10513.411225,-18014.813127,854.618949,-26312.987663,10408.670951,6034.836892,-18774.839494,-29076.512644,6822.646478,3010.310591,9925.180367,3012.903394,11640.766161,7234.119741,-13067.679175,-3491.297780,0.006000,-0.016000,1.006000,192.000000,0.000000,0.000000,127.500000,64.000000,15.500000,56.000000,0.000000,0.000000,0.000000,1772721172.800385,0.000000
124.000000,-10500.424862,-18001.737356,871.159240,-26304.404593,10424.317172,6046.660965,-18760.087342,-29061.425216,6828.793207,3024.772170,9946.235710,3029.398981,11666.537722,7254.124553,-13038.107817,-3502.205432,0.006000,-0.016000,1.006000,192.000000,0.000000,0.000000,0.000000,0.000000,0.000000,0.000000,0.000000,0.000000,0.000000,1772721172.800397,0.000000
126.000000,-10522.038999,-18028.648857,845.097106,-26335.808794,10398.523259,6018.184843,-18785.389517,-29081.564138,6817.617335,3009.908260,9928.443721,3012.411655,11640.162663,7240.311174,-13057.017393,-3493.421196,0.006000,-0.016000,1.006000,192.000000,0.000000,0.000000,0.000000,0.000000,0.000000,0.000000,0.000000,0.000000,0.000000,1772721172.800409,0.000000
128.000000,-10485.806821,-17988.147496,874.489650,-26299.017823,10433.034352,6063.581236,-18757.896871,-29045.980161,6822.624126,3020.637097,9938.904338,3021.106484,11655.048925,7250.414163,-13048.054343,-3491.141318,0.006000,-0.016000,1.006000,192.000000,0.000000,0.000000,0.000000,0.000000,0.000000,0.000000,0.000000,0.000000,0.000000,1772721172.800421,0.000000
130.000000,-10490.433632,-17995.791792,857.658786,-26311.244227,10419.220974,6058.440335,-18774.012479,-29058.340676,6839.119713,3038.160865,9960.160847,3040.574853,11669.979891,7261.791201,-13030.977610,-3486.358045,0.006000,-0.016000,1.006000,192.000000,0.000000,0.000000,0.000000,0.000000,0.000000,0.000000,0.000000,0.000000,0.000000,1772721172.800433,0.000000
132.000000,-10484.488068,-17988.236903,861.413880,-26301.498866,10430.195681,6070.242056,-18771.307918,-29055.457301,6836.683373,3025.822702,9943.151169,3023.743990,11650.913853,7244.490951,-13051.787085,-3468.186077,-0.002000,-0.014000,1.006000,192.000000,127.500000,120.000000,127.500000,72.000000,15.500000,56.000000,0.000000,0.000000,0.000000,1772721172.800446,0.000000
134.000000,-10468.573626,-17971.718964,879.161165,-26280.912910,10452.636832,6092.839669,-18754.477054,-29040.951018,6857.179923,3054.634101,9973.571893,3049.224979,11693.829202,7277.415070,-13025.747302,-3474.690434,-0.002000,-0.014000,1.006000,192.000000,0.000000,0.000000,0.000000,0.000000,0.000000,0.000000,0.000000,0.000000,0.000000,1772721172.800458,0.000000
136.000000,-10498.346150,-18003.972531,854.037804,-26307.757355,10427.044085,6059.535570,-18775.688860,-29068.309554,6844.461780,3042.005365,9952.740068,3029.980127,11668.884655,7269.860181,-13044.254547,-3464.788612,-0.002000,-0.014000,1.006000,192.000000,0.000000,0.000000,0.000000,0.000000,0.000000,0.000000,0.000000,0.000000,0.000000,1772721172.800470,0.000000
138.000000,-10475.033280,-17978.335080,878.244743,-26279.817674,10449.149960,6080.233285,-18746.475130,-29040.436928,6842.248957,3039.993708,9952.002460,3031.030659,11676.014862,7273.302349,-13046.757942,-3477.193830,-0.002000,-0.014000,1.006000,192.000000,0.000000,0.000000,0.000000,0.000000,0.000000,0.000000,0.000000,0.000000,0.000000,1772721172.800482,0.000000
140.000000,-10484.666882,-17990.785002,856.809420,-26304.516352,10426.753512,6050.639576,-18764.177712,-29057.491309,6849.557978,3047.325080,9963.893588,3047.123915,11679.144106,7271.313044,-13040.499454,-3495.321094,-0.002000,-0.014000,1.006000,192.000000,0.000000,0.000000,0.000000,0.000000,0.000000,0.000000,0.000000,0.000000,0.000000,1772721172.800494,0.000000
142.000000,-10487.572609,-17995.635330,857.502324,-26309.076108,10426.887623,6041.654175,-18764.155360,-29059.368856,6839.678507,3024.749818,9941.899472,3026.761475,11654.624242,7246.703773,-13066.874512,-3494.672894,-0.002000,-0.014000,1.000000,192.000000,127.500000,120.000000,127.500000,72.000000,15.500000,32.000000,0.000000,0.000000,0.000000,1772721172.800506,0.000000
144.000000,-10481.247065,-17984.727679,868.655845,-26301.677680,10433.034352,6046.795076,-18752.666563,-29052.506870,6845.489960,3034.405772,9963.044222,3043.145304,11676.551303,7255.532712,-13039.605384,-3511.570813,-0.002000,-0.014000,1.000000,192.000000,0.000000,0.000000,0.000000,0.000000,0.000000,0.000000,0.000000,0.000000,0.000000,1772721172.800518,0.000000
146.000000,-10507.264496,-18012.309732,839.330356,-26333.327750,10399.439681,6018.967154,-18781.477962,-29088.046144,6834.135274,3019.631269,9935.216300,3021.397057,11652.322012,7241.965204,-13055.609233,-3505.379379,-0.002000,-0.014000,1.000000,192.000000,0.000000,0.000000,0.000000,0.000000,0.000000,0.000000,0.000000,0.000000,0.000000,1772721172.800530,0.000000
148.000000,-10482.610522,-17982.134877,862.933798,-26301.811791,10416.516413,6039.329593,-18756.891043,-29060.799368,6830.022553,3020.882967,9930.567137,3020.726504,11645.504730,7240.311174,-13057.307965,-3512.621345,-0.002000,-0.014000,1.000000,192.000000,0.000000,0.000000,0.000000,0.000000,0.000000,0.000000,0.000000,0.000000,0.000000,1772721172.800542,0.000000
150.000000,-10498.033225,-18001.424432,845.521789,-26317.770936,10392.488288,6034.412209,-18771.218511,-29076.870272,6834.112922,3030.762438,9947.219187,3034.115199,11663.073202,7252.403468,-13046.310907,-3511.146130,-0.002000,-0.014000,1.000000,192.000000,0.000000,0.000000,0.000000,0.000000,0.000000,0.000000,0.000000,0.000000,0.000000,1772721172.800554,0.000000
152.000000,-10501.900077,-18002.162040,854.484839,-26319.961407,10400.758433,6033.629898,-18769.095095,-29076.579699,6820.187786,3004.320324,9926.096788,3011.741103,11624.807015,7233.918576,-13067.098030,-3497.802138,0.002000,-0.016000,1.004000,192.000000,0.000000,8.000000,127.500000,64.000000,15.500000,48.000000,0.000000,0.000000,0.000000,1772721172.800566,0.000000
154.000000,-10485.695062,-17981.866656,875.383720,-26299.710727,10424.361876,6054.774649,-18753.113598,-29058.966524,6833.285908,3026.783827,9953.477675,3035.746877,11659.049888,7250.950605,-13040.007715,-3507.748664,0.002000,-0.016000,1.004000,192.000000,0.000000,0.000000,0.000000,0.000000,0.000000,0.000000,0.000000,0.000000,0.000000,1772721172.800579,0.000000
156.000000,-10497.385025,-17997.177601,854.328377,-26324.163535,10410.123814,6032.780532,-18774.750087,-29077.026734,6835.141103,3025.755647,9941.854768,3029.667202,11651.137370,7242.926329,-13051.563567,-3493.085920,0.002000,-0.016000,1.004000,192.000000,0.000000,0.000000,0.000000,0.000000,0.000000,0.000000,0.000000,0.000000,0.000000,1772721172.800591,0.000000
158.000000,-10466.561969,-17964.834626,882.268057,-26293.519293,10449.529940,6070.622035,-18745.670467,-29044.929629,6843.992393,3034.763400,9946.749800,3035.590414,11661.620338,7258.259625,-13043.919271,-3496.617496,0.002000,-0.016000,1.004000,192.000000,0.000000,0.000000,0.000000,0.000000,0.000000,0.000000,0.000000,0.000000,0.000000,1772721172.800603,0.000000
160.000000,-10486.007987,-17987.074612,861.257417,-26317.212143,10425.345352,6040.067201,-18762.076648,-29062.319286,6846.942824,3043.190008,9961.010213,3047.481543,11672.952673,7260.450096,-13026.417855,-3501.065493,0.002000,-0.016000,1.004000,192.000000,0.000000,0.000000,0.000000,0.000000,0.000000,0.000000,0.000000,0.000000,0.000000,1772721172.800615,0.000000
162.000000,-10489.114879,-17988.169848,857.368214,-26315.401651,10417.209317,6029.718343,-18759.685011,-29055.949039,6831.073085,3021.508815,9937.987916,3030.047182,11643.448370,7235.371439,-13056.145675,-3498.696208,0.005000,-0.020000,1.006000,192.000000,0.000000,32.000000,127.500000,32.000000,15.500000,64.000000,0.000000,0.000000,0.000000,1772721172.800627,0.000000
164.000000,-10467.813667,-17967.561539,873.707339,-26298.459029,10423.110178,6039.195483,-18743.815272,-29031.228010,6840.885501,3040.552502,9970.532056,3059.797354,11675.992510,7254.772753,-13035.738532,-3514.700057,0.005000,-0.020000,1.006000,192.000000,0.000000,0.000000,0.000000,0.000000,0.000000,0.000000,0.000000,0.000000,0.000000,1772721172.800639,0.000000
166.000000,-10491.998254,-17998.853981,849.388641,-26331.450204,10390.543686,6010.764064,-18773.587796,-29066.007324,6835.744600,3025.643888,9953.477675,3040.306633,11649.595100,7248.402506,-13055.788047,-3508.262754,0.005000,-0.020000,1.006000,192.000000,0.000000,0.000000,0.000000,0.000000,0.000000,0.000000,0.000000,0.000000,0.000000,1772721172.800658,0.000000
168.000000,-10474.787411,-17979.027984,873.819098,-26305.343366,10419.600954,6033.428733,-18751.884252,-29053.982085,6832.503597,3022.782865,9944.156998,3027.454379,11653.149027,7242.166369,-13054.089314,-3513.671877,0.005000,-0.020000,1.006000,192.000000,0.000000,0.000000,0.000000,0.000000,0.000000,0.000000,0.000000,0.000000,0.000000,1772721172.800670,0.000000
170.000000,-10503.822327,-18008.487583,848.852199,-26324.252942,10392.220067,6019.905927,-18771.576139,-29082.569967,6834.403495,3026.716772,9946.615690,3030.740086,11663.252016,7244.356840,-13042.019372,-3515.415313,0.005000,-0.020000,1.006000,192.000000,0.000000,0.000000,0.000000,0.000000,0.000000,0.000000,0.000000,0.000000,0.000000,1772721172.800682,0.000000
172.000000,-10510.527850,-18011.706234,846.549970,-26320.944884,10384.888695,6016.284945,-18767.418714,-29078.367839,6812.498786,3001.436949,9917.513718,3007.002533,11623.287096,7229.068247,-13073.155352,-3500.037313,0.008500,-0.019000,1.006000,192.000000,0.000000,48.000000,127.500000,56.000000,15.500000,56.000000,0.000000,0.000000,0.000000,1772721172.800694,0.000000
174.000000,-10489.271341,-17988.818048,863.581999,-26303.488172,10408.045102,6035.529797,-18751.794845,-29055.367894,6818.757274,3023.699286,9946.213358,3034.316365,11652.679640,7246.323794,-13047.607308,-3516.197624,0.008500,-0.019000,1.006000,192.000000,0.000000,0.000000,0.000000,0.000000,0.000000,0.000000,0.000000,0.000000,0.000000,1772721172.800706,0.000000
176.000000,-10500.424862,-18004.687787,843.867760,-26334.892372,10394.857573,6021.202328,-18781.299148,-29082.860539,6822.042980,3018.021943,9934.411637,3022.179368,11645.102399,7237.003116,-13054.581053,-3503.211260,0.008500,-0.019000,1.006000,192.000000,0.000000,0.000000,0.000000,0.000000,0.000000,0.000000,0.000000,0.000000,0.000000,1772721172.800718,0.000000
178.000000,-10470.518228,-17968.701478,877.574191,-26297.632014,10436.476521,6068.096288,-18753.694743,-29053.512699,6831.430713,3024.928632,9935.976259,3021.464112,11655.853588,7242.792218,-13045.819169,-3498.182118,0.008500,-0.019000,1.006000,192.000000,0.000000,0.000000,0.000000,0.000000,0.000000,0.000000,0.000000,0.000000,0.000000,1772721172.800730,0.000000
180.000000,-10480.800030,-17982.514856,862.062080,-26310.774840,10423.534861,6061.837800,-18771.620842,-29071.215280,6848.596853,3046.520418,9955.601091,3042.005365,11678.652367,7270.798954,-13023.087445,-3496.908068,0.008500,-0.019000,1.006000,192.000000,0.000000,0.000000,0.000000,0.000000,0.000000,0.000000,0.000000,0.000000,0.000000,1772721172.800742,0.000000
182.000000,-10473.692176,-17973.752972,866.152449,-26303.912855,10431.045047,6072.812506,-18769.117447,-29060.955830,6843.813580,3037.982051,9939.306669,3025.129798,11658.669908,7268.206152,-13043.651050,-3483.117042,0.006250,-0.019500,1.002000,192.000000,0.000000,16.000000,127.500000,48.000000,15.500000,24.000000,0.000000,0.000000,0.000000,1772721172.800754,0.000000
184.000000,-10454.737896,-17950.998896,880.055234,-26283.013974,10454.536731,6083.787213,-18751.794845,-29040.794556,6857.917530,3063.016005,9968.587454,3060.713775,11697.539591,7289.730881,-13013.677360,-3495.388150,0.006250,-0.019500,1.002000,192.000000,0.000000,0.000000,0.000000,0.000000,0.000000,0.000000,0.000000,0.000000,0.000000,1772721172.800766,0.000000
186.000000,-10480.688272,-17978.200969,849.969786,-26313.457050,10421.702018,6053.992337,-18780.963872,-29075.462112,6850.474399,3052.018947,9944.447570,3043.860560,11673.064431,7282.332454,-13032.005791,-3485.195754,0.006250,-0.019500,1.002000,192.000000,0.000000,0.000000,0.000000,0.000000,0.000000,0.000000,0.000000,0.000000,0.000000,1772721172.800779,0.000000
188.000000,-10455.073172,-17951.088303,878.959999,-26287.059639,10446.311289,6059.043832,-18754.164130,-29049.064702,6853.335423,3049.493200,9945.162826,3037.825589,11672.527989,7271.402451,-13038.130169,-3494.494080,0.006250,-0.019500,1.002000,192.000000,0.000000,0.000000,0.000000,0.000000,0.000000,0.000000,0.000000,0.000000,0.000000,1772721172.800791,0.000000
190.000000,-10474.876818,-17973.820028,855.244798,-26309.411384,10411.934306,6041.743582,-18772.537264,-29070.008286,6857.828123,3053.024775,9960.585530,3046.028679,11683.793269,7271.357747,-13030.061189,-3506.496967,0.006250,-0.019500,1.002000,192.000000,0.000000,0.000000,0.000000,0.000000,0.000000,0.000000,0.000000,0.000000,0.000000,1772721172.800803,0.000000
192.000000,-10485.829173,-17984.928845,851.065022,-26318.553247,10398.456204,6019.928279,-18774.459514,-29069.918879,6833.129446,3026.560310,9930.656544,3022.335830,11648.879844,7241.249948,-13066.114553,-3495.455205,0.004125,-0.018750,1.002000,192.000000,0.000000,8.000000,127.500000,56.000000,15.500000,40.000000,0.000000,0.000000,0.000000,1772721172.800815,0.000000
194.000000,-10477.089641,-17974.334118,862.263246,-26304.628110,10405.809928,6036.177997,-18756.086380,-29052.395112,6836.303393,3029.398981,9952.538902,3038.317327,11663.900216,7255.756230,-13045.618003,-3514.364781,0.004125,-0.018750,1.002000,192.000000,0.000000,0.000000,0.000000,0.000000,0.000000,0.000000,0.000000,0.000000,0.000000,1772721173.281193,0.000000
196.000000,-10507.197441,-18008.554638,832.222501,-26333.640675,10377.646730,6017.693104,-18783.154343,-29087.889682,6821.931222,3005.907298,9926.610878,3014.468016,11638.866262,7222.809759,-13067.522713,-3502.205432,0.004125,-0.018750,1.002000,192.000000,0.000000,0.000000,0.000000,0.000000,0.000000,0.000000,0.000000,0.000000,0.000000,1772721173.281265,0.000000
198.000000,-10483.370481,-17979.005632,861.525638,-26300.358927,10411.531974,6051.555997,-18757.114560,-29068.063684,6819.092550,3008.611859,9922.721675,3008.231879,11645.772951,7235.170273,-13066.673346,-3504.105330,0.004125,-0.018750,1.002000,192.000000,0.000000,0.000000,0.000000,0.000000,0.000000,0.000000,0.000000,0.000000,0.000000,1772721173.281321,0.000000
200.000000,-10499.597847,-17996.350586,848.405164,-26318.486192,10403.284181,6041.542416,-18775.442991,-29084.089885,6825.373390,3026.381496,9937.987916,3024.749818,11658.736963,7250.771791,-13047.070866,-3508.754493,0.004125,-0.018750,1.002000,192.000000,0.000000,0.000000,0.000000,0.000000,0.000000,0.000000,0.000000,0.000000,0.000000,1772721173.281385,0.000000
202.000000,-10490.567743,-17990.382670,857.614083,-26314.552285,10406.189907,6051.690108,-18771.196159,-29070.477673,6819.919565,3014.445664,9921.760550,3007.449568,11639.492111,7244.580358,-13067.388602,-3496.081054,0.005063,-0.016375,1.003000,192.000000,0.000000,24.000000,127.500000,72.000000,15.500000,48.000000,0.000000,0.000000,0.000000,1772721173.281418,0.000000
204.000000,-10465.757306,-17965.885158,878.088281,-26294.592177,10429.592184,6068.498620,-18751.079589,-29041.465109,6840.371411,3034.629289,9962.127800,3043.748801,11676.551303,7271.089527,-13035.157387,-3508.352161,0.005063,-0.016375,1.003000,192.000000,0.000000,0.000000,0.000000,0.000000,0.000000,0.000000,0.000000,0.000000,0.000000,1772721173.281447,0.000000
206.000000,-10489.628969,-17991.969644,851.221484,-26319.581428,10413.074245,6055.758125,-18776.426467,-29069.024809,6834.448199,3025.263909,9947.889739,3031.835321,11661.888559,7256.270320,-13044.545119,-3496.997475,0.005063,-0.016375,1.003000,192.000000,0.000000,0.000000,0.000000,0.000000,0.000000,0.000000,0.000000,0.000000,0.000000,1772721173.281474,0.000000
208.000000,-10467.299577,-17966.265138,878.132984,-26285.807942,10449.731106,6092.280876,-18753.158301,-29047.276562,6837.152760,3034.025792,9944.112294,3033.623461,11674.249074,7266.306253,-13038.688962,-3489.934324,0.005063,-0.016375,1.003000,192.000000,0.000000,0.000000,0.000000,0.000000,0.000000,0.000000,0.000000,0.000000,0.000000,1772721173.281501,0.000000
210.000000,-10474.653301,-17977.284548,864.967807,-26299.755430,10441.975050,6076.299378,-18768.133970,-29059.704132,6851.971966,3053.516514,9966.642853,3053.851790,11690.074109,7288.568591,-13016.560735,-3494.494080,0.005063,-0.016375,1.003000,192.000000,0.000000,0.000000,0.000000,0.000000,0.000000,0.000000,0.000000,0.000000,0.000000,1772721173.281528,0.000000
212.000000,-10476.329681,-17979.944406,859.670443,-26304.404593,10437.638812,6069.683262,-18769.139799,-29059.234745,6841.176074,3042.072420,9947.219187,3034.942214,11664.034327,7269.726070,-13044.522768,-3483.877001,0.003531,-0.016188,1.001500,192.000000,0.000000,8.000000,127.500000,64.000000,15.500000,32.000000,0.000000,0.000000,0.000000,1772721173.281555,0.000000
214.000000,-10467.009004,-17968.969699,869.818135,-26290.948843,10446.758324,6073.103079,-18754.253537,-29044.616705,6845.445257,3052.063650,9968.743917,3055.706984,11681.803963,7287.316893,-13027.535442,-3501.825452,0.003531,-0.016188,1.001500,192.000000,0.000000,0.000000,0.000000,0.000000,0.000000,0.000000,0.000000,0.000000,0.000000,1772721173.281583,0.000000
216.000000,-10497.139156,-18001.893819,839.777391,-26322.084823,10407.173384,6046.549207,-18782.930825,-29080.893586,6829.441408,3028.951946,9940.513663,3030.941252,11661.463876,7275.537524,-13050.468332,-3490.448414,0.003531,-0.016188,1.001500,192.000000,0.000000,0.000000,0.000000,0.000000,0.000000,0.000000,0.000000,0.000000,0.000000,1772721173.281610,0.000000
218.000000,-10479.056594,-17981.039641,866.018339,-26295.665061,10418.863346,6055.445201,-18757.829816,-29058.519490,6831.006030,3029.734257,9935.775094,3025.353316,11660.726268,7257.879646,-13057.039745,-3495.410501,0.003531,-0.016188,1.001500,192.000000,0.000000,0.000000,0.000000,0.000000,0.000000,0.000000,0.000000,0.000000,0.000000,1772721173.281647,0.000000
220.000000,-10502.324760,-18011.125089,845.812362,-26322.710672,10388.777898,6027.304355,-18776.962909,-29081.519435,6826.848605,3024.280432,9947.889739,3033.668164,11664.637824,7257.790239,-13047.294384,-3506.541670,0.003531,-0.016188,1.001500,192.000000,0.000000,0.000000,0.000000,0.000000,0.000000,0.000000,0.000000,0.000000,0.000000,1772721173.281674,0.000000
222.000000,-10488.980769,-18000.776231,847.846371,-26328.723291,10392.510640,6025.538567,-18779.756877,-29081.072400,6820.478358,2997.324228,9928.220204,3002.085150,11639.536815,7223.301497,-13072.954187,-3500.819624,0.005766,-0.018094,1.001750,192.000000,0.000000,32.000000,127.500000,48.000000,15.500000,40.000000,0.000000,0.000000,0.000000,1772721173.281700,0.000000
224.000000,-10471.389946,-17983.073650,865.906580,-26307.913817,10416.605820,6049.477285,-18763.305993,-29063.146301,6840.885501,3013.708057,9954.394097,3026.068571,11674.204370,7247.687250,-13043.651050,-3511.615516,0.005766,-0.018094,1.001750,192.000000,0.000000,0.000000,0.000000,0.000000,0.000000,0.000000,0.000000,0.000000,0.000000,1772721173.281728,0.000000
226.000000,-10497.072100,-18010.946275,845.678251,-26329.796175,10401.563096,6044.559901,-18785.590683,-29088.023792,6835.208158,3001.191080,9934.657506,3009.841205,11664.682527,7241.473465,-13050.334221,-3496.326923,0.005766,-0.018094,1.001750,192.000000,0.000000,0.000000,0.000000,0.000000,0.000000,0.000000,0.000000,0.000000,0.000000,1772721173.281754,0.000000
228.000000,-10468.953606,-17974.915263,876.188383,-26294.972157,10441.103332,6083.563695,-18758.612127,-29055.166728,6838.695030,3015.607955,9933.919899,3014.780940,11667.185923,7256.158561,-13044.589823,-3489.733158,0.005766,-0.018094,1.001750,192.000000,0.000000,0.000000,0.000000,0.000000,0.000000,0.000000,0.000000,0.000000,0.000000,1772721173.281781,0.000000
230.000000,-10469.870027,-17978.826818,866.621836,-26308.249093,10430.732123,6073.259541,-18772.649023,-29060.821719,6853.469533,3037.758534,9961.323137,3041.938310,11688.509487,7281.974826,-13023.914459,-3494.359969,0.005766,-0.018094,1.001750,192.000000,0.000000,0.000000,0.000000,0.000000,0.000000,0.000000,0.000000,0.000000,0.000000,1772721173.281809,0.000000
232.000000,-10463.835056,-17973.507103,867.940589,-26305.253959,10433.481387,6077.528724,-18771.598491,-29055.591411,6853.156609,3025.263909,9947.934443,3026.135627,11669.890484,7264.272244,-13047.562605,-3479.808984,0.005766,-0.018094,1.001750,192.000000,0.000000,0.000000,0.000000,0.000000,0.000000,0.000000,0.000000,0.000000,0.000000,1772721173.281837,0.000000
234.000000,-10454.670841,-17961.146588,883.184479,-26286.277328,10454.492027,6089.710425,-18755.393476,-29043.208545,6865.561827,3047.772115,9975.605902,3051.102525,11701.294685,7285.864030,-13018.415930,-3496.192812,0.006000,-0.018000,1.002000,192.000000,0.000000,24.000000,127.500000,56.000000,15.500000,40.000000,0.000000,0.000000,0.000000,1772721173.281864,0.000000
236.000000,-10488.556086,-17996.417641,854.417784,-26315.848686,10423.043123,6056.562788,-18782.215569,-29077.518472,6850.899083,3034.048144,9951.823646,3035.590414,11685.559056,7269.457849,-13032.028142,-3489.755510,0.006000,-0.018000,1.002000,192.000000,0.000000,0.000000,0.000000,0.000000,0.000000,0.000000,0.000000,0.000000,0.000000,1772721173.281891,0.000000
238.000000,-10476.955530,-17977.999804,875.517830,-26290.524160,10440.365725,6066.710480,-18756.756932,-29052.238649,6839.119713,3033.556406,9944.358163,3030.561272,11677.087745,7271.424803,-13035.917346,-3496.885717,0.006000,-0.018000,1.002000,192.000000,0.000000,0.000000,0.000000,0.000000,0.000000,0.000000,0.000000,0.000000,0.000000,1772721173.281918,0.000000
240.000000,-10492.288827,-17996.931731,856.943531,-26310.797192,10414.527108,6041.587119,-18771.218511,-29062.475748,6835.454027,3034.964566,9959.847922,3041.871255,11690.185868,7265.859218,-13027.758959,-3511.034371,0.006000,-0.018000,1.002000,192.000000,0.000000,0.000000,0.000000,0.000000,0.000000,0.000000,0.000000,0.000000,0.000000,1772721173.281948,0.000000
242.000000,-10499.061406,-18007.302941,849.075717,-26322.285989,10402.680683,6027.393762,-18777.186427,-29069.024809,6819.628992,3007.829548,9935.685687,3009.304763,11654.847760,7236.801951,-13058.425553,-3502.630115,0.006000,-0.018000,1.002000,192.000000,0.000000,0.000000,0.000000,0.000000,0.000000,0.000000,0.000000,0.000000,0.000000,1772721173.281975,0.000000
244.000000,-10471.591112,-17980.056164,868.588790,-26305.164552,10424.741855,6039.553111,-18759.305031,-29049.019998,6829.329649,3024.928632,9962.127800,3028.750781,11669.845780,7250.727087,-13035.179738,-3521.293821,0.008000,-0.020000,1.000000,192.000000,0.000000,32.000000,127.500000,48.000000,15.500000,32.000000,0.000000,0.000000,0.000000,1772721173.282002,0.000000
246.000000,-10496.513307,-18005.559505,840.336185,-26331.964294,10396.399843,6021.023514,-18787.468229,-29082.279394,6827.519158,3019.743028,9947.845036,3019.810083,11656.188864,7239.215939,-13048.769599,-3510.185004,0.008000,-0.020000,1.000000,192.000000,0.000000,0.000000,0.000000,0.000000,0.000000,0.000000,0.000000,0.000000,0.000000,1772721173.282029,0.000000
248.000000,-10467.299577,-17972.434219,870.421633,-26297.386145,10425.725332,6054.864055,-18758.030982,-29052.439815,6830.827216,3027.968470,9943.575852,3021.352353,11657.909949,7249.028355,-13053.150541,-3506.452263,0.008000,-0.020000,1.000000,192.000000,0.000000,0.000000,0.000000,0.000000,0.000000,0.000000,0.000000,0.000000,0.000000,1772721173.282056,0.000000
250.000000,-10476.933179,-17988.147496,855.624778,-26313.233532,10404.044140,6043.084686,-18770.994994,-29057.781882,6844.439428,3038.294976,9967.492219,3041.737144,11678.875885,7260.070117,-13037.951355,-3509.894432,0.008000,-0.020000,1.000000,192.000000,0.000000,0.000000,0.000000,0.000000,0.000000,0.000000,0.000000,0.000000,0.000000,1772721173.282086,0.000000
252.000000,-10470.942911,-17981.330214,859.066946,-26315.647521,10406.882811,6042.592948,-18771.285566,-29051.612801,6835.364620,3021.777036,9948.962623,3020.212414,11653.529007,7249.631852,-13063.298233,-3493.644714,0.008000,-0.020000,1.000000,192.000000,0.000000,0.000000,0.000000,0.000000,0.000000,0.000000,0.000000,0.000000,0.000000,1772721173.282114,0.000000
254.000000,-10446.981841,-17953.502292,884.480880,-26292.245244,10439.672821,6083.004902,-18752.934784,-29032.166783,6855.078859,3050.834304,9979.092774,3047.369784,11691.504620,7268.340262,-13028.809491,-3501.512528,0.008000,-0.020000,1.004000,192.000000,0.000000,32.000000,127.500000,48.000000,15.500000,48.000000,0.000000,0.000000,0.000000,1772721173.282142,0.000000
0.000000,-10466.405507,-17978.044507,863.537295,-26315.982797,10420.919707,6074.444184,-18779.578063,-29062.073417,6859.839780,3047.056859,9967.067536,3034.428124,11686.766051,7267.312082,-13034.263317,-3482.670007,0.008000,-0.020000,1.004000,192.000000,0.000000,0.000000,0.000000,0.000000,0.000000,0.000000,0.000000,0.000000,0.000000,1772721173.282183,0.000000
2.000000,-10439.270489,-17949.188405,895.701456,-26285.763238,10451.608652,6103.121472,-18755.125255,-29035.363082,6868.624016,3052.689499,9970.599111,3038.496141,11703.820432,7277.929160,-13032.251660,-3473.639902,0.008000,-0.020000,1.004000,192.000000,0.000000,0.000000,0.000000,0.000000,0.000000,0.000000,0.000000,0.000000,0.000000,1772721173.282211,0.000000
4.000000,-10453.150922,-17964.387591,879.295275,-26303.309358,10426.306477,6085.932980,-18770.324441,-29050.226992,6881.588028,3066.011139,9992.883801,3058.791525,11724.764016,7290.647303,-13013.319732,-3479.652522,0.008000,-0.020000,1.004000,192.000000,0.000000,0.000000,0.000000,0.000000,0.000000,0.000000,0.000000,0.000000,0.000000,1772721173.282240,0.000000
6.000000,-10463.902112,-17972.054240,871.069833,-26309.679605,10415.331771,6061.658986,-18774.235997,-29053.155071,6862.410231,3047.369784,9963.155980,3035.568063,11680.485210,7268.697890,-13041.482930,-3476.076242,0.008000,-0.020000,1.004000,192.000000,0.000000,0.000000,0.000000,0.000000,0.000000,0.000000,0.000000,0.000000,0.000000,1772721173.282269,0.000000
8.000000,-10458.783562,-17962.420638,883.653865,-26291.284119,10423.065474,6050.036079,-18755.549938,-29034.424309,6859.929187,3055.818743,9980.791507,3050.566083,11698.143089,7281.751309,-13018.259468,-3501.557231,0.006000,-0.016000,1.002000,192.000000,0.000000,24.000000,127.500000,64.000000,15.500000,40.000000,0.000000,0.000000,0.000000,1772721173.282296,0.000000
10.000000,-10494.121670,-18001.759708,849.276882,-26322.665968,10376.529142,6017.447235,-18787.602340,-29066.387304,6837.756257,3031.790618,9953.231806,3027.633193,11666.023632,7253.521055,-13042.466407,-3500.305533,0.006000,-0.016000,1.002000,192.000000,0.000000,0.000000,0.000000,0.000000,0.000000,0.000000,0.000000,0.000000,0.000000,1772721173.282323,0.000000
12.000000,-10473.267492,-17977.597472,874.869630,-26295.240378,10403.328884,6045.610433,-18761.428447,-29042.180364,6833.621184,3027.610842,9949.923748,3026.761475,11660.413344,7244.982689,-13051.474160,-3502.808929,0.006000,-0.016000,1.002000,192.000000,0.000000,0.000000,0.000000,0.000000,0.000000,0.000000,0.000000,0.000000,0.000000,1772721173.282350,0.000000
14.000000,-10483.638702,-17992.662548,858.150525,-26316.429832,10391.840087,6028.198424,-18775.755915,-29066.476711,6843.187731,3037.669127,9970.196780,3036.998574,11677.914760,7263.847561,-13034.710352,-3515.795292,0.006000,-0.016000,1.002000,192.000000,0.000000,0.000000,0.000000,0.000000,0.000000,0.000000,0.000000,0.000000,0.000000,1772721173.282376,0.000000
16.000000,-10485.024510,-17994.674205,852.696699,-26319.246151,10390.186058,6031.707648,-18780.516837,-29075.417408,6835.565786,3020.815911,9944.894605,3010.511757,11651.763219,7244.066267,-13058.582015,-3510.386170,0.006000,-0.016000,1.002000,192.000000,0.000000,0.000000,0.000000,0.000000,0.000000,0.000000,0.000000,0.000000,0.000000,1772721173.282403,0.000000
18.000000,-10465.287920,-17968.790885,870.198115,-26295.530950,10416.985800,6059.066183,-18761.584909,-29054.786748,6846.451085,3042.921787,9966.799315,3033.064667,11684.240304,7266.730936,-13032.296363,-3516.264679,0.006000,-0.020000,1.006000,192.000000,0.000000,24.000000,127.500000,48.000000,15.500000,56.000000,0.000000,0.000000,0.000000,1772721173.282430,0.000000
20.000000,-10491.282998,-17993.847191,849.612158,-26321.168401,10398.478555,6037.809674,-18784.093116,-29077.026734,6842.047792,3037.512664,9949.700230,3025.375667,11675.746641,7254.549236,-13041.192358,-3505.692304,0.006000,-0.020000,1.006000,192.000000,0.000000,0.000000,0.000000,0.000000,0.000000,0.000000,0.000000,0.000000,0.000000,1772721173.282458,0.000000
22.000000,-10454.939062,-17955.513949,884.749101,-26285.472665,10432.028524,6071.784326,-18753.784150,-29034.580771,6849.870902,3039.166694,9955.936367,3031.120066,11694.544458,7262.394698,-13042.824035,-3501.356065,0.006000,-0.020000,1.006000,192.000000,0.000000,0.000000,0.000000,0.000000,0.000000,0.000000,0.000000,0.000000,0.000000,1772721173.282484,0.000000
24.000000,-10456.168408,-17958.754952,875.674293,-26292.446410,10419.444492,6078.154573,-18764.334174,-29037.553553,6874.256655,3064.021833,9991.699158,3063.999482,11705.966199,7288.300370,-13022.662762,-3492.013036,0.006000,-0.020000,1.006000,192.000000,0.000000,0.000000,0.000000,0.000000,0.000000,0.000000,0.000000,0.000000,0.000000,1772721173.282512,0.000000
26.000000,-10460.817571,-17964.454647,870.265170,-26299.531913,10407.329846,6081.552038,-18769.787999,-29043.253248,6865.628882,3047.906226,9968.475696,3043.905263,11679.859362,7274.464640,-13050.311869,-3471.762356,0.006000,-0.020000,1.006000,192.000000,0.000000,0.000000,0.000000,0.000000,0.000000,0.000000,0.000000,0.000000,0.000000,1772721173.282544,0.000000
28.000000,-10449.373478,-17951.892966,887.453662,-26282.768104,10415.823509,6099.522841,-18752.979488,-29028.054062,6867.975815,3059.305615,9989.419280,3061.943121,11696.064376,7296.168184,-13028.675381,-3478.601990,0.006000,-0.014000,1.002000,192.000000,0.000000,24.000000,127.500000,72.000000,15.500000,40.000000,0.000000,0.000000,0.000000,1772721173.282571,0.000000
30.000000,-10492.087661,-17998.943388,853.836638,-26322.755375,10372.058794,6062.195428,-18784.003709,-29072.869310,6847.009879,3037.311499,9964.832361,3037.624423,11667.811771,7274.218771,-13043.963974,-3470.868286,0.006000,-0.014000,1.002000,192.000000,0.000000,0.000000,0.000000,0.000000,0.000000,0.000000,0.000000,0.000000,0.000000,1772721173.282598,0.000000
32.000000,-10480.040071,-17982.783077,877.395377,-26302.102363,10391.974198,6059.446163,-18760.377915,-29055.367894,6829.731981,3017.999592,9947.398001,3020.212414,11653.506655,7255.443305,-13049.864835,-3487.542687,0.006000,-0.014000,1.002000,192.000000,0.000000,0.000000,0.000000,0.000000,0.000000,0.000000,0.000000,0.000000,0.000000,1772721173.282624,0.000000
34.000000,-10500.491917,-18003.480792,859.357519,-26322.218933,10367.968424,6032.422904,-18777.298186,-29073.137530,6831.542472,3021.508815,9962.865408,3034.025792,11668.616434,7253.386945,-13031.379942,-3510.877909,0.006000,-0.014000,1.002000,192.000000,0.000000,0.000000,0.000000,0.000000,0.000000,0.000000,0.000000,0.000000,0.000000,1772721173.282651,0.000000
36.000000,-10508.695007,-18008.889915,855.490667,-26328.253904,10364.034517,6015.301468,-18784.450744,-29081.228862,6811.872937,3004.119158,9930.924765,3008.656562,11644.521254,7236.511378,-13061.264224,-3509.626211,0.006000,-0.014000,1.002000,192.000000,0.000000,0.000000,0.000000,0.000000,0.000000,0.000000,0.000000,0.000000,0.000000,1772721173.282677,0.000000
38.000000,-10483.973978,-17983.028946,876.836583,-26303.756392,10387.280332,6036.580329,-18765.876444,-29060.933478,6831.900100,3028.102580,9955.824608,3033.846978,11665.733059,7261.947663,-13035.358552,-3527.820531,0.008000,-0.018000,1.004000,192.000000,0.000000,32.000000,127.500000,56.000000,15.500000,48.000000,0.000000,0.000000,0.000000,1772721173.282705,0.000000
40.000000,-10500.693083,-18006.587685,851.132077,-26328.097442,10367.655500,6023.504558,-18787.155305,-29083.799313,6834.716420,3021.709981,9946.213358,3024.950984,11664.593120,7253.543407,-13045.170968,-3518.008115,0.008000,-0.018000,1.004000,192.000000,0.000000,0.000000,0.000000,0.000000,0.000000,0.000000,0.000000,0.000000,0.000000,1772721173.282732,0.000000
42.000000,-10469.914731,-17974.468228,878.557668,-26299.218988,10404.424120,6058.328576,-18760.221453,-29048.036521,6836.504559,3019.474807,9947.956794,3021.665278,11659.631033,7251.397640,-13048.791951,-3508.933307,0.008000,-0.018000,1.004000,192.000000,0.000000,0.000000,0.000000,0.000000,0.000000,0.000000,0.000000,0.000000,0.000000,1772721173.282759,0.000000
44.000000,-10470.451173,-17976.211664,871.539220,-26311.981834,10399.484384,6047.465628,-18768.759819,-29045.734292,6858.208103,3034.919862,9980.657396,3051.661319,11689.627074,7277.705643,-13027.937773,-3511.995496,0.008000,-0.018000,1.004000,192.000000,0.000000,0.000000,0.000000,0.000000,0.000000,0.000000,0.000000,0.000000,0.000000,1772721173.282785,0.000000
46.000000,-10470.361766,-17975.652871,871.002778,-26310.484268,10399.506736,6046.929186,-18769.251557,-29041.509812,6855.592949,3027.074400,9965.882893,3037.892644,11669.309338,7258.617253,-13053.508169,-3492.124795,0.008000,-0.018000,1.004000,192.000000,0.000000,0.000000,0.000000,0.000000,0.000000,0.000000,0.000000,0.000000,0.000000,1772721173.282812,0.000000
48.000000,-10452.301556,-17952.764684,889.711188,-26283.706878,10416.427006,6077.975759,-18749.134987,-29020.968559,6870.099231,3051.683670,9994.694292,3066.078194,11700.847650,7285.037015,-13030.105892,-3492.437719,0.007000,-0.018000,1.003000,192.000000,0.000000,24.000000,127.500000,56.000000,15.500000,40.000000,0.000000,0.000000,0.000000,1772721173.282839,0.000000
50.000000,-10481.939969,-17983.408926,861.726804,-26314.082898,10384.665177,6044.515198,-18778.549883,-29054.227955,6854.676527,3043.637042,9976.365861,3053.404755,11683.547399,7274.039957,-13045.260375,-3482.155917,0.007000,-0.018000,1.003000,192.000000,0.000000,0.000000,0.000000,0.000000,0.000000,0.000000,0.000000,0.000000,0.000000,1772721173.282866,0.000000
52.000000,-10465.757306,-17962.688859,885.911391,-26285.651479,10410.995532,6066.688128,-18755.907566,-29032.926742,6851.189655,3043.190008,9966.575797,3047.414487,11665.464838,7271.737727,-13049.708372,-3478.467879,0.007000,-0.018000,1.003000,192.000000,0.000000,0.000000,0.000000,0.000000,0.000000,0.000000,0.000000,0.000000,0.000000,1772721173.282910,0.000000
54.000000,-10482.141135,-17983.788906,870.823964,-26301.834142,10392.242419,6053.321785,-18772.872540,-29049.511737,6852.307242,3042.944138,9982.110260,3062.233694,11689.850591,7277.526829,-13031.335238,-3482.178269,0.007000,-0.018000,1.003000,192.000000,0.000000,0.000000,0.000000,0.000000,0.000000,0.000000,0.000000,0.000000,0.000000,1772721173.282938,0.000000
56.000000,-10487.840830,-17991.746127,867.493554,-26308.137334,10389.671968,6062.016614,-18778.527531,-29054.250306,6839.902024,3016.993763,9958.551521,3029.689554,11665.017803,7253.901035,-13056.033916,-3466.107364,0.007000,-0.018000,1.003000,192.000000,0.000000,0.000000,0.000000,0.000000,0.000000,0.000000,0.000000,0.000000,0.000000,1772721173.282965,0.000000
58.000000,-10468.417164,-17972.076592,888.370083,-26290.747677,10409.945000,6083.943675,-18758.589775,-29036.480670,6856.196446,3037.222092,9986.021815,3051.169580,11693.896257,7282.824192,-13028.138939,-3484.122870,0.006500,-0.014000,1.002500,192.000000,0.000000,24.000000,127.500000,88.000000,15.500000,40.000000,0.000000,0.000000,0.000000,1772721173.761996,0.000000
60.000000,-10493.831097,-17999.658644,859.402223,-26329.304436,10387.459145,6053.321785,-18789.122258,-29071.572908,6850.183827,3024.571004,9966.732260,3030.516568,11682.988606,7269.390794,-13035.604422,-3485.195754,0.006500,-0.014000,1.002500,192.000000,0.000000,0.000000,0.000000,0.000000,0.000000,0.000000,0.000000,0.000000,0.000000,1772721173.762078,0.000000
62.000000,-10469.847676,-17970.243748,881.865726,-26302.437640,10412.694265,6068.543323,-18764.915319,-29041.442757,6849.759144,3024.414542,9956.986899,3027.968470,11674.539646,7263.825210,-13037.012581,-3491.655408,0.006500,-0.014000,1.002500,192.000000,0.000000,0.000000,0.000000,0.000000,0.000000,0.000000,0.000000,0.000000,0.000000,1772721173.762123,0.000000
64.000000,-10480.755327,-17983.118353,865.951284,-26314.127602,10389.783727,6042.660003,-18774.683031,-29051.165766,6857.045812,3037.020926,9972.789582,3051.080173,11686.184905,7272.184762,-13022.841575,-3507.346333,0.006500,-0.014000,1.002500,192.000000,0.000000,0.000000,0.000000,0.000000,0.000000,0.000000,0.000000,0.000000,0.000000,1772721173.762166,0.000000
66.000000,-10478.542504,-17983.073650,864.632531,-26312.339462,10390.141355,6046.191579,-18774.347755,-29052.015132,6848.753315,3021.352353,9951.778943,3026.895586,11672.349175,7257.253797,-13054.245776,-3497.533917,0.006500,-0.014000,1.002500,192.000000,0.000000,0.000000,0.000000,0.000000,0.000000,0.000000,0.000000,0.000000,0.000000,1772721173.762207,0.000000
68.000000,-10456.838960,-17958.062048,886.045502,-26284.444485,10413.118948,6066.844591,-18752.197176,-29028.501097,6864.757164,3049.180275,9983.361957,3055.952854,11700.244153,7280.946646,-13036.029105,-3505.334676,0.007250,-0.009000,1.002250,192.000000,0.000000,32.000000,127.500000,112.000000,15.500000,40.000000,0.000000,0.000000,0.000000,1772721173.762252,0.000000
70.000000,-10479.056594,-17980.167923,859.089298,-26307.802058,10388.375567,6049.834913,-18777.588758,-29055.479652,6859.526856,3045.425182,9972.700175,3053.002423,11685.424946,7275.939855,-13051.787085,-3494.963467,0.007250,-0.009000,1.002250,192.000000,0.000000,0.000000,0.000000,0.000000,0.000000,0.000000,0.000000,0.000000,0.000000,1772721173.762293,0.000000
72.000000,-10464.706774,-17959.805484,881.530450,-26284.064506,10414.683570,6067.716309,-18755.795807,-29035.698358,6855.324728,3043.949967,9964.765306,3051.326043,11683.972083,7283.114765,-13055.117494,-3487.497984,0.007250,-0.009000,1.002250,192.000000,0.000000,0.000000,0.000000,0.000000,0.000000,0.000000,0.000000,0.000000,0.000000,1772721173.762334,0.000000
74.000000,-10483.415184,-17981.106696,866.778298,-26306.796230,10398.590314,6047.443276,-18772.269043,-29055.479652,6856.397612,3046.587473,9978.869257,3061.630197,11700.713539,7282.511268,-13032.698695,-3494.605839,0.007250,-0.009000,1.002250,192.000000,0.000000,0.000000,0.000000,0.000000,0.000000,0.000000,0.000000,0.000000,0.000000,1772721173.762348,0.000000
76.000000,-10497.697949,-17996.909380,858.441098,-26316.675701,10390.119003,6049.365526,-18783.087287,-29072.578737,6833.911757,3013.462187,9944.447570,3025.420371,11663.564940,7252.850503,-13056.682117,-3477.596161,0.007250,-0.009000,1.002250,192.000000,0.000000,0.000000,0.000000,0.000000,0.000000,0.000000,0.000000,0.000000,0.000000,1772721173.762360,0.000000
78.000000,-10473.356899,-17971.562501,882.245705,-26293.161666,10416.583469,6067.738660,-18762.635441,-29051.501042,6847.121638,3030.673031,9967.358108,3040.999537,11696.891391,7274.285826,-13026.328448,-3480.904219,0.006625,-0.009500,1.005125,192.000000,0.000000,24.000000,127.500000,88.000000,15.500000,64.000000,0.000000,0.000000,0.000000,1772721173.762372,0.000000
80.000000,-10498.636722,-18001.938522,852.897865,-26323.582390,10385.916875,6052.785343,-18793.547904,-29085.878025,6853.715402,3025.040391,9957.009251,3029.175464,11686.207257,7270.910713,-13029.100064,-3476.165649,0.006625,-0.009500,1.005125,192.000000,0.000000,0.000000,0.000000,0.000000,0.000000,0.000000,0.000000,0.000000,0.000000,1772721173.762387,0.000000
82.000000,-10491.528868,-17984.772382,874.444947,-26299.487209,10412.090768,6079.026291,-18772.492560,-29066.074379,6828.055600,3018.893661,9938.434951,3016.837301,11673.086783,7272.207114,-13033.682172,-3473.550495,0.006625,-0.009500,1.005125,192.000000,0.000000,0.000000,0.000000,0.000000,0.000000,0.000000,0.000000,0.000000,0.000000,1772721173.762399,0.000000
84.000000,-10504.224659,-17993.847191,859.938664,-26316.049852,10401.361931,6059.915550,-18786.238883,-29078.591356,6826.267460,3032.952909,9952.538902,3034.249310,11679.591141,7274.241123,-13013.431491,-3488.123833,0.006625,-0.009500,1.005125,192.000000,0.000000,0.000000,0.000000,0.000000,0.000000,0.000000,0.000000,0.000000,0.000000,1772721173.762411,0.000000
86.000000,-10509.007932,-17994.383632,854.887170,-26323.425928,10402.546573,6048.516160,-18791.066860,-29083.151112,6809.771873,3016.680839,9924.979201,3013.462187,11649.058658,7250.637680,-13038.778369,-3479.227838,0.006625,-0.009500,1.005125,192.000000,0.000000,0.000000,0.000000,0.000000,0.000000,0.000000,0.000000,0.000000,0.000000,1772721173.762423,0.000000
88.000000,-10484.130440,-17967.606243,872.165069,-26300.336576,10422.551384,6064.274140,-18770.167979,-29059.279449,6824.926355,3046.229845,9954.863483,3040.239577,11679.434678,7273.525867,-13019.712331,-3498.584449,0.006313,-0.007750,1.006563,192.000000,0.000000,24.000000,127.500000,104.000000,15.500000,64.000000,0.000000,0.000000,0.000000,1772721173.762435,0.000000
90.000000,-10509.253801,-17997.602284,842.906635,-26325.325826,10378.071413,6029.450122,-18791.960930,-29080.133626,6818.287887,3034.897510,9942.927652,3031.522397,11666.828295,7262.372346,-13044.723933,-3492.638885,0.006313,-0.007750,1.006563,192.000000,0.000000,0.000000,0.000000,0.000000,0.000000,0.000000,0.000000,0.000000,0.000000,1772721173.762454,0.000000
92.000000,-10478.922484,-17963.270004,873.327359,-26289.898311,10399.193811,6045.811599,-18757.941575,-29037.911181,6816.499748,3042.653566,9945.274585,3039.658432,11657.574672,7262.886436,-13062.448867,-3502.764225,0.006313,-0.007750,1.006563,192.000000,0.000000,0.000000,0.000000,0.000000,0.000000,0.000000,0.000000,0.000000,0.000000,1772721173.762480,0.000000
94.000000,-10480.241237,-17969.975528,866.040691,-26301.744735,10382.497058,6040.514236,-18765.272947,-29037.732367,6831.229547,3061.697252,9974.667129,3066.525229,11683.748565,7284.031187,-13048.993116,-3520.176234,0.006313,-0.007750,1.006563,192.000000,0.000000,0.000000,0.000000,0.000000,0.000000,0.000000,0.000000,0.000000,0.000000,1772721173.762492,0.000000
96.000000,-10481.492934,-17972.858903,864.587827,-26309.299625,10383.905218,6042.794113,-18771.844360,-29045.801347,6832.101265,3043.100601,9955.198759,3044.687574,11666.470667,7266.239198,-13069.690832,-3505.804063,0.006313,-0.007750,1.006563,192.000000,0.000000,0.000000,0.000000,0.000000,0.000000,0.000000,0.000000,0.000000,0.000000,1772721173.762504,0.000000
98.000000,-10466.427859,-17955.670411,883.072720,-26292.088782,10410.146166,6058.373279,-18756.712229,-29032.993797,6845.065277,3059.752650,9976.455268,3059.707947,11694.879734,7285.238181,-13038.241927,-3514.923574,0.005156,-0.011875,1.008281,192.000000,0.000000,16.000000,127.500000,64.000000,15.500000,72.000000,0.000000,0.000000,0.000000,1772721173.762515,0.000000
100.000000,-10493.428766,-17985.130010,855.244798,-26320.855477,10382.832334,6038.927262,-18787.758802,-29065.783807,6839.209120,3047.459191,9958.216245,3046.118086,11681.245170,7269.904884,-13045.953279,-3504.887641,0.005156,-0.011875,1.008281,192.000000,0.000000,0.000000,0.000000,0.000000,0.000000,0.000000,0.000000,0.000000,0.000000,1772721173.762528,0.000000
102.000000,-10475.122687,-17962.845321,877.685950,-26293.943977,10409.699131,6068.208047,-18765.787037,-29045.823699,6834.358792,3043.301766,9946.526283,3038.093810,11674.696109,7266.552122,-13044.813340,-3489.934324,0.005156,-0.011875,1.008281,192.000000,0.000000,0.000000,0.000000,0.000000,0.000000,0.000000,0.000000,0.000000,0.000000,1772721173.762540,0.000000
104.000000,-10492.534696,-17983.140705,863.581999,-26314.261712,10404.155899,6056.182808,-18782.014404,-29069.136568,6838.337402,3051.907188,9958.886797,3046.676880,11695.416176,7276.252780,-13020.360532,-3490.448414,0.005156,-0.011875,1.008281,192.000000,0.000000,0.000000,0.000000,0.000000,0.000000,0.000000,0.000000,0.000000,0.000000,1772721173.762552,0.000000
106.000000,-10501.765967,-17992.371975,855.915350,-26324.543515,10404.200602,6055.914587,-18792.989110,-29082.502911,6827.653268,3026.090923,9927.281431,3017.127874,11681.088708,7255.443305,-13040.991192,-3469.191905,0.005156,-0.011875,1.008281,192.000000,0.000000,0.000000,0.000000,0.000000,0.000000,0.000000,0.000000,0.000000,0.000000,1772721173.762564,0.000000
108.000000,-10491.193591,-17977.642176,876.344845,-26302.348233,10434.062533,6079.830954,-18773.364278,-29066.677876,6830.871919,3039.300804,9943.911129,3035.076324,11689.649426,7274.062309,-13015.152575,-3475.785670,0.003578,-0.013938,1.010141,192.000000,0.000000,8.000000,127.500000,64.000000,15.500000,80.000000,0.000000,0.000000,0.000000,1772721173.762576,0.000000
110.000000,-10520.809653,-18011.616827,848.718089,-26334.065358,10407.665122,6050.416058,-18802.198029,-29095.511627,6817.527928,3025.800350,9922.900489,3020.637097,11674.137315,7266.797992,-13022.752169,-3477.886734,0.003578,-0.013938,1.010141,192.000000,0.000000,0.000000,0.000000,0.000000,0.000000,0.000000,0.000000,0.000000,0.000000,1772721173.762588,0.000000
112.000000,-10500.558972,-17989.332138,874.087319,-26307.779706,10431.447379,6070.197352,-18775.197122,-29068.354257,6813.638725,3025.152150,9920.218279,3017.664315,11672.930321,7264.831038,-13027.960125,-3484.011112,0.003578,-0.013938,1.010141,192.000000,0.000000,0.000000,0.000000,0.000000,0.000000,0.000000,0.000000,0.000000,0.000000,1772721173.762600,0.000000
114.000000,-10504.962266,-17997.401118,862.039728,-26323.917666,10415.197660,6040.894215,-18784.182523,-29076.266775,6824.076989,3040.552502,9946.101599,3040.954833,11689.984702,7271.201285,-13011.889221,-3504.150033,0.003578,-0.013938,1.010141,192.000000,0.000000,0.000000,0.000000,0.000000,0.000000,0.000000,0.000000,0.000000,0.000000,1772721173.762612,0.000000
116.000000,-10509.477318,-18002.407909,857.681138,-26331.092576,10394.790518,6023.213985,-18788.116430,-29080.044219,6812.342323,3023.207548,9923.146358,3018.021943,11659.966309,7246.949643,-13049.350744,-3502.831281,0.003578,-0.013938,1.010141,192.000000,0.000000,0.000000,0.000000,0.000000,0.000000,0.000000,0.000000,0.000000,0.000000,1772721173.762625,0.000000
118.000000,-10481.828211,-17975.541112,878.021226,-26301.521218,10411.375512,6035.261576,-18760.422618,-29051.657504,6827.966193,3038.183217,9951.488370,3044.665223,11685.737870,7260.763021,-13038.331334,-3523.394885,0.003578,-0.013938,1.010141,192.000000,0.000000,0.000000,0.000000,0.000000,0.000000,0.000000,0.000000,0.000000,0.000000,1772721173.762636,0.000000
120.000000,-10502.637685,-17999.748051,852.093202,-26327.561000,10381.893561,6014.832081,-18784.294282,-29075.238594,6830.156664,3029.689554,9945.788675,3037.602071,11675.746641,7257.566721,-13058.090276,-3520.578566,0.008000,-0.018000,1.006000,192.000000,0.000000,32.000000,127.500000,56.000000,15.500000,56.000000,0.000000,0.000000,0.000000,1772721173.762648,0.000000
122.000000,-10474.742708,-17967.159208,882.871554,-26297.184980,10405.854631,6045.655137,-18756.712229,-29040.794556,6836.012821,3036.350374,9946.548634,3042.854731,11678.965292,7256.695003,-13064.505227,-3512.151958,0.008000,-0.018000,1.006000,192.000000,0.000000,0.000000,0.000000,0.000000,0.000000,0.000000,0.000000,0.000000,0.000000,1772721173.762662,0.000000
124.000000,-10482.297597,-17976.993975,871.583923,-26308.584369,10388.554381,6039.083724,-18768.312784,-29049.377626,6842.852455,3053.605921,9972.163734,3067.866333,11707.776690,7267.669710,-13043.002849,-3521.047952,0.008000,-0.018000,1.006000,192.000000,0.000000,0.000000,0.000000,0.000000,0.000000,0.000000,0.000000,0.000000,0.000000,1772721173.762674,0.000000
126.000000,-10496.692121,-17993.757784,860.653920,-26319.402614,10378.361985,6033.473436,-18782.036755,-29065.806158,6828.972021,3033.422295,9950.639004,3038.384383,11673.355004,7247.463733,-13066.338070,-3504.954696,0.008000,-0.018000,1.006000,192.000000,0.000000,0.000000,0.000000,0.000000,0.000000,0.000000,0.000000,0.000000,0.000000,1772721173.762686,0.000000
128.000000,-10483.169315,-17975.183484,878.915295,-26297.430849,10402.211297,6061.435468,-18763.149531,-29053.870327,6831.698934,3043.190008,9969.995614,3047.727412,11685.335539,7261.858256,-13041.326468,-3506.429911,0.008000,-0.018000,1.006000,192.000000,0.000000,0.000000,0.000000,0.000000,0.000000,0.000000,0.000000,0.000000,0.000000,1772721173.762698,0.000000
130.000000,-10515.847566,-18008.912266,848.136943,-26329.483250,10381.200657,6043.688183,-18795.112526,-29091.331850,6818.377294,3033.779923,9948.001498,3029.913071,11673.824391,7253.163427,-13045.550948,-3485.508679,0.004000,-0.016000,1.000000,192.000000,0.000000,16.000000,127.500000,64.000000,15.500000,32.000000,0.000000,0.000000,0.000000,1772721173.762709,0.000000
132.000000,-10497.429728,-17987.678109,870.131060,-26305.991567,10424.563041,6072.052547,-18777.566406,-29070.634135,6811.381198,3028.415505,9931.215338,3018.558385,11663.497885,7253.074021,-13043.829864,-3466.107364,0.004000,-0.016000,1.000000,192.000000,0.000000,0.000000,0.000000,0.000000,0.000000,0.000000,0.000000,0.000000,0.000000,1772721173.762721,0.000000
134.000000,-10514.171185,-18006.833554,856.451792,-26325.616399,10430.374495,6059.379108,-18793.436145,-29089.096676,6815.940954,3035.053973,9944.782847,3031.701211,11689.112984,7269.837829,-13013.096215,-3472.365853,0.004000,-0.016000,1.000000,192.000000,0.000000,0.000000,0.000000,0.000000,0.000000,0.000000,0.000000,0.000000,0.000000,1772721173.762733,0.000000
136.000000,-10526.241127,-18020.825746,848.092240,-26339.407425,10429.100445,6043.084686,-18802.935636,-29102.194798,6803.982771,3011.294068,9913.445701,2997.190118,11663.296719,7240.869968,-13028.809491,-3472.544667,0.004000,-0.016000,1.000000,192.000000,0.000000,0.000000,0.000000,0.000000,0.000000,0.000000,0.000000,0.000000,0.000000,1772721173.762746,0.000000
138.000000,-10510.281981,-18001.826763,866.487726,-26320.587256,10433.168463,6035.798017,-18779.332194,-29079.463074,6805.837966,3018.133702,9935.126893,3012.076379,11680.820487,7249.251872,-13006.949485,-3502.250135,0.004000,-0.016000,1.000000,192.000000,0.000000,0.000000,0.000000,0.000000,0.000000,0.000000,0.000000,0.000000,0.000000,1772721173.762758,0.000000
140.000000,-10534.555976,-18028.090063,838.480990,-26344.771844,10385.469840,6006.025494,-18802.935636,-29103.446496,6795.667922,3006.331981,9925.448588,3004.879118,11657.887597,7230.811683,-13029.770616,-3513.962449,0.006000,-0.020000,1.010000,192.000000,0.000000,24.000000,127.500000,48.000000,15.500000,72.000000,0.000000,0.000000,0.000000,1772721173.762771,0.000000
142.000000,-10496.580362,-17986.515818,871.405109,-26305.432773,10414.303591,6042.682355,-18771.799656,-29063.503929,6798.640704,3016.502025,9927.884928,3014.445664,11662.961443,7237.070171,-13048.613137,-3515.907051,0.006000,-0.020000,1.010000,192.000000,0.000000,0.000000,0.000000,0.000000,0.000000,0.000000,0.000000,0.000000,0.000000,1772721173.762783,0.000000
144.000000,-10493.853449,-17985.420583,868.678197,-26310.171343,10414.705922,6037.161474,-18778.616938,-29064.263888,6825.485149,3048.621481,9964.854713,3050.074345,11685.849629,7268.094393,-13028.898898,-3525.920633,0.006000,-0.020000,1.010000,192.000000,0.000000,0.000000,0.000000,0.000000,0.000000,0.000000,0.000000,0.000000,0.000000,1772721173.762795,0.000000
146.000000,-10496.826231,-17987.275778,868.141755,-26314.529933,10416.024675,6039.351945,-18782.707308,-29067.281373,6820.433655,3036.529188,9946.347469,3029.846016,11669.935187,7256.180913,-13052.636451,-3512.040199,0.006000,-0.020000,1.010000,192.000000,0.000000,0.000000,0.000000,0.000000,0.000000,0.000000,0.000000,0.000000,0.000000,1772721173.762807,0.000000
148.000000,-10475.502667,-17963.627632,894.002723,-26288.601910,10447.697097,6064.072974,-18756.868691,-29043.655580,6831.900100,3053.315348,9968.028661,3055.550522,11708.335484,7279.918466,-13025.501433,-3517.002287,0.006000,-0.020000,1.010000,192.000000,0.000000,0.000000,0.000000,0.000000,0.000000,0.000000,0.000000,0.000000,0.000000,1772721173.762819,0.000000
150.000000,-10499.642551,-17993.131935,869.326397,-26319.849648,10417.522242,6031.774703,-18785.166000,-29070.567080,6830.804864,3046.676880,9958.663280,3045.715755,11711.174156,7267.848524,-13031.581108,-3506.809891,0.010000,-0.020000,1.008000,192.000000,0.000000,40.000000,127.500000,48.000000,15.500000,64.000000,0.000000,0.000000,0.000000,1772721173.762831,0.000000
152.000000,-10481.425879,-17971.853074,894.203889,-26298.771953,10435.783617,6062.173076,-18765.004726,-29047.008341,6830.000201,3042.117124,9953.231806,3038.697307,11702.322865,7256.605596,-13038.107817,-3497.109234,0.010000,-0.020000,1.008000,192.000000,0.000000,0.000000,0.000000,0.000000,0.000000,0.000000,0.000000,0.000000,0.000000,1772721173.762843,0.000000
154.000000,-10495.932161,-17988.818048,881.977484,-26314.351119,10418.416312,6056.987471,-18778.013441,-29062.565155,6834.895233,3050.007290,9973.281321,3054.902322,11716.717388,7269.167277,-13017.298343,-3496.863365,0.010000,-0.020000,1.008000,192.000000,0.000000,0.000000,0.000000,0.000000,0.000000,0.000000,0.000000,0.000000,0.000000,1772721173.762857,0.000000
156.000000,-10518.641534,-18011.370958,861.458583,-26329.997340,10403.038311,6056.294567,-18795.268988,-29089.566063,6814.264573,3022.402885,9938.367896,3016.926708,11675.456068,7245.988518,-13044.746285,-3475.718615,0.010000,-0.020000,1.008000,192.000000,0.000000,0.000000,0.000000,0.000000,0.000000,0.000000,0.000000,0.000000,0.000000,1772721173.762869,0.000000
158.000000,-10511.153699,-18001.379728,873.126194,-26310.238398,10430.732123,6082.200239,-18778.683994,-29080.401847,6811.828233,3026.672068,9948.537940,3022.447589,11693.359815,7267.893227,-13018.706503,-3477.618513,0.010000,-0.020000,1.008000,192.000000,0.000000,0.000000,0.000000,0.000000,0.000000,0.000000,0.000000,0.000000,0.000000,1772721173.762880,0.000000
160.000000,-10547.005897,-18037.611906,834.725897,-26346.425873,10401.585448,6057.345099,-18813.575067,-29120.567932,6796.204364,3008.209528,9923.816910,3001.638115,11664.637824,7251.241177,-13024.607363,-3469.594237,0.006000,-0.022000,1.006000,192.000000,0.000000,24.000000,127.500000,40.000000,15.500000,56.000000,0.000000,0.000000,0.000000,1772721173.762892,0.000000
162.000000,-10523.491862,-18011.415662,851.668519,-26318.709709,10419.578602,6075.472364,-18791.312729,-29091.220092,6784.626160,3007.851900,9908.997704,2994.776129,11651.137370,7237.874834,-13033.749227,-3466.196771,0.006000,-0.022000,1.006000,192.000000,0.000000,0.000000,0.000000,0.000000,0.000000,0.000000,0.000000,0.000000,0.000000,1772721173.762904,0.000000
164.000000,-10523.581269,-18012.287380,844.828885,-26327.605704,10405.429948,6045.744544,-18793.883180,-29087.777923,6795.086777,3025.420371,9934.478692,3021.777036,11671.522161,7253.833980,-13018.818261,-3485.262809,0.006000,-0.022000,1.006000,192.000000,0.000000,0.000000,0.000000,0.000000,0.000000,0.000000,0.000000,0.000000,0.000000,1772721173.762916,0.000000
166.000000,-10522.418979,-18013.986112,845.812362,-26334.847669,10392.063605,6024.152759,-18794.844305,-29085.453342,6790.839945,3015.540900,9917.916050,3005.661429,11648.656326,7233.784465,-13053.396410,-3497.243344,0.006000,-0.022000,1.006000,192.000000,0.000000,0.000000,0.000000,0.000000,0.000000,0.000000,0.000000,0.000000,0.000000,1772721173.762928,0.000000
168.000000,-10487.505554,-17974.468228,879.719958,-26302.571750,10421.187928,6040.201311,-18762.590738,-29045.734292,6812.409379,3039.569025,9953.008289,3038.607900,11686.430775,7252.738744,-13037.034933,-3529.653374,0.006000,-0.022000,1.006000,192.000000,0.000000,0.000000,0.000000,0.000000,0.000000,0.000000,0.000000,0.000000,0.000000,1772721173.762947,0.000000
170.000000,-10501.475394,-17993.668377,863.291426,-26323.671797,10403.775919,6025.069180,-18784.294282,-29064.263888,6816.902079,3043.145304,9955.064649,3043.949967,11681.021652,7252.559930,-13044.947451,-3529.832188,0.010000,-0.024000,1.008000,192.000000,0.000000,40.000000,127.500000,32.000000,15.500000,64.000000,0.000000,0.000000,0.000000,1772721173.762959,0.000000
172.000000,-10471.121725,-17960.520740,894.181537,-26292.111134,10441.215091,6052.450067,-18758.008630,-29032.658521,6824.881652,3049.850827,9959.959681,3047.772115,11687.861286,7262.506457,-13047.204977,-3523.618403,0.010000,-0.024000,1.008000,192.000000,0.000000,0.000000,0.000000,0.000000,0.000000,0.000000,0.000000,0.000000,0.000000,1772721173.762971,0.000000
174.000000,-10478.833077,-17972.255405,883.206830,-26305.075145,10433.526091,6048.069125,-18769.430371,-29047.947114,6836.258690,3063.150115,9981.752632,3063.731261,11719.533708,7276.811573,-13018.550041,-3527.418199,0.010000,-0.024000,1.008000,192.000000,0.000000,0.000000,0.000000,0.000000,0.000000,0.000000,0.000000,0.000000,0.000000,1772721173.762983,0.000000
176.000000,-10493.495821,-17985.018252,867.538258,-26314.775802,10417.701056,6048.784381,-18782.640252,-29066.968449,6824.814597,3043.905263,9949.610823,3031.902377,11691.884600,7259.556026,-13038.934831,-3501.177251,0.010000,-0.024000,1.008000,192.000000,0.000000,0.000000,0.000000,0.000000,0.000000,0.000000,0.000000,0.000000,0.000000,1772721173.762995,0.000000
178.000000,-10484.711586,-17971.763667,879.295275,-26293.474590,10429.279259,6067.246922,-18767.843398,-29053.535051,6825.708667,3051.616615,9959.758515,3043.413525,11695.147955,7269.234332,-13024.272087,-3501.400769,0.010000,-0.024000,1.008000,192.000000,0.000000,0.000000,0.000000,0.000000,0.000000,0.000000,0.000000,0.000000,0.000000,1772721174.242131,0.000000
180.000000,-10524.229470,-18015.282514,844.068926,-26325.504640,10386.475669,6034.814541,-18797.861790,-29090.817760,6809.704817,3032.997612,9937.518530,3029.533092,11672.215065,7251.755268,-13040.790026,-3491.186022,0.014000,-0.020000,1.006000,192.000000,0.000000,56.000000,127.500000,48.000000,15.500000,56.000000,0.000000,0.000000,0.000000,1772721174.242226,0.000000
182.000000,-10514.037074,-18000.887990,859.156353,-26302.795267,10409.319152,6062.329538,-18780.338023,-29075.372705,6795.846736,3022.425237,9914.473881,3015.205624,11658.379335,7244.669765,-13056.503303,-3482.446490,0.014000,-0.020000,1.006000,192.000000,0.000000,0.000000,0.000000,0.000000,0.000000,0.000000,0.000000,0.000000,0.000000,1772721174.242288,0.000000
184.000000,-10521.569612,-18010.119261,849.053365,-26315.871038,10405.318189,6061.591931,-18791.066860,-29084.223996,6800.965285,3034.182255,9930.678896,3033.422295,11676.350138,7261.344166,-13034.576241,-3485.665141,0.014000,-0.020000,1.006000,192.000000,0.000000,0.000000,0.000000,0.000000,0.000000,0.000000,0.000000,0.000000,0.000000,1772721174.242352,0.000000
186.000000,-10532.454912,-18023.150328,843.934815,-26333.148936,10401.049006,6062.217779,-18802.399195,-29097.255063,6788.425957,3012.389304,9905.354369,3001.883984,11657.708783,7235.371439,-13053.776390,-3470.443603,0.014000,-0.020000,1.006000,192.000000,0.000000,0.000000,0.000000,0.000000,0.000000,0.000000,0.000000,0.000000,0.000000,1772721174.242399,0.000000
188.000000,-10512.986542,-18001.938522,871.203944,-26312.250055,10431.581489,6067.626902,-18780.516837,-29076.646754,6804.519213,3026.180330,9930.365971,3014.512719,11680.172286,7250.592977,-13019.667628,-3478.646693,0.014000,-0.020000,1.006000,192.000000,0.000000,0.000000,0.000000,0.000000,0.000000,0.000000,0.000000,0.000000,0.000000,1772721174.242427,0.000000
190.000000,-10533.348982,-18025.474909,847.399336,-26340.904992,10407.329846,6038.726096,-18806.690729,-29098.752630,6799.981809,3017.843129,9921.157053,3011.137606,11679.546437,7240.020602,-13024.182680,-3478.937266,0.012000,-0.021000,1.005000,192.000000,0.000000,40.000000,127.500000,40.000000,15.500000,48.000000,0.000000,0.000000,0.000000,1772721174.242454,0.000000
192.000000,-10505.521060,-17992.640196,874.154374,-26313.278236,10426.351181,6051.667756,-18777.476999,-29063.123949,6800.719416,3021.486464,9919.793596,3013.752760,11673.243245,7234.365610,-13033.548061,-3486.670969,0.012000,-0.021000,1.005000,192.000000,0.000000,0.000000,0.000000,0.000000,0.000000,0.000000,0.000000,0.000000,0.000000,1772721174.242482,0.000000
194.000000,-10506.079853,-17996.842324,871.360406,-26322.867134,10404.669989,6028.243128,-18776.091191,-29058.966524,6813.191690,3037.579720,9951.421315,3041.290109,11699.081862,7249.788314,-13016.672494,-3515.169444,0.012000,-0.021000,1.005000,192.000000,0.000000,0.000000,0.000000,0.000000,0.000000,0.000000,0.000000,0.000000,0.000000,1772721174.242509,0.000000
196.000000,-10506.459833,-17999.546885,872.455641,-26327.248076,10396.466898,6011.904003,-18778.572235,-29060.486443,6806.262649,3021.844092,9936.736219,3025.934461,11667.320033,7231.057552,-13047.875529,-3519.125702,0.012000,-0.021000,1.005000,192.000000,0.000000,0.000000,0.000000,0.000000,0.000000,0.000000,0.000000,0.000000,0.000000,1772721174.242537,0.000000
198.000000,-10484.108089,-17973.931786,897.176671,-26297.252035,10419.980934,6038.346116,-18756.488711,-29039.006417,6818.332591,3046.453362,9961.658414,3053.203589,11691.817545,7253.498704,-13026.149634,-3533.944909,0.012000,-0.021000,1.005000,192.000000,0.000000,0.000000,0.000000,0.000000,0.000000,0.000000,0.000000,0.000000,0.000000,1772721174.242564,0.000000
200.000000,-10503.554106,-17997.065842,867.694720,-26323.560038,10393.739986,6020.554128,-18786.127125,-29067.661353,6815.203347,3040.440743,9951.063687,3049.984938,11684.352062,7249.631852,-13039.001887,-3524.847749,0.010000,-0.020500,1.005500,192.000000,0.000000,32.000000,127.500000,48.000000,15.500000,56.000000,0.000000,0.000000,0.000000,1772721174.242596,0.000000
202.000000,-10479.816554,-17973.797676,888.325380,-26300.403631,10419.511547,6042.525893,-18764.356525,-29043.096786,6818.712571,3036.350374,9947.599166,3040.776019,11678.294740,7246.748477,-13047.897881,-3514.945926,0.010000,-0.020500,1.005500,192.000000,0.000000,0.000000,0.000000,0.000000,0.000000,0.000000,0.000000,0.000000,0.000000,1772721174.242626,0.000000
204.000000,-10496.088624,-17990.248560,872.187420,-26310.126640,10405.429948,6037.206177,-18775.979433,-29055.770225,6824.747542,3048.196798,9967.603978,3056.757516,11697.651350,7262.484105,-13029.480044,-3521.651449,0.010000,-0.020500,1.005500,192.000000,0.000000,0.000000,0.000000,0.000000,0.000000,0.000000,0.000000,0.000000,0.000000,1772721174.242654,0.000000
206.000000,-10518.418016,-18009.761633,855.937702,-26321.481326,10394.634055,6029.740695,-18792.966758,-29076.579699,6801.166451,3020.637097,9927.884928,3025.576833,11658.871074,7238.791256,-13056.346840,-3494.784653,0.010000,-0.020500,1.005500,192.000000,0.000000,0.000000,0.000000,0.000000,0.000000,0.000000,0.000000,0.000000,0.000000,1772721174.242682,0.000000
208.000000,-10504.716397,-17989.354490,871.941551,-26297.766125,10425.367704,6060.116715,-18776.404116,-29067.080208,6802.082873,3034.986917,9936.490349,3037.289147,11682.385109,7256.605596,-13031.782273,-3495.432853,0.010000,-0.020500,1.005500,192.000000,0.000000,0.000000,0.000000,0.000000,0.000000,0.000000,0.000000,0.000000,0.000000,1772721174.242710,0.000000
210.000000,-10533.885423,-18022.926810,840.246778,-26331.360797,10400.110233,6042.369430,-18810.334064,-29106.352223,6796.629047,3023.319307,9920.419445,3019.318345,11677.668891,7247.933119,-13032.743398,-3479.339597,0.009000,-0.018250,1.004750,192.000000,0.000000,32.000000,127.500000,64.000000,15.500000,48.000000,0.000000,0.000000,0.000000,1772721174.242737,0.000000
212.000000,-10517.523946,-18004.911304,858.910484,-26312.406518,10427.692286,6072.745451,-18793.525552,-29091.667127,6791.354035,3010.891737,9906.986047,3004.923821,11656.591196,7244.088619,-13037.169044,-3467.604931,0.009000,-0.018250,1.004750,192.000000,0.000000,0.000000,0.000000,0.000000,0.000000,0.000000,0.000000,0.000000,0.000000,1772721174.242764,0.000000
214.000000,-10528.386894,-18015.483679,850.103897,-26325.795212,10420.651486,6052.047736,-18800.923979,-29101.479542,6793.902134,3019.430103,9924.643925,3021.486464,11679.747603,7254.012794,-13013.297381,-3479.049024,0.009000,-0.018250,1.004750,192.000000,0.000000,0.000000,0.000000,0.000000,0.000000,0.000000,0.000000,0.000000,0.000000,1772721174.242791,0.000000
216.000000,-10533.952479,-18020.892801,841.587882,-26338.446300,10414.504756,6033.339326,-18811.384596,-29108.363880,6779.976997,2999.313533,9899.095881,2996.497213,11647.985774,7226.788369,-13042.756980,-3480.814812,0.009000,-0.018250,1.004750,192.000000,0.000000,0.000000,0.000000,0.000000,0.000000,0.000000,0.000000,0.000000,0.000000,1772721174.242819,0.000000
218.000000,-10494.367539,-17976.658699,874.936685,-26310.797192,10451.854521,6052.539474,-18784.294282,-29070.231804,6798.864221,3027.432028,9930.634192,3022.402885,11681.893370,7252.962262,-13023.176852,-3507.368685,0.009000,-0.018250,1.004750,192.000000,0.000000,0.000000,0.000000,0.000000,0.000000,0.000000,0.000000,0.000000,0.000000,1772721174.242851,0.000000
220.000000,-10501.855374,-17985.532342,859.134002,-26332.277218,10430.396847,6030.277137,-18803.226209,-29080.155978,6813.325800,3043.435877,9938.881986,3032.394115,11688.241266,7259.958358,-13027.267221,-3509.603859,0.007500,-0.017125,1.006375,192.000000,0.000000,24.000000,127.500000,64.000000,15.500000,64.000000,0.000000,0.000000,0.000000,1772721174.242879,0.000000
222.000000,-10471.389946,-17950.283641,890.359389,-26298.369622,10452.502722,6051.041907,-18771.978470,-29041.666274,6819.807806,3049.806124,9943.397038,3045.201665,11688.665949,7267.312082,-13037.929003,-3510.900260,0.007500,-0.017125,1.006375,192.000000,0.000000,0.000000,0.000000,0.000000,0.000000,0.000000,0.000000,0.000000,0.000000,1772721174.242906,0.000000
224.000000,-10478.207228,-17960.431333,884.637342,-26302.705860,10433.794312,6035.373334,-18772.269043,-29044.907277,6833.554129,3067.218133,9974.533018,3072.917828,11714.415159,7278.778527,-13020.427587,-3529.429856,0.007500,-0.017125,1.006375,192.000000,0.000000,0.000000,0.000000,0.000000,0.000000,0.000000,0.000000,0.000000,0.000000,1772721174.242933,0.000000
226.000000,-10496.625065,-17983.654795,872.969731,-26316.809811,10412.336637,6020.420017,-18782.863770,-29064.845033,6819.226661,3043.547636,9948.381477,3043.994670,11692.935132,7259.064288,-13053.932852,-3514.968278,0.007500,-0.017125,1.006375,192.000000,0.000000,0.000000,0.000000,0.000000,0.000000,0.000000,0.000000,0.000000,0.000000,1772721174.242960,0.000000
228.000000,-10479.123649,-17965.773400,892.527508,-26296.067392,10432.944945,6044.358736,-18762.702496,-29047.745949,6825.932184,3050.722545,9963.155980,3052.197761,11702.412272,7266.753288,-13035.716180,-3525.138322,0.007500,-0.017125,1.006375,192.000000,0.000000,0.000000,0.000000,0.000000,0.000000,0.000000,0.000000,0.000000,0.000000,1772721174.242987,0.000000
230.000000,-10509.656132,-17999.926865,857.815249,-26330.645541,10399.842012,6020.040038,-18793.883180,-29079.708943,6815.404512,3036.462133,9950.683707,3042.139476,11688.218914,7256.404430,-13044.880396,-3519.818606,0.007750,-0.016563,1.009187,192.000000,0.000000,32.000000,127.500000,64.000000,15.500000,80.000000,0.000000,0.000000,0.000000,1772721174.243014,0.000000
