Sample_index,EXG Channel 0,EXG Channel 1,EXG Channel 2,EXG Channel 3,EXG Channel 4,EXG Channel 5,EXG Channel 6,EXG Channel 7,EXG Channel 8,EXG Channel 9,EXG Channel 10,EXG Channel 11,EXG Channel 12,EXG Channel 13,EXG Channel 14,EXG Channel 15,Accel Channel 0,Accel Channel 1,Accel Channel 2,Not Used,Digital Channel 0 (D11),Digital Channel 1 (D12),Digital Channel 2 (D13),Digital Channel 3 (D17),Not Used,Digital Channel 4 (D18),Analog Channel 0,Analog Channel 1,Analog Channel 2,Timestamp,Marker Channel
90.000000,-11753.888339,-18584.939073,1735.791771,-28240.557401,10473.960397,5189.359807,-20372.966870,-29043.879097,4700.683618,1794.912135,8986.496507,1189.157509,9641.223805,6575.413832,-12225.756016,-4122.131064,0.014000,-0.022000,1.000000,192.000000,0.000000,0.000000,0.000000,0.000000,0.000000,0.000000,0.000000,0.000000,0.000000,1772721492.705526,101.000000
92.000000,-11766.137095,-18596.070241,1724.839416,-28253.543765,10468.059536,5186.699949,-20380.968795,-29050.092882,4701.957667,1801.170623,9004.780233,1205.273116,9658.077020,6588.333140,-12209.193374,-4137.285547,0.014000,-0.022000,1.000000,192.000000,0.000000,0.000000,0.000000,0.000000,0.000000,0.000000,0.000000,0.000000,0.000000,1772721492.705589,0.000000
94.000000,-11776.687119,-18607.447279,1715.161111,-28260.651620,10468.461867,5180.933199,-20390.468286,-29060.821719,4690.535926,1788.966571,8983.814297,1186.721168,9641.648488,6572.709271,-12227.521804,-4111.245765,0.010000,-0.020000,0.998000,192.000000,0.000000,40.000000,127.500000,48.000000,15.500000,24.000000,0.000000,0.000000,0.000000,1772721492.705627,0.000000
96.000000,-11766.137095,-18595.422041,1732.506064,-28246.100634,10491.171240,5200.982714,-20375.604376,-29051.679856,4701.175356,1796.253240,8996.107757,1199.059331,9645.940023,6583.527515,-12204.343045,-4126.400247,0.010000,-0.020000,0.998000,192.000000,0.000000,0.000000,0.000000,0.000000,0.000000,0.000000,0.000000,0.000000,0.000000,1772721492.705664,0.000000
98.000000,-11795.730805,-18627.362684,1704.611087,-28275.917861,10461.622234,5177.491030,-20402.627635,-29088.381420,4689.731263,1783.110414,8975.924131,1178.696892,9633.378343,6574.363300,-12201.593781,-4116.409018,0.010000,-0.020000,0.998000,192.000000,0.000000,0.000000,0.000000,0.000000,0.000000,0.000000,0.000000,0.000000,0.000000,1772721492.705712,0.000000
100.000000,-11788.354729,-18613.683416,1722.872463,-28254.929573,10471.926388,5194.210135,-20381.996975,-29070.187100,4673.638007,1773.253295,8957.483942,1160.882552,9615.184023,6567.791887,-12211.741473,-4112.631573,0.010000,-0.020000,0.998000,192.000000,0.000000,0.000000,0.000000,0.000000,0.000000,0.000000,0.000000,0.000000,0.000000,1772721492.705749,0.000000
102.000000,-11787.035976,-18611.671759,1720.570233,-28255.018980,10467.031356,5182.810746,-20383.807466,-29066.633173,4682.221077,1783.289228,8980.103908,1187.034093,9642.676668,6582.722853,-12195.022368,-4134.670393,0.010000,-0.020000,0.998000,192.000000,0.000000,0.000000,0.000000,0.000000,0.000000,0.000000,0.000000,0.000000,0.000000,1772721492.705786,0.000000
104.000000,-11777.335319,-18601.591122,1720.950213,-28254.035503,10463.455077,5185.068272,-20385.908530,-29058.452434,4687.026702,1788.832461,8973.934826,1184.642456,9625.197604,6574.944445,-12219.385769,-4119.985297,0.008000,-0.018000,1.004000,192.000000,0.000000,32.000000,127.500000,56.000000,15.500000,48.000000,0.000000,0.000000,0.000000,1772721492.705864,0.000000
106.000000,-11750.066191,-18572.332689,1746.565312,-28229.180363,10482.387004,5202.770853,-20363.713248,-29035.161917,4708.596135,1814.559318,9004.221440,1211.017515,9654.813666,6600.872469,-12203.493679,-4131.384686,0.008000,-0.018000,1.004000,192.000000,0.000000,0.000000,0.000000,0.000000,0.000000,0.000000,0.000000,0.000000,0.000000,1772721492.705908,0.000000
108.000000,-11775.860104,-18599.713576,1725.688782,-28258.192928,10453.687364,5163.051803,-20385.752068,-29062.542804,4704.997504,1807.607926,8994.565486,1200.065160,9649.449247,6593.496393,-12211.093272,-4131.205872,0.008000,-0.018000,1.004000,192.000000,0.000000,0.000000,0.000000,0.000000,0.000000,0.000000,0.000000,0.000000,0.000000,1772721492.705945,0.000000
110.000000,-11765.958281,-18585.050831,1741.916149,-28238.523393,10469.020661,5172.595998,-20367.669507,-29044.370835,4694.805109,1802.109397,8982.897876,1191.884421,9634.607689,6578.006634,-12226.225403,-4130.915300,0.008000,-0.018000,1.004000,192.000000,0.000000,0.000000,0.000000,0.000000,0.000000,0.000000,0.000000,0.000000,0.000000,1772721492.705958,0.000000
112.000000,-11771.568569,-18593.320977,1730.248538,-28246.860593,10458.872969,5176.082870,-20374.509141,-29048.975295,4695.788586,1811.385371,9004.064978,1210.235204,9654.679555,6593.921077,-12211.249734,-4144.393402,0.008000,-0.018000,1.004000,192.000000,0.000000,0.000000,0.000000,0.000000,0.000000,0.000000,0.000000,0.000000,0.000000,1772721492.705970,0.000000
114.000000,-11779.391680,-18603.669835,1717.530396,-28260.897489,10446.601861,5167.857429,-20386.579083,-29061.089940,4688.971304,1792.542850,8982.562599,1189.805709,9639.212148,6572.619864,-12235.009639,-4123.136893,0.004000,-0.016000,1.008000,192.000000,0.000000,16.000000,127.500000,64.000000,15.500000,64.000000,0.000000,0.000000,0.000000,1772721492.705982,0.000000
116.000000,-11768.282863,-18589.923512,1732.036678,-28244.312494,10466.047879,5182.810746,-20372.318670,-29050.294048,4691.653513,1797.706103,8992.509126,1195.214831,9645.247119,6578.900704,-12218.446996,-4134.938614,0.004000,-0.016000,1.008000,192.000000,0.000000,0.000000,0.000000,0.000000,0.000000,0.000000,0.000000,0.000000,0.000000,1772721492.705994,0.000000
118.000000,-11803.017474,-18626.826242,1700.923050,-28276.208434,10435.068361,5168.125649,-20402.918208,-29084.961603,4675.269684,1782.126937,8970.135030,1180.485032,9620.771959,6567.188390,-12224.638429,-4123.338058,0.004000,-0.016000,1.008000,192.000000,0.000000,0.000000,0.000000,0.000000,0.000000,0.000000,0.000000,0.000000,0.000000,1772721492.706006,0.000000
120.000000,-11788.712357,-18610.844745,1719.854977,-28254.773111,10461.108143,5190.745615,-20385.975586,-29063.973315,4664.809068,1777.433071,8959.450896,1170.225581,9606.288029,6558.113582,-12232.014505,-4108.272983,0.004000,-0.016000,1.008000,192.000000,0.000000,0.000000,0.000000,0.000000,0.000000,0.000000,0.000000,0.000000,0.000000,1772721492.706018,0.000000
122.000000,-11787.371252,-18614.711596,1713.328268,-28259.981067,10457.509513,5196.042978,-20393.172847,-29070.164748,4677.460155,1782.909248,8986.362396,1184.620104,9631.456093,6575.458536,-12207.829917,-4122.399285,0.004000,-0.016000,1.008000,192.000000,0.000000,0.000000,0.000000,0.000000,0.000000,0.000000,0.000000,0.000000,0.000000,1772721492.706030,0.000000
124.000000,-11782.006834,-18611.180021,1707.628573,-28266.686591,10458.872969,5199.663961,-20401.219475,-29073.271641,4679.024777,1773.834440,8970.537361,1169.175049,9611.428930,6569.468268,-12226.515976,-4101.388645,0.004000,-0.014000,1.006000,192.000000,0.000000,16.000000,127.500000,72.000000,15.500000,56.000000,0.000000,0.000000,0.000000,1772721492.706042,0.000000
126.000000,-11751.921386,-18574.612567,1733.623652,-28237.294047,10483.057557,5212.359752,-20373.659775,-29040.012245,4695.810937,1802.601135,8993.961989,1197.271192,9642.140227,6593.988132,-12210.109795,-4116.923108,0.004000,-0.014000,1.006000,192.000000,0.000000,0.000000,0.000000,0.000000,0.000000,0.000000,0.000000,0.000000,0.000000,1772721492.706055,0.000000
128.000000,-11762.873741,-18589.387070,1717.061009,-28256.605954,10463.946815,5189.963304,-20389.238940,-29049.981123,4700.258935,1809.217251,8995.571315,1208.603526,9642.967241,6597.452652,-12218.603458,-4121.080532,0.004000,-0.014000,1.006000,192.000000,0.000000,0.000000,0.000000,0.000000,0.000000,0.000000,0.000000,0.000000,0.000000,1772721492.706067,0.000000
130.000000,-11746.422857,-18572.645613,1738.384573,-28236.332922,10485.739766,5210.459853,-20369.748219,-29030.579809,4705.444539,1810.066618,8994.431376,1206.055427,9643.146055,6594.524574,-12229.980496,-4117.861881,0.004000,-0.014000,1.006000,192.000000,0.000000,0.000000,0.000000,0.000000,0.000000,0.000000,0.000000,0.000000,0.000000,1772721492.706079,0.000000
132.000000,-11747.831017,-18577.384183,1738.853960,-28239.037483,10483.392833,5203.262592,-20372.989222,-29038.224106,4715.145196,1821.510711,9017.431321,1223.445085,9669.901093,6612.204803,-12206.108833,-4134.782152,0.004000,-0.014000,1.006000,192.000000,0.000000,0.000000,0.000000,0.000000,0.000000,0.000000,0.000000,0.000000,0.000000,1772721492.706091,0.000000
134.000000,-11756.145865,-18584.827314,1731.097905,-28254.728407,10474.139210,5187.392853,-20384.455667,-29051.791615,4711.300696,1807.809092,8994.610190,1198.053503,9645.783561,6598.681998,-12225.264278,-4114.442064,0.006000,-0.015000,1.006000,192.000000,0.000000,32.000000,127.500000,64.000000,15.500000,56.000000,0.000000,0.000000,0.000000,1772721492.706103,0.000000
136.000000,-11743.092447,-18565.336593,1748.532265,-28231.572000,10489.539562,5203.195537,-20362.416847,-29028.322283,4715.569879,1820.929566,9008.468271,1216.136064,9673.767945,6608.360303,-12210.065092,-4129.171864,0.006000,-0.015000,1.006000,192.000000,0.000000,0.000000,0.000000,0.000000,0.000000,0.000000,0.000000,0.000000,0.000000,1772721492.706115,0.000000
138.000000,-11771.702680,-18598.014843,1721.553710,-28260.405750,10457.107181,5173.579475,-20383.606301,-29053.222126,4704.058731,1809.999563,8997.493565,1211.531605,9643.950718,6595.642161,-12220.279839,-4128.925995,0.006000,-0.015000,1.006000,192.000000,0.000000,0.000000,0.000000,0.000000,0.000000,0.000000,0.000000,0.000000,0.000000,1772721492.706127,0.000000
140.000000,-11771.076831,-18596.182000,1731.924919,-28249.252230,10462.248082,5180.262647,-20369.547054,-29045.063739,4690.245353,1795.627391,8982.383786,1196.801805,9624.348238,6577.894876,-12233.847348,-4123.114541,0.006000,-0.015000,1.006000,192.000000,0.000000,0.000000,0.000000,0.000000,0.000000,0.000000,0.000000,0.000000,0.000000,1772721492.706139,0.000000
142.000000,-11792.936837,-18618.377282,1715.630497,-28263.020904,10442.399733,5165.108164,-20384.187446,-29067.750760,4686.758481,1790.732359,8990.363358,1198.880517,9635.904090,6580.085347,-12219.050493,-4139.163093,0.006000,-0.015000,1.006000,192.000000,0.000000,0.000000,0.000000,0.000000,0.000000,0.000000,0.000000,0.000000,0.000000,1772721492.706150,0.000000
144.000000,-11811.689950,-18633.598820,1697.547936,-28275.917861,10431.693248,5158.872027,-20401.822973,-29090.214263,4666.954835,1765.810164,8952.119524,1164.168258,9606.109215,6551.922149,-12246.677249,-4109.636439,0.008000,-0.015500,1.007000,192.000000,0.000000,40.000000,127.500000,64.000000,15.500000,64.000000,0.000000,0.000000,0.000000,1772721492.706162,0.000000
146.000000,-11794.233238,-18612.655236,1715.518739,-28254.259021,10456.615443,5181.447289,-20383.271025,-29069.985934,4666.306635,1771.576914,8960.412021,1177.400491,9615.765168,6570.407041,-12229.868737,-4113.056256,0.008000,-0.015500,1.007000,192.000000,0.000000,0.000000,0.000000,0.000000,0.000000,0.000000,0.000000,0.000000,0.000000,1772721492.706175,0.000000
148.000000,-11811.287619,-18630.246059,1696.631515,-28277.393076,10434.621326,5173.020682,-20404.728699,-29087.979089,4661.992748,1772.336873,8955.874617,1175.634703,9609.774901,6567.121335,-12234.272031,-4108.563555,0.008000,-0.015500,1.007000,192.000000,0.000000,0.000000,0.000000,0.000000,0.000000,0.000000,0.000000,0.000000,0.000000,1772721492.706187,0.000000
150.000000,-11787.617122,-18606.821431,1718.223300,-28256.360085,10451.452190,5194.076025,-20387.763725,-29065.984972,4665.725489,1777.455423,8955.159361,1172.438404,9602.555287,6570.630559,-12247.258395,-4097.566497,0.008000,-0.015500,1.007000,192.000000,0.000000,0.000000,0.000000,0.000000,0.000000,0.000000,0.000000,0.000000,0.000000,1772721492.706200,0.000000
152.000000,-11776.351842,-18596.763146,1722.626593,-28251.867384,10457.665975,5188.890420,-20385.595606,-29059.570022,4686.490260,1796.432054,8985.222457,1195.617163,9637.982802,6596.312713,-12226.381865,-4126.512006,0.008000,-0.015500,1.007000,192.000000,0.000000,0.000000,0.000000,0.000000,0.000000,0.000000,0.000000,0.000000,0.000000,1772721492.706211,0.000000
154.000000,-11772.999081,-18595.153820,1718.804445,-28255.130739,10459.811742,5181.581400,-20391.116487,-29060.061760,4692.681693,1795.180356,8972.012576,1185.335360,9625.488177,6592.848193,-12241.245775,-4116.409018,0.008000,-0.014750,1.006500,192.000000,0.000000,32.000000,127.500000,72.000000,15.500000,56.000000,0.000000,0.000000,0.000000,1772721492.706223,0.000000
156.000000,-11741.885452,-18560.262747,1745.715945,-28223.860648,10493.182897,5201.765025,-20364.204987,-29025.885943,4709.713722,1815.431036,8996.711254,1216.828968,9656.624157,6611.623658,-12218.804624,-4131.719963,0.008000,-0.014750,1.006500,192.000000,0.000000,0.000000,0.000000,0.000000,0.000000,0.000000,0.000000,0.000000,0.000000,1772721492.706234,0.000000
158.000000,-11767.187627,-18587.867151,1719.586756,-28251.956791,10462.382193,5173.467716,-20388.210760,-29049.578792,4715.480473,1820.214310,9000.354588,1224.428561,9655.461866,6611.109568,-12222.403255,-4132.055239,0.008000,-0.014750,1.006500,192.000000,0.000000,0.000000,0.000000,0.000000,0.000000,0.000000,0.000000,0.000000,0.000000,1772721492.706246,0.000000
160.000000,-11759.230406,-18579.999337,1735.277681,-28237.092881,10472.865161,5187.571667,-20374.106809,-29036.570077,4700.638914,1805.328048,8986.831783,1205.161358,9644.442456,6600.358379,-12238.362400,-4120.544090,0.008000,-0.014750,1.006500,192.000000,0.000000,0.000000,0.000000,0.000000,0.000000,0.000000,0.000000,0.000000,0.000000,1772721492.706258,0.000000
162.000000,-11768.416973,-18592.292797,1723.498311,-28242.993741,10460.102315,5176.440498,-20379.851208,-29044.169670,4703.254068,1808.434940,9004.512013,1213.431503,9648.421067,6608.852042,-12220.838633,-4136.235015,0.008000,-0.014750,1.006500,192.000000,0.000000,0.000000,0.000000,0.000000,0.000000,0.000000,0.000000,0.000000,0.000000,1772721492.706270,0.000000
164.000000,-11787.393604,-18613.325788,1706.533337,-28263.579698,10446.512454,5165.890475,-20394.804525,-29063.638039,4689.463042,1786.597286,8976.013538,1185.804747,9621.107235,6585.762690,-12245.112627,-4115.939631,0.009000,-0.014375,1.007250,192.000000,0.000000,40.000000,127.500000,72.000000,15.500000,64.000000,0.000000,0.000000,0.000000,1772721492.706282,0.000000
166.000000,-11775.122497,-18596.070241,1728.482750,-28245.117157,10478.117821,5179.189763,-20374.755010,-29047.410673,4687.361978,1789.748882,8981.780288,1194.723093,9633.154825,6590.076576,-12224.839595,-4123.896852,0.009000,-0.014375,1.007250,192.000000,0.000000,0.000000,0.000000,0.000000,0.000000,0.000000,0.000000,0.000000,0.000000,1772721492.706294,0.000000
168.000000,-11800.759947,-18626.379207,1703.091169,-28272.810968,10452.323908,5158.290882,-20401.599455,-29079.552481,4684.992693,1779.914114,8970.760878,1186.698817,9622.291878,6579.839478,-12223.677304,-4118.040695,0.009000,-0.014375,1.007250,192.000000,0.000000,0.000000,0.000000,0.000000,0.000000,0.000000,0.000000,0.000000,0.000000,1772721492.706306,0.000000
170.000000,-11795.283770,-18618.690207,1715.876367,-28256.538899,10459.945853,5186.878763,-20389.350699,-29072.332868,4668.631216,1766.860696,8951.314861,1168.750366,9605.237497,6573.580989,-12239.301174,-4100.405169,0.009000,-0.014375,1.007250,192.000000,0.000000,0.000000,0.000000,0.000000,0.000000,0.000000,0.000000,0.000000,0.000000,1772721492.706318,0.000000
172.000000,-11795.887267,-18621.327713,1709.237898,-28258.125872,10446.534806,5186.878763,-20392.278778,-29076.758513,4675.224981,1778.304789,8971.185562,1180.216811,9625.287011,6585.248600,-12223.722008,-4118.063047,0.009000,-0.014375,1.007250,192.000000,0.000000,0.000000,0.000000,0.000000,0.000000,0.000000,0.000000,0.000000,0.000000,1772721492.706330,0.000000
174.000000,-11804.850317,-18629.799024,1698.330247,-28268.608841,10431.872062,5177.401623,-20402.493525,-29085.363935,4671.782812,1768.604132,8954.511160,1155.585188,9600.744796,6577.961931,-12246.565491,-4098.505270,0.009500,-0.018187,1.006625,192.000000,0.000000,40.000000,127.500000,40.000000,15.500000,56.000000,0.000000,0.000000,0.000000,1772721492.706342,0.000000
176.000000,-11776.150677,-18597.076070,1727.789846,-28238.657503,10463.365670,5198.546374,-20374.442086,-29050.852841,4680.902324,1781.545792,8975.097117,1175.411186,9618.156805,6591.372978,-12231.545118,-4112.475111,0.009500,-0.018187,1.006625,192.000000,0.000000,0.000000,0.000000,0.000000,0.000000,0.000000,0.000000,0.000000,0.000000,1772721492.706362,0.000000
178.000000,-11791.193401,-18612.856402,1712.702419,-28257.321210,10453.217978,5180.910847,-20394.044565,-29070.500025,4683.897458,1789.458309,8975.164172,1183.457814,9628.326849,6599.464309,-12225.979534,-4108.988238,0.009500,-0.018187,1.006625,192.000000,0.000000,0.000000,0.000000,0.000000,0.000000,0.000000,0.000000,0.000000,0.000000,1772721492.706374,0.000000
180.000000,-11762.180836,-18583.128581,1741.625576,-28236.556439,10482.007025,5193.159603,-20373.279795,-29045.756644,4689.619504,1797.504937,8967.676338,1182.228468,9631.456093,6597.206783,-12229.779330,-4109.904660,0.009500,-0.018187,1.006625,192.000000,0.000000,0.000000,0.000000,0.000000,0.000000,0.000000,0.000000,0.000000,0.000000,1772721492.706386,0.000000
182.000000,-11763.968976,-18585.743736,1736.395268,-28241.093843,10472.507533,5181.916676,-20376.923129,-29047.857707,4709.691371,1822.360077,9001.025140,1208.447064,9676.561913,6614.350571,-12206.533516,-4135.005669,0.009500,-0.018187,1.006625,192.000000,0.000000,0.000000,0.000000,0.000000,0.000000,0.000000,0.000000,0.000000,0.000000,1772721492.706398,0.000000
184.000000,-11777.089450,-18600.004148,1721.196082,-28249.922782,10454.782600,5171.321949,-20386.087344,-29059.301801,4699.051940,1799.538946,8978.852210,1182.094357,9626.203433,6589.316617,-12233.221499,-4115.067913,0.008750,-0.019094,1.005313,192.000000,0.000000,32.000000,127.500000,48.000000,15.500000,48.000000,0.000000,0.000000,0.000000,1772721492.706410,0.000000
186.000000,-11761.376174,-18579.172323,1737.781076,-28228.330997,10476.173219,5189.024531,-20364.428504,-29036.860649,4697.353208,1807.406760,8993.760823,1196.354770,9637.915747,6602.012408,-12220.995095,-4125.059143,0.008750,-0.019094,1.005313,192.000000,0.000000,0.000000,0.000000,0.000000,0.000000,0.000000,0.000000,0.000000,0.000000,1772721492.706421,0.000000
188.000000,-11793.383872,-18610.196544,1707.650925,-28259.131701,10446.981841,5166.873952,-20391.898798,-29070.880004,4688.747786,1802.265859,8983.791945,1191.392683,9628.595069,6599.464309,-12226.515976,-4121.214643,0.008750,-0.019094,1.005313,192.000000,0.000000,0.000000,0.000000,0.000000,0.000000,0.000000,0.000000,0.000000,0.000000,1772721492.706432,0.000000
190.000000,-11789.360558,-18603.513372,1717.619803,-28247.978180,10459.990556,5191.505574,-20382.198141,-29062.565155,4673.749766,1789.748882,8960.702593,1171.901962,9608.970238,6588.176678,-12240.262299,-4100.852203,0.008750,-0.019094,1.005313,192.000000,0.000000,0.000000,0.000000,0.000000,0.000000,0.000000,0.000000,0.000000,0.000000,1772721492.706444,0.000000
192.000000,-11793.070947,-18609.302474,1712.814178,-28255.287201,10457.509513,5184.643589,-20384.254501,-29062.989838,4674.733242,1795.470929,8977.287588,1184.307180,9624.482348,6591.104757,-12218.536403,-4113.302125,0.008750,-0.019094,1.005313,192.000000,0.000000,0.000000,0.000000,0.000000,0.000000,0.000000,0.000000,0.000000,0.000000,1772721492.706456,0.000000
194.000000,-11811.958171,-18632.615344,1697.123253,-28275.850806,10442.846768,5166.717490,-20401.621807,-29081.832359,4663.579722,1776.270780,8955.025250,1160.413165,9599.694264,6565.400251,-12237.781255,-4092.827927,0.007375,-0.018547,1.001656,192.000000,0.000000,24.000000,127.500000,56.000000,15.500000,24.000000,0.000000,0.000000,0.000000,1772721492.706467,0.000000
196.000000,-11793.361520,-18610.867096,1718.826797,-28251.107425,10465.533789,5192.377292,-20381.013498,-29064.286240,4669.502934,1774.482641,8964.569445,1164.950569,9617.933287,6572.955140,-12226.314810,-4111.044599,0.007375,-0.018547,1.001656,192.000000,0.000000,0.000000,0.000000,0.000000,0.000000,0.000000,0.000000,0.000000,0.000000,1772721492.706478,0.000000
198.000000,-11815.355637,-18636.281030,1694.128119,-28278.085980,10439.762228,5167.812725,-20405.958045,-29094.304632,4668.139478,1770.615789,8957.349832,1163.184781,9618.939116,6569.043585,-12226.068941,-4112.586869,0.007375,-0.018547,1.001656,192.000000,0.000000,0.000000,0.000000,0.000000,0.000000,0.000000,0.000000,0.000000,0.000000,1772721492.706491,0.000000
200.000000,-11793.383872,-18610.710634,1713.305916,-28261.433931,10455.140228,5180.508516,-20387.987243,-29070.432969,4663.646777,1769.073518,8945.369297,1151.316005,9605.684531,6561.287530,-12241.536348,-4108.518852,0.007375,-0.018547,1.001656,192.000000,0.000000,0.000000,0.000000,0.000000,0.000000,0.000000,0.000000,0.000000,0.000000,1772721492.706502,0.000000
202.000000,-11787.572418,-18607.134355,1714.892890,-28263.736160,10448.032373,5166.739841,-20384.478019,-29059.502966,4677.728376,1785.770272,8977.354643,1177.892229,9627.276317,6579.884181,-12220.279839,-4141.979413,0.007375,-0.018547,1.001656,192.000000,0.000000,0.000000,0.000000,0.000000,0.000000,0.000000,0.000000,0.000000,0.000000,1772721492.706513,0.000000
204.000000,-11790.679311,-18610.174192,1706.846262,-28272.051009,10438.309364,5153.664071,-20392.301129,-29063.593336,4678.153059,1780.942295,8968.078669,1173.041901,9608.500851,6567.188390,-12241.916328,-4131.652907,0.007375,-0.018547,1.001656,192.000000,0.000000,0.000000,0.000000,0.000000,0.000000,0.000000,0.000000,0.000000,0.000000,1772721492.706525,0.000000
206.000000,-11764.572473,-18579.194674,1730.069724,-28236.511736,10467.947777,5173.512420,-20368.518873,-29036.190097,4689.954780,1797.974324,8987.234114,1198.791110,9629.757360,6584.175716,-12225.599554,-4146.829742,0.008000,-0.018000,1.014000,192.000000,0.000000,32.000000,127.500000,56.000000,15.500000,88.000000,0.000000,0.000000,0.000000,1772721492.706536,0.000000
208.000000,-11787.147735,-18605.279160,1707.628573,-28261.478634,10446.780675,5157.083888,-20391.563522,-29063.302763,4685.573838,1798.153138,8982.003806,1198.232317,9637.535767,6585.360358,-12226.337162,-4144.147532,0.008000,-0.018000,1.014000,192.000000,0.000000,0.000000,0.000000,0.000000,0.000000,0.000000,0.000000,0.000000,0.000000,1772721492.706548,0.000000
210.000000,-11774.988386,-18595.310282,1725.308803,-28246.279448,10465.824362,5178.049824,-20375.738487,-29051.277524,4682.534001,1789.570068,8969.822105,1178.875706,9614.826395,6574.296245,-12238.295345,-4130.624727,0.008000,-0.018000,1.014000,192.000000,0.000000,0.000000,0.000000,0.000000,0.000000,0.000000,0.000000,0.000000,0.000000,1772721493.186582,0.000000
212.000000,-11780.263398,-18601.278198,1719.072666,-28252.783805,10460.795219,5170.696100,-20379.650042,-29054.205603,4689.977132,1793.839251,8991.503297,1191.616200,9636.664049,6586.880277,-12216.480043,-4148.751992,0.008000,-0.018000,1.014000,192.000000,0.000000,0.000000,0.000000,0.000000,0.000000,0.000000,0.000000,0.000000,0.000000,1772721493.186656,0.000000
214.000000,-11794.836735,-18618.131413,1701.794768,-28272.587451,10446.445399,5159.408469,-20398.403156,-29073.584565,4680.030606,1783.557449,8967.519875,1173.466584,9609.439624,6565.444954,-12234.942583,-4130.535320,0.008000,-0.018000,1.014000,192.000000,0.000000,0.000000,0.000000,0.000000,0.000000,0.000000,0.000000,0.000000,0.000000,1772721493.186704,0.000000
216.000000,-11777.290616,-18598.126602,1722.559538,-28249.229878,10474.183914,5193.092548,-20381.214664,-29058.005399,4685.506783,1792.766368,8977.131126,1178.316912,9630.830244,6571.435222,-12213.082577,-4130.043582,0.008000,-0.012000,1.008000,192.000000,0.000000,32.000000,127.500000,80.000000,15.500000,64.000000,0.000000,0.000000,0.000000,1772721493.186750,0.000000
218.000000,-11808.180727,-18630.760149,1695.715093,-28280.768190,10445.774847,5178.005121,-20409.802545,-29093.544673,4677.214286,1779.042396,8967.050489,1167.833944,9621.598973,6569.960006,-12211.227383,-4116.788997,0.008000,-0.012000,1.008000,192.000000,0.000000,0.000000,0.000000,0.000000,0.000000,0.000000,0.000000,0.000000,0.000000,1772721493.186827,0.000000
220.000000,-11805.364407,-18626.848594,1706.108654,-28267.603012,10451.899225,5198.635781,-20397.464382,-29084.313403,4664.317329,1766.994806,8944.050544,1146.063345,9602.622342,6554.917282,-12231.567470,-4093.006741,0.008000,-0.012000,1.008000,192.000000,0.000000,0.000000,0.000000,0.000000,0.000000,0.000000,0.000000,0.000000,0.000000,1772721493.186885,0.000000
222.000000,-11802.793956,-18623.272314,1703.940535,-28267.938288,10443.539672,5202.837909,-20396.860885,-29080.491254,4669.547638,1780.808184,8963.116582,1162.044842,9624.080017,6579.146573,-12221.285668,-4106.864823,0.008000,-0.012000,1.008000,192.000000,0.000000,0.000000,0.000000,0.000000,0.000000,0.000000,0.000000,0.000000,0.000000,1772721493.186913,0.000000
224.000000,-11799.485898,-18619.472518,1699.872518,-28273.079189,10440.209262,5200.625086,-20404.974568,-29081.541786,4667.826553,1774.862620,8949.370259,1151.248950,9604.991627,6565.020271,-12244.307964,-4090.168070,0.008000,-0.012000,1.008000,192.000000,0.000000,0.000000,0.000000,0.000000,0.000000,0.000000,0.000000,0.000000,0.000000,1772721493.186931,0.000000
226.000000,-11757.777543,-18572.533855,1733.064858,-28238.232820,10470.384117,5212.136234,-20373.168036,-29038.201754,4698.403740,1810.021914,8980.997977,1185.089491,9637.491064,6596.245658,-12225.867775,-4108.876480,0.008000,-0.010000,1.006000,192.000000,0.000000,32.000000,127.500000,88.000000,15.500000,56.000000,0.000000,0.000000,0.000000,1772721493.186949,0.000000
228.000000,-11776.977691,-18595.600855,1714.222338,-28264.384361,10441.215091,5173.423013,-20392.792868,-29057.156033,4703.276420,1808.904327,8991.726815,1198.008799,9641.402619,6595.642161,-12225.733665,-4124.656811,0.008000,-0.010000,1.006000,192.000000,0.000000,0.000000,0.000000,0.000000,0.000000,0.000000,0.000000,0.000000,0.000000,1772721493.186965,0.000000
230.000000,-11766.986462,-18584.559093,1734.048335,-28243.038445,10453.709716,5166.002234,-20372.765705,-29041.934495,4695.609772,1799.963629,8981.221495,1182.407282,9629.042104,6582.566390,-12238.496511,-4130.200044,0.008000,-0.010000,1.006000,192.000000,0.000000,0.000000,0.000000,0.000000,0.000000,0.000000,0.000000,0.000000,0.000000,1772721493.186978,0.000000
232.000000,-11774.630758,-18594.259750,1730.740277,-28245.854765,10449.820513,5158.402641,-20375.984356,-29052.663333,4700.169528,1807.674981,8995.347797,1199.014628,9651.125628,6599.799585,-12216.457691,-4156.485695,0.008000,-0.010000,1.006000,192.000000,0.000000,0.000000,0.000000,0.000000,0.000000,0.000000,0.000000,0.000000,0.000000,1772721493.186991,0.000000
234.000000,-11792.042767,-18610.732986,1710.064913,-28262.484463,10435.917727,5150.557178,-20395.452725,-29071.684667,4687.697254,1789.793586,8964.927073,1176.573476,9625.912860,6584.063957,-12236.015467,-4131.898777,0.008000,-0.010000,1.006000,192.000000,0.000000,0.000000,0.000000,0.000000,0.000000,0.000000,0.000000,0.000000,0.000000,1772721493.187003,0.000000
236.000000,-11765.287729,-18581.318090,1730.427352,-28237.852840,10462.002213,5168.907961,-20372.899815,-29044.326132,4695.050978,1803.651667,8980.260370,1192.912602,9640.776770,6599.263143,-12223.744359,-4141.934710,0.008000,-0.006000,1.006000,192.000000,0.000000,32.000000,127.500000,104.000000,15.500000,56.000000,0.000000,0.000000,0.000000,1772721493.187016,0.000000
238.000000,-11793.473279,-18611.984684,1703.426445,-28262.260945,10430.508605,5148.679632,-20395.698595,-29074.255118,4690.468870,1795.560336,8979.075727,1189.269267,9628.259793,6589.406024,-12223.677304,-4136.346774,0.008000,-0.006000,1.006000,192.000000,0.000000,0.000000,0.000000,0.000000,0.000000,0.000000,0.000000,0.000000,0.000000,1772721493.187029,0.000000
240.000000,-11797.228372,-18611.023559,1710.668410,-28250.191003,10452.458018,5165.130516,-20387.339042,-29073.830435,4671.671053,1778.863582,8955.919320,1172.013721,9604.455185,6571.099945,-12236.663668,-4123.338058,0.008000,-0.006000,1.006000,192.000000,0.000000,0.000000,0.000000,0.000000,0.000000,0.000000,0.000000,0.000000,0.000000,1772721493.187042,0.000000
242.000000,-11812.874593,-18627.921477,1703.225279,-28256.896526,10468.014832,5172.595998,-20395.430374,-29090.616595,4665.814896,1781.992827,8962.647195,1175.724110,9620.749607,6586.053262,-12208.791042,-4136.302070,0.008000,-0.006000,1.006000,192.000000,0.000000,0.000000,0.000000,0.000000,0.000000,0.000000,0.000000,0.000000,0.000000,1772721493.187055,0.000000
244.000000,-11825.793901,-18644.171196,1686.617933,-28272.118064,10447.495931,5179.949722,-20412.082423,-29103.357089,4650.481600,1760.736318,8933.277003,1146.443325,9608.456148,6574.698576,-12228.527633,-4113.235070,0.008000,-0.006000,1.006000,192.000000,0.000000,0.000000,0.000000,0.000000,0.000000,0.000000,0.000000,0.000000,0.000000,1772721493.187069,0.000000
246.000000,-11796.714282,-18612.610532,1708.589698,-28249.788672,10487.259684,5213.209118,-20387.316690,-29073.249289,4665.166696,1775.242600,8957.707460,1159.228523,9622.113064,6590.635370,-12216.457691,-4109.748198,0.012000,-0.014000,1.004000,192.000000,0.000000,48.000000,127.500000,72.000000,15.500000,48.000000,0.000000,0.000000,0.000000,1772721493.187082,0.000000
248.000000,-11816.607334,-18631.564812,1685.969733,-28281.908128,10461.354013,5187.504612,-20409.646083,-29095.735144,4661.813934,1775.354359,8957.103963,1160.234351,9612.233593,6580.688844,-12219.832804,-4104.294372,0.012000,-0.014000,1.004000,192.000000,0.000000,0.000000,0.000000,0.000000,0.000000,0.000000,0.000000,0.000000,0.000000,1772721493.187095,0.000000
250.000000,-11797.563648,-18611.582352,1710.400189,-28267.357143,10457.665975,5179.614446,-20393.061089,-29075.350353,4661.925693,1770.682844,8945.883387,1153.573531,9610.445453,6573.536286,-12234.428493,-4104.473186,0.012000,-0.014000,1.004000,192.000000,0.000000,0.000000,0.000000,0.000000,0.000000,0.000000,0.000000,0.000000,0.000000,1772721493.187111,0.000000
252.000000,-11786.276017,-18603.155744,1722.090152,-28265.703114,10458.180065,5166.963359,-20384.634481,-29063.794501,4678.890667,1790.173565,8976.304111,1181.379101,9640.866177,6585.270951,-12213.864888,-4140.235977,0.012000,-0.014000,1.004000,192.000000,0.000000,0.000000,0.000000,0.000000,0.000000,0.000000,0.000000,0.000000,0.000000,1772721493.187124,0.000000
254.000000,-11789.874648,-18612.588181,1715.786960,-28274.934384,10457.688327,5149.372536,-20393.105792,-29068.510719,4680.365882,1780.785832,8966.514047,1168.549200,9624.884680,6567.389556,-12232.707409,-4133.262233,0.012000,-0.014000,1.004000,192.000000,0.000000,0.000000,0.000000,0.000000,0.000000,0.000000,0.000000,0.000000,0.000000,1772721493.187137,0.000000
0.000000,-11759.208054,-18578.904102,1742.899626,-28242.636113,10484.577475,5171.813687,-20367.781266,-29034.044329,4694.872164,1796.789682,8990.139841,1189.135157,9645.314174,6591.082405,-12218.782272,-4149.579006,0.008000,-0.018000,1.000000,192.000000,0.000000,32.000000,127.500000,56.000000,15.500000,32.000000,0.000000,0.000000,0.000000,1772721493.187150,0.000000
2.000000,-11781.649206,-18600.473535,1719.698515,-28262.707980,10457.844789,5156.212170,-20389.328347,-29056.999571,4696.772062,1802.511728,8992.665588,1196.175956,9641.402619,6589.964818,-12218.201127,-4145.890969,0.008000,-0.018000,1.000000,192.000000,0.000000,0.000000,0.000000,0.000000,0.000000,0.000000,0.000000,0.000000,0.000000,1772721493.187162,0.000000
4.000000,-11767.657014,-18585.207294,1735.031812,-28245.228916,10468.819495,5174.987635,-20379.806504,-29048.751777,4691.318237,1800.656533,8974.784192,1184.351883,9629.399732,6592.892896,-12228.304115,-4128.590718,0.008000,-0.018000,1.000000,192.000000,0.000000,0.000000,0.000000,0.000000,0.000000,0.000000,0.000000,0.000000,0.000000,1772721493.187175,0.000000
6.000000,-11763.477238,-18581.340442,1739.680974,-28243.977218,10471.680519,5178.586266,-20378.554807,-29050.808138,4708.305563,1814.760484,8998.387635,1205.384875,9664.983709,6616.697504,-12199.403310,-4144.549864,0.008000,-0.018000,1.000000,192.000000,0.000000,0.000000,0.000000,0.000000,0.000000,0.000000,0.000000,0.000000,0.000000,1772721493.187188,0.000000
8.000000,-11782.655034,-18602.418137,1721.173730,-28263.713809,10453.888530,5167.142173,-20396.525609,-29069.181272,4697.464966,1801.841176,8973.845419,1182.206116,9642.967241,6599.911344,-12218.625810,-4121.684029,0.008000,-0.018000,1.000000,192.000000,0.000000,0.000000,0.000000,0.000000,0.000000,0.000000,0.000000,0.000000,0.000000,1772721493.187200,0.000000
10.000000,-11763.164313,-18579.552302,1742.407887,-28241.898506,10475.323853,5184.889458,-20373.995051,-29042.269771,4702.047074,1810.826577,8984.216629,1193.314933,9657.853503,6605.231059,-12209.908630,-4126.154378,0.008000,-0.016000,1.002000,192.000000,0.000000,32.000000,127.500000,64.000000,15.500000,40.000000,0.000000,0.000000,0.000000,1772721493.187225,0.000000
12.000000,-11791.193401,-18611.314131,1710.243727,-28272.051009,10447.652393,5160.704870,-20399.833667,-29072.668144,4698.783719,1800.276554,8981.668530,1187.816404,9640.419142,6594.636332,-12213.507261,-4126.355544,0.008000,-0.016000,1.002000,192.000000,0.000000,0.000000,0.000000,0.000000,0.000000,0.000000,0.000000,0.000000,0.000000,1772721493.187238,0.000000
14.000000,-11796.379005,-18615.270390,1715.652849,-28263.825567,10458.604748,5173.199495,-20394.804525,-29077.674935,4681.014083,1779.243562,8955.852265,1163.855334,9620.548441,6579.683015,-12223.431435,-4111.804558,0.008000,-0.016000,1.002000,192.000000,0.000000,0.000000,0.000000,0.000000,0.000000,0.000000,0.000000,0.000000,0.000000,1772721493.187250,0.000000
16.000000,-11808.203078,-18622.758224,1710.333134,-28263.870271,10462.829228,5180.463812,-20398.738432,-29090.102505,4675.157926,1784.764443,8957.819218,1170.806726,9636.798160,6594.524574,-12194.843554,-4122.935727,0.008000,-0.016000,1.002000,192.000000,0.000000,0.000000,0.000000,0.000000,0.000000,0.000000,0.000000,0.000000,0.000000,1772721493.187263,0.000000
18.000000,-11821.010628,-18638.113873,1698.173785,-28274.062666,10454.559082,5184.777699,-20411.881258,-29101.725412,4664.518495,1767.285379,8929.588965,1147.739726,9610.557212,6586.813222,-12213.775481,-4087.128232,0.008000,-0.016000,1.002000,192.000000,0.000000,0.000000,0.000000,0.000000,0.000000,0.000000,0.000000,0.000000,0.000000,1772721493.187276,0.000000
20.000000,-11780.799840,-18597.232532,1731.857864,-28236.601142,10490.321873,5226.061371,-20381.482885,-29059.190042,4683.964513,1783.915077,8957.998032,1166.582247,9637.088732,6605.722798,-12202.711368,-4085.653017,0.007000,-0.014000,1.003000,192.000000,0.000000,24.000000,127.500000,80.000000,15.500000,48.000000,0.000000,0.000000,0.000000,1772721493.187289,0.000000
22.000000,-11784.465526,-18605.525029,1718.469169,-28252.940268,10479.034243,5209.945763,-20395.340967,-29065.046199,4700.817728,1794.956838,8977.980492,1184.418939,9651.259738,6615.132882,-12205.170060,-4084.244857,0.007000,-0.014000,1.003000,192.000000,0.000000,0.000000,0.000000,0.000000,0.000000,0.000000,0.000000,0.000000,0.000000,1772721493.187302,0.000000
24.000000,-11768.081697,-18584.782611,1735.098867,-28237.986951,10495.485126,5211.309220,-20379.627690,-29042.515641,4700.750673,1801.952934,8972.571370,1185.648285,9646.118837,6617.993905,-12223.207918,-4080.601523,0.007000,-0.014000,1.003000,192.000000,0.000000,0.000000,0.000000,0.000000,0.000000,0.000000,0.000000,0.000000,0.000000,1772721493.187315,0.000000
26.000000,-11771.903845,-18587.286006,1735.545902,-28241.183250,10489.248990,5207.397664,-20380.097077,-29043.029731,4704.349304,1811.027743,8995.906591,1210.525776,9669.096430,6631.986097,-12202.465499,-4113.860919,0.007000,-0.014000,1.003000,192.000000,0.000000,0.000000,0.000000,0.000000,0.000000,0.000000,0.000000,0.000000,0.000000,1772721493.187331,0.000000
28.000000,-11784.934912,-18604.899181,1725.845245,-28262.260945,10471.389946,5179.055653,-20393.128144,-29058.273620,4697.889650,1794.308638,8976.952312,1187.861107,9635.658221,6609.030856,-12221.732702,-4111.893965,0.007000,-0.014000,1.003000,192.000000,0.000000,0.000000,0.000000,0.000000,0.000000,0.000000,0.000000,0.000000,0.000000,1772721493.187344,0.000000
30.000000,-11764.326604,-18582.145105,1747.191161,-28236.802308,10491.171240,5196.422958,-20368.965908,-29035.474841,4701.421225,1803.048170,8989.111661,1196.466529,9653.539616,6610.081388,-12209.036912,-4132.949309,0.006500,-0.014000,1.003500,192.000000,0.000000,24.000000,127.500000,72.000000,15.500000,48.000000,0.000000,0.000000,0.000000,1772721493.187357,0.000000
32.000000,-11784.756098,-18603.423965,1723.140684,-28261.568041,10463.008042,5170.897266,-20389.574217,-29058.318324,4700.594211,1803.830481,8986.630617,1196.421825,9658.971090,6614.775254,-12210.065092,-4135.408000,0.006500,-0.014000,1.003500,192.000000,0.000000,0.000000,0.000000,0.000000,0.000000,0.000000,0.000000,0.000000,0.000000,1772721493.187369,0.000000
34.000000,-11783.973787,-18600.205314,1731.164960,-28250.056893,10465.064402,5176.172277,-20380.164132,-29052.395112,4692.569934,1796.119129,8972.638425,1186.363540,9633.780674,6599.687827,-12227.410046,-4123.494521,0.006500,-0.014000,1.003500,192.000000,0.000000,0.000000,0.000000,0.000000,0.000000,0.000000,0.000000,0.000000,0.000000,1772721493.187382,0.000000
36.000000,-11796.602523,-18615.158631,1728.438047,-28258.751721,10455.721373,5166.784545,-20384.522722,-29064.845033,4694.335722,1793.325161,8988.239943,1190.588020,9645.135360,6601.677132,-12206.220592,-4147.120314,0.006500,-0.014000,1.003500,192.000000,0.000000,0.000000,0.000000,0.000000,0.000000,0.000000,0.000000,0.000000,0.000000,1772721493.187395,0.000000
38.000000,-11823.022285,-18643.590050,1707.360352,-28280.768190,10436.409466,5148.254949,-20406.561542,-29094.930481,4671.671053,1768.335911,8953.415925,1157.708604,9615.295782,6576.442012,-12224.280801,-4131.630556,0.006500,-0.014000,1.003500,192.000000,0.000000,0.000000,0.000000,0.000000,0.000000,0.000000,0.000000,0.000000,0.000000,1772721493.187408,0.000000
40.000000,-11821.032980,-18631.944791,1718.715038,-28255.935401,10454.559082,5167.253931,-20389.373051,-29084.536920,4661.590417,1769.140574,8949.683183,1158.222694,9620.704904,6584.443937,-12212.792005,-4133.932785,0.006250,-0.014000,1.001750,192.000000,0.000000,24.000000,127.500000,72.000000,15.500000,32.000000,0.000000,0.000000,0.000000,1772721493.187421,0.000000
42.000000,-11838.020305,-18653.938908,1691.960000,-28275.224957,10427.602879,5144.455152,-20409.914304,-29105.279339,4651.576835,1764.513763,8941.167169,1153.640587,9623.722389,6579.548905,-12219.341066,-4128.344849,0.006250,-0.014000,1.001750,192.000000,0.000000,0.000000,0.000000,0.000000,0.000000,0.000000,0.000000,0.000000,0.000000,1772721493.187433,0.000000
44.000000,-11812.941648,-18627.899126,1711.517776,-28253.364951,10439.426951,5165.689309,-20387.428449,-29072.623440,4653.387326,1761.831553,8937.814407,1147.650319,9591.625284,6573.178658,-12243.123322,-4109.569384,0.006250,-0.014000,1.001750,192.000000,0.000000,0.000000,0.000000,0.000000,0.000000,0.000000,0.000000,0.000000,0.000000,1772721493.187447,0.000000
46.000000,-11791.685139,-18607.089651,1725.442913,-28248.805195,10455.564911,5173.534772,-20378.465400,-29053.512699,4674.979112,1787.826632,8980.863867,1184.083663,9623.253003,6601.766539,-12217.888202,-4128.724829,0.006250,-0.014000,1.001750,192.000000,0.000000,0.000000,0.000000,0.000000,0.000000,0.000000,0.000000,0.000000,0.000000,1772721493.187459,0.000000
48.000000,-11790.209924,-18607.335521,1720.011439,-28264.697285,10457.755382,5168.751498,-20394.022214,-29062.028713,4680.969379,1788.698350,8973.554846,1176.707587,9618.805005,6594.479870,-12231.835691,-4112.922145,0.006250,-0.014000,1.001750,192.000000,0.000000,0.000000,0.000000,0.000000,0.000000,0.000000,0.000000,0.000000,0.000000,1772721493.187472,0.000000
50.000000,-11757.956357,-18574.545512,1749.225169,-28233.896581,10492.847621,5195.953571,-20367.937728,-29030.244533,4704.706932,1807.943202,8995.973646,1196.108901,9646.990555,6613.881184,-12213.283743,-4130.758838,0.007125,-0.014000,1.000875,192.000000,0.000000,32.000000,127.500000,72.000000,15.500000,32.000000,0.000000,0.000000,0.000000,1772721493.187492,0.000000
52.000000,-11778.966997,-18602.507544,1727.543977,-28258.371742,10473.669824,5169.377347,-20387.987243,-29049.936420,4711.546565,1808.747865,9001.315713,1203.127349,9658.211131,6617.189243,-12206.600571,-4137.643175,0.007125,-0.014000,1.000875,192.000000,0.000000,0.000000,0.000000,0.000000,0.000000,0.000000,0.000000,0.000000,0.000000,1772721493.187504,0.000000
54.000000,-11773.669633,-18595.287930,1739.368050,-28246.458262,10484.979807,5175.747594,-20374.866769,-29036.257152,4704.304600,1799.248373,8986.228286,1184.910677,9642.788427,6604.135824,-12220.704522,-4126.936689,0.007125,-0.014000,1.000875,192.000000,0.000000,0.000000,0.000000,0.000000,0.000000,0.000000,0.000000,0.000000,0.000000,1772721493.187517,0.000000
56.000000,-11775.256607,-18595.377337,1741.759687,-28249.833375,10476.664958,5168.192705,-20371.938690,-29032.792632,4710.004295,1801.952934,9009.675266,1204.624916,9672.695061,6607.041551,-12201.884353,-4144.683974,0.007125,-0.014000,1.000875,192.000000,0.000000,0.000000,0.000000,0.000000,0.000000,0.000000,0.000000,0.000000,0.000000,1772721493.187530,0.000000
58.000000,-11798.949456,-18621.171250,1719.542053,-28273.392114,10446.378344,5144.701021,-20393.128144,-29059.458263,4691.832327,1784.764443,8984.529553,1181.066177,9624.035314,6584.578047,-12229.756979,-4137.598471,0.007125,-0.014000,1.000875,192.000000,0.000000,0.000000,0.000000,0.000000,0.000000,0.000000,0.000000,0.000000,0.000000,1772721493.187545,0.000000
60.000000,-11785.672520,-18604.608608,1736.909358,-28245.005398,10468.081888,5164.549370,-20373.302147,-29045.913106,4687.786661,1785.658513,8984.641312,1180.887363,9633.288936,6595.753920,-12221.196261,-4138.760762,0.006563,-0.012000,1.001437,192.000000,0.000000,24.000000,127.500000,88.000000,15.500000,40.000000,0.000000,0.000000,0.000000,1772721493.187557,0.000000
62.000000,-11816.875555,-18638.583259,1707.226241,-28270.374628,10444.076114,5148.634928,-20401.085365,-29081.228862,4675.470850,1778.170678,8970.693823,1175.120613,9629.533843,6592.177640,-12217.396464,-4132.412867,0.006563,-0.012000,1.001437,192.000000,0.000000,0.000000,0.000000,0.000000,0.000000,0.000000,0.000000,0.000000,0.000000,1772721493.187570,0.000000
64.000000,-11821.390608,-18637.152748,1714.736428,-28263.557346,10456.615443,5155.943949,-20393.396365,-29077.473769,4659.712870,1761.384518,8943.067067,1153.551180,9605.371607,6575.056204,-12230.315772,-4110.686971,0.006563,-0.012000,1.001437,192.000000,0.000000,0.000000,0.000000,0.000000,0.000000,0.000000,0.000000,0.000000,0.000000,1772721493.187582,0.000000
66.000000,-11817.456700,-18637.286858,1718.782093,-28265.747817,10456.101353,5151.808876,-20390.334176,-29074.165711,4668.586513,1771.889838,8965.977605,1168.191572,9625.935212,6584.332178,-12204.119528,-4135.072724,0.006563,-0.012000,1.001437,192.000000,0.000000,0.000000,0.000000,0.000000,0.000000,0.000000,0.000000,0.000000,0.000000,1772721493.187599,0.000000
68.000000,-11824.631610,-18647.076922,1700.341904,-28283.472751,10437.303536,5142.532902,-20405.958045,-29089.320193,4660.204608,1751.706213,8945.682221,1148.700851,9604.499889,6566.495486,-12228.214708,-4123.718038,0.006563,-0.012000,1.001437,192.000000,0.000000,0.000000,0.000000,0.000000,0.000000,0.000000,0.000000,0.000000,0.000000,1772721493.187616,0.000000
70.000000,-11789.673482,-18606.217933,1731.611995,-28254.616649,10472.261664,5169.444402,-20380.588815,-29058.497138,4674.308559,1773.745033,8962.289567,1167.901000,9632.864253,6587.148498,-12222.112682,-4136.860864,0.008281,-0.014000,0.999719,192.000000,0.000000,40.000000,127.500000,64.000000,15.500000,24.000000,0.000000,0.000000,0.000000,1772721493.187632,0.000000
72.000000,-11799.150622,-18618.556096,1720.480826,-28275.023791,10464.885588,5161.397774,-20397.732603,-29071.550557,4687.138461,1783.356283,8971.051451,1175.455889,9637.289898,6596.580934,-12216.167118,-4136.570291,0.008281,-0.014000,0.999719,192.000000,0.000000,0.000000,0.000000,0.000000,0.000000,0.000000,0.000000,0.000000,0.000000,1772721493.187650,0.000000
74.000000,-11778.050575,-18597.657215,1739.233940,-28252.649695,10480.241237,5183.168373,-20381.840513,-29047.254210,4692.860507,1789.145385,8970.045623,1174.941799,9635.837035,6599.710178,-12228.080598,-4120.231166,0.008281,-0.014000,0.999719,192.000000,0.000000,0.000000,0.000000,0.000000,0.000000,0.000000,0.000000,0.000000,0.000000,1772721493.667289,0.000000
76.000000,-11771.121534,-18588.984738,1743.212550,-28247.061759,10481.805859,5170.070251,-20377.079591,-29039.252286,4712.060656,1813.441731,9004.914344,1204.244936,9671.219846,6630.354420,-12205.818260,-4142.269986,0.008281,-0.014000,0.999719,192.000000,0.000000,0.000000,0.000000,0.000000,0.000000,0.000000,0.000000,0.000000,0.000000,1772721493.667364,0.000000
78.000000,-11785.851334,-18604.563904,1724.593547,-28263.780864,10466.472562,5157.061536,-20393.418717,-29058.944173,4704.528118,1801.572955,8984.060166,1191.035055,9644.174235,6611.400141,-12226.292458,-4127.897814,0.008281,-0.014000,0.999719,192.000000,0.000000,0.000000,0.000000,0.000000,0.000000,0.000000,0.000000,0.000000,0.000000,1772721493.667418,0.000000
80.000000,-11772.462639,-18586.906026,1743.525474,-28243.351369,10487.483202,5172.953626,-20373.838588,-29040.861611,4705.086911,1805.976248,8989.536344,1195.684218,9658.725221,6614.149405,-12217.530575,-4136.436181,0.007141,-0.014000,1.000859,192.000000,0.000000,24.000000,127.500000,72.000000,15.500000,40.000000,0.000000,0.000000,0.000000,1772721493.667467,0.000000
82.000000,-11804.068006,-18623.562887,1719.229128,-28274.062666,10455.341393,5148.366707,-20397.598493,-29070.388266,4692.994618,1792.855775,8985.110698,1188.174032,9656.892378,6598.614943,-12215.608324,-4140.392439,0.007141,-0.014000,1.000859,192.000000,0.000000,0.000000,0.000000,0.000000,0.000000,0.000000,0.000000,0.000000,0.000000,1772721493.667518,0.000000
84.000000,-11807.197250,-18625.440434,1723.051277,-28267.044218,10464.550312,5156.770963,-20392.636406,-29067.437836,4677.236638,1770.526382,8962.289567,1162.335415,9624.571755,6584.980379,-12236.618964,-4125.528529,0.007141,-0.014000,1.000859,192.000000,0.000000,0.000000,0.000000,0.000000,0.000000,0.000000,0.000000,0.000000,0.000000,1772721493.667569,0.000000
86.000000,-11816.696741,-18634.112911,1716.189291,-28267.334791,10465.064402,5166.784545,-20394.804525,-29077.630231,4675.515553,1774.996731,8975.007710,1175.187668,9634.004192,6595.932734,-12215.138938,-4137.106733,0.007141,-0.014000,1.000859,192.000000,0.000000,0.000000,0.000000,0.000000,0.000000,0.000000,0.000000,0.000000,0.000000,1772721493.667588,0.000000
88.000000,-11849.754971,-18666.433533,1689.523660,-28289.999460,10439.158730,5148.679632,-20417.603304,-29109.213246,4650.034565,1747.302919,8936.652116,1144.699889,9607.673837,6568.730661,-12233.623831,-4108.429445,0.007141,-0.014000,1.000859,192.000000,0.000000,0.000000,0.000000,0.000000,0.000000,0.000000,0.000000,0.000000,0.000000,1772721493.667607,0.000000
90.000000,-11826.933840,-18638.158576,1713.462378,-28264.227899,10458.604748,5170.964321,-20393.843400,-29082.413504,4647.106486,1753.047318,8937.747352,1146.219807,9609.819604,6578.788946,-12225.308982,-4117.548957,0.007141,-0.014000,1.000859,192.000000,0.000000,0.000000,0.000000,0.000000,0.000000,0.000000,0.000000,0.000000,0.000000,1772721493.667630,0.000000
92.000000,-11831.024209,-18643.455940,1702.018285,-28280.589376,10436.588280,5142.197626,-20404.594589,-29087.040316,4655.130762,1765.296074,8948.386782,1158.021528,9616.502776,6586.924981,-12219.944563,-4130.065933,0.004000,-0.018000,1.004000,192.000000,0.000000,16.000000,127.500000,56.000000,15.500000,48.000000,0.000000,0.000000,0.000000,1772721493.667649,0.000000
94.000000,-11807.577229,-18618.556096,1716.681029,-28262.551518,10452.681536,5143.002289,-20389.730679,-29065.336772,4662.618597,1768.313559,8947.358602,1160.346110,9604.276372,6574.989149,-12241.111665,-4130.378858,0.004000,-0.018000,1.004000,192.000000,0.000000,0.000000,0.000000,0.000000,0.000000,0.000000,0.000000,0.000000,0.000000,1772721493.667667,0.000000
96.000000,-11790.567552,-18602.932227,1726.739314,-28251.889736,10462.248082,5150.288957,-20380.767629,-29052.663333,4682.824574,1793.347513,8979.858038,1191.750311,9638.049857,6599.307847,-12222.135034,-4159.704347,0.004000,-0.018000,1.004000,192.000000,0.000000,0.000000,0.000000,0.000000,0.000000,0.000000,0.000000,0.000000,0.000000,1772721493.667685,0.000000
98.000000,-11798.457718,-18616.723253,1713.976468,-28268.944117,10450.692231,5143.784600,-20395.720946,-29066.789635,4685.640894,1788.944219,8970.403251,1182.250819,9628.796235,6598.681998,-12240.552871,-4142.851131,0.004000,-0.018000,1.004000,192.000000,0.000000,0.000000,0.000000,0.000000,0.000000,0.000000,0.000000,0.000000,0.000000,1772721493.667703,0.000000
100.000000,-11776.776526,-18590.839933,1736.954062,-28245.318323,10477.290806,5167.343338,-20374.218568,-29040.705149,4690.580629,1800.142443,8980.774460,1191.839718,9638.452189,6607.555641,-12226.918307,-4148.439067,0.004000,-0.018000,1.004000,192.000000,0.000000,0.000000,0.000000,0.000000,0.000000,0.000000,0.000000,0.000000,0.000000,1772721493.667721,0.000000
102.000000,-11797.898924,-18612.588181,1714.959945,-28268.586489,10456.079001,5148.545521,-20392.770516,-29058.228917,4687.674902,1797.571993,8983.546076,1196.734750,9647.616404,6603.621734,-12223.207918,-4150.629538,0.004000,-0.014000,1.002000,192.000000,0.000000,16.000000,127.500000,72.000000,15.500000,40.000000,0.000000,0.000000,0.000000,1772721493.667741,0.000000
104.000000,-11788.399433,-18601.613474,1724.861768,-28255.130739,10463.477428,5164.281149,-20385.103868,-29051.858670,4688.099586,1793.995713,8969.106849,1181.133232,9623.878851,6593.921077,-12239.748208,-4129.820064,0.004000,-0.014000,1.002000,192.000000,0.000000,0.000000,0.000000,0.000000,0.000000,0.000000,0.000000,0.000000,0.000000,1772721493.667761,0.000000
106.000000,-11786.790107,-18600.562942,1725.644079,-28254.013151,10467.344280,5170.114955,-20385.863827,-29054.473824,4696.682655,1802.914060,8988.485812,1197.137081,9646.029430,6613.232984,-12216.390636,-4143.342870,0.004000,-0.014000,1.002000,192.000000,0.000000,0.000000,0.000000,0.000000,0.000000,0.000000,0.000000,0.000000,0.000000,1772721493.667778,0.000000
108.000000,-11802.324570,-18619.427814,1705.862785,-28274.532053,10454.402620,5165.510495,-20405.376900,-29074.813911,4687.920772,1785.546754,8965.508218,1174.226543,9627.030447,6598.190260,-12232.997982,-4122.980430,0.004000,-0.014000,1.002000,192.000000,0.000000,0.000000,0.000000,0.000000,0.000000,0.000000,0.000000,0.000000,0.000000,1772721493.667796,0.000000
110.000000,-11787.326549,-18600.227666,1727.298108,-28252.940268,10487.438498,5191.036188,-20386.601435,-29052.171594,4686.870240,1792.431091,8974.024233,1181.580267,9638.631003,6601.766539,-12218.514051,-4117.750122,0.004000,-0.014000,1.002000,192.000000,0.000000,0.000000,0.000000,0.000000,0.000000,0.000000,0.000000,0.000000,0.000000,1772721493.667815,0.000000
112.000000,-11814.282753,-18630.491928,1702.666486,-28276.096675,10471.278187,5186.185859,-20409.020234,-29080.580661,4683.226905,1784.831498,8973.308977,1180.082700,9642.922538,6602.504146,-12211.339141,-4113.123311,0.004000,-0.018000,1.002000,192.000000,0.000000,16.000000,127.500000,56.000000,15.500000,40.000000,0.000000,0.000000,0.000000,1772721493.667833,0.000000
114.000000,-11810.237087,-18625.194564,1710.623707,-28267.088922,10488.489030,5197.160566,-20404.393423,-29081.139455,4671.156963,1772.895667,8948.073858,1156.546313,9621.241346,6591.596495,-12223.476139,-4087.754081,0.004000,-0.018000,1.002000,192.000000,0.000000,0.000000,0.000000,0.000000,0.000000,0.000000,0.000000,0.000000,0.000000,1772721493.667851,0.000000
116.000000,-11800.223506,-18613.750471,1719.810274,-28259.377570,10505.811632,5202.033246,-20397.710252,-29074.500987,4681.751690,1784.116242,8966.446992,1172.572514,9652.265567,6614.395274,-12190.820240,-4105.143738,0.004000,-0.018000,1.002000,192.000000,0.000000,0.000000,0.000000,0.000000,0.000000,0.000000,0.000000,0.000000,0.000000,1772721493.667869,0.000000
118.000000,-11801.519907,-18616.544439,1711.808349,-28275.224957,10479.570684,5171.880743,-20406.293321,-29078.926632,4682.824574,1783.445690,8954.309994,1165.196438,9645.560044,6602.057112,-12205.237115,-4101.388645,0.004000,-0.018000,1.002000,192.000000,0.000000,0.000000,0.000000,0.000000,0.000000,0.000000,0.000000,0.000000,0.000000,1772721493.667886,0.000000
120.000000,-11767.433496,-18579.351137,1742.944329,-28241.272657,10484.331606,5178.362748,-20372.721001,-29033.574943,4699.834251,1802.176452,8979.858038,1188.263439,9647.258776,6618.239774,-12209.841574,-4126.713172,0.004000,-0.018000,1.002000,192.000000,0.000000,0.000000,0.000000,0.000000,0.000000,0.000000,0.000000,0.000000,0.000000,1772721493.667905,0.000000
122.000000,-11780.755136,-18598.327768,1723.520663,-28264.831396,10449.507588,5150.043088,-20390.825914,-29047.745949,4701.935315,1805.529214,8993.894934,1204.624916,9649.762171,6615.244641,-12221.710351,-4147.120314,0.004000,-0.016000,1.002000,192.000000,0.000000,16.000000,127.500000,64.000000,15.500000,40.000000,0.000000,0.000000,0.000000,1772721493.667926,0.000000
124.000000,-11775.793049,-18591.376375,1734.182445,-28253.834337,10456.749553,5158.089716,-20382.667528,-29041.420405,4699.901307,1797.303772,8982.115565,1189.470433,9637.088732,6603.442920,-12244.911461,-4139.453666,0.004000,-0.016000,1.002000,192.000000,0.000000,0.000000,0.000000,0.000000,0.000000,0.000000,0.000000,0.000000,0.000000,1772721493.667944,0.000000
126.000000,-11764.795991,-18581.340442,1741.111486,-28248.246401,10465.399678,5167.879780,-20379.404173,-29039.229934,4710.697199,1813.866414,9003.975571,1209.050561,9657.451172,6625.034705,-12220.816281,-4153.267044,0.004000,-0.016000,1.002000,192.000000,0.000000,0.000000,0.000000,0.000000,0.000000,0.000000,0.000000,0.000000,0.000000,1772721493.667962,0.000000
128.000000,-11790.567552,-18608.095480,1717.061009,-28272.073361,10448.524111,5150.221902,-20401.107717,-29067.080208,4698.336685,1800.902403,8979.053376,1186.676465,9640.307384,6607.175661,-12237.557738,-4133.351640,0.004000,-0.016000,1.002000,192.000000,0.000000,0.000000,0.000000,0.000000,0.000000,0.000000,0.000000,0.000000,0.000000,1772721493.667980,0.000000
130.000000,-11775.949511,-18590.191733,1737.825780,-28247.642904,10473.178085,5174.719414,-20379.203007,-29047.567135,4697.152042,1800.254202,8980.506239,1187.682293,9647.214073,6609.254373,-12227.946487,-4136.883216,0.004000,-0.016000,1.002000,192.000000,0.000000,0.000000,0.000000,0.000000,0.000000,0.000000,0.000000,0.000000,0.000000,1772721493.668010,0.000000
132.000000,-11804.939724,-18621.327713,1712.613012,-28275.761399,10443.964355,5158.760269,-20404.482830,-29076.669106,4692.480527,1795.560336,8980.126259,1185.491822,9641.737895,6600.850117,-12223.096159,-4131.965832,0.004000,-0.016000,1.006000,192.000000,0.000000,16.000000,127.500000,64.000000,15.500000,56.000000,0.000000,0.000000,0.000000,1772721493.668028,0.000000
134.000000,-11806.884325,-18619.852498,1714.088227,-28270.553442,10444.858425,5162.314196,-20400.258350,-29074.523339,4676.029644,1778.014216,8953.728849,1163.721223,9616.413369,6580.688844,-12245.738476,-4116.498425,0.004000,-0.016000,1.006000,192.000000,0.000000,0.000000,0.000000,0.000000,0.000000,0.000000,0.000000,0.000000,0.000000,1772721493.668046,0.000000
136.000000,-11808.203078,-18621.283009,1716.435160,-28266.105445,10448.278242,5165.622254,-20395.475077,-29071.952888,4677.393100,1788.452481,8967.966910,1176.506421,9641.000288,6593.183469,-12222.045627,-4134.826855,0.004000,-0.016000,1.006000,192.000000,0.000000,0.000000,0.000000,0.000000,0.000000,0.000000,0.000000,0.000000,0.000000,1772721493.668064,0.000000
138.000000,-11830.979506,-18646.115797,1696.117425,-28282.779847,10435.761265,5163.856466,-20414.384653,-29093.991708,4661.523361,1764.737280,8942.977660,1151.472467,9605.326904,6572.172829,-12237.848310,-4116.565480,0.004000,-0.016000,1.006000,192.000000,0.000000,0.000000,0.000000,0.000000,0.000000,0.000000,0.000000,0.000000,0.000000,1772721493.668082,0.000000
140.000000,-11806.102014,-18613.482250,1721.218434,-28252.850861,10476.977882,5199.574554,-20392.770516,-29068.689533,4664.853771,1778.260085,8950.912529,1159.697909,9627.656296,6592.892896,-12219.117548,-4113.771512,0.004000,-0.016000,1.006000,192.000000,0.000000,0.000000,0.000000,0.000000,0.000000,0.000000,0.000000,0.000000,0.000000,1772721493.668100,0.000000
142.000000,-11812.695779,-18623.965219,1709.059085,-28270.374628,10473.535713,5192.913734,-20410.204877,-29081.877063,4673.794469,1793.571030,8961.864884,1170.627912,9631.478445,6609.366132,-12206.198240,-4115.179672,0.006000,-0.018000,1.002000,192.000000,0.000000,24.000000,127.500000,56.000000,15.500000,40.000000,0.000000,0.000000,0.000000,1772721493.668117,0.000000
144.000000,-11794.747328,-18607.179058,1727.789846,-28257.321210,10495.842754,5205.989505,-20396.056222,-29063.168652,4683.159850,1788.161908,8957.193370,1162.670691,9629.176215,6604.582859,-12217.038836,-4100.069892,0.006000,-0.018000,1.002000,192.000000,0.000000,0.000000,0.000000,0.000000,0.000000,0.000000,0.000000,0.000000,0.000000,1772721493.668133,0.000000
146.000000,-11783.012662,-18594.975006,1737.266986,-28249.408692,10506.973923,5207.084740,-20383.561597,-29049.243516,4700.504804,1808.993734,8989.223419,1190.230392,9663.687308,6626.018182,-12191.043757,-4127.160207,0.006000,-0.018000,1.002000,192.000000,0.000000,0.000000,0.000000,0.000000,0.000000,0.000000,0.000000,0.000000,0.000000,1772721493.668167,0.000000
148.000000,-11798.658883,-18610.889448,1723.386553,-28271.179291,10486.365615,5182.922504,-20398.783135,-29065.739103,4693.799280,1801.215327,8970.604416,1178.719244,9649.762171,6610.886051,-12211.249734,-4120.834663,0.006000,-0.018000,1.002000,192.000000,0.000000,0.000000,0.000000,0.000000,0.000000,0.000000,0.000000,0.000000,0.000000,1772721493.668185,0.000000
150.000000,-11774.451944,-18584.581445,1750.812143,-28245.430082,10498.837888,5192.623161,-20371.491655,-29037.464146,4697.688484,1809.038437,8982.339082,1186.408244,9656.937081,6611.198975,-12206.377054,-4133.619861,0.006000,-0.018000,1.002000,192.000000,0.000000,0.000000,0.000000,0.000000,0.000000,0.000000,0.000000,0.000000,0.000000,1772721493.668204,0.000000
152.000000,-11794.903790,-18609.816564,1728.370992,-28271.067532,10470.250007,5164.325853,-20392.792868,-29061.849900,4698.336685,1805.283344,8991.011559,1186.832927,9655.484218,6610.081388,-12208.142842,-4145.354527,0.004000,-0.018000,1.002000,192.000000,0.000000,16.000000,127.500000,56.000000,15.500000,40.000000,0.000000,0.000000,0.000000,1772721493.668222,0.000000
154.000000,-11792.892133,-18603.446317,1733.198969,-28261.903317,10472.328719,5162.314196,-20385.193275,-29053.602106,4692.324065,1789.011274,8972.906646,1168.660959,9643.168407,6592.557620,-12230.293421,-4135.095076,0.004000,-0.018000,1.002000,192.000000,0.000000,0.000000,0.000000,0.000000,0.000000,0.000000,0.000000,0.000000,0.000000,1772721493.668243,0.000000
156.000000,-11793.383872,-18602.060509,1733.958928,-28253.610820,10471.144077,5162.403603,-20379.515932,-29050.294048,4691.206478,1802.176452,8985.289512,1193.560802,9658.546407,6605.365170,-12216.100063,-4154.138762,0.004000,-0.018000,1.002000,192.000000,0.000000,0.000000,0.000000,0.000000,0.000000,0.000000,0.000000,0.000000,0.000000,1772721493.668260,0.000000
158.000000,-11810.728825,-18624.434605,1715.138759,-28274.688515,10451.362783,5146.936196,-20401.398289,-29075.752685,4679.829440,1790.464138,8959.115620,1174.271247,9624.080017,6588.802527,-12234.272031,-4132.725791,0.004000,-0.018000,1.002000,192.000000,0.000000,0.000000,0.000000,0.000000,0.000000,0.000000,0.000000,0.000000,0.000000,1772721493.668278,0.000000
160.000000,-11793.965017,-18604.362739,1738.094001,-28248.894602,10478.073118,5175.859353,-20380.879388,-29057.066626,4685.775004,1795.850908,8967.698689,1174.584171,9633.579508,6593.295228,-12222.179737,-4132.301108,0.004000,-0.018000,1.002000,192.000000,0.000000,0.000000,0.000000,0.000000,0.000000,0.000000,0.000000,0.000000,0.000000,1772721493.668295,0.000000
162.000000,-11818.976619,-18629.575506,1716.658678,-28271.760437,10459.096486,5156.234521,-20401.867676,-29081.608842,4680.477641,1790.330027,8971.342024,1177.042863,9639.614479,6595.753920,-12211.607362,-4131.719963,0.004000,-0.017000,1.002000,192.000000,0.000000,16.000000,127.500000,64.000000,15.500000,40.000000,0.000000,0.000000,0.000000,1772721493.668312,0.000000
164.000000,-11821.636477,-18628.994361,1721.263137,-28262.350352,10460.795219,5177.200458,-20395.318615,-29077.764342,4665.814896,1776.404891,8948.722058,1157.440383,9617.262735,6583.080480,-12229.578165,-4111.581041,0.004000,-0.017000,1.002000,192.000000,0.000000,0.000000,0.000000,0.000000,0.000000,0.000000,0.000000,0.000000,0.000000,1772721493.668329,0.000000
166.000000,-11815.445043,-18619.964256,1730.963794,-28253.432006,10474.563894,5181.983731,-20389.149533,-29071.818778,4673.168620,1790.665304,8968.413945,1176.886401,9649.851578,6609.209670,-12201.191449,-4127.763704,0.004000,-0.017000,1.002000,192.000000,0.000000,0.000000,0.000000,0.000000,0.000000,0.000000,0.000000,0.000000,0.000000,1772721493.668346,0.000000
168.000000,-11821.032980,-18627.362684,1718.647983,-28267.871233,10466.651376,5182.654283,-20405.846287,-29084.492217,4673.347434,1786.798452,8952.521855,1163.229485,9631.769017,6604.716969,-12212.523784,-4111.961020,0.004000,-0.017000,1.002000,192.000000,0.000000,0.000000,0.000000,0.000000,0.000000,0.000000,0.000000,0.000000,0.000000,1772721493.668364,0.000000
170.000000,-11787.550066,-18591.063451,1747.280568,-28240.177422,10501.989484,5205.028380,-20378.890083,-29049.087053,4690.670036,1809.373714,8968.704518,1178.674540,9650.633890,6627.336934,-12198.397481,-4114.039733,0.004000,-0.017000,1.002000,192.000000,0.000000,0.000000,0.000000,0.000000,0.000000,0.000000,0.000000,0.000000,0.000000,1772721493.668382,0.000000
172.000000,-11795.104956,-18600.428832,1731.924919,-28255.577774,10484.778641,5192.019664,-20391.943501,-29055.479652,4698.627257,1813.642897,8986.630617,1194.030189,9668.381175,6626.934603,-12192.295455,-4123.315707,0.004000,-0.015500,1.001000,192.000000,0.000000,16.000000,127.500000,72.000000,15.500000,32.000000,0.000000,0.000000,0.000000,1772721493.668398,0.000000
174.000000,-11779.235217,-18585.900198,1741.692631,-28244.178384,10501.229525,5199.887478,-20383.427487,-29040.034597,4694.872164,1809.485472,8979.746280,1185.692988,9640.307384,6617.971554,-12212.389673,-4111.469282,0.004000,-0.015500,1.001000,192.000000,0.000000,0.000000,0.000000,0.000000,0.000000,0.000000,0.000000,0.000000,0.000000,1772721493.668416,0.000000
176.000000,-11771.300348,-18582.078049,1746.967643,-28239.886849,10510.460795,5197.026455,-20377.101943,-29035.072510,4708.842004,1818.493225,9005.495489,1205.898965,9674.639663,6631.717876,-12187.869810,-4134.983317,0.004000,-0.015500,1.001000,192.000000,0.000000,0.000000,0.000000,0.000000,0.000000,0.000000,0.000000,0.000000,0.000000,1772721493.668434,0.000000
178.000000,-11789.986407,-18603.714538,1725.107637,-28262.305649,10481.559990,5169.891437,-20397.956121,-29057.401902,4701.153004,1803.986943,8982.652006,1187.794052,9656.579454,6613.367094,-12210.489775,-4122.220471,0.004000,-0.015500,1.001000,192.000000,0.000000,0.000000,0.000000,0.000000,0.000000,0.000000,0.000000,0.000000,0.000000,1772721493.668452,0.000000
180.000000,-11771.233293,-18580.178151,1744.352489,-28238.255172,10490.746557,5183.548353,-20374.553844,-29031.116251,4702.851737,1812.435903,8988.798736,1196.377122,9665.184875,6619.849100,-12213.283743,-4134.335117,0.004000,-0.015500,1.001000,192.000000,0.000000,0.000000,0.000000,0.000000,0.000000,0.000000,0.000000,0.000000,0.000000,1772721493.668475,0.000000
182.000000,-11798.703587,-18609.101308,1720.838454,-28261.948021,10456.458981,5151.294786,-20394.960987,-29057.178385,4696.816766,1805.484510,8989.357530,1198.992276,9655.171294,6619.156196,-12217.128243,-4144.974547,0.007000,-0.011750,0.998500,192.000000,0.000000,40.000000,127.500000,96.000000,15.500000,16.000000,0.000000,0.000000,0.000000,1772721493.668493,0.000000
184.000000,-11802.078700,-18612.431718,1725.129989,-28259.489329,10455.341393,5157.240350,-20393.262254,-29061.514623,4682.802222,1784.831498,8965.664681,1170.851430,9626.449302,6593.406986,-12240.821092,-4132.971660,0.007000,-0.011750,0.998500,192.000000,0.000000,0.000000,0.000000,0.000000,0.000000,0.000000,0.000000,0.000000,0.000000,1772721493.668509,0.000000
186.000000,-11798.077738,-18608.453108,1729.198006,-28254.236669,10457.196588,5162.783583,-20388.344871,-29057.156033,4687.272571,1789.659475,8981.512067,1183.726035,9647.035259,6601.252449,-12216.256525,-4145.645099,0.007000,-0.011750,0.998500,192.000000,0.000000,0.000000,0.000000,0.000000,0.000000,0.000000,0.000000,0.000000,0.000000,1772721493.668529,0.000000
188.000000,-11820.720055,-18632.570640,1708.969678,-28276.744876,10441.080980,5150.937158,-20410.137821,-29081.184158,4671.894571,1780.897591,8958.109791,1166.649302,9629.779712,6590.255390,-12233.556775,-4129.060105,0.007000,-0.011750,0.998500,192.000000,0.000000,0.000000,0.000000,0.000000,0.000000,0.000000,0.000000,0.000000,0.000000,1772721493.668547,0.000000
190.000000,-11794.300293,-18600.428832,1738.697498,-28246.927648,10472.887513,5176.261684,-20383.002804,-29050.875193,4681.684635,1789.972399,8966.178771,1175.701758,9632.126645,6604.716969,-12224.973705,-4134.223358,0.007000,-0.011750,0.998500,192.000000,0.000000,0.000000,0.000000,0.000000,0.000000,0.000000,0.000000,0.000000,0.000000,1772721493.668565,0.000000
192.000000,-11809.030093,-18618.354931,1720.078495,-28264.071436,10455.967242,5163.767059,-20397.218513,-29067.013152,4688.591324,1795.739150,8977.891085,1186.072968,9650.902110,6615.557565,-12211.249734,-4139.811294,0.007500,-0.014875,0.998250,192.000000,0.000000,32.000000,127.500000,56.000000,15.500000,24.000000,0.000000,0.000000,0.000000,1772721493.668584,0.000000
194.000000,-11800.379968,-18608.386053,1724.481788,-28253.543765,10464.103277,5179.525039,-20390.892969,-29059.324152,4684.500955,1792.341684,8958.735640,1174.137136,9626.292840,6604.873431,-12232.349781,-4126.087323,0.007500,-0.014875,0.998250,192.000000,0.000000,0.000000,0.000000,0.000000,0.000000,0.000000,0.000000,0.000000,0.000000,1772721494.148468,0.000000
196.000000,-11790.925180,-18595.779669,1733.333079,-28243.820756,10476.352033,5187.705778,-20382.041679,-29047.120100,4695.498013,1812.368847,8984.954236,1196.958267,9660.245140,6633.304850,-12208.053435,-4141.867655,0.007500,-0.014875,0.998250,192.000000,0.000000,0.000000,0.000000,0.000000,0.000000,0.000000,0.000000,0.000000,0.000000,1772721494.148567,0.000000
198.000000,-11803.598619,-18612.543477,1719.184425,-28262.730332,10462.046917,5169.332644,-20399.386632,-29062.341638,4691.318237,1801.684714,8972.191390,1183.211944,9638.407485,6621.950164,-12223.878470,-4123.650983,0.007500,-0.014875,0.998250,192.000000,0.000000,0.000000,0.000000,0.000000,0.000000,0.000000,0.000000,0.000000,0.000000,1772721494.148633,0.000000
200.000000,-11782.699738,-18589.968215,1746.542960,-28233.740119,10490.455984,5196.646475,-20373.793885,-29035.564248,4699.186051,1804.322219,8985.535382,1192.420863,9651.527959,6621.748998,-12213.529612,-4128.501311,0.007500,-0.014875,0.998250,192.000000,0.000000,0.000000,0.000000,0.000000,0.000000,0.000000,0.000000,0.000000,0.000000,1772721494.148712,0.000000
202.000000,-11802.168107,-18612.297608,1726.784018,-28254.639000,10472.127553,5174.942932,-20392.949330,-29055.949039,4698.627257,1806.847967,8991.749166,1198.433482,9653.427858,6624.498263,-12209.439243,-4137.754934,0.006750,-0.014438,0.998125,192.000000,0.000000,24.000000,127.500000,72.000000,15.500000,24.000000,0.000000,0.000000,0.000000,1772721494.148785,0.000000
204.000000,-11803.956247,-18611.649407,1728.862730,-28252.604992,10477.894304,5171.679577,-20389.417754,-29054.674990,4689.552449,1796.566164,8970.135030,1178.026340,9631.880776,6610.528423,-12229.533461,-4122.242823,0.006750,-0.014438,0.998125,192.000000,0.000000,0.000000,0.000000,0.000000,0.000000,0.000000,0.000000,0.000000,0.000000,1772721494.148838,0.000000
206.000000,-11799.038863,-18609.056605,1733.467189,-28250.459224,10485.672711,5176.485202,-20383.651004,-29051.791615,4695.810937,1805.506862,8987.032948,1190.900945,9657.652337,6620.877280,-12208.679284,-4146.449762,0.006750,-0.014438,0.998125,192.000000,0.000000,0.000000,0.000000,0.000000,0.000000,0.000000,0.000000,0.000000,0.000000,1772721494.148863,0.000000
208.000000,-11825.235108,-18638.762073,1707.695628,-28281.349335,10454.782600,5153.708774,-20406.807412,-29078.636060,4676.722548,1783.177469,8960.054393,1165.464659,9630.740837,6597.631466,-12230.695752,-4134.268061,0.006750,-0.014438,0.998125,192.000000,0.000000,0.000000,0.000000,0.000000,0.000000,0.000000,0.000000,0.000000,0.000000,1772721494.148885,0.000000
210.000000,-11808.404244,-18614.912762,1730.740277,-28258.192928,10471.814629,5167.656263,-20385.237978,-29054.362065,4677.862487,1784.786795,8965.441163,1169.376215,9629.533843,6601.878298,-12223.364380,-4136.704402,0.006750,-0.014438,0.998125,192.000000,0.000000,0.000000,0.000000,0.000000,0.000000,0.000000,0.000000,0.000000,0.000000,1772721494.148907,0.000000
212.000000,-11836.366276,-18644.707637,1706.399227,-28277.258966,10437.504701,5149.059611,-20405.823935,-29082.301746,4669.726452,1780.830536,8964.100059,1171.276113,9626.158729,6599.330199,-12217.329409,-4145.086306,0.006375,-0.014219,0.999062,192.000000,0.000000,24.000000,127.500000,72.000000,15.500000,32.000000,0.000000,0.000000,0.000000,1772721494.148930,0.000000
214.000000,-11831.247727,-18639.253812,1713.909413,-28266.641887,10441.952698,5153.306443,-20398.917246,-29076.557347,4658.237655,1767.754765,8941.524797,1152.165371,9603.628171,6588.020216,-12238.161235,-4128.680125,0.006375,-0.014219,0.999062,192.000000,0.000000,0.000000,0.000000,0.000000,0.000000,0.000000,0.000000,0.000000,0.000000,1772721494.148951,0.000000
216.000000,-11813.612200,-18621.707692,1727.543977,-28253.789634,10461.912806,5169.287940,-20386.959062,-29062.878080,4671.268722,1783.378635,8966.603454,1172.706625,9627.902165,6605.700446,-12217.396464,-4152.685899,0.006375,-0.014219,0.999062,192.000000,0.000000,0.000000,0.000000,0.000000,0.000000,0.000000,0.000000,0.000000,0.000000,1772721494.148972,0.000000
218.000000,-11822.038808,-18627.541498,1714.758779,-28269.167634,10456.526036,5171.254894,-20402.202952,-29074.255118,4673.906228,1788.318370,8957.640404,1172.952494,9620.257869,6605.231059,-12230.606345,-4133.128122,0.006375,-0.014219,0.999062,192.000000,0.000000,0.000000,0.000000,0.000000,0.000000,0.000000,0.000000,0.000000,0.000000,1772721494.149000,0.000000
220.000000,-11790.254627,-18589.923512,1742.497294,-28234.410672,10494.479298,5208.872880,-20375.403211,-29041.487460,4684.456251,1808.926679,8969.598588,1190.118634,9640.821474,6627.202824,-12216.949429,-4128.769532,0.006375,-0.014219,0.999062,192.000000,0.000000,0.000000,0.000000,0.000000,0.000000,0.000000,0.000000,0.000000,0.000000,1772721494.149015,0.000000
222.000000,-11803.106881,-18608.296646,1725.197044,-28252.873212,10480.129478,5193.718397,-20395.720946,-29063.146301,4691.899382,1812.502958,8982.674358,1201.808596,9658.792276,6642.066734,-12202.532554,-4123.516872,0.006188,-0.013109,1.001531,192.000000,0.000000,24.000000,127.500000,80.000000,15.500000,48.000000,0.000000,0.000000,0.000000,1772721494.149029,0.000000
224.000000,-11802.257514,-18607.290817,1729.980317,-28245.899468,10481.515286,5195.551240,-20390.557693,-29061.246402,4685.707949,1800.902403,8964.860018,1177.959285,9634.853558,6623.492434,-12220.838633,-4102.483881,0.006188,-0.013109,1.001531,192.000000,0.000000,0.000000,0.000000,0.000000,0.000000,0.000000,0.000000,0.000000,0.000000,1772721494.149045,0.000000
226.000000,-11800.022340,-18601.926399,1736.596434,-28238.501041,10482.007025,5194.791281,-20381.907568,-29052.350408,4685.998522,1809.552528,8984.864829,1195.751273,9645.023602,6635.495321,-12198.106909,-4123.606279,0.006188,-0.013109,1.001531,192.000000,0.000000,0.000000,0.000000,0.000000,0.000000,0.000000,0.000000,0.000000,0.000000,1772721494.149059,0.000000
228.000000,-11823.961058,-18629.173175,1714.401151,-28267.357143,10459.230597,5165.868123,-20403.745223,-29074.344525,4670.754632,1791.827594,8961.663718,1176.372311,9622.604802,6614.931716,-12217.597630,-4109.949363,0.006188,-0.013109,1.001531,192.000000,0.000000,0.000000,0.000000,0.000000,0.000000,0.000000,0.000000,0.000000,0.000000,1772721494.149074,0.000000
230.000000,-11809.253610,-18613.906934,1732.327251,-28248.380512,10483.012853,5190.008007,-20385.573254,-29056.798405,4670.195838,1787.401949,8962.401326,1176.707587,9624.705866,6610.394312,-12212.702598,-4115.961983,0.006188,-0.013109,1.001531,192.000000,0.000000,0.000000,0.000000,0.000000,0.000000,0.000000,0.000000,0.000000,0.000000,1772721494.149088,0.000000
232.000000,-11832.499425,-18640.885489,1709.193195,-28277.191910,10465.757306,5171.992501,-20408.662606,-29086.615632,4665.144344,1781.478737,8959.920282,1170.493802,9634.071247,6604.761673,-12205.594743,-4124.366239,0.008094,-0.013555,1.001766,192.000000,0.000000,40.000000,127.500000,72.000000,15.500000,40.000000,0.000000,0.000000,0.000000,1772721494.149104,0.000000
234.000000,-11830.420712,-18638.963239,1717.999782,-28275.537881,10465.042050,5164.638777,-20402.135897,-29083.173464,4658.639986,1772.247466,8940.340154,1149.371403,9614.826395,6588.377844,-12223.699656,-4110.597564,0.008094,-0.013555,1.001766,192.000000,0.000000,0.000000,0.000000,0.000000,0.000000,0.000000,0.000000,0.000000,0.000000,1772721494.149118,0.000000
236.000000,-11817.702570,-18624.188736,1730.717925,-28263.736160,10465.578492,5160.123725,-20387.204932,-29067.102559,4665.501972,1779.444728,8961.887236,1165.531715,9640.039163,6605.499280,-12205.572391,-4138.224320,0.008094,-0.013555,1.001766,192.000000,0.000000,0.000000,0.000000,0.000000,0.000000,0.000000,0.000000,0.000000,0.000000,1772721494.149133,0.000000
238.000000,-11833.952288,-18642.830091,1707.539166,-28278.555367,10451.854521,5150.579530,-20407.500316,-29087.755571,4661.724527,1770.235809,8945.525759,1158.066232,9618.670895,6594.189297,-12227.119473,-4129.507140,0.008094,-0.013555,1.001766,192.000000,0.000000,0.000000,0.000000,0.000000,0.000000,0.000000,0.000000,0.000000,0.000000,1772721494.149148,0.000000
240.000000,-11801.095224,-18605.189753,1733.646003,-28244.066625,10484.555123,5187.482260,-20380.633519,-29054.585583,4668.631216,1788.296019,8954.980547,1169.532677,9636.395828,6610.930754,-12222.269144,-4127.920166,0.008094,-0.013555,1.001766,192.000000,0.000000,0.000000,0.000000,0.000000,0.000000,0.000000,0.000000,0.000000,0.000000,1772721494.149162,0.000000
242.000000,-11803.531564,-18611.492945,1721.598413,-28257.388265,10474.161562,5177.111051,-20393.195199,-29063.436873,4684.143327,1804.635144,8974.337158,1186.877631,9649.806875,6627.515748,-12212.322618,-4138.425486,0.008094,-0.013555,1.001766,192.000000,0.000000,0.000000,0.000000,0.000000,0.000000,0.000000,0.000000,0.000000,0.000000,1772721494.149179,0.000000
244.000000,-11795.753157,-18605.457974,1728.996841,-28248.984009,10493.562876,5182.743690,-20385.573254,-29054.451472,4684.679769,1797.996676,8964.591797,1178.048692,9627.321020,6619.424417,-12230.494586,-4127.719000,0.008000,-0.018000,1.000000,192.000000,0.000000,32.000000,127.500000,56.000000,15.500000,32.000000,0.000000,0.000000,0.000000,1772721494.149194,0.000000
246.000000,-11790.031110,-18601.680529,1739.166884,-28242.054968,10482.811687,5187.504612,-20378.174827,-29050.852841,4689.686559,1810.088969,8982.987283,1195.617163,9672.583303,6636.367039,-12206.958199,-4147.343832,0.008000,-0.018000,1.000000,192.000000,0.000000,0.000000,0.000000,0.000000,0.000000,0.000000,0.000000,0.000000,0.000000,1772721494.149208,0.000000
248.000000,-11819.446006,-18627.988533,1717.150416,-28265.971335,10461.823399,5173.132440,-20401.532400,-29077.406714,4677.460155,1794.666266,8958.512122,1175.612351,9629.690305,6622.374847,-12220.458653,-4128.300146,0.008000,-0.018000,1.000000,192.000000,0.000000,0.000000,0.000000,0.000000,0.000000,0.000000,0.000000,0.000000,0.000000,1772721494.149223,0.000000
250.000000,-11789.718186,-18593.656253,1742.162018,-28236.444680,10488.980769,5190.589153,-20376.766667,-29046.226030,4677.191934,1806.847967,8961.060221,1183.770738,9627.857462,6633.662478,-12216.345932,-4126.154378,0.008000,-0.018000,1.000000,192.000000,0.000000,0.000000,0.000000,0.000000,0.000000,0.000000,0.000000,0.000000,0.000000,1772721494.149239,0.000000
252.000000,-11805.520869,-18614.108099,1723.453608,-28254.884869,10474.407431,5189.113938,-20394.513952,-29064.107426,4687.272571,1807.831443,8976.415870,1189.224564,9644.263642,6636.344688,-12206.175888,-4123.069837,0.008000,-0.018000,1.000000,192.000000,0.000000,0.000000,0.000000,0.000000,0.000000,0.000000,0.000000,0.000000,0.000000,1772721494.149254,0.000000
254.000000,-11811.153509,-18620.634809,1723.118332,-28257.522375,10480.218885,5189.583324,-20395.318615,-29066.387304,4676.499030,1788.564240,8954.488808,1167.342206,9618.872061,6613.411798,-12226.448921,-4097.901773,0.010000,-0.012000,1.004000,192.000000,0.000000,40.000000,127.500000,80.000000,15.500000,48.000000,0.000000,0.000000,0.000000,1772721494.149268,0.000000
0.000000,-11807.867802,-18616.387977,1726.493445,-28254.482538,10493.831097,5196.177089,-20390.803562,-29063.034542,4682.712815,1796.990847,8974.270102,1182.407282,9650.745648,6623.715952,-12204.320694,-4121.460512,0.010000,-0.012000,1.004000,192.000000,0.000000,0.000000,0.000000,0.000000,0.000000,0.000000,0.000000,0.000000,0.000000,1772721494.149283,0.000000
2.000000,-11828.900794,-18640.661972,1704.499329,-28280.522320,10470.697042,5166.985710,-20413.155307,-29088.157903,4668.966492,1779.869411,8949.705535,1161.307235,9626.896337,6607.041551,-12219.139900,-4110.754026,0.010000,-0.012000,1.004000,192.000000,0.000000,0.000000,0.000000,0.000000,0.000000,0.000000,0.000000,0.000000,0.000000,1772721494.149299,0.000000
4.000000,-11802.905715,-18612.096442,1729.354469,-28253.163785,10487.617312,5186.923467,-20385.796772,-29057.983048,4671.000501,1781.568144,8952.164227,1160.748441,9622.627154,6608.807338,-12217.150595,-4119.404151,0.010000,-0.012000,1.004000,192.000000,0.000000,0.000000,0.000000,0.000000,0.000000,0.000000,0.000000,0.000000,0.000000,1772721494.149313,0.000000
6.000000,-11810.795881,-18621.975913,1716.345753,-28271.134588,10462.538655,5159.810801,-20399.073708,-29063.749798,4677.817783,1787.357245,8971.051451,1180.060349,9635.345296,6613.121225,-12214.334275,-4137.419657,0.010000,-0.012000,1.004000,192.000000,0.000000,0.000000,0.000000,0.000000,0.000000,0.000000,0.000000,0.000000,0.000000,1772721494.149328,0.000000
8.000000,-11802.637494,-18611.247076,1725.241748,-28260.450454,10465.913769,5159.050841,-20390.222417,-29055.658466,4675.604960,1785.926734,8960.948463,1171.007892,9611.428930,6605.476928,-12238.898842,-4134.335117,0.010000,-0.012000,1.004000,192.000000,0.000000,40.000000,127.500000,80.000000,15.500000,48.000000,0.000000,0.000000,0.000000,1772721494.149342,0.000000
10.000000,-11790.366386,-18596.517276,1735.009460,-28243.306666,10481.068251,5175.367615,-20381.862865,-29045.331960,4687.630199,1810.580708,8987.055300,1200.758064,9634.674744,6633.573071,-12216.278877,-4159.033794,0.010000,-0.012000,1.004000,192.000000,0.000000,0.000000,0.000000,0.000000,0.000000,0.000000,0.000000,0.000000,0.000000,1772721494.149357,0.000000
12.000000,-11807.420767,-18616.633846,1718.312707,-28265.613707,10470.898208,5163.275321,-20404.996920,-29068.533071,4680.589399,1804.299868,8970.738527,1187.816404,9627.008096,6626.465216,-12224.996057,-4147.477942,0.010000,-0.012000,1.004000,192.000000,0.000000,0.000000,0.000000,0.000000,0.000000,0.000000,0.000000,0.000000,0.000000,1772721494.149371,0.000000
14.000000,-11786.343072,-18590.772878,1745.760649,-28239.596276,10501.542449,5192.042016,-20379.203007,-29040.101652,4689.306580,1810.200728,8974.828896,1187.257610,9635.658221,6636.523501,-12216.837670,-4149.355489,0.010000,-0.012000,1.004000,192.000000,0.000000,0.000000,0.000000,0.000000,0.000000,0.000000,0.000000,0.000000,0.000000,1772721494.149385,0.000000
16.000000,-11804.135061,-18608.386053,1726.716963,-28261.523338,10484.935103,5177.356920,-20394.759821,-29055.904335,4690.491222,1813.329972,8984.238980,1197.561764,9642.453151,6639.965670,-12203.292513,-4154.541094,0.010000,-0.012000,1.004000,192.000000,0.000000,0.000000,0.000000,0.000000,0.000000,0.000000,0.000000,0.000000,0.000000,1772721494.149406,0.000000
18.000000,-11806.414939,-18610.509468,1726.649907,-28258.125872,10481.381176,5192.667865,-20394.312786,-29057.424254,4673.772117,1796.946144,8958.087439,1177.869878,9616.502776,6621.123150,-12224.638429,-4131.965832,0.006000,-0.014000,1.010000,192.000000,0.000000,24.000000,127.500000,72.000000,15.500000,72.000000,0.000000,0.000000,0.000000,1772721494.149430,0.000000
20.000000,-11811.555840,-18614.845707,1734.964756,-28251.196832,10491.752385,5199.015760,-20392.122315,-29063.280411,4677.124879,1803.942240,8977.131126,1189.090453,9641.201453,6633.081333,-12196.788156,-4140.101867,0.006000,-0.014000,1.010000,192.000000,0.000000,0.000000,0.000000,0.000000,0.000000,0.000000,0.000000,0.000000,0.000000,1772721494.149450,0.000000
22.000000,-11845.619899,-18652.530748,1704.096997,-28279.225919,10470.518228,5183.123670,-20423.794737,-29102.708888,4662.015100,1778.260085,8948.722058,1156.300444,9622.604802,6610.684885,-12206.824089,-4117.526605,0.006000,-0.014000,1.010000,192.000000,0.000000,0.000000,0.000000,0.000000,0.000000,0.000000,0.000000,0.000000,0.000000,1772721494.149471,0.000000
24.000000,-11828.654924,-18628.726140,1719.251480,-28248.045236,10492.311179,5226.150778,-20403.588760,-29080.357144,4658.081193,1777.433071,8942.441218,1151.763040,9618.067398,6614.439978,-12209.148670,-4102.528584,0.006000,-0.014000,1.010000,192.000000,0.000000,0.000000,0.000000,0.000000,0.000000,0.000000,0.000000,0.000000,0.000000,1772721494.149487,0.000000
26.000000,-11850.984317,-18654.184777,1694.575154,-28270.128759,10465.422030,5210.728074,-20420.285513,-29103.379441,4654.303748,1775.332007,8945.101076,1160.659034,9625.666991,6617.770388,-12205.326522,-4090.302180,0.006000,-0.014000,1.010000,192.000000,0.000000,0.000000,0.000000,0.000000,0.000000,0.000000,0.000000,0.000000,0.000000,1772721494.149511,0.000000
28.000000,-11841.753047,-18649.043876,1697.972619,-28271.514567,10462.896283,5201.161528,-20414.876391,-29096.919787,4645.206588,1757.830591,8919.329514,1137.010889,9590.060662,6594.770443,-12233.199147,-4074.074814,0.008000,-0.014000,1.006000,192.000000,0.000000,32.000000,127.500000,72.000000,15.500000,56.000000,0.000000,0.000000,0.000000,1772721494.149530,0.000000
30.000000,-11813.925125,-18622.892335,1718.066838,-28260.405750,10476.910827,5189.471565,-20397.218513,-29066.722580,4666.664263,1779.489431,8954.667622,1166.761061,9624.214128,6608.136786,-12215.228345,-4110.865785,0.008000,-0.014000,1.006000,192.000000,0.000000,0.000000,0.000000,0.000000,0.000000,0.000000,0.000000,0.000000,0.000000,1772721494.149551,0.000000
32.000000,-11822.664657,-18636.504547,1706.533337,-28285.596166,10449.351126,5152.233559,-20412.641217,-29077.674935,4676.431975,1781.232867,8961.440201,1167.275151,9625.018790,6597.229135,-12234.920232,-4120.342925,0.008000,-0.014000,1.006000,192.000000,0.000000,0.000000,0.000000,0.000000,0.000000,0.000000,0.000000,0.000000,0.000000,1772721494.149572,0.000000
34.000000,-11798.547125,-18609.727157,1736.059992,-28257.902355,10471.859333,5164.549370,-20386.579083,-29052.462167,4683.584533,1781.501088,8975.342986,1169.622084,9628.706828,6600.403082,-12236.864833,-4144.616919,0.008000,-0.014000,1.006000,192.000000,0.000000,0.000000,0.000000,0.000000,0.000000,0.000000,0.000000,0.000000,0.000000,1772721494.149592,0.000000
36.000000,-11817.903735,-18629.016713,1717.396285,-28272.296878,10452.122742,5154.938120,-20401.487696,-29075.797388,4683.673940,1786.284362,8982.026158,1176.193497,9642.520206,6608.807338,-12225.599554,-4163.906475,0.008000,-0.014000,1.006000,192.000000,0.000000,0.000000,0.000000,0.000000,0.000000,0.000000,0.000000,0.000000,0.000000,1772721494.149612,0.000000
38.000000,-11812.181689,-18620.031312,1718.558576,-28261.992724,10462.046917,5163.565894,-20398.939597,-29070.410618,4669.905266,1782.171641,8952.432448,1161.016662,9615.139319,6611.891879,-12245.492607,-4143.745201,0.004000,-0.012000,1.008000,192.000000,0.000000,16.000000,127.500000,80.000000,15.500000,64.000000,0.000000,0.000000,0.000000,1772721494.149633,0.000000
40.000000,-11801.408148,-18606.888486,1730.561463,-28250.056893,10482.118783,5180.329702,-20388.076650,-29054.473824,4684.366844,1806.535042,8976.706442,1191.973828,9650.566834,6636.590557,-12215.250697,-4159.212608,0.004000,-0.012000,1.008000,192.000000,0.000000,0.000000,0.000000,0.000000,0.000000,0.000000,0.000000,0.000000,0.000000,1772721494.149654,0.000000
42.000000,-11826.799730,-18639.857309,1711.920108,-28281.237576,10466.941949,5158.715565,-20409.489621,-29078.300783,4676.186106,1790.575897,8964.927073,1169.689139,9629.064456,6616.898670,-12221.062150,-4145.287471,0.004000,-0.012000,1.008000,192.000000,0.000000,0.000000,0.000000,0.000000,0.000000,0.000000,0.000000,0.000000,0.000000,1772721494.149674,0.000000
44.000000,-11815.377988,-18628.524974,1732.617823,-28265.837224,10491.774737,5170.360824,-20391.898798,-29066.342600,4674.800298,1777.947161,8967.452820,1156.970996,9623.901203,6608.248545,-12210.981513,-4147.410887,0.004000,-0.012000,1.008000,192.000000,0.000000,0.000000,0.000000,0.000000,0.000000,0.000000,0.000000,0.000000,0.000000,1772721494.149695,0.000000
46.000000,-11839.160244,-18651.815492,1708.455587,-28287.652527,10473.982748,5161.062498,-20411.098946,-29095.712792,4668.720623,1771.375748,8963.340099,1151.919502,9626.337543,6609.857870,-12197.905743,-4156.664509,0.004000,-0.012000,1.008000,192.000000,0.000000,0.000000,0.000000,0.000000,0.000000,0.000000,0.000000,0.000000,0.000000,1772721494.149711,0.000000
48.000000,-11840.456646,-18648.686248,1698.866689,-28277.728352,10478.341338,5183.727167,-20413.021196,-29096.360993,4648.894626,1761.429222,8926.683238,1133.725182,9597.928476,6597.899687,-12221.106854,-4124.701515,0.008000,-0.014000,1.010000,192.000000,0.000000,32.000000,127.500000,72.000000,15.500000,72.000000,0.000000,0.000000,0.000000,1772721494.149732,0.000000
50.000000,-11816.473224,-18622.624114,1716.368105,-28256.807119,10509.142042,5217.813577,-20400.481868,-29072.668144,4660.741050,1787.558411,8948.498541,1162.268360,9629.578546,6627.046362,-12198.196316,-4124.366239,0.008000,-0.014000,1.010000,192.000000,0.000000,0.000000,0.000000,0.000000,0.000000,0.000000,0.000000,0.000000,0.000000,1772721494.149761,0.000000
52.000000,-11816.652038,-18629.329637,1708.567346,-28269.525262,10497.541487,5215.176072,-20415.524592,-29075.462112,4676.923713,1790.553545,8954.958195,1162.804802,9632.618383,6632.276670,-12205.348874,-4095.867764,0.008000,-0.014000,1.010000,192.000000,0.000000,0.000000,0.000000,0.000000,0.000000,0.000000,0.000000,0.000000,0.000000,1772721494.149784,0.000000
54.000000,-11795.015549,-18604.452146,1733.288376,-28241.138547,10502.213002,5228.832987,-20391.138839,-29049.243516,4686.736129,1800.187147,8971.520838,1173.310122,9641.849654,6634.578900,-12207.338179,-4091.844450,0.008000,-0.014000,1.010000,192.000000,0.000000,0.000000,0.000000,0.000000,0.000000,0.000000,0.000000,0.000000,0.000000,1772721494.149798,0.000000
56.000000,-11809.074796,-18619.204297,1719.586756,-28260.271640,10472.082850,5202.994371,-20402.717042,-29063.213356,4687.987827,1802.623487,8982.897876,1187.369369,9649.493951,6639.339821,-12208.388711,-4107.445968,0.008000,-0.014000,1.010000,192.000000,0.000000,0.000000,0.000000,0.000000,0.000000,0.000000,0.000000,0.000000,0.000000,1772721494.149813,0.000000
58.000000,-11811.421729,-18620.768919,1723.475960,-28261.389227,10465.064402,5194.187784,-20396.950292,-29062.095769,4678.823612,1790.553545,8958.892102,1171.790203,9635.434703,6618.820920,-12238.697677,-4101.634515,0.009000,-0.013000,1.009000,192.000000,0.000000,40.000000,127.500000,80.000000,15.500000,64.000000,0.000000,0.000000,0.000000,1772721494.629256,0.000000
60.000000,-11800.916410,-18608.162535,1737.691669,-28253.856689,10475.413260,5193.986618,-20382.466362,-29047.008341,4685.998522,1801.550603,8978.606341,1188.688122,9639.949756,6630.644993,-12220.078673,-4133.597509,0.009000,-0.013000,1.009000,192.000000,0.000000,0.000000,0.000000,0.000000,0.000000,0.000000,0.000000,0.000000,0.000000,1772721494.629316,0.000000
62.000000,-11813.366331,-18621.327713,1720.100846,-28281.662259,10459.521170,5165.711661,-20402.806449,-29061.961658,4684.635065,1793.079292,8972.638425,1174.807689,9625.130549,6619.580879,-12232.930926,-4135.452704,0.009000,-0.013000,1.009000,192.000000,0.000000,0.000000,0.000000,0.000000,0.000000,0.000000,0.000000,0.000000,0.000000,1772721494.629360,0.000000
64.000000,-11789.897000,-18595.511448,1741.826742,-28256.047160,10489.114879,5182.676635,-20383.315728,-29040.213411,4690.960609,1799.024856,8985.200105,1176.417014,9637.714581,6619.536176,-12227.410046,-4145.712155,0.009000,-0.013000,1.009000,192.000000,0.000000,0.000000,0.000000,0.000000,0.000000,0.000000,0.000000,0.000000,0.000000,1772721494.629423,0.000000
66.000000,-11819.825985,-18625.932172,1714.401151,-28277.907166,10465.198513,5156.413335,-20406.785060,-29076.959679,4688.725434,1801.349437,8987.994073,1182.586096,9646.230596,6624.453559,-12213.484909,-4161.939521,0.009000,-0.013000,1.009000,192.000000,0.000000,0.000000,0.000000,0.000000,0.000000,0.000000,0.000000,0.000000,0.000000,1772721494.629467,0.000000
68.000000,-11842.870634,-18647.233385,1705.885137,-28283.048067,10459.811742,5148.657280,-20412.216534,-29099.669051,4666.396042,1775.756690,8941.703611,1147.113877,9616.547479,6598.234963,-12233.936755,-4143.611091,0.010500,-0.015500,1.008500,192.000000,0.000000,48.000000,127.500000,56.000000,15.500000,64.000000,0.000000,0.000000,0.000000,1772721494.629512,0.000000
70.000000,-11848.927957,-18652.173120,1712.054218,-28278.555367,10470.585283,5159.095545,-20404.773403,-29100.518417,4658.841152,1769.654664,8942.888253,1151.874799,9626.650468,6603.800548,-12211.026217,-4160.866637,0.010500,-0.015500,1.008500,192.000000,0.000000,0.000000,0.000000,0.000000,0.000000,0.000000,0.000000,0.000000,0.000000,1772721494.629549,0.000000
72.000000,-11875.884161,-18680.626891,1683.354578,-28306.293882,10455.699021,5146.220940,-20432.936601,-29127.295807,4638.210492,1748.465210,8915.909698,1126.349107,9601.795328,6586.545001,-12222.067979,-4144.460457,0.010500,-0.015500,1.008500,192.000000,0.000000,0.000000,0.000000,0.000000,0.000000,0.000000,0.000000,0.000000,0.000000,1772721494.629561,0.000000
74.000000,-11850.358468,-18653.134245,1708.366180,-28279.650602,10498.971999,5179.927371,-20413.311769,-29102.440667,4638.545768,1748.420507,8917.809596,1125.164464,9599.761319,6595.731568,-12210.042740,-4135.117428,0.010500,-0.015500,1.008500,192.000000,0.000000,0.000000,0.000000,0.000000,0.000000,0.000000,0.000000,0.000000,0.000000,1772721494.629573,0.000000
76.000000,-11851.721925,-18657.738704,1701.034808,-28290.312384,10503.062368,5180.396757,-20424.912325,-29110.062612,4647.240597,1761.272760,8935.534529,1138.441400,9627.946869,6608.270896,-12181.633673,-4134.066896,0.010500,-0.015500,1.008500,192.000000,0.000000,0.000000,0.000000,0.000000,0.000000,0.000000,0.000000,0.000000,0.000000,1772721494.629585,0.000000
78.000000,-11832.141797,-18640.259640,1711.875404,-28275.895509,10510.460795,5204.558993,-20416.396310,-29095.891606,4655.868370,1760.021062,8927.420846,1134.149865,9611.361875,6607.153309,-12198.643350,-4105.836642,0.010250,-0.016750,1.006250,192.000000,0.000000,40.000000,127.500000,56.000000,15.500000,48.000000,0.000000,0.000000,0.000000,1772721494.629597,0.000000
80.000000,-11805.520869,-18607.581390,1727.208701,-28247.620552,10514.014723,5222.261575,-20396.503257,-29067.862519,4678.510687,1793.347513,8961.261387,1170.560857,9644.397753,6640.815036,-12186.081670,-4111.625744,0.010250,-0.016750,1.006250,192.000000,0.000000,0.000000,0.000000,0.000000,0.000000,0.000000,0.000000,0.000000,0.000000,1772721494.629608,0.000000
82.000000,-11814.886250,-18619.047835,1704.901660,-28262.819739,10480.174181,5205.833042,-20409.221400,-29074.880967,4684.769176,1799.158966,8960.479076,1176.618180,9637.200491,6644.883054,-12216.435339,-4098.751139,0.010250,-0.016750,1.006250,192.000000,0.000000,0.000000,0.000000,0.000000,0.000000,0.000000,0.000000,0.000000,0.000000,1772721494.629620,0.000000
84.000000,-11786.164258,-18588.560055,1729.980317,-28238.121061,10497.295618,5213.834967,-20378.107772,-29036.011283,4690.915905,1805.663324,8973.219570,1186.743520,9647.594052,6643.407839,-12230.338124,-4107.088340,0.010250,-0.016750,1.006250,192.000000,0.000000,0.000000,0.000000,0.000000,0.000000,0.000000,0.000000,0.000000,0.000000,1772721494.629632,0.000000
86.000000,-11803.598619,-18611.515297,1717.485692,-28264.026733,10472.663995,5179.145059,-20390.021251,-29050.629324,4695.386254,1804.769254,8990.184544,1198.321724,9647.281128,6636.478798,-12226.225403,-4135.251538,0.010250,-0.016750,1.006250,192.000000,0.000000,0.000000,0.000000,0.000000,0.000000,0.000000,0.000000,0.000000,0.000000,1772721494.629644,0.000000
88.000000,-11812.159337,-18621.417120,1718.849149,-28270.575794,10468.148943,5168.371519,-20393.619882,-29060.061760,4678.175411,1782.953952,8965.329405,1172.103127,9621.666029,6612.763597,-12244.933813,-4126.757875,0.013125,-0.018375,1.004125,192.000000,0.000000,64.000000,127.500000,48.000000,15.500000,40.000000,0.000000,0.000000,0.000000,1772721494.629656,0.000000
90.000000,-11808.784224,-18617.393806,1732.282547,-28263.982029,10478.877780,5161.263664,-20385.774420,-29059.324152,4678.465984,1788.586591,8979.858038,1180.060349,9644.889491,6623.827711,-12220.503357,-4156.329233,0.013125,-0.018375,1.004125,192.000000,0.000000,0.000000,0.000000,0.000000,0.000000,0.000000,0.000000,0.000000,0.000000,1772721494.629680,0.000000
92.000000,-11840.948384,-18652.553100,1710.824872,-28294.022774,10447.227710,5126.931384,-20410.651912,-29092.069458,4664.429088,1769.252332,8956.388707,1157.820363,9623.767093,6599.330199,-12234.540252,-4156.888027,0.013125,-0.018375,1.004125,192.000000,0.000000,0.000000,0.000000,0.000000,0.000000,0.000000,0.000000,0.000000,0.000000,1772721494.629692,0.000000
94.000000,-11827.738503,-18636.996286,1733.958928,-28271.961602,10473.312196,5149.506646,-20389.484810,-29073.025772,4655.063707,1765.027853,8951.627785,1148.678499,9620.414331,6590.545963,-12230.405179,-4159.413774,0.013125,-0.018375,1.004125,192.000000,0.000000,0.000000,0.000000,0.000000,0.000000,0.000000,0.000000,0.000000,0.000000,1772721494.629704,0.000000
96.000000,-11846.133989,-18655.950565,1716.725733,-28295.900321,10465.578492,5130.418257,-20410.428394,-29096.003365,4659.288187,1759.909303,8959.003861,1155.071098,9630.539671,6596.424472,-12209.841574,-4168.130954,0.013125,-0.018375,1.004125,192.000000,0.000000,0.000000,0.000000,0.000000,0.000000,0.000000,0.000000,0.000000,0.000000,1772721494.629716,0.000000
98.000000,-11850.984317,-18658.632774,1714.579965,-28298.671937,10472.462830,5147.316175,-20419.458499,-29101.680708,4645.340698,1747.258216,8930.773608,1133.009926,9610.713674,6580.062995,-12218.312886,-4144.795733,0.011562,-0.020188,1.004063,192.000000,0.000000,40.000000,127.500000,40.000000,15.500000,48.000000,0.000000,0.000000,0.000000,1772721494.629728,0.000000
100.000000,-11831.918279,-18636.057512,1724.325326,-28276.454303,10496.267437,5172.819516,-20408.975531,-29083.754609,4656.114239,1764.446707,8951.784247,1155.428726,9637.491064,6601.833594,-12189.479135,-4151.456553,0.011562,-0.020188,1.004063,192.000000,0.000000,0.000000,0.000000,0.000000,0.000000,0.000000,0.000000,0.000000,0.000000,1772721494.629740,0.000000
102.000000,-11836.790959,-18643.590050,1704.342866,-28287.987803,10484.018682,5160.459001,-20421.604266,-29092.203568,4657.500047,1772.068652,8942.575329,1156.434555,9621.978953,6610.796644,-12201.124394,-4129.663602,0.011562,-0.020188,1.004063,192.000000,0.000000,0.000000,0.000000,0.000000,0.000000,0.000000,0.000000,0.000000,0.000000,1772721494.629752,0.000000
104.000000,-11803.419805,-18608.721329,1731.209663,-28250.235707,10512.003066,5199.373388,-20391.027080,-29056.239612,4671.425184,1785.613809,8956.656928,1169.197401,9632.148997,6622.352495,-12202.666664,-4123.271003,0.011562,-0.020188,1.004063,192.000000,0.000000,0.000000,0.000000,0.000000,0.000000,0.000000,0.000000,0.000000,0.000000,1772721494.629764,0.000000
106.000000,-11810.952343,-18619.964256,1720.883157,-28265.077265,10497.854411,5187.459908,-20400.481868,-29068.845996,4687.719606,1799.740112,8977.622864,1189.090453,9658.255834,6645.017164,-12192.921304,-4128.635422,0.011562,-0.020188,1.004063,192.000000,0.000000,0.000000,0.000000,0.000000,0.000000,0.000000,0.000000,0.000000,0.000000,1772721494.629776,0.000000
108.000000,-11805.029131,-18613.705768,1725.308803,-28266.731294,10494.792222,5187.817536,-20398.850191,-29065.537937,4684.456251,1792.095815,8955.807561,1172.505459,9634.317116,6630.466179,-12219.810452,-4117.101922,0.010781,-0.021094,1.001031,192.000000,0.000000,40.000000,127.500000,40.000000,15.500000,24.000000,0.000000,0.000000,0.000000,1772721494.629788,0.000000
110.000000,-11784.890209,-18591.711651,1739.792733,-28251.755625,10507.912696,5201.385045,-20384.857998,-29044.817870,4699.521327,1813.620545,8984.641312,1195.080721,9665.430744,6651.610929,-12204.253638,-4137.062029,0.010781,-0.021094,1.001031,192.000000,0.000000,0.000000,0.000000,0.000000,0.000000,0.000000,0.000000,0.000000,0.000000,1772721494.629800,0.000000
112.000000,-11806.169070,-18617.550268,1717.619803,-28277.258966,10481.001196,5178.273341,-20404.214609,-29066.499062,4698.180222,1805.775083,8980.394480,1181.356750,9658.278186,6646.447676,-12221.240964,-4128.478960,0.010781,-0.021094,1.001031,192.000000,0.000000,0.000000,0.000000,0.000000,0.000000,0.000000,0.000000,0.000000,0.000000,1772721494.629812,0.000000
114.000000,-11792.579209,-18599.490058,1737.490503,-28253.253192,10499.687254,5191.639685,-20384.030984,-29046.538955,4694.179260,1795.403873,8979.254541,1179.903886,9653.025526,6637.417571,-12224.236098,-4127.607242,0.010781,-0.021094,1.001031,192.000000,0.000000,0.000000,0.000000,0.000000,0.000000,0.000000,0.000000,0.000000,0.000000,1772721494.629824,0.000000
116.000000,-11812.136985,-18620.478346,1722.872463,-28273.302707,10476.486144,5164.772888,-20401.755917,-29070.924708,4693.039321,1801.215327,8984.842477,1190.386854,9658.702869,6638.736324,-12211.473252,-4142.091172,0.010781,-0.021094,1.001031,192.000000,0.000000,0.000000,0.000000,0.000000,0.000000,0.000000,0.000000,0.000000,0.000000,1772721494.629836,0.000000
118.000000,-11824.028113,-18633.352951,1723.252442,-28280.499969,10471.725222,5152.501780,-20406.114507,-29084.335754,4674.800298,1777.835402,8952.633614,1163.140078,9627.499834,6607.823862,-12228.326467,-4133.664564,0.010391,-0.021547,1.005516,192.000000,0.000000,40.000000,127.500000,40.000000,15.500000,72.000000,0.000000,0.000000,0.000000,1772721494.629849,0.000000
120.000000,-11821.167090,-18632.771806,1738.541035,-28272.967431,10484.890400,5159.252007,-20396.749127,-29083.106408,4679.270646,1779.712949,8968.682166,1169.733843,9649.918634,6627.225176,-12202.510202,-4154.965777,0.010391,-0.021547,1.005516,192.000000,0.000000,0.000000,0.000000,0.000000,0.000000,0.000000,0.000000,0.000000,0.000000,1772721494.629860,0.000000
122.000000,-11851.051372,-18664.734800,1712.210681,-28308.976091,10453.687364,5124.159768,-20422.967723,-29115.203514,4661.545713,1755.014271,8948.431486,1140.162485,9634.965317,6595.150422,-12215.250697,-4142.940538,0.010391,-0.021547,1.005516,192.000000,0.000000,0.000000,0.000000,0.000000,0.000000,0.000000,0.000000,0.000000,0.000000,1772721494.629874,0.000000
124.000000,-11835.248689,-18643.254774,1731.142608,-28280.321155,10476.083812,5164.571722,-20399.006653,-29092.583548,4651.710946,1750.230998,8938.596718,1137.837903,9618.626191,6588.869582,-12219.765749,-4139.118390,0.010391,-0.021547,1.005516,192.000000,0.000000,0.000000,0.000000,0.000000,0.000000,0.000000,0.000000,0.000000,0.000000,1772721494.629886,0.000000
126.000000,-11839.383762,-18646.696943,1720.123198,-28288.233672,10476.396737,5163.476487,-20412.820031,-29102.641833,4656.538922,1760.155172,8949.258500,1154.400546,9631.098465,6611.221327,-12200.319731,-4143.924015,0.010391,-0.021547,1.005516,192.000000,0.000000,0.000000,0.000000,0.000000,0.000000,0.000000,0.000000,0.000000,0.000000,1772721494.629898,0.000000
128.000000,-11827.492634,-18633.129434,1728.460399,-28278.264794,10490.992426,5181.603751,-20408.886124,-29093.768191,4663.646777,1768.805297,8938.395552,1147.851485,9617.486252,6614.730551,-12211.719121,-4118.264212,0.010391,-0.021547,1.005516,192.000000,0.000000,0.000000,0.000000,0.000000,0.000000,0.000000,0.000000,0.000000,0.000000,1772721494.629910,0.000000
130.000000,-11806.750215,-18609.838916,1741.938501,-28258.774073,10507.666827,5197.138214,-20393.061089,-29069.293030,4682.064615,1793.861603,8968.123373,1177.288732,9651.997346,6640.233891,-12190.172039,-4136.950271,0.010000,-0.020000,1.006000,192.000000,0.000000,40.000000,127.500000,48.000000,15.500000,56.000000,0.000000,0.000000,0.000000,1772721494.629922,0.000000
132.000000,-11818.574288,-18625.865117,1719.184425,-28277.594242,10481.604693,5186.521135,-20409.310807,-29082.458208,4683.361016,1790.397083,8964.189466,1179.121575,9642.989593,6635.316507,-12203.158403,-4128.121332,0.010000,-0.020000,1.006000,192.000000,0.000000,0.000000,0.000000,0.000000,0.000000,0.000000,0.000000,0.000000,0.000000,1772721494.629934,0.000000
134.000000,-11793.428575,-18598.975968,1736.372916,-28247.888773,10502.794147,5206.771816,-20382.712231,-29050.942248,4686.333798,1794.688618,8969.375070,1179.389796,9640.061514,6637.238757,-12211.428548,-4121.907547,0.010000,-0.020000,1.006000,192.000000,0.000000,0.000000,0.000000,0.000000,0.000000,0.000000,0.000000,0.000000,0.000000,1772721494.629946,0.000000
136.000000,-11804.671503,-18611.537649,1720.011439,-28262.797387,10485.538600,5191.304408,-20394.133972,-29063.414522,4692.793452,1803.204632,8984.440146,1195.415997,9655.908901,6644.301909,-12203.784252,-4138.157265,0.010000,-0.020000,1.006000,192.000000,0.000000,0.000000,0.000000,0.000000,0.000000,0.000000,0.000000,0.000000,0.000000,1772721494.629958,0.000000
138.000000,-11810.192384,-18617.796137,1717.552747,-28268.921765,10477.737841,5187.772833,-20399.476039,-29070.298859,4680.544696,1792.319333,8956.679279,1174.092433,9643.369573,6628.633336,-12228.259412,-4117.727771,0.010000,-0.020000,1.006000,192.000000,0.000000,0.000000,0.000000,0.000000,0.000000,0.000000,0.000000,0.000000,0.000000,1772721494.629970,0.000000
140.000000,-11807.666636,-18606.866134,1731.366126,-28252.336771,10486.075042,5195.238315,-20386.959062,-29059.592373,4683.450423,1804.210461,8976.818201,1194.499575,9648.108142,6641.731458,-12211.763824,-4139.632480,0.008000,-0.020000,1.002000,192.000000,0.000000,32.000000,127.500000,48.000000,15.500000,40.000000,0.000000,0.000000,0.000000,1772721494.629982,0.000000
142.000000,-11839.428465,-18645.288783,1704.834605,-28283.964489,10456.838960,5170.427879,-20415.099909,-29096.964490,4663.937350,1787.603115,8955.293471,1170.739671,9625.532880,6631.807283,-12227.119473,-4125.439122,0.008000,-0.020000,1.002000,192.000000,0.000000,0.000000,0.000000,0.000000,0.000000,0.000000,0.000000,0.000000,0.000000,1772721494.630001,0.000000
144.000000,-11834.354619,-18642.338352,1720.167902,-28274.844977,10478.520152,5173.780641,-20401.174772,-29090.773057,4659.131725,1773.365053,8943.514102,1151.830095,9619.430854,6615.334048,-12228.572336,-4122.064009,0.008000,-0.020000,1.002000,192.000000,0.000000,0.000000,0.000000,0.000000,0.000000,0.000000,0.000000,0.000000,0.000000,1772721494.630013,0.000000
146.000000,-11863.948329,-18670.859178,1699.224317,-28299.700117,10454.402620,5153.798181,-20419.279685,-29114.063575,4646.435934,1759.037585,8941.815369,1144.521075,9621.464863,6601.990056,-12213.104929,-4139.721887,0.008000,-0.020000,1.002000,192.000000,0.000000,0.000000,0.000000,0.000000,0.000000,0.000000,0.000000,0.000000,0.000000,1772721494.630025,0.000000
148.000000,-11870.095059,-18675.910673,1696.407997,-28304.461039,10448.010021,5153.060574,-20423.995903,-29117.975130,4622.497216,1735.680012,8911.238183,1123.376325,9584.159802,6579.347739,-12234.160272,-4118.934765,0.008000,-0.020000,1.002000,192.000000,0.000000,0.000000,0.000000,0.000000,0.000000,0.000000,0.000000,0.000000,0.000000,1772721494.630037,0.000000
150.000000,-11839.339058,-18648.596841,1723.833588,-28283.875082,10473.155734,5167.276283,-20402.180600,-29085.900377,4641.518550,1753.807277,8943.692916,1146.711546,9616.234555,6600.626600,-12207.494641,-4144.996899,0.012000,-0.020000,1.000000,192.000000,0.000000,48.000000,127.500000,48.000000,15.500000,32.000000,0.000000,0.000000,0.000000,1772721494.630049,0.000000
152.000000,-11835.606317,-18651.636678,1716.815140,-28297.219073,10458.560045,5157.329757,-20414.317598,-29090.102505,4657.835324,1760.289283,8955.539340,1151.427764,9623.856500,6598.592591,-12215.429511,-4137.017326,0.012000,-0.020000,1.000000,192.000000,0.000000,0.000000,0.000000,0.000000,0.000000,0.000000,0.000000,0.000000,0.000000,1772721494.630061,0.000000
154.000000,-11800.692892,-18611.560000,1746.587663,-28265.099617,10489.696025,5186.051749,-20387.696670,-29056.485481,4676.811955,1779.757652,8968.145724,1161.039014,9632.573680,6613.054170,-12216.703560,-4134.536282,0.012000,-0.020000,1.000000,192.000000,0.000000,0.000000,0.000000,0.000000,0.000000,0.000000,0.000000,0.000000,0.000000,1772721494.630075,0.000000
156.000000,-11805.207945,-18616.052701,1735.501198,-28275.113198,10483.124612,5182.989560,-20398.358452,-29065.135606,4692.547583,1796.834385,8989.558696,1182.273171,9669.811686,6635.338859,-12202.823127,-4149.266082,0.012000,-0.020000,1.000000,192.000000,0.000000,0.000000,0.000000,0.000000,0.000000,0.000000,0.000000,0.000000,0.000000,1772721494.630086,0.000000
158.000000,-11803.956247,-18616.320922,1732.282547,-28274.308535,10479.682443,5184.062443,-20401.152420,-29064.688571,4691.184126,1786.194955,8973.063108,1169.219752,9637.759285,6625.861719,-12226.001886,-4130.580024,0.012000,-0.020000,1.000000,192.000000,0.000000,0.000000,0.000000,0.000000,0.000000,0.000000,0.000000,0.000000,0.000000,1772721494.630099,0.000000
160.000000,-11784.733747,-18591.912817,1747.548788,-28253.454358,10497.206211,5194.187784,-20383.941577,-29042.225068,4704.170490,1807.965554,8998.275876,1194.454872,9663.664957,6645.710068,-12207.539345,-4150.674242,0.012000,-0.014000,0.996000,192.000000,0.000000,48.000000,127.500000,72.000000,15.500000,16.000000,0.000000,0.000000,0.000000,1772721494.630111,0.000000
162.000000,-11806.727863,-18614.666893,1725.733486,-28276.163730,10468.260702,5168.505629,-20404.236961,-29065.113254,4697.934353,1805.238641,8986.764727,1190.096282,9652.578491,6634.422437,-12220.391598,-4137.643175,0.012000,-0.014000,0.996000,192.000000,0.000000,0.000000,0.000000,0.000000,0.000000,0.000000,0.000000,0.000000,0.000000,1772721494.630123,0.000000
164.000000,-11795.395529,-18601.434660,1742.117315,-28256.717712,10483.951626,5178.273341,-20386.199103,-29049.712902,4694.939219,1798.778987,8979.679224,1182.340226,9645.470637,6624.453559,-12226.940659,-4140.168922,0.012000,-0.014000,0.996000,192.000000,0.000000,0.000000,0.000000,0.000000,0.000000,0.000000,0.000000,0.000000,0.000000,1772721494.630136,0.000000
166.000000,-11813.008703,-18621.014788,1721.911338,-28270.955774,10468.439516,5176.306388,-20403.834630,-29071.148225,4691.117071,1798.801339,8984.127222,1188.129328,9652.667898,6638.333993,-12212.546135,-4147.612053,0.012000,-0.014000,0.996000,192.000000,0.000000,0.000000,0.000000,0.000000,0.000000,0.000000,0.000000,0.000000,0.000000,1772721494.630148,0.000000
168.000000,-11835.762779,-18637.890355,1709.416712,-28284.165655,10468.663033,5178.206286,-20417.960932,-29092.427086,4668.608864,1776.449594,8949.571425,1159.317930,9628.393904,6610.841347,-12231.589822,-4118.621840,0.012000,-0.014000,0.996000,192.000000,0.000000,0.000000,0.000000,0.000000,0.000000,0.000000,0.000000,0.000000,0.000000,1772721494.630160,0.000000
170.000000,-11834.779302,-18634.649352,1718.111541,-28274.375591,10492.713510,5188.443385,-20407.723833,-29089.655470,4663.646777,1777.567181,8954.734678,1161.173124,9637.334602,6620.184376,-12203.784252,-4130.378858,0.008000,-0.016000,0.998000,192.000000,0.000000,32.000000,127.500000,64.000000,15.500000,24.000000,0.000000,0.000000,0.000000,1772721494.630172,0.000000
172.000000,-11855.722887,-18660.487969,1691.803538,-28303.902245,10464.863237,5163.498838,-20430.723778,-29113.795354,4652.180332,1758.389385,8934.036962,1141.905921,9621.107235,6604.694617,-12211.763824,-4118.957116,0.008000,-0.016000,0.998000,192.000000,0.000000,0.000000,0.000000,0.000000,0.000000,0.000000,0.000000,0.000000,0.000000,1772721494.630185,0.000000
174.000000,-11827.626744,-18631.430701,1717.798617,-28276.096675,10479.525981,5179.770908,-20404.326368,-29082.435856,4654.281396,1758.970530,8936.696820,1140.453057,9612.568869,6606.214536,-12223.565546,-4123.718038,0.008000,-0.016000,0.998000,192.000000,0.000000,0.000000,0.000000,0.000000,0.000000,0.000000,0.000000,0.000000,0.000000,1772721494.630197,0.000000
176.000000,-11828.990201,-18628.368512,1713.931765,-28282.690440,10458.537693,5163.387080,-20407.746185,-29081.206510,4663.803239,1781.121109,8960.993166,1167.521020,9631.433741,6627.359286,-12220.950391,-4147.343832,0.008000,-0.016000,0.998000,192.000000,0.000000,0.000000,0.000000,0.000000,0.000000,0.000000,0.000000,0.000000,0.000000,1772721494.630208,0.000000
178.000000,-11824.564555,-18625.038102,1723.252442,-28282.779847,10452.390963,5155.876894,-20403.342891,-29076.199719,4662.596245,1775.779042,8950.577253,1164.481183,9615.541651,6614.350571,-12247.660726,-4140.683012,0.008000,-0.016000,0.998000,192.000000,0.000000,0.000000,0.000000,0.000000,0.000000,0.000000,0.000000,0.000000,0.000000,1772721495.109257,0.000000
180.000000,-11803.173936,-18602.552247,1748.487562,-28260.003419,10474.899170,5176.887533,-20380.566464,-29053.244478,4680.365882,1791.738187,8978.516934,1185.290657,9644.062477,6633.461312,-12226.001886,-4160.598416,0.012000,-0.016000,1.000000,192.000000,0.000000,48.000000,127.500000,64.000000,15.500000,32.000000,0.000000,0.000000,0.000000,1772721495.109374,0.000000
182.000000,-11814.752139,-18620.344236,1728.683916,-28281.818722,10460.214074,5165.041109,-20400.124240,-29074.433932,4689.261876,1788.318370,8975.879428,1180.842660,9646.744686,6631.583766,-12230.338124,-4149.243730,0.012000,-0.016000,1.000000,192.000000,0.000000,0.000000,0.000000,0.000000,0.000000,0.000000,0.000000,0.000000,0.000000,1772721495.109471,0.000000
184.000000,-11799.865878,-18599.445355,1744.754820,-28252.694398,10486.097394,5195.461833,-20381.393478,-29055.457301,4686.445556,1791.112338,8972.437259,1176.819346,9649.024564,6636.948185,-12230.762807,-4139.319556,0.012000,-0.016000,1.000000,192.000000,0.000000,0.000000,0.000000,0.000000,0.000000,0.000000,0.000000,0.000000,0.000000,1772721495.109548,0.000000
186.000000,-11819.155433,-18622.132375,1722.626593,-28268.340620,10468.126591,5183.526001,-20400.504220,-29073.249289,4686.691426,1795.895612,8983.121393,1189.224564,9654.009003,6650.381583,-12215.496566,-4145.980376,0.012000,-0.016000,1.000000,192.000000,0.000000,0.000000,0.000000,0.000000,0.000000,0.000000,0.000000,0.000000,0.000000,1772721495.109629,0.000000
188.000000,-11828.096131,-18634.001152,1713.551785,-28278.220091,10465.198513,5176.954589,-20411.076595,-29084.380458,4671.246370,1771.040472,8954.064125,1159.675558,9619.497909,6624.744132,-12239.100008,-4122.600451,0.012000,-0.016000,1.000000,192.000000,0.000000,0.000000,0.000000,0.000000,0.000000,0.000000,0.000000,0.000000,0.000000,1772721495.109685,0.000000
190.000000,-11825.391570,-18627.273277,1721.576061,-28263.602050,10483.795164,5197.160566,-20401.219475,-29081.094751,4673.168620,1782.931600,8966.245826,1170.918485,9643.101352,6637.976365,-12214.222516,-4135.296242,0.012000,-0.018000,1.006000,192.000000,0.000000,48.000000,127.500000,56.000000,15.500000,56.000000,0.000000,0.000000,0.000000,1772721495.109711,0.000000
192.000000,-11861.333175,-18664.734800,1691.155337,-28298.314309,10464.282091,5174.652359,-20431.819014,-29121.998444,4654.639024,1766.190143,8936.473302,1151.897151,9622.224822,6619.513824,-12213.417854,-4115.313782,0.012000,-0.018000,1.006000,192.000000,0.000000,0.000000,0.000000,0.000000,0.000000,0.000000,0.000000,0.000000,0.000000,1772721495.109736,0.000000
194.000000,-11844.815236,-18646.518129,1710.199024,-28280.119989,10507.286848,5194.903039,-20415.949275,-29106.285167,4643.731373,1755.930693,8920.000067,1130.551235,9615.496947,6609.008504,-12205.304170,-4104.249669,0.012000,-0.018000,1.006000,192.000000,0.000000,0.000000,0.000000,0.000000,0.000000,0.000000,0.000000,0.000000,0.000000,1772721495.109762,0.000000
196.000000,-11837.997954,-18642.539518,1701.414788,-28286.020849,10518.038037,5191.192650,-20426.968685,-29105.547560,4657.097716,1768.626484,8940.943651,1151.584226,9638.988631,6631.024972,-12182.438336,-4111.670448,0.012000,-0.018000,1.006000,192.000000,0.000000,0.000000,0.000000,0.000000,0.000000,0.000000,0.000000,0.000000,0.000000,1772721495.109788,0.000000
198.000000,-11824.139872,-18624.501660,1710.802521,-28279.695306,10517.792167,5192.153775,-20421.514859,-29090.795409,4663.736184,1778.774175,8934.551052,1151.226598,9633.266584,6630.376772,-12205.751205,-4095.711302,0.012000,-0.018000,1.006000,192.000000,0.000000,0.000000,0.000000,0.000000,0.000000,0.000000,0.000000,0.000000,0.000000,1772721495.109813,0.000000
200.000000,-11792.221581,-18587.643634,1737.669317,-28251.979143,10511.578382,5197.115862,-20392.077612,-29055.099673,4690.468870,1810.491301,8975.655910,1190.006875,9670.795163,6658.763487,-12197.682225,-4126.623765,0.015000,-0.016000,1.006000,192.000000,0.000000,72.000000,127.500000,72.000000,15.500000,56.000000,0.000000,0.000000,0.000000,1772721495.109839,0.000000
202.000000,-11811.041750,-18612.699939,1720.145550,-28277.460131,10460.772867,5161.464830,-20407.679130,-29072.489330,4693.531059,1809.172548,8977.287588,1190.319799,9655.215997,6653.175551,-12229.309944,-4137.978451,0.015000,-0.016000,1.006000,192.000000,0.000000,0.000000,0.000000,0.000000,0.000000,0.000000,0.000000,0.000000,0.000000,1772721495.109864,0.000000
204.000000,-11802.033997,-18602.909875,1743.905454,-28258.908183,10464.147981,5158.134420,-20381.885216,-29053.579754,4687.473737,1799.494243,8973.778364,1181.356750,9640.530901,6639.093952,-12243.525653,-4153.848190,0.015000,-0.016000,1.006000,192.000000,0.000000,0.000000,0.000000,0.000000,0.000000,0.000000,0.000000,0.000000,0.000000,1772721495.109889,0.000000
206.000000,-11821.010628,-18621.260657,1731.544939,-28274.576756,10445.439571,5140.923576,-20392.144667,-29069.181272,4681.841097,1797.639048,8979.902742,1190.610372,9648.979860,6638.870435,-12228.214708,-4178.099832,0.015000,-0.016000,1.006000,192.000000,0.000000,0.000000,0.000000,0.000000,0.000000,0.000000,0.000000,0.000000,0.000000,1772721495.109914,0.000000
208.000000,-11829.057256,-18631.520108,1726.202873,-28281.729315,10443.182044,5142.532902,-20400.124240,-29079.083094,4666.418393,1778.930638,8953.795904,1165.017624,9621.062532,6619.379713,-12249.001831,-4156.530399,0.015000,-0.016000,1.006000,192.000000,0.000000,0.000000,0.000000,0.000000,0.000000,0.000000,0.000000,0.000000,0.000000,1772721495.109940,0.000000
210.000000,-11823.916355,-18625.887469,1738.228111,-28269.234689,10466.718431,5172.573647,-20392.435240,-29073.383400,4671.425184,1780.986998,8969.687995,1173.243066,9639.212148,6630.577937,-12228.013543,-4163.750012,0.014500,-0.016000,1.004000,192.000000,0.000000,56.000000,127.500000,64.000000,15.500000,40.000000,0.000000,0.000000,0.000000,1772721495.109965,0.000000
212.000000,-11850.336117,-18653.491873,1710.199024,-28296.012079,10452.703888,5159.631987,-20422.028950,-29108.073307,4657.902379,1768.626484,8949.951404,1155.384023,9623.968258,6622.821882,-12232.707409,-4144.080477,0.014500,-0.016000,1.004000,192.000000,0.000000,0.000000,0.000000,0.000000,0.000000,0.000000,0.000000,0.000000,0.000000,1772721495.109990,0.000000
214.000000,-11831.739465,-18629.754320,1725.375858,-28269.145282,10479.503629,5182.028435,-20405.890990,-29086.727391,4653.499085,1765.273722,8938.283794,1150.064307,9623.297706,6618.910327,-12228.974668,-4127.450779,0.014500,-0.016000,1.004000,192.000000,0.000000,0.000000,0.000000,0.000000,0.000000,0.000000,0.000000,0.000000,0.000000,1772721495.110016,0.000000
216.000000,-11845.105808,-18641.958373,1707.762683,-28276.007268,10471.635815,5186.968170,-20420.576086,-29098.126781,4660.852809,1775.957856,8952.968890,1167.163392,9641.872006,6635.182397,-12206.354702,-4129.998878,0.014500,-0.016000,1.004000,192.000000,0.000000,0.000000,0.000000,0.000000,0.000000,0.000000,0.000000,0.000000,0.000000,1772721495.110041,0.000000
218.000000,-11851.520759,-18652.866024,1698.911393,-28282.913957,10477.313158,5194.053673,-20429.874412,-29109.123839,4654.728431,1760.445745,8926.303259,1141.213017,9615.362837,6624.140635,-12217.977609,-4095.644247,0.014500,-0.016000,1.004000,192.000000,0.000000,0.000000,0.000000,0.000000,0.000000,0.000000,0.000000,0.000000,0.000000,1772721495.110066,0.000000
220.000000,-11831.225375,-18627.943829,1718.670335,-28263.132663,10522.933069,5216.114845,-20415.010502,-29092.672955,4667.088946,1778.997693,8946.263366,1156.859238,9640.732067,6644.659536,-12185.031138,-4094.973695,0.012250,-0.014000,1.003000,192.000000,0.000000,40.000000,127.500000,80.000000,15.500000,40.000000,0.000000,0.000000,0.000000,1772721495.110094,0.000000
222.000000,-11843.652945,-18637.800948,1696.475052,-28278.980050,10521.793130,5214.147891,-20434.724740,-29110.017909,4669.502934,1781.366978,8936.450951,1156.255741,9641.313212,6645.352441,-12183.108888,-4075.326511,0.012250,-0.014000,1.003000,192.000000,0.000000,0.000000,0.000000,0.000000,0.000000,0.000000,0.000000,0.000000,0.000000,1772721495.110119,0.000000
224.000000,-11802.749253,-18596.025538,1729.399172,-28245.340675,10557.511217,5240.433543,-20402.292359,-29067.817815,4681.125841,1801.304734,8945.369297,1168.504497,9649.248081,6662.607987,-12189.412080,-4063.122459,0.012250,-0.014000,1.003000,192.000000,0.000000,0.000000,0.000000,0.000000,0.000000,0.000000,0.000000,0.000000,0.000000,1772721495.110144,0.000000
226.000000,-11794.814383,-18595.712614,1729.466227,-28253.141433,10535.204176,5214.103188,-20398.425507,-29059.882946,4706.405664,1823.947051,8983.769594,1195.997142,9682.328663,6686.412595,-12180.069051,-4090.749215,0.012250,-0.014000,1.003000,192.000000,0.000000,0.000000,0.000000,0.000000,0.000000,0.000000,0.000000,0.000000,0.000000,1772721495.110169,0.000000
228.000000,-11797.630703,-18599.445355,1728.370992,-28264.540823,10505.856336,5180.374405,-20396.570313,-29059.726484,4702.136481,1812.055923,8971.565541,1185.111843,9660.915692,6665.133734,-12216.323580,-4102.550936,0.012250,-0.014000,1.003000,192.000000,0.000000,0.000000,0.000000,0.000000,0.000000,0.000000,0.000000,0.000000,0.000000,1772721495.110195,0.000000
230.000000,-11784.510229,-18579.932282,1749.091059,-28249.028712,10505.811632,5176.306388,-20377.303109,-29039.542859,4712.798263,1823.790589,8995.683073,1206.390703,9683.692120,6668.732365,-12207.673455,-4151.724774,0.012125,-0.012000,1.003500,192.000000,0.000000,48.000000,127.500000,88.000000,15.500000,48.000000,0.000000,0.000000,0.000000,1772721495.110220,0.000000
