Sample_index,EXG Channel 0,EXG Channel 1,EXG Channel 2,EXG Channel 3,EXG Channel 4,EXG Channel 5,EXG Channel 6,EXG Channel 7,EXG Channel 8,EXG Channel 9,EXG Channel 10,EXG Channel 11,EXG Channel 12,EXG Channel 13,EXG Channel 14,EXG Channel 15,Accel Channel 0,Accel Channel 1,Accel Channel 2,Not Used,Digital Channel 0 (D11),Digital Channel 1 (D12),Digital Channel 2 (D13),Digital Channel 3 (D17),Not Used,Digital Channel 4 (D18),Analog Channel 0,Analog Channel 1,Analog Channel 2,Timestamp,Marker Channel
210.000000,-8068.778583,-16376.765534,150.270778,-25594.177913,7936.188035,4726.254013,-16607.882572,-27305.762745,9618.648543,2827.696839,9486.348568,6247.111410,12198.486888,8662.038584,-14217.385854,-5635.701792,0.004000,-0.014000,1.008000,192.000000,0.000000,0.000000,0.000000,0.000000,0.000000,0.000000,0.000000,0.000000,0.000000,1772720791.355788,101.000000
212.000000,-8067.795106,-16375.826761,144.191103,-25595.429611,7936.568014,4736.401705,-16614.655151,-27307.126201,9631.031410,2842.538398,9510.622562,6268.882009,12207.718159,8689.240657,-14186.316930,-5616.814568,0.004000,-0.014000,1.008000,192.000000,0.000000,0.000000,0.000000,0.000000,0.000000,0.000000,0.000000,0.000000,0.000000,1772720791.355865,0.000000
214.000000,-8065.872856,-16375.335023,134.289281,-25598.156523,7936.635069,4738.458066,-16623.081758,-27310.478963,9621.531918,2833.418886,9490.081309,6249.637157,12189.680301,8673.035642,-14207.461680,-5625.621155,0.004000,-0.014000,1.008000,192.000000,0.000000,0.000000,0.000000,0.000000,0.000000,0.000000,0.000000,0.000000,0.000000,1772720791.355911,0.000000
216.000000,-8034.781579,-16344.511967,163.704176,-25573.860177,7975.728270,4771.404537,-16597.153735,-27279.007707,9646.185892,2859.525723,9515.294077,6278.426204,12224.079636,8712.844099,-14183.142982,-5615.317001,0.006000,-0.014000,1.006000,192.000000,0.000000,24.000000,127.500000,72.000000,15.500000,56.000000,0.000000,0.000000,0.000000,1772720791.355953,0.000000
218.000000,-8046.583300,-16356.716020,139.407830,-25594.759058,7945.240491,4732.668964,-16620.533660,-27293.201064,9653.405506,2867.550000,9517.126920,6283.835326,12227.052418,8711.324181,-14192.910694,-5629.152731,0.006000,-0.014000,1.006000,192.000000,0.000000,0.000000,0.000000,0.000000,0.000000,0.000000,0.000000,0.000000,0.000000,1772720791.356000,0.000000
220.000000,-8028.679553,-16340.913336,162.675996,-25578.598747,7954.225892,4734.099476,-16596.706700,-27268.792959,9656.870026,2863.414927,9515.852870,6281.019006,12211.003865,8692.861640,-14208.378101,-5647.771734,0.006000,-0.014000,1.006000,192.000000,0.000000,0.000000,0.000000,0.000000,0.000000,0.000000,0.000000,0.000000,0.000000,1772720791.356054,0.000000
222.000000,-8035.295669,-16345.495444,157.088060,-25586.958300,7937.596194,4699.700141,-16597.801935,-27274.202081,9663.329680,2872.847363,9537.802284,6298.654532,12226.404217,8708.999599,-14193.938874,-5652.487952,0.006000,-0.014000,1.006000,192.000000,0.000000,0.000000,0.000000,0.000000,0.000000,0.000000,0.000000,0.000000,0.000000,1772720791.356096,0.000000
224.000000,-8048.058516,-16357.230110,144.548731,-25599.296462,7920.407703,4687.630199,-16608.195497,-27289.937710,9647.348183,2856.463534,9512.187184,6276.302788,12201.772595,8675.583741,-14225.477186,-5676.024339,0.006000,-0.014000,1.006000,192.000000,0.000000,0.000000,0.000000,0.000000,0.000000,0.000000,0.000000,0.000000,0.000000,1772720791.356111,0.000000
226.000000,-8040.213053,-16347.797674,164.195915,-25579.895148,7942.647689,4726.008144,-16592.325758,-27285.892044,9648.733991,2865.136011,9518.423321,6284.774099,12219.676342,8696.214401,-14210.322703,-5653.516132,0.008000,-0.016000,0.998000,192.000000,0.000000,32.000000,127.500000,64.000000,15.500000,24.000000,0.000000,0.000000,0.000000,1772720791.356130,0.000000
228.000000,-8067.124554,-16377.592549,133.574025,-25603.096259,7903.263915,4692.100548,-16619.013741,-27314.234056,9640.150921,2851.747316,9504.565239,6267.943235,12208.433415,8686.804317,-14220.872727,-5647.682327,0.008000,-0.016000,0.998000,192.000000,0.000000,0.000000,0.000000,0.000000,0.000000,0.000000,0.000000,0.000000,0.000000,1772720791.356145,0.000000
230.000000,-8053.445286,-16360.314651,146.158057,-25585.483084,7928.253165,4712.351228,-16606.742633,-27299.236035,9627.857462,2836.302261,9489.477812,6254.912168,12191.580199,8664.541979,-14232.562689,-5647.861141,0.008000,-0.016000,0.998000,192.000000,0.000000,0.000000,0.000000,0.000000,0.000000,0.000000,0.000000,0.000000,0.000000,1772720791.356160,0.000000
232.000000,-8056.216902,-16360.359354,135.362164,-25585.885416,7928.633145,4714.720513,-16613.962247,-27302.633500,9636.842863,2854.474229,9506.085158,6278.470907,12208.120490,8693.576895,-14210.568572,-5628.303364,0.008000,-0.016000,0.998000,192.000000,0.000000,0.000000,0.000000,0.000000,0.000000,0.000000,0.000000,0.000000,0.000000,1772720791.356189,0.000000
234.000000,-8061.760135,-16366.059049,128.991917,-25588.522922,7926.062694,4720.397856,-16618.924334,-27307.439125,9627.879814,2843.633633,9487.689672,6263.182314,12185.925208,8675.516686,-14226.326552,-5632.796065,0.008000,-0.016000,0.998000,192.000000,0.000000,0.000000,0.000000,0.000000,0.000000,0.000000,0.000000,0.000000,0.000000,1772720791.356202,0.000000
236.000000,-8044.929271,-16350.368124,158.339758,-25571.446189,7953.555340,4756.294758,-16596.617293,-27289.378916,9641.112046,2857.536418,9507.538022,6280.750785,12207.785214,8705.110396,-14202.901924,-5610.153748,0.012000,-0.012000,1.000000,192.000000,0.000000,48.000000,127.500000,80.000000,15.500000,32.000000,0.000000,0.000000,0.000000,1772720791.356213,0.000000
238.000000,-8066.096373,-16373.412773,138.513760,-25596.658957,7929.638973,4740.514426,-16621.293619,-27311.931826,9638.385134,2852.753145,9502.195955,6274.045262,12206.265295,8702.785814,-14204.153622,-5606.085730,0.012000,-0.012000,1.000000,192.000000,0.000000,0.000000,0.000000,0.000000,0.000000,0.000000,0.000000,0.000000,0.000000,1772720791.356224,0.000000
240.000000,-8049.824303,-16356.671316,164.464136,-25583.091448,7959.299738,4748.605758,-16600.528848,-27287.926053,9636.529939,2845.175903,9496.004521,6264.054032,12200.945580,8684.815012,-14205.897058,-5615.473463,0.012000,-0.012000,1.000000,192.000000,0.000000,0.000000,0.000000,0.000000,0.000000,0.000000,0.000000,0.000000,0.000000,1772720791.356234,0.000000
242.000000,-8041.308289,-16350.993973,158.697386,-25591.853332,7953.108305,4726.365772,-16606.362654,-27282.494579,9658.009965,2861.067994,9531.141464,6288.104509,12233.400313,8704.641009,-14183.053575,-5619.206204,0.012000,-0.012000,1.000000,192.000000,0.000000,0.000000,0.000000,0.000000,0.000000,0.000000,0.000000,0.000000,0.000000,1772720791.356245,0.000000
244.000000,-8045.376306,-16357.341869,141.374784,-25601.956320,7943.027668,4707.255031,-16616.353883,-27289.870654,9653.830189,2851.188523,9516.434016,6270.871314,12212.300266,8676.477811,-14212.915506,-5649.202245,0.012000,-0.012000,1.000000,192.000000,0.000000,0.000000,0.000000,0.000000,0.000000,0.000000,0.000000,0.000000,0.000000,1772720791.356255,0.000000
246.000000,-8037.150864,-16346.411866,158.630330,-25579.202244,7966.161724,4732.847778,-16590.716432,-27271.206948,9657.987613,2862.990244,9529.018048,6291.680788,12228.080598,8695.767366,-14202.544296,-5642.206149,0.006000,-0.014000,1.002000,192.000000,0.000000,24.000000,127.500000,72.000000,15.500000,40.000000,0.000000,0.000000,0.000000,1772720791.356266,0.000000
248.000000,-8071.639606,-16382.845209,128.947214,-25604.415012,7927.672020,4683.740995,-16614.364578,-27300.711250,9643.190759,2853.267235,9514.601173,6283.656512,12211.160327,8682.892762,-14217.028226,-5650.789219,0.006000,-0.014000,1.002000,192.000000,0.000000,0.000000,0.000000,0.000000,0.000000,0.000000,0.000000,0.000000,0.000000,1772720791.356276,0.000000
250.000000,-8054.831094,-16368.137761,151.522476,-25585.952471,7939.205520,4712.083007,-16596.661996,-27281.578157,9631.813721,2836.414020,9498.306751,6264.009328,12195.737624,8662.776192,-14232.182709,-5663.417955,0.006000,-0.014000,1.002000,192.000000,0.000000,0.000000,0.000000,0.000000,0.000000,0.000000,0.000000,0.000000,0.000000,1772720791.356287,0.000000
252.000000,-8042.559986,-16359.621746,150.382537,-25584.119628,7933.997564,4707.523251,-16600.841773,-27279.052410,9662.145038,2858.296377,9532.281403,6293.401872,12231.075732,8695.543849,-14213.116671,-5647.682327,0.006000,-0.014000,1.002000,192.000000,0.000000,0.000000,0.000000,0.000000,0.000000,0.000000,0.000000,0.000000,0.000000,1772720791.356297,0.000000
254.000000,-8066.677519,-16380.252407,132.791714,-25597.128343,7917.993715,4701.264763,-16613.828136,-27298.654890,9642.654317,2839.386802,9504.475833,6267.227980,12206.131185,8663.111468,-14238.754122,-5660.691042,0.006000,-0.014000,1.002000,192.000000,0.000000,0.000000,0.000000,0.000000,0.000000,0.000000,0.000000,0.000000,0.000000,1772720791.356315,0.000000
0.000000,-8057.513303,-16366.304918,152.058918,-25581.660936,7942.804151,4728.913871,-16595.767927,-27286.763762,9639.435666,2847.142857,9510.779024,6274.581703,12212.456729,8681.261084,-14221.140947,-5647.391754,0.010000,-0.014000,1.006000,192.000000,0.000000,40.000000,127.500000,72.000000,15.500000,56.000000,0.000000,0.000000,0.000000,1772720791.356332,0.000000
2.000000,-8081.474374,-16388.924883,121.571138,-25596.703660,7917.837252,4717.179205,-16618.365540,-27311.350681,9629.891471,2844.661813,9501.681864,6269.083174,12205.482984,8678.556523,-14219.017532,-5635.970013,0.010000,-0.014000,1.006000,192.000000,0.000000,0.000000,0.000000,0.000000,0.000000,0.000000,0.000000,0.000000,0.000000,1772720791.356343,0.000000
4.000000,-8072.421917,-16372.965738,139.586644,-25577.682326,7940.591328,4740.894406,-16600.439441,-27295.190370,9611.317171,2838.492732,9488.092004,6259.896607,12184.941731,8667.514761,-14223.487881,-5632.907824,0.010000,-0.014000,1.006000,192.000000,0.000000,0.000000,0.000000,0.000000,0.000000,0.000000,0.000000,0.000000,0.000000,1772720791.356354,0.000000
6.000000,-8075.797030,-16374.686822,136.300938,-25583.359669,7950.403744,4739.173322,-16606.094433,-27300.867713,9615.429892,2862.945540,9504.274667,6282.404814,12204.030121,8695.320331,-14194.676482,-5613.148882,0.010000,-0.014000,1.006000,192.000000,0.000000,0.000000,0.000000,0.000000,0.000000,0.000000,0.000000,0.000000,0.000000,1772720791.356366,0.000000
8.000000,-8095.399510,-16388.991939,127.650813,-25592.970919,7942.379468,4742.928415,-16619.058444,-27316.379823,9595.380377,2842.828970,9475.910303,6256.789715,12180.203161,8665.391346,-14213.496651,-5619.250908,0.010000,-0.014000,1.006000,192.000000,0.000000,0.000000,0.000000,0.000000,0.000000,0.000000,0.000000,0.000000,0.000000,1772720791.356381,0.000000
10.000000,-8072.936007,-16366.081401,155.478734,-25570.529767,7974.633035,4785.150860,-16598.450136,-27290.965890,9607.003284,2864.018424,9497.010350,6275.989863,12204.186583,8697.779023,-14195.078813,-5598.575544,0.010000,-0.012000,1.008000,192.000000,0.000000,40.000000,127.500000,80.000000,15.500000,64.000000,0.000000,0.000000,0.000000,1772720791.356396,0.000000
12.000000,-8078.278074,-16377.369032,132.836417,-25590.936910,7947.967404,4759.580464,-16621.003046,-27304.622806,9620.883718,2862.409098,9505.436958,6279.320273,12210.400368,8700.282419,-14201.516116,-5599.402559,0.010000,-0.012000,1.008000,192.000000,0.000000,0.000000,0.000000,0.000000,0.000000,0.000000,0.000000,0.000000,0.000000,1772720791.356413,0.000000
14.000000,-8063.034184,-16361.566348,153.690595,-25579.470465,7967.815753,4763.357909,-16603.792203,-27287.881349,9620.995476,2860.509200,9498.284399,6272.838267,12205.415929,8689.508878,-14214.480128,-5616.233422,0.010000,-0.012000,1.008000,192.000000,0.000000,0.000000,0.000000,0.000000,0.000000,0.000000,0.000000,0.000000,0.000000,1772720791.356425,0.000000
16.000000,-8080.736766,-16373.971566,143.721717,-25590.556930,7947.118038,4732.713667,-16606.630874,-27296.553826,9629.690305,2875.216648,9515.741112,6290.764366,12223.744359,8708.619619,-14196.196401,-5616.635754,0.010000,-0.012000,1.008000,192.000000,0.000000,0.000000,0.000000,0.000000,0.000000,0.000000,0.000000,0.000000,0.000000,1772720791.356436,0.000000
18.000000,-8096.986484,-16391.338872,127.583757,-25604.996157,7917.323162,4698.850775,-16618.790223,-27310.903646,9595.782709,2844.862979,9486.572085,6257.393212,12183.645330,8671.739241,-14231.601564,-5651.102144,0.010000,-0.012000,1.008000,192.000000,0.000000,0.000000,0.000000,0.000000,0.000000,0.000000,0.000000,0.000000,0.000000,1772720791.356447,0.000000
20.000000,-8070.074984,-16367.176636,155.456383,-25578.643451,7937.327974,4723.392990,-16592.638682,-27284.729753,9610.020770,2863.124354,9508.409740,6272.592398,12203.203106,8690.313541,-14223.398474,-5650.722164,0.008000,-0.014000,1.007000,192.000000,0.000000,24.000000,127.500000,64.000000,15.500000,56.000000,0.000000,0.000000,0.000000,1772720791.356458,0.000000
22.000000,-8084.983597,-16383.605168,132.434086,-25596.234273,7915.423264,4703.634048,-16616.733863,-27303.773439,9612.725331,2861.179752,9504.676998,6277.375672,12207.762862,8688.346587,-14226.930049,-5654.767830,0.008000,-0.014000,1.007000,192.000000,0.000000,0.000000,0.000000,0.000000,0.000000,0.000000,0.000000,0.000000,0.000000,1772720791.356468,0.000000
24.000000,-8072.444269,-16371.289357,153.847057,-25576.028296,7939.004354,4731.372563,-16599.031281,-27281.332288,9612.211241,2860.129221,9497.993827,6276.302788,12192.943656,8680.344663,-14231.288639,-5660.422821,0.008000,-0.014000,1.007000,192.000000,0.000000,0.000000,0.000000,0.000000,0.000000,0.000000,0.000000,0.000000,0.000000,1772720791.356479,0.000000
26.000000,-8069.851466,-16371.378764,147.722679,-25576.050648,7931.270651,4726.790455,-16603.836906,-27286.920224,9626.851633,2876.669511,9527.185205,6297.916925,12220.168080,8704.998637,-14208.422805,-5645.089524,0.008000,-0.014000,1.007000,192.000000,0.000000,0.000000,0.000000,0.000000,0.000000,0.000000,0.000000,0.000000,0.000000,1772720791.356489,0.000000
28.000000,-8091.577362,-16398.022043,127.673164,-25587.248872,7914.350380,4723.080066,-16618.611409,-27306.768573,9610.534860,2849.556845,9497.502088,6267.138573,12187.445126,8669.414660,-14231.243936,-5649.649280,0.008000,-0.014000,1.007000,192.000000,0.000000,0.000000,0.000000,0.000000,0.000000,0.000000,0.000000,0.000000,0.000000,1772720791.356499,0.000000
30.000000,-8076.981673,-16385.169790,152.997691,-25570.038029,7951.029593,4755.892426,-16596.907866,-27288.618957,9619.721427,2861.492677,9507.895649,6279.700253,12204.253638,8690.849983,-14210.367407,-5634.383039,0.010000,-0.015000,1.005500,192.000000,0.000000,48.000000,127.500000,64.000000,15.500000,48.000000,0.000000,0.000000,0.000000,1772720791.356509,0.000000
32.000000,-8098.148775,-16410.471965,127.695516,-25597.620082,7929.482511,4739.754467,-16624.288753,-27313.004710,9617.955639,2848.841590,9499.670207,6273.978206,12204.834784,8686.312578,-14208.735729,-5622.223690,0.010000,-0.015000,1.005500,192.000000,0.000000,0.000000,0.000000,0.000000,0.000000,0.000000,0.000000,0.000000,0.000000,1772720791.356520,0.000000
34.000000,-8093.790185,-16401.263046,145.331042,-25583.046744,7958.875055,4765.570732,-16608.664883,-27297.671413,9612.993552,2837.978642,9488.963722,6261.103602,12197.078728,8671.873352,-14216.335322,-5624.615326,0.010000,-0.015000,1.005500,192.000000,0.000000,0.000000,0.000000,0.000000,0.000000,0.000000,0.000000,0.000000,0.000000,1772720791.356530,0.000000
36.000000,-8105.413092,-16407.879163,136.658566,-25581.705640,7957.936282,4777.551267,-16614.856316,-27304.868675,9601.437700,2859.726889,9503.559411,6280.370805,12214.691903,8705.713893,-14193.715357,-5599.201393,0.010000,-0.015000,1.005500,192.000000,0.000000,0.000000,0.000000,0.000000,0.000000,0.000000,0.000000,0.000000,0.000000,1772720791.356540,0.000000
38.000000,-8119.226470,-16428.688637,124.409810,-25592.412125,7951.320166,4769.191714,-16628.200308,-27322.101870,9591.781746,2842.918377,9478.614864,6258.421392,12189.166211,8685.194991,-14213.898982,-5604.386998,0.010000,-0.015000,1.005500,192.000000,0.000000,0.000000,0.000000,0.000000,0.000000,0.000000,0.000000,0.000000,0.000000,1772720791.356550,0.000000
40.000000,-8106.776548,-16422.273686,152.684766,-25574.798951,7980.444489,4798.628962,-16606.362654,-27306.902684,9605.639828,2844.125371,9491.489469,6267.853828,12213.328447,8704.372788,-14194.698834,-5594.261658,0.007000,-0.015500,1.004750,192.000000,0.000000,16.000000,127.500000,64.000000,15.500000,48.000000,0.000000,0.000000,0.000000,1772720791.356560,0.000000
42.000000,-8123.585060,-16447.598213,129.796580,-25596.949529,7949.375564,4754.730136,-16626.099244,-27325.812259,9617.329790,2831.228415,9491.578876,6256.633253,12214.714255,8693.956875,-14203.125441,-5598.329675,0.007000,-0.015500,1.004750,192.000000,0.000000,0.000000,0.000000,0.000000,0.000000,0.000000,0.000000,0.000000,0.000000,1772720791.356570,0.000000
44.000000,-8121.551051,-16439.037495,146.806258,-25578.799913,7958.875055,4749.700993,-16605.736805,-27304.578102,9601.616514,2824.768761,9483.644007,6252.006442,12199.559772,8678.914151,-14221.587982,-5620.971992,0.007000,-0.015500,1.004750,192.000000,0.000000,0.000000,0.000000,0.000000,0.000000,0.000000,0.000000,0.000000,0.000000,1772720791.356580,0.000000
46.000000,-8127.630726,-16446.346515,140.637176,-25583.694945,7943.139427,4730.947880,-16605.915619,-27305.807448,9604.343427,2841.331403,9502.911210,6273.173544,12218.536403,8704.618657,-14207.707549,-5627.789274,0.007000,-0.015500,1.004750,192.000000,0.000000,0.000000,0.000000,0.000000,0.000000,0.000000,0.000000,0.000000,0.000000,1772720791.356591,0.000000
48.000000,-8153.737563,-16475.292024,127.650813,-25598.245930,7922.441712,4704.505766,-16612.487032,-27315.396346,9590.597104,2818.823197,9480.313597,6254.711003,12191.379033,8673.594436,-14237.725942,-5654.723126,0.007000,-0.015500,1.004750,192.000000,0.000000,0.000000,0.000000,0.000000,0.000000,0.000000,0.000000,0.000000,0.000000,1772720791.356601,0.000000
50.000000,-8136.325554,-16464.607890,157.423336,-25582.934986,7952.057773,4724.264708,-16588.615368,-27292.798733,9595.514488,2817.817368,9495.445728,6262.981148,12214.043702,8682.557485,-14219.598677,-5656.332452,0.007500,-0.015750,1.003375,192.000000,0.000000,32.000000,127.500000,64.000000,15.500000,40.000000,0.000000,0.000000,0.000000,1772720791.356611,0.000000
52.000000,-8161.493619,-16495.922684,132.411734,-25605.644358,7930.510691,4708.104397,-16613.872840,-27315.485753,9599.135470,2804.629839,9495.624542,6255.381555,12205.147708,8675.851962,-14221.766796,-5657.226522,0.007500,-0.015750,1.003375,192.000000,0.000000,0.000000,0.000000,0.000000,0.000000,0.000000,0.000000,0.000000,0.000000,1772720791.356622,0.000000
54.000000,-8152.731735,-16486.602007,144.682842,-25590.467523,7953.421230,4734.792380,-16606.049729,-27309.562541,9589.658331,2791.732882,9477.899608,6239.668279,12201.951409,8663.536151,-14229.612259,-5653.985519,0.007500,-0.015750,1.003375,192.000000,0.000000,0.000000,0.000000,0.000000,0.000000,0.000000,0.000000,0.000000,0.000000,1772720791.356632,0.000000
56.000000,-8153.961081,-16489.015995,142.045336,-25586.645375,7960.238512,4741.363793,-16608.821345,-27310.389556,9599.984837,2809.904851,9494.976341,6258.667261,12219.162252,8696.482622,-14203.147793,-5621.910765,0.007500,-0.015750,1.003375,192.000000,0.000000,0.000000,0.000000,0.000000,0.000000,0.000000,0.000000,0.000000,0.000000,1772720791.356646,0.000000
58.000000,-8158.096154,-16495.945036,126.957909,-25598.737669,7954.605872,4738.838045,-16626.434520,-27326.728681,9592.988741,2795.040941,9476.200876,6236.539034,12197.659874,8677.662453,-14220.559802,-5621.799007,0.007500,-0.015750,1.003375,192.000000,0.000000,0.000000,0.000000,0.000000,0.000000,0.000000,0.000000,0.000000,0.000000,1772720791.356660,0.000000
60.000000,-8142.271118,-16484.612701,150.762516,-25579.291651,7990.279256,4787.073110,-16607.122613,-27314.099945,9603.427005,2798.907792,9488.561390,6240.987032,12226.694790,8700.774157,-14196.285808,-5601.369512,0.007750,-0.016875,1.003688,192.000000,0.000000,32.000000,127.500000,56.000000,15.500000,48.000000,0.000000,0.000000,0.000000,1772720791.356670,0.000000
62.000000,-8161.068936,-16497.934341,120.431199,-25596.480143,7969.358023,4762.888522,-16631.128386,-27335.691730,9604.902220,2805.456854,9485.387443,6239.243596,12229.600517,8704.618657,-14198.699796,-5595.379245,0.007750,-0.016875,1.003688,192.000000,0.000000,0.000000,0.000000,0.000000,0.000000,0.000000,0.000000,0.000000,0.000000,1772720791.356680,0.000000
64.000000,-8156.799752,-16496.414423,135.943310,-25580.297480,7989.206372,4793.219840,-16615.884497,-27325.789908,9590.977084,2795.599734,9468.511876,6230.884043,12213.171984,8682.266913,-14209.898020,-5598.664951,0.007750,-0.016875,1.003688,192.000000,0.000000,0.000000,0.000000,0.000000,0.000000,0.000000,0.000000,0.000000,0.000000,1772720791.356692,0.000000
66.000000,-8146.875578,-16492.927550,135.786848,-25586.734782,7992.670893,4793.421005,-16618.656113,-27328.449765,9614.871098,2807.915545,9489.544867,6246.262043,12239.524691,8713.916983,-14184.260569,-5584.896277,0.007750,-0.016875,1.003688,192.000000,0.000000,0.000000,0.000000,0.000000,0.000000,0.000000,0.000000,0.000000,0.000000,1772720791.356707,0.000000
68.000000,-8154.162246,-16500.124812,123.180464,-25606.739593,7981.092689,4769.929322,-16632.625953,-27340.877335,9610.154880,2791.375255,9464.890893,6218.255307,12215.697731,8683.719776,-14204.153622,-5606.331600,0.007750,-0.016875,1.003688,192.000000,0.000000,0.000000,0.000000,0.000000,0.000000,0.000000,0.000000,0.000000,0.000000,1772720791.356736,0.000000
70.000000,-8131.430522,-16472.363946,151.813048,-25588.254701,8005.210221,4784.703825,-16605.535639,-27310.434259,9626.270488,2812.229432,9485.007463,6238.148360,12241.424589,8702.271724,-14189.490877,-5614.333524,0.008875,-0.015437,1.003844,192.000000,0.000000,40.000000,127.500000,72.000000,15.500000,48.000000,0.000000,0.000000,0.000000,1772720791.356750,0.000000
72.000000,-8151.681203,-16495.453298,127.650813,-25608.237160,7964.395936,4746.594101,-16622.657075,-27323.241809,9615.899279,2811.849452,9489.008425,6245.189160,12229.220537,8696.348512,-14198.275113,-5630.516187,0.008875,-0.015437,1.003844,192.000000,0.000000,0.000000,0.000000,0.000000,0.000000,0.000000,0.000000,0.000000,0.000000,1772720791.356764,0.000000
74.000000,-8131.184653,-16475.828466,149.890798,-25592.456829,7969.492134,4744.649499,-16602.339340,-27300.398326,9610.780729,2798.527813,9485.700367,6238.640098,12211.361493,8674.868485,-14220.939782,-5649.850446,0.008875,-0.015437,1.003844,192.000000,0.000000,0.000000,0.000000,0.000000,0.000000,0.000000,0.000000,0.000000,0.000000,1772720791.836535,0.000000
76.000000,-8129.240051,-16475.962576,150.896627,-25593.149733,7962.563093,4732.691316,-16601.445270,-27299.839532,9631.098465,2817.951479,9512.902440,6264.657529,12240.016429,8700.014198,-14203.997159,-5647.503513,0.008875,-0.015437,1.003844,192.000000,0.000000,0.000000,0.000000,0.000000,0.000000,0.000000,0.000000,0.000000,0.000000,1772720791.836595,0.000000
78.000000,-8140.259461,-16491.295873,140.436010,-25609.846486,7946.559244,4701.912964,-16615.862145,-27315.932788,9614.580526,2788.402473,9486.303864,6237.209587,12212.367322,8664.229055,-14230.394570,-5666.077812,0.008875,-0.015437,1.003844,192.000000,0.000000,0.000000,0.000000,0.000000,0.000000,0.000000,0.000000,0.000000,0.000000,1772720791.836643,0.000000
80.000000,-8118.421807,-16469.838198,165.358205,-25590.042840,7970.676776,4736.647575,-16594.024491,-27296.240901,9637.714581,2800.070083,9511.226059,6253.213436,12235.814301,8677.237770,-14210.881497,-5647.883492,0.010438,-0.013719,1.004922,192.000000,0.000000,48.000000,127.500000,80.000000,15.500000,56.000000,0.000000,0.000000,0.000000,1772720791.836686,0.000000
82.000000,-8152.351755,-16500.817716,135.473923,-25612.483992,7939.831369,4707.903231,-16618.924334,-27324.001768,9619.922593,2790.324723,9503.425301,6244.272738,12219.676342,8669.235846,-14214.524831,-5643.614309,0.010438,-0.013719,1.004922,192.000000,0.000000,0.000000,0.000000,0.000000,0.000000,0.000000,0.000000,0.000000,0.000000,1772720791.836742,0.000000
84.000000,-8151.614148,-16502.404690,143.185275,-25599.028242,7957.556302,4728.288022,-16610.475375,-27325.879315,9602.577639,2770.275208,9479.441879,6219.484653,12194.374167,8646.280604,-14224.761930,-5643.860178,0.010438,-0.013719,1.004922,192.000000,0.000000,0.000000,0.000000,0.000000,0.000000,0.000000,0.000000,0.000000,0.000000,1772720791.836796,0.000000
86.000000,-8160.085459,-16506.472708,133.506970,-25598.380041,7958.360965,4734.859435,-16617.002084,-27340.631466,9602.711749,2780.691121,9480.447707,6228.045372,12215.407159,8665.972491,-14200.689101,-5616.702809,0.010438,-0.013719,1.004922,192.000000,0.000000,0.000000,0.000000,0.000000,0.000000,0.000000,0.000000,0.000000,0.000000,1772720791.836814,0.000000
88.000000,-8160.107811,-16508.864344,123.515740,-25609.779431,7947.654479,4720.844891,-16630.815462,-27349.058074,9597.548496,2768.867048,9460.018213,6210.611011,12196.631693,8646.370011,-14217.899945,-5622.693076,0.010438,-0.013719,1.004922,192.000000,0.000000,0.000000,0.000000,0.000000,0.000000,0.000000,0.000000,0.000000,0.000000,1772720791.836831,0.000000
90.000000,-8143.366354,-16484.210370,150.248426,-25590.244006,7978.566942,4752.427906,-16604.954494,-27320.492544,9609.394921,2788.558935,9483.554600,6230.772284,12211.920287,8666.643043,-14196.531677,-5612.813605,0.010219,-0.012859,1.007461,192.000000,0.000000,40.000000,127.500000,80.000000,15.500000,72.000000,0.000000,0.000000,0.000000,1772720791.836848,0.000000
92.000000,-8161.024232,-16501.264751,123.851016,-25611.142887,7955.276424,4734.680621,-16624.601677,-27337.010483,9599.247229,2793.565726,9479.821858,6233.879177,12204.834784,8667.023023,-14198.878610,-5621.083751,0.010219,-0.012859,1.007461,192.000000,0.000000,0.000000,0.000000,0.000000,0.000000,0.000000,0.000000,0.000000,0.000000,1772720791.836864,0.000000
94.000000,-8134.157435,-16467.401858,145.018118,-25590.601634,7986.390053,4749.924511,-16605.937970,-27311.104812,9593.346368,2790.347074,9465.092059,6229.364124,12194.083595,8656.271834,-14211.574401,-5637.869911,0.010219,-0.012859,1.007461,192.000000,0.000000,0.000000,0.000000,0.000000,0.000000,0.000000,0.000000,0.000000,0.000000,1772720791.836881,0.000000
96.000000,-8113.504423,-16451.129788,150.628406,-25586.153637,7990.659236,4751.131505,-16604.127479,-27299.839532,9626.136378,2819.046714,9498.820841,6267.071517,12233.355610,8695.052111,-14186.965130,-5628.281013,0.010219,-0.012859,1.007461,192.000000,0.000000,0.000000,0.000000,0.000000,0.000000,0.000000,0.000000,0.000000,0.000000,1772720791.836896,0.000000
98.000000,-8113.571479,-16452.828521,139.407830,-25595.228445,7967.055794,4739.933281,-16614.923372,-27302.767611,9639.033334,2820.209005,9499.580800,6258.622558,12222.559717,8679.830573,-14216.514136,-5646.274167,0.010219,-0.012859,1.007461,192.000000,0.000000,0.000000,0.000000,0.000000,0.000000,0.000000,0.000000,0.000000,0.000000,1772720791.836910,0.000000
100.000000,-8096.941781,-16437.495224,165.872296,-25573.726067,7980.824468,4755.065412,-16587.073098,-27279.566500,9643.034296,2827.339211,9519.317391,6273.821744,12235.099046,8696.683788,-14214.211907,-5641.960280,0.010219,-0.012859,1.007461,192.000000,0.000000,0.000000,0.000000,0.000000,0.000000,0.000000,0.000000,0.000000,0.000000,1772720791.836923,0.000000
102.000000,-8111.179842,-16450.570995,141.173618,-25594.244968,7944.659346,4718.654420,-16608.284904,-27299.347794,9648.845750,2828.322688,9517.305734,6276.369843,12244.978517,8693.621599,-14223.845509,-5648.621100,0.012000,-0.014000,1.012000,192.000000,0.000000,48.000000,127.500000,72.000000,15.500000,80.000000,0.000000,0.000000,0.000000,1772720791.836936,0.000000
104.000000,-8106.463624,-16439.216309,156.462211,-25581.124494,7956.304605,4731.104342,-16595.723223,-27286.920224,9626.046971,2815.604546,9496.160984,6263.964625,12215.563621,8670.129915,-14241.704552,-5659.104068,0.012000,-0.014000,1.012000,192.000000,0.000000,0.000000,0.000000,0.000000,0.000000,0.000000,0.000000,0.000000,0.000000,1772720791.836949,0.000000
106.000000,-8115.203156,-16446.547681,153.422374,-25582.376192,7953.063602,4726.633993,-16599.277151,-27297.447896,9629.846767,2833.374182,9516.322257,6281.376634,12231.411008,8692.951047,-14216.424729,-5643.636661,0.012000,-0.014000,1.012000,192.000000,0.000000,0.000000,0.000000,0.000000,0.000000,0.000000,0.000000,0.000000,0.000000,1772720791.836973,0.000000
108.000000,-8133.553938,-16463.825579,139.497237,-25601.084602,7941.239529,4706.562126,-16618.052616,-27317.542114,9606.891526,2812.587060,9491.847097,6249.905378,12202.197278,8661.479790,-14233.099131,-5652.130324,0.012000,-0.014000,1.012000,192.000000,0.000000,0.000000,0.000000,0.000000,0.000000,0.000000,0.000000,0.000000,0.000000,1772720791.836986,0.000000
110.000000,-8125.887290,-16453.655535,158.160944,-25582.644413,7977.963445,4742.414325,-16597.690177,-27307.036794,9617.195680,2818.242051,9506.174565,6255.806238,12219.408121,8674.309692,-14209.674503,-5639.814513,0.012000,-0.014000,1.012000,192.000000,0.000000,0.000000,0.000000,0.000000,0.000000,0.000000,0.000000,0.000000,0.000000,1772720791.836999,0.000000
112.000000,-8164.622863,-16486.736117,112.339868,-25607.879532,7949.084991,4726.164606,-16630.659000,-27355.160100,9597.056758,2805.658019,9480.939446,6238.573043,12208.165194,8670.308729,-14209.518040,-5630.739704,0.006000,-0.014000,1.008000,192.000000,0.000000,24.000000,127.500000,72.000000,15.500000,64.000000,0.000000,0.000000,0.000000,1772720791.837011,0.000000
114.000000,-8168.735584,-16486.087917,117.927804,-25598.044765,7967.324015,4743.822484,-16619.281962,-27355.450673,9568.044194,2788.402473,9435.923032,6209.582831,12178.146801,8654.461343,-14221.565631,-5631.209091,0.006000,-0.014000,1.008000,192.000000,0.000000,0.000000,0.000000,0.000000,0.000000,0.000000,0.000000,0.000000,0.000000,1772720791.837029,0.000000
116.000000,-8170.635482,-16490.692376,117.681935,-25605.912579,7965.066488,4728.042153,-16620.287790,-27351.539117,9569.184133,2797.544336,9447.210663,6227.799502,12193.256580,8675.203761,-14194.140040,-5617.708637,0.006000,-0.014000,1.008000,192.000000,0.000000,0.000000,0.000000,0.000000,0.000000,0.000000,0.000000,0.000000,0.000000,1772720791.837042,0.000000
118.000000,-8166.120430,-16493.061661,116.050257,-25622.542277,7949.532026,4710.339571,-16628.848508,-27346.353513,9569.564112,2780.378196,9441.376858,6212.846185,12173.274120,8635.395305,-14210.702683,-5634.025411,0.006000,-0.014000,1.008000,192.000000,0.000000,0.000000,0.000000,0.000000,0.000000,0.000000,0.000000,0.000000,0.000000,1772720791.837056,0.000000
120.000000,-8125.283793,-16461.746867,148.572045,-25594.446134,7983.551381,4753.947825,-16603.568685,-27310.389556,9604.030502,2791.665827,9485.253332,6231.375781,12207.271124,8653.097886,-14194.028281,-5623.251870,0.006000,-0.014000,1.008000,192.000000,0.000000,0.000000,0.000000,0.000000,0.000000,0.000000,0.000000,0.000000,0.000000,1772720791.837068,0.000000
122.000000,-8125.350848,-16459.511692,125.370935,-25600.771678,7974.051890,4752.249092,-16625.093415,-27327.890972,9627.119854,2808.831967,9500.944257,6241.568177,12217.552926,8672.320386,-14193.983578,-5614.847614,0.006000,-0.014000,1.008000,192.000000,0.000000,24.000000,127.500000,72.000000,15.500000,64.000000,0.000000,0.000000,0.000000,1772720791.837081,0.000000
124.000000,-8109.928144,-16429.336837,144.772249,-25578.442285,8006.685437,4777.618322,-16607.927276,-27309.964873,9618.603840,2825.796941,9477.251408,6244.093924,12216.904726,8681.194029,-14198.208058,-5619.072094,0.006000,-0.014000,1.008000,192.000000,0.000000,0.000000,0.000000,0.000000,0.000000,0.000000,0.000000,0.000000,0.000000,1772720791.837094,0.000000
126.000000,-8110.174013,-16424.710026,150.226074,-25578.777561,8006.216050,4777.663026,-16603.032244,-27296.106791,9624.080017,2858.229322,9497.680902,6284.282361,12249.091238,8720.622506,-14173.107049,-5612.120701,0.006000,-0.014000,1.008000,192.000000,0.000000,0.000000,0.000000,0.000000,0.000000,0.000000,0.000000,0.000000,0.000000,1772720791.837108,0.000000
128.000000,-8110.799862,-16431.124977,146.180409,-25594.177913,7980.243323,4742.369621,-16608.150793,-27289.021288,9618.402674,2842.627805,9492.383539,6269.865485,12224.481967,8689.598285,-14197.962188,-5634.919481,0.006000,-0.014000,1.008000,192.000000,0.000000,0.000000,0.000000,0.000000,0.000000,0.000000,0.000000,0.000000,0.000000,1772720791.837121,0.000000
130.000000,-8086.548220,-16408.393253,179.104528,-25577.078828,7995.800137,4758.440525,-16583.832095,-27264.590831,9637.111084,2849.534494,9524.078312,6280.571971,12239.368229,8697.086119,-14191.279017,-5637.668745,0.006000,-0.014000,1.008000,192.000000,0.000000,0.000000,0.000000,0.000000,0.000000,0.000000,0.000000,0.000000,0.000000,1772720791.837134,0.000000
132.000000,-8101.188612,-16423.927715,154.741127,-25598.558855,7956.014032,4714.049961,-16608.910752,-27294.788038,9639.502721,2846.785229,9529.398028,6273.151192,12238.854139,8688.726567,-14199.057424,-5645.268338,0.006000,-0.014000,1.008000,192.000000,0.000000,0.000000,127.500000,80.000000,15.500000,56.000000,0.000000,0.000000,0.000000,1772720791.837146,0.000000
134.000000,-8099.758100,-16422.363093,164.665301,-25583.963166,7965.088840,4723.013010,-16598.338377,-27292.888140,9628.997401,2834.000031,9508.610905,6258.801372,12220.972743,8669.705232,-14217.005875,-5656.108934,0.006000,-0.014000,1.008000,192.000000,0.000000,0.000000,0.000000,0.000000,0.000000,0.000000,0.000000,0.000000,0.000000,1772720791.837160,0.000000
136.000000,-8111.649229,-16432.868413,152.595359,-25585.058401,7955.254073,4731.618432,-16603.412223,-27303.684032,9628.863290,2842.806619,9512.835385,6280.728433,12235.389618,8697.220230,-14197.313988,-5634.852425,0.006000,-0.014000,1.008000,192.000000,0.000000,0.000000,0.000000,0.000000,0.000000,0.000000,0.000000,0.000000,0.000000,1772720791.837173,0.000000
138.000000,-8128.122464,-16458.505864,133.685784,-25601.017547,7935.226910,4711.904193,-16619.639590,-27320.403137,9609.238459,2811.357714,9478.883085,6248.787790,12199.179792,8659.937520,-14219.933953,-5639.769809,0.006000,-0.014000,1.008000,192.000000,0.000000,0.000000,0.000000,0.000000,0.000000,0.000000,0.000000,0.000000,0.000000,1772720791.837185,0.000000
140.000000,-8103.066159,-16432.890765,160.597284,-25580.096314,7971.548494,4749.388069,-16598.159563,-27299.526608,9624.839976,2821.259537,9496.205687,6260.164828,12225.465444,8679.204724,-14202.454889,-5624.928251,0.006000,-0.014000,1.008000,192.000000,0.000000,0.000000,0.000000,0.000000,0.000000,0.000000,0.000000,0.000000,0.000000,1772720791.837198,0.000000
142.000000,-8129.932955,-16459.310527,126.779095,-25604.280901,7937.886767,4731.685487,-16625.272229,-27330.126146,9626.538709,2823.427656,9496.965646,6251.492351,12225.241926,8683.093927,-14202.611351,-5618.490948,-0.002000,-0.014000,1.008000,192.000000,127.500000,120.000000,127.500000,72.000000,15.500000,64.000000,0.000000,0.000000,0.000000,1772720791.837212,0.000000
144.000000,-8117.460682,-16446.301811,140.972452,-25595.295500,7946.000450,4737.742810,-16607.614351,-27311.060108,9615.452244,2809.748388,9479.508934,6233.588604,12203.001941,8664.765497,-14225.030151,-5631.790236,-0.002000,-0.014000,1.008000,192.000000,0.000000,0.000000,0.000000,0.000000,0.000000,0.000000,0.000000,0.000000,0.000000,1772720791.837225,0.000000
146.000000,-8117.035999,-16437.450521,139.474885,-25591.115724,7945.665174,4736.714630,-16599.746537,-27301.962948,9628.863290,2828.300336,9504.185260,6265.395137,12228.125301,8686.714910,-14209.249819,-5629.622117,-0.002000,-0.014000,1.008000,192.000000,0.000000,0.000000,0.000000,0.000000,0.000000,0.000000,0.000000,0.000000,0.000000,1772720791.837240,0.000000
148.000000,-8132.123426,-16445.027762,122.196987,-25601.911617,7936.389200,4723.370638,-16615.035130,-27320.000806,9600.476575,2826.825121,9477.407870,6256.633253,12197.034025,8665.525456,-14232.272116,-5643.100219,-0.002000,-0.014000,1.008000,192.000000,0.000000,0.000000,0.000000,0.000000,0.000000,0.000000,0.000000,0.000000,0.000000,1772720791.837253,0.000000
150.000000,-8112.453891,-16431.884936,153.265912,-25580.766866,7975.013015,4752.360851,-16595.142078,-27303.214646,9608.366741,2828.590909,9487.823783,6263.092907,12224.325505,8684.524439,-14211.552049,-5634.628908,-0.002000,-0.014000,1.008000,192.000000,0.000000,0.000000,0.000000,0.000000,0.000000,0.000000,0.000000,0.000000,0.000000,1772720791.837265,0.000000
152.000000,-8114.554955,-16443.887823,133.238749,-25601.486933,7953.711802,4729.360906,-16617.583229,-27323.577085,9625.063494,2827.160397,9496.652722,6256.990881,12230.092255,8687.050186,-14203.460718,-5636.528806,0.002000,-0.010000,1.008000,192.000000,0.000000,8.000000,127.500000,88.000000,15.500000,64.000000,0.000000,0.000000,0.000000,1772720791.837279,0.000000
154.000000,-8102.708531,-16429.828576,152.841229,-25590.869855,7966.653462,4738.256900,-16602.898133,-27305.069841,9632.886604,2817.526796,9492.115318,6240.025907,12229.801682,8671.225151,-14217.475261,-5646.654147,0.002000,-0.010000,1.008000,192.000000,0.000000,0.000000,0.000000,0.000000,0.000000,0.000000,0.000000,0.000000,0.000000,1772720791.837292,0.000000
156.000000,-8112.275077,-16432.779006,153.332967,-25597.508323,7949.129695,4734.501807,-16601.333511,-27305.405117,9635.077075,2844.751220,9514.109434,6272.860619,12237.356572,8695.990884,-14199.862087,-5639.479237,0.002000,-0.010000,1.008000,192.000000,0.000000,0.000000,0.000000,0.000000,0.000000,0.000000,0.000000,0.000000,0.000000,1772720791.837306,0.000000
158.000000,-8131.922261,-16454.370791,135.518627,-25614.495649,7924.408665,4712.574746,-16618.007912,-27323.644140,9608.545555,2810.217775,9480.693576,6246.194988,12199.313903,8655.578930,-14234.395532,-5656.712432,0.002000,-0.010000,1.008000,192.000000,0.000000,0.000000,0.000000,0.000000,0.000000,0.000000,0.000000,0.000000,0.000000,1772720791.837319,0.000000
160.000000,-8107.760025,-16433.896593,156.730432,-25589.595805,7952.393049,4741.609662,-16595.969092,-27302.231169,9618.357971,2818.666735,9493.143498,6251.760572,12215.317752,8667.313596,-14224.985448,-5646.117705,0.002000,-0.010000,1.008000,192.000000,0.000000,0.000000,0.000000,0.000000,0.000000,0.000000,0.000000,0.000000,0.000000,1772720791.837332,0.000000
162.000000,-8125.127330,-16447.464102,123.471036,-25594.759058,7926.487377,4724.108246,-16617.270305,-27319.330254,9618.022694,2823.606470,9496.943295,6257.795543,12216.457691,8676.902494,-14226.818291,-5639.367478,0.008000,-0.014000,1.006000,192.000000,0.000000,32.000000,127.500000,72.000000,15.500000,56.000000,0.000000,0.000000,0.000000,1772720791.837346,0.000000
164.000000,-8119.449987,-16436.757617,133.775191,-25572.831997,7950.448448,4756.294758,-16606.139136,-27307.506181,9599.426043,2820.343115,9478.972492,6244.764476,12193.234228,8666.933616,-14240.363448,-5633.891300,0.008000,-0.014000,1.006000,192.000000,0.000000,0.000000,0.000000,0.000000,0.000000,0.000000,0.000000,0.000000,0.000000,1772720791.837360,0.000000
166.000000,-8115.136101,-16429.426244,134.669260,-25576.095352,7961.065526,4761.659177,-16610.140098,-27306.478000,9611.987723,2843.991261,9501.011312,6272.257122,12225.174871,8705.915058,-14209.763910,-5602.978838,0.008000,-0.014000,1.006000,192.000000,0.000000,0.000000,0.000000,0.000000,0.000000,0.000000,0.000000,0.000000,0.000000,1772720791.837373,0.000000
168.000000,-8122.646287,-16442.032628,121.906414,-25600.637567,7950.694317,4752.114982,-16628.915564,-27324.292341,9605.304552,2834.514121,9482.884047,6252.140552,12200.140917,8686.334930,-14222.862032,-5611.159576,0.008000,-0.014000,1.006000,192.000000,0.000000,0.000000,0.000000,0.000000,0.000000,0.000000,0.000000,0.000000,0.000000,1772720791.837386,0.000000
170.000000,-8101.926220,-16421.983114,152.438897,-25586.757134,7984.356044,4761.145086,-16605.625046,-27304.801620,9619.788482,2839.655023,9497.077405,6255.627424,12230.896918,8684.926770,-14200.152659,-5608.119739,0.008000,-0.014000,1.006000,192.000000,0.000000,0.000000,0.000000,0.000000,0.000000,0.000000,0.000000,0.000000,0.000000,1772720791.837402,0.000000
172.000000,-8115.806653,-16432.734303,126.510874,-25607.007814,7956.639881,4728.533891,-16625.182822,-27321.096041,9617.329790,2840.750258,9493.702292,6262.489410,12217.888202,8686.022006,-14202.991331,-5629.756228,0.008000,-0.014000,1.005000,192.000000,0.000000,32.000000,127.500000,72.000000,15.500000,48.000000,0.000000,0.000000,0.000000,1772720791.837415,0.000000
174.000000,-8093.991350,-16412.796547,150.717813,-25588.433515,7978.477535,4742.973118,-16600.305331,-27286.987279,9616.301610,2839.587967,9487.153231,6260.410698,12207.919324,8674.041471,-14218.816366,-5652.420897,0.008000,-0.014000,1.005000,192.000000,0.000000,0.000000,0.000000,0.000000,0.000000,0.000000,0.000000,0.000000,0.000000,1772720791.837428,0.000000
176.000000,-8081.988464,-16407.521535,154.003519,-25588.634680,7981.495021,4749.902159,-16597.198438,-27271.721038,9645.291823,2856.374127,9525.128844,6286.741052,12240.150540,8706.093872,-14195.771718,-5645.313042,0.008000,-0.014000,1.005000,192.000000,0.000000,0.000000,0.000000,0.000000,0.000000,0.000000,0.000000,0.000000,0.000000,1772720791.837442,0.000000
178.000000,-8094.304275,-16417.356302,138.647871,-25598.089468,7966.005262,4731.461970,-16611.794127,-27285.512064,9633.803026,2843.410116,9513.081254,6267.518552,12215.742435,8684.211514,-14215.061273,-5659.931083,0.008000,-0.014000,1.005000,192.000000,0.000000,0.000000,0.000000,0.000000,0.000000,0.000000,0.000000,0.000000,0.000000,1772720791.837456,0.000000
180.000000,-8080.848525,-16398.580837,166.520496,-25573.055514,7992.134451,4768.431755,-16589.509438,-27274.202081,9637.960450,2863.124354,9525.330010,6284.103547,12234.249679,8701.623523,-14196.956360,-5643.301385,0.008000,-0.014000,1.005000,192.000000,0.000000,0.000000,0.000000,0.000000,0.000000,0.000000,0.000000,0.000000,0.000000,1772720791.837469,0.000000
182.000000,-8107.290638,-16424.866489,142.939406,-25597.083640,7959.657366,4747.890502,-16616.152718,-27309.070803,9627.633944,2859.257502,9517.663362,6283.276532,12234.339086,8703.478718,-14199.280941,-5640.574472,0.007000,-0.013000,1.005500,192.000000,0.000000,24.000000,127.500000,80.000000,15.500000,56.000000,0.000000,0.000000,0.000000,1772720791.837482,0.000000
184.000000,-8110.330476,-16429.985038,154.741127,-25592.814457,7968.240436,4750.326842,-16607.301427,-27311.596550,9621.353104,2837.710421,9493.568181,6257.326157,12206.265295,8675.494334,-14220.291581,-5642.988460,0.007000,-0.013000,1.005500,192.000000,0.000000,0.000000,0.000000,0.000000,0.000000,0.000000,0.000000,0.000000,0.000000,1772720791.837495,0.000000
186.000000,-8122.601583,-16442.859643,143.319385,-25595.563721,7963.233645,4748.516351,-16609.469546,-27321.274855,9621.889546,2836.190502,9500.430167,6261.148305,12223.140862,8687.810145,-14200.577343,-5626.515225,0.007000,-0.013000,1.005500,192.000000,0.000000,0.000000,0.000000,0.000000,0.000000,0.000000,0.000000,0.000000,0.000000,1772720791.837508,0.000000
188.000000,-8140.393572,-16456.516559,111.199929,-25605.130268,7942.088895,4731.573729,-16628.356770,-27338.172774,9592.005264,2818.107941,9471.618768,6233.543901,12188.003920,8659.825761,-14226.795939,-5634.338335,0.007000,-0.013000,1.005500,192.000000,0.000000,0.000000,0.000000,0.000000,0.000000,0.000000,0.000000,0.000000,0.000000,1772720791.837521,0.000000
190.000000,-8118.198290,-16432.577840,135.809199,-25576.989421,7977.874038,4765.682491,-16602.696967,-27314.457573,9593.748700,2835.207025,9483.733414,6244.764476,12196.586990,8681.439898,-14217.184689,-5615.942850,0.007000,-0.013000,1.005500,192.000000,0.000000,0.000000,0.000000,0.000000,0.000000,0.000000,0.000000,0.000000,0.000000,1772720791.837534,0.000000
192.000000,-8119.539394,-16441.630297,118.821874,-25592.054497,7962.585445,4751.332671,-16618.812575,-27322.191277,9607.584430,2848.171037,9496.965646,6255.470962,12207.852269,8696.817898,-14211.261476,-5605.638695,0.004500,-0.013500,1.003750,192.000000,0.000000,8.000000,127.500000,72.000000,15.500000,40.000000,0.000000,0.000000,0.000000,1772720791.837546,0.000000
194.000000,-8103.356731,-16428.576878,142.090040,-25586.891244,7973.515448,4755.713613,-16601.489973,-27298.654890,9615.005209,2834.938804,9495.915114,6252.542883,12203.113699,8674.108526,-14224.046674,-5613.350047,0.004500,-0.013500,1.003750,192.000000,0.000000,0.000000,0.000000,0.000000,0.000000,0.000000,0.000000,0.000000,0.000000,1772720792.318390,0.000000
196.000000,-8094.639551,-16420.552602,152.260083,-25588.679384,7974.387166,4738.100438,-16595.097374,-27284.595643,9631.456093,2849.981529,9528.883937,6275.006387,12238.362400,8690.335892,-14198.319816,-5621.240213,0.004500,-0.013500,1.003750,192.000000,0.000000,0.000000,0.000000,0.000000,0.000000,0.000000,0.000000,0.000000,0.000000,1772720792.318456,0.000000
198.000000,-8097.992313,-16422.653666,139.296071,-25601.464582,7955.254073,4717.402723,-16608.575476,-27290.161227,9630.897299,2839.453857,9519.652667,6258.667261,12210.735644,8663.044412,-14220.403340,-5652.286786,0.004500,-0.013500,1.003750,192.000000,0.000000,0.000000,0.000000,0.000000,0.000000,0.000000,0.000000,0.000000,0.000000,1772720792.318506,0.000000
200.000000,-8087.643455,-16400.994825,162.228961,-25575.737724,7989.765166,4749.723345,-16587.296616,-27275.207910,9631.545500,2862.498505,9530.113283,6277.152154,12227.186528,8690.827631,-14205.651189,-5650.610405,0.004500,-0.013500,1.003750,192.000000,0.000000,0.000000,0.000000,0.000000,0.000000,0.000000,0.000000,0.000000,0.000000,1772720792.318546,0.000000
202.000000,-8100.406301,-16416.104605,134.088115,-25597.150695,7971.392032,4730.880824,-16614.342226,-27298.453724,9627.075151,2870.366319,9520.636144,6278.895590,12234.607307,8708.150233,-14201.896096,-5648.598748,0.006250,-0.014750,1.002875,192.000000,0.000000,32.000000,127.500000,64.000000,15.500000,40.000000,0.000000,0.000000,0.000000,1772720792.318584,0.000000
204.000000,-8094.818365,-16414.875259,149.577874,-25589.819323,7985.160707,4745.342403,-16600.350034,-27286.652003,9633.937136,2853.602511,9509.773196,6266.535075,12226.091293,8684.345625,-14216.648247,-5662.613292,0.006250,-0.014750,1.002875,192.000000,0.000000,0.000000,0.000000,0.000000,0.000000,0.000000,0.000000,0.000000,0.000000,1772720792.318640,0.000000
206.000000,-8107.514156,-16424.978247,146.649795,-25595.250797,7971.548494,4745.364755,-16601.534677,-27291.502332,9624.035314,2850.674433,9522.357228,6273.218247,12237.781255,8697.488451,-14197.872781,-5647.525865,0.006250,-0.014750,1.002875,192.000000,0.000000,0.000000,0.000000,0.000000,0.000000,0.000000,0.000000,0.000000,0.000000,1772720792.318686,0.000000
208.000000,-8120.031133,-16435.327105,123.560443,-25612.171067,7940.814846,4722.051885,-16621.539488,-27311.596550,9605.148090,2838.112752,9499.357283,6248.497218,12208.813394,8666.955968,-14225.790110,-5656.891245,0.006250,-0.014750,1.002875,192.000000,0.000000,0.000000,0.000000,0.000000,0.000000,0.000000,0.000000,0.000000,0.000000,1772720792.318704,0.000000
210.000000,-8108.117653,-16420.686712,143.252330,-25590.668689,7958.539779,4752.159685,-16601.355863,-27300.331271,9610.445453,2848.618072,9505.280495,6261.505933,12209.930981,8676.611921,-14214.681293,-5640.485065,0.006250,-0.014750,1.002875,192.000000,0.000000,0.000000,0.000000,0.000000,0.000000,0.000000,0.000000,0.000000,0.000000,1772720792.318730,0.000000
212.000000,-8134.872691,-16452.269727,112.786903,-25613.556875,7923.224023,4729.562072,-16628.915564,-27335.222344,9605.662180,2837.755124,9491.400062,6253.772229,12198.039853,8669.705232,-14219.129290,-5632.907824,0.007125,-0.016375,1.000437,192.000000,0.000000,32.000000,127.500000,56.000000,15.500000,24.000000,0.000000,0.000000,0.000000,1772720792.318743,0.000000
214.000000,-8138.046639,-16453.633184,124.633327,-25605.644358,7941.507750,4744.850665,-16620.243087,-27332.473079,9592.497002,2808.496691,9467.729565,6228.581813,12175.822219,8642.749029,-14235.826044,-5632.639603,0.007125,-0.016375,1.000437,192.000000,0.000000,0.000000,0.000000,0.000000,0.000000,0.000000,0.000000,0.000000,0.000000,1772720792.318755,0.000000
216.000000,-8129.977659,-16443.597250,130.981223,-25594.401430,7958.584483,4756.831200,-16614.319875,-27319.553771,9594.732177,2830.602566,9491.981207,6250.978261,12205.326522,8677.595398,-14209.808613,-5607.717408,0.007125,-0.016375,1.000437,192.000000,0.000000,0.000000,0.000000,0.000000,0.000000,0.000000,0.000000,0.000000,0.000000,1772720792.318768,0.000000
218.000000,-8125.373200,-16446.257108,119.738295,-25597.262454,7952.661270,4762.933226,-16624.780491,-27322.146573,9594.553363,2816.878595,9483.152268,6237.030773,12194.932961,8667.425354,-14224.806634,-5612.187757,0.007125,-0.016375,1.000437,192.000000,0.000000,0.000000,0.000000,0.000000,0.000000,0.000000,0.000000,0.000000,0.000000,1772720792.318779,0.000000
220.000000,-8094.103109,-16414.003541,148.080307,-25572.004982,7976.845858,4786.156688,-16596.058499,-27292.508160,9625.421122,2838.760953,9508.610905,6257.817895,12226.828900,8694.336855,-14209.428633,-5598.530841,0.007125,-0.016375,1.000437,192.000000,0.000000,0.000000,0.000000,0.000000,0.000000,0.000000,0.000000,0.000000,0.000000,1772720792.318822,0.000000
222.000000,-8108.944667,-16425.291172,129.193083,-25595.295500,7939.004354,4743.598967,-16613.783433,-27308.579064,9617.419197,2845.958215,9513.215365,6265.484544,12226.672438,8696.281457,-14207.953418,-5604.230536,0.002563,-0.015187,1.000219,192.000000,127.500000,120.000000,127.500000,72.000000,15.500000,32.000000,0.000000,0.000000,0.000000,1772720792.318838,0.000000
224.000000,-8101.903868,-16416.082253,150.069612,-25588.701736,7947.408610,4740.693240,-16599.388909,-27294.631576,9617.776825,2838.604491,9504.654646,6256.499142,12202.689016,8672.499200,-14226.885346,-5632.036106,0.002563,-0.015187,1.000219,192.000000,0.000000,0.000000,0.000000,0.000000,0.000000,0.000000,0.000000,0.000000,0.000000,1772720792.318857,0.000000
226.000000,-8095.175993,-16403.408814,155.299920,-25585.952471,7952.817732,4741.497903,-16595.522057,-27288.529550,9621.218994,2860.285683,9526.492301,6281.354282,12229.868737,8702.495241,-14202.432537,-5632.952527,0.002563,-0.015187,1.000219,192.000000,0.000000,0.000000,0.000000,0.000000,0.000000,0.000000,0.000000,0.000000,0.000000,1772720792.318872,0.000000
228.000000,-8108.497633,-16421.469023,135.362164,-25603.744460,7939.630203,4721.358981,-16612.039997,-27303.907550,9617.083921,2850.406212,9512.656571,6266.892703,12212.613191,8688.592456,-14222.347942,-5653.940815,0.002563,-0.015187,1.000219,192.000000,0.000000,0.000000,0.000000,0.000000,0.000000,0.000000,0.000000,0.000000,0.000000,1772720792.318884,0.000000
230.000000,-8099.579287,-16416.529288,154.964644,-25588.366459,7970.229741,4751.958519,-16590.604674,-27291.010593,9620.861366,2844.617110,9520.211461,6267.719718,12219.251659,8694.716834,-14206.768776,-5650.789219,0.002563,-0.015187,1.000219,192.000000,0.000000,0.000000,0.000000,0.000000,0.000000,0.000000,0.000000,0.000000,0.000000,1772720792.318896,0.000000
232.000000,-8118.757083,-16434.745960,122.867539,-25614.003910,7937.573843,4723.057714,-16614.990427,-27314.211704,9616.234555,2838.425677,9515.025856,6262.556465,12210.780348,8687.094890,-14209.339226,-5650.476295,0.004281,-0.015594,1.000109,192.000000,0.000000,24.000000,127.500000,64.000000,15.500000,32.000000,0.000000,0.000000,0.000000,1772720792.318908,0.000000
234.000000,-8120.880499,-16437.361114,129.751877,-25614.518000,7944.905215,4723.571804,-16610.184802,-27311.820067,9595.626246,2818.286755,9492.227077,6243.021040,12176.828048,8654.237825,-14225.879517,-5661.249836,0.004281,-0.015594,1.000109,192.000000,0.000000,0.000000,0.000000,0.000000,0.000000,0.000000,0.000000,0.000000,0.000000,1772720792.318921,0.000000
236.000000,-8135.945575,-16456.315393,126.063839,-25618.116631,7935.428075,4719.079103,-16616.152718,-27328.159193,9602.354121,2814.397551,9497.926771,6246.463209,12198.531592,8666.307767,-14198.945665,-5652.845580,0.004281,-0.015594,1.000109,192.000000,0.000000,0.000000,0.000000,0.000000,0.000000,0.000000,0.000000,0.000000,0.000000,1772720792.318933,0.000000
238.000000,-8166.634520,-16479.628262,101.409865,-25627.303198,7907.108415,4710.406627,-16639.420884,-27354.936582,9568.580636,2789.944743,9460.040565,6216.176595,12167.619129,8635.663526,-14221.096244,-5657.785315,0.004281,-0.015594,1.000109,192.000000,0.000000,0.000000,0.000000,0.000000,0.000000,0.000000,0.000000,0.000000,0.000000,1772720792.318945,0.000000
240.000000,-8130.268232,-16443.843120,133.104638,-25590.981614,7947.498017,4775.584313,-16614.990427,-27327.488640,9574.123868,2803.579307,9468.221303,6227.732447,12183.377109,8662.642081,-14207.886363,-5633.533673,0.004281,-0.015594,1.000109,192.000000,0.000000,0.000000,0.000000,0.000000,0.000000,0.000000,0.000000,0.000000,0.000000,1772720792.318957,0.000000
242.000000,-8135.297374,-16448.380524,112.496330,-25597.933006,7931.561223,4772.879752,-16633.028285,-27336.652855,9592.497002,2822.243014,9487.376748,6240.092962,12189.590894,8690.805279,-14207.707549,-5609.572602,0.004281,-0.015594,1.000109,192.000000,0.000000,0.000000,0.000000,0.000000,0.000000,0.000000,0.000000,0.000000,0.000000,1772720792.318972,0.000000
244.000000,-8108.274115,-16419.569125,137.217359,-25572.921404,7953.935320,4808.687247,-16613.023473,-27310.657777,9592.653464,2826.445142,9484.359263,6240.875273,12185.478173,8688.950084,-14224.761930,-5600.386035,0.006000,-0.022000,1.000000,192.000000,0.000000,24.000000,127.500000,40.000000,15.500000,32.000000,0.000000,0.000000,0.000000,1772720792.318984,0.000000
246.000000,-8099.288714,-16415.009369,143.587606,-25570.194491,7952.504808,4801.110006,-16604.798031,-27301.739431,9626.963392,2857.469363,9518.020990,6275.252256,12231.790987,8722.321239,-14202.209020,-5580.291817,0.006000,-0.022000,1.000000,192.000000,0.000000,0.000000,0.000000,0.000000,0.000000,0.000000,0.000000,0.000000,0.000000,1772720792.318996,0.000000
248.000000,-8111.358656,-16428.934506,127.695516,-25591.361593,7923.134616,4763.492020,-16618.030264,-27312.669434,9615.586354,2838.537435,9501.681864,6255.046279,12202.286685,8685.306750,-14228.517023,-5604.141129,0.006000,-0.022000,1.000000,192.000000,0.000000,0.000000,0.000000,0.000000,0.000000,0.000000,0.000000,0.000000,0.000000,1772720792.319019,0.000000
250.000000,-8098.931086,-16410.673131,158.116240,-25577.928195,7945.754581,4770.599874,-16593.957435,-27293.312823,9617.508604,2849.042755,9512.522461,6264.009328,12218.290534,8694.873297,-14217.475261,-5612.478329,0.006000,-0.022000,1.000000,192.000000,0.000000,0.000000,0.000000,0.000000,0.000000,0.000000,0.000000,0.000000,0.000000,1772720792.319031,0.000000
252.000000,-8128.234223,-16440.199785,135.451571,-25609.019471,7918.753674,4732.020763,-16618.142023,-27319.486716,9613.373532,2841.376107,9507.359208,6257.795543,12216.658856,8689.061843,-14215.888288,-5629.622117,0.006000,-0.022000,1.000000,192.000000,0.000000,0.000000,0.000000,0.000000,0.000000,0.000000,0.000000,0.000000,0.000000,1772720792.319042,0.000000
254.000000,-8118.332400,-16428.934506,154.495258,-25602.425707,7938.445561,4741.632014,-16602.361691,-27304.466343,9604.879869,2825.662831,9495.602190,6244.138628,12203.739548,8663.290282,-14231.132177,-5661.071022,0.008000,-0.016000,0.998000,192.000000,0.000000,32.000000,127.500000,64.000000,15.500000,24.000000,0.000000,0.000000,0.000000,1772720792.319054,0.000000
0.000000,-8115.359618,-16427.749864,154.875237,-25603.208018,7939.674907,4737.698106,-16599.388909,-27302.186466,9618.179157,2843.320709,9524.257126,6268.122049,12230.338124,8688.681863,-14207.171107,-5655.393679,0.008000,-0.016000,0.998000,192.000000,0.000000,0.000000,0.000000,0.000000,0.000000,0.000000,0.000000,0.000000,0.000000,1772720792.319066,0.000000
2.000000,-8128.725961,-16444.178396,128.790752,-25615.568532,7922.642877,4725.516406,-16620.377197,-27323.107698,9601.951790,2824.992278,9499.089062,6245.591491,12197.838688,8655.668337,-14227.421788,-5672.336301,0.008000,-0.016000,0.998000,192.000000,0.000000,0.000000,0.000000,0.000000,0.000000,0.000000,0.000000,0.000000,0.000000,1772720792.319077,0.000000
4.000000,-8119.472339,-16429.403893,143.319385,-25591.473352,7952.817732,4760.005147,-16602.562857,-27312.222399,9601.504755,2832.614223,9497.524440,6252.721697,12206.108833,8672.923884,-14212.669636,-5659.372289,0.008000,-0.016000,0.998000,192.000000,0.000000,0.000000,0.000000,0.000000,0.000000,0.000000,0.000000,0.000000,0.000000,1772720792.319090,0.000000
6.000000,-8149.244863,-16460.875149,113.546862,-25613.534524,7930.398933,4750.125676,-16628.043846,-27340.676169,9589.948903,2831.295470,9485.476850,6247.871369,12197.257542,8679.227075,-14201.784337,-5640.172141,0.008000,-0.016000,0.998000,192.000000,0.000000,0.000000,0.000000,0.000000,0.000000,0.000000,0.000000,0.000000,0.000000,1772720792.319101,0.000000
8.000000,-8146.316784,-16460.249300,123.403981,-25606.806649,7949.934357,4776.344273,-16619.371369,-27338.284533,9569.072374,2797.633743,9458.408887,6219.238784,12180.136106,8654.170770,-14214.658942,-5639.792161,0.008000,-0.016000,1.008000,192.000000,0.000000,32.000000,127.500000,64.000000,15.500000,64.000000,0.000000,0.000000,0.000000,1772720792.319113,0.000000
10.000000,-8133.017496,-16452.023858,133.529321,-25597.910654,7961.333747,4790.627037,-16612.755252,-27329.276780,9590.284179,2815.492787,9484.023986,6241.903453,12201.280856,8683.630369,-14191.234313,-5613.059475,0.008000,-0.016000,1.008000,192.000000,0.000000,0.000000,0.000000,0.000000,0.000000,0.000000,0.000000,0.000000,0.000000,1772720792.319124,0.000000
12.000000,-8128.077761,-16451.912099,125.706211,-25603.744460,7944.771104,4786.044930,-16625.428692,-27333.076576,9600.253058,2810.910679,9477.497277,6232.068686,12199.403310,8673.080346,-14218.190517,-5618.401542,0.008000,-0.016000,1.008000,192.000000,0.000000,0.000000,0.000000,0.000000,0.000000,0.000000,0.000000,0.000000,0.000000,1772720792.319136,0.000000
14.000000,-8094.706606,-16417.490413,165.358205,-25573.860177,7982.076166,4823.081770,-16593.800973,-27299.034870,9631.053761,2835.855226,9510.913135,6256.946177,12234.428493,8688.994788,-14204.310084,-5608.902050,0.008000,-0.016000,1.008000,192.000000,0.000000,0.000000,0.000000,0.000000,0.000000,0.000000,0.000000,0.000000,0.000000,1772720792.319148,0.000000
16.000000,-8108.095301,-16435.707085,143.252330,-25595.429611,7951.923663,4789.285933,-16611.905886,-27317.184486,9641.536730,2842.918377,9523.988905,6263.271721,12245.760828,8695.722663,-14201.382005,-5610.958411,0.008000,-0.016000,1.008000,192.000000,0.000000,0.000000,0.000000,0.000000,0.000000,0.000000,0.000000,0.000000,0.000000,1772720792.319160,0.000000
18.000000,-8097.612333,-16428.912154,157.512743,-25591.026317,7959.635014,4789.576505,-16600.439441,-27305.740393,9632.774846,2827.339211,9508.208574,6240.316479,12231.031028,8670.889875,-14224.538413,-5634.047763,0.006000,-0.022000,1.008000,192.000000,0.000000,24.000000,127.500000,40.000000,15.500000,64.000000,0.000000,0.000000,0.000000,1772720792.319173,0.000000
20.000000,-8093.946647,-16424.531212,156.663377,-25590.780448,7956.170494,4779.987607,-16599.970055,-27303.058184,9650.946814,2842.784267,9532.169644,6265.596302,12257.763715,8697.242582,-14199.862087,-5628.258661,0.006000,-0.022000,1.008000,192.000000,0.000000,0.000000,0.000000,0.000000,0.000000,0.000000,0.000000,0.000000,0.000000,1772720792.319185,0.000000
22.000000,-8113.593830,-16437.070541,132.590548,-25607.991291,7929.191939,4754.014880,-16617.605581,-27318.972626,9629.735008,2834.000031,9508.834423,6252.408773,12221.218612,8667.246540,-14227.265325,-5656.690080,0.006000,-0.022000,1.008000,192.000000,0.000000,0.000000,0.000000,0.000000,0.000000,0.000000,0.000000,0.000000,0.000000,1772720792.319196,0.000000
24.000000,-8104.809595,-16419.211497,158.295054,-25585.438381,7956.215198,4772.455069,-16590.537618,-27297.291433,9619.341447,2842.851322,9512.142481,6264.009328,12220.860984,8680.210552,-14218.838718,-5658.589978,0.006000,-0.022000,1.008000,192.000000,0.000000,0.000000,0.000000,0.000000,0.000000,0.000000,0.000000,0.000000,0.000000,1772720792.319208,0.000000
26.000000,-8132.190482,-16451.979155,124.968603,-25608.326567,7926.129750,4740.112095,-16614.074005,-27324.314693,9608.098520,2838.805656,9507.359208,6261.036546,12216.167118,8677.371881,-14218.995180,-5663.730879,0.006000,-0.022000,1.008000,192.000000,0.000000,0.000000,0.000000,0.000000,0.000000,0.000000,0.000000,0.000000,0.000000,1772720792.319220,0.000000
28.000000,-8121.685162,-16442.054980,135.540978,-25599.564683,7940.323107,4755.087764,-16603.948665,-27312.669434,9595.290970,2812.520005,9485.588608,6232.828645,12190.909647,8647.867578,-14237.189500,-5674.906752,0.004000,-0.020000,1.004000,192.000000,0.000000,16.000000,127.500000,48.000000,15.500000,48.000000,0.000000,0.000000,0.000000,1772720792.319231,0.000000
30.000000,-8118.846490,-16431.795529,139.541941,-25595.451962,7951.744849,4766.263636,-16602.875781,-27304.309881,9605.796290,2838.336270,9511.695446,6265.685709,12221.620944,8681.909285,-14208.311046,-5655.416030,0.004000,-0.020000,1.004000,192.000000,0.000000,0.000000,0.000000,0.000000,0.000000,0.000000,0.000000,0.000000,0.000000,1772720792.319242,0.000000
32.000000,-8136.482017,-16449.721628,120.185330,-25615.970864,7935.495130,4754.841894,-16627.462700,-27328.159193,9588.965427,2828.613261,9489.991902,6251.045317,12200.453842,8660.585721,-14220.693913,-5659.595807,0.004000,-0.020000,1.004000,192.000000,0.000000,0.000000,0.000000,0.000000,0.000000,0.000000,0.000000,0.000000,0.000000,1772720792.319254,0.000000
34.000000,-8118.466511,-16429.761521,147.789734,-25593.596768,7968.151029,4784.793232,-16604.306293,-27314.815201,9598.308456,2835.095267,9495.803356,6254.688651,12225.532499,8672.499200,-14196.554029,-5639.881568,0.004000,-0.020000,1.004000,192.000000,0.000000,0.000000,0.000000,0.000000,0.000000,0.000000,0.000000,0.000000,0.000000,1772720792.319274,0.000000
36.000000,-8140.661793,-16456.337745,118.374839,-25613.400413,7942.871206,4764.788421,-16628.066197,-27345.593553,9599.738967,2832.815389,9491.690635,6245.166808,12220.011618,8674.667320,-14191.033148,-5631.432609,0.004000,-0.020000,1.004000,192.000000,0.000000,0.000000,0.000000,0.000000,0.000000,0.000000,0.000000,0.000000,0.000000,1772720792.319285,0.000000
38.000000,-8128.480092,-16441.764407,130.109504,-25598.156523,7959.590311,4790.470575,-16620.734825,-27334.864716,9587.534915,2814.799883,9467.036661,6219.104674,12196.721100,8660.630424,-14212.289657,-5629.756228,0.004000,-0.018000,1.006000,192.000000,0.000000,16.000000,127.500000,56.000000,15.500000,56.000000,0.000000,0.000000,0.000000,1772720792.319298,0.000000
40.000000,-8116.097226,-16426.341704,139.273720,-25584.521959,7964.820619,4800.506508,-16611.548258,-27318.212666,9607.852651,2845.533531,9497.435033,6253.928692,12225.934830,8705.602134,-14190.899037,-5609.773768,0.004000,-0.018000,1.006000,192.000000,0.000000,0.000000,0.000000,0.000000,0.000000,0.000000,0.000000,0.000000,0.000000,1772720792.319309,0.000000
42.000000,-8130.000011,-16441.362076,117.324307,-25596.547198,7931.404761,4776.992473,-16625.585154,-27327.242771,9600.141299,2839.051525,9485.655664,6248.139590,12206.712330,8682.468078,-14222.705570,-5627.074018,0.004000,-0.018000,1.006000,192.000000,0.000000,0.000000,0.000000,0.000000,0.000000,0.000000,0.000000,0.000000,0.000000,1772720792.319321,0.000000
44.000000,-8102.887345,-16410.561372,145.956891,-25572.407314,7955.991680,4793.689226,-16594.762098,-27295.995032,9607.182098,2853.580159,9501.301885,6267.451497,12221.442130,8688.503049,-14223.532584,-5623.341277,0.004000,-0.018000,1.006000,192.000000,0.000000,0.000000,0.000000,0.000000,0.000000,0.000000,0.000000,0.000000,0.000000,1772720792.319333,0.000000
46.000000,-8114.510252,-16426.632276,130.310670,-25594.669651,7928.968421,4749.902159,-16610.833002,-27312.512971,9610.423101,2859.548075,9511.494280,6272.502991,12227.432397,8689.665340,-14225.879517,-5631.700829,0.004000,-0.018000,1.006000,192.000000,0.000000,0.000000,0.000000,0.000000,0.000000,0.000000,0.000000,0.000000,0.000000,1772720792.319344,0.000000
48.000000,-8112.029208,-16429.381541,146.023947,-25592.188608,7937.707953,4751.980871,-16601.042938,-27305.539227,9600.230706,2834.961156,9497.569143,6247.290224,12207.673455,8664.273758,-14244.744390,-5652.152676,0.004000,-0.014000,1.006000,192.000000,0.000000,16.000000,127.500000,72.000000,15.500000,56.000000,0.000000,0.000000,0.000000,1772720792.319356,0.000000
50.000000,-8100.428653,-16414.070596,154.741127,-25589.819323,7944.324070,4746.974080,-16597.287845,-27291.032945,9616.927459,2856.731755,9526.224080,6275.006387,12236.306040,8688.815974,-14218.190517,-5653.650243,0.004000,-0.014000,1.006000,192.000000,0.000000,0.000000,0.000000,0.000000,0.000000,0.000000,0.000000,0.000000,0.000000,1772720792.319369,0.000000
52.000000,-8120.634630,-16438.031666,130.534188,-25611.120535,7921.838215,4733.093647,-16620.064273,-27310.680128,9608.456148,2843.387764,9507.247449,6264.098735,12220.078673,8660.049279,-14236.496596,-5671.531638,0.004000,-0.014000,1.006000,192.000000,0.000000,0.000000,0.000000,0.000000,0.000000,0.000000,0.000000,0.000000,0.000000,1772720792.319381,0.000000
54.000000,-8107.312990,-16420.999637,146.269816,-25591.003965,7954.449410,4766.598912,-16601.646435,-27302.387631,9615.809872,2846.069973,9508.119167,6267.183276,12222.962048,8670.487543,-14220.962134,-5662.345071,0.004000,-0.014000,1.006000,192.000000,0.000000,0.000000,0.000000,0.000000,0.000000,0.000000,0.000000,0.000000,0.000000,1772720792.319393,0.000000
56.000000,-8149.490732,-16456.024820,106.930745,-25615.099146,7926.219157,4744.940072,-16632.380084,-27344.587725,9587.534915,2839.878540,9490.617751,6254.442782,12206.377054,8673.817953,-14217.117633,-5652.219731,0.004000,-0.014000,1.006000,192.000000,0.000000,0.000000,0.000000,0.000000,0.000000,0.000000,0.000000,0.000000,0.000000,1772720792.319404,0.000000
58.000000,-8139.275985,-16446.793550,119.268908,-25605.242026,7942.893558,4762.866171,-16623.148814,-27336.854021,9565.920778,2821.617165,9464.600320,6224.737313,12180.672548,8651.510912,-14229.858128,-5649.179894,0.004000,-0.015000,1.008000,192.000000,0.000000,16.000000,127.500000,64.000000,15.500000,72.000000,0.000000,0.000000,0.000000,1772720792.799267,0.000000
60.000000,-8125.261441,-16434.254221,129.997746,-25593.485009,7958.316262,4787.877773,-16617.560878,-27322.146573,9585.366796,2839.744430,9493.724643,6252.252311,12212.233211,8687.452517,-14197.425747,-5618.379190,0.004000,-0.015000,1.008000,192.000000,0.000000,0.000000,0.000000,0.000000,0.000000,0.000000,0.000000,0.000000,0.000000,1772720792.799345,0.000000
62.000000,-8134.068028,-16445.273631,115.223243,-25606.136096,7938.378506,4771.806869,-16637.029247,-27337.234001,9578.549514,2836.391668,9478.793678,6242.171674,12194.865906,8672.745070,-14215.195383,-5618.133321,0.004000,-0.015000,1.008000,192.000000,0.000000,0.000000,0.000000,0.000000,0.000000,0.000000,0.000000,0.000000,0.000000,1772720792.799397,0.000000
64.000000,-8107.514156,-16419.032683,150.494295,-25576.721201,7973.962483,4807.949639,-16606.586171,-27311.976530,9595.872116,2853.311938,9495.825707,6253.615767,12214.155461,8693.018102,-14206.545258,-5611.785425,0.004000,-0.015000,1.008000,192.000000,0.000000,0.000000,0.000000,0.000000,0.000000,0.000000,0.000000,0.000000,0.000000,1772720792.799449,0.000000
66.000000,-8115.583136,-16427.168718,132.679955,-25591.115724,7946.022802,4778.065357,-16617.046787,-27315.731623,9607.316209,2866.454764,9507.001580,6268.122049,12224.034932,8704.104567,-14207.014645,-5603.425873,0.004000,-0.015000,1.008000,192.000000,0.000000,0.000000,0.000000,0.000000,0.000000,0.000000,0.000000,0.000000,0.000000,1772720792.799509,0.000000
68.000000,-8102.172089,-16412.818898,146.850961,-25585.550140,7953.823561,4776.143107,-16600.819421,-27293.938672,9603.941095,2855.681223,9501.704216,6262.176485,12215.205993,8676.231942,-14228.718189,-5628.415123,0.004000,-0.014500,1.007000,192.000000,0.000000,16.000000,127.500000,72.000000,15.500000,56.000000,0.000000,0.000000,0.000000,1772720792.799554,0.000000
70.000000,-8097.567630,-16413.176526,148.795563,-25585.930119,7956.081087,4774.176153,-16597.623121,-27290.518855,9620.034351,2871.506258,9530.247394,6285.265837,12244.017392,8698.673093,-14208.266343,-5621.731951,0.004000,-0.014500,1.007000,192.000000,0.000000,0.000000,0.000000,0.000000,0.000000,0.000000,0.000000,0.000000,0.000000,1772720792.799579,0.000000
72.000000,-8114.465548,-16428.442768,126.890853,-25601.665747,7933.483473,4754.663081,-16617.203250,-27311.708309,9606.980933,2855.413002,9506.420434,6265.819820,12212.166156,8672.320386,-14233.300296,-5642.250853,0.004000,-0.014500,1.007000,192.000000,0.000000,0.000000,0.000000,0.000000,0.000000,0.000000,0.000000,0.000000,0.000000,1772720792.799603,0.000000
74.000000,-8102.239144,-16411.768366,152.215380,-25583.896111,7963.725384,4777.394805,-16595.700871,-27297.023213,9606.019808,2862.140878,9509.773196,6271.161887,12224.191394,8680.299959,-14219.755139,-5638.853388,0.004000,-0.014500,1.007000,192.000000,0.000000,0.000000,0.000000,0.000000,0.000000,0.000000,0.000000,0.000000,0.000000,1772720792.799627,0.000000
76.000000,-8112.990333,-16423.838308,132.054106,-25601.933968,7943.228834,4754.260749,-16616.979732,-27312.311806,9605.595124,2860.777421,9512.611868,6273.397061,12228.058246,8680.881105,-14217.117633,-5643.636661,0.004000,-0.014500,1.007000,192.000000,0.000000,0.000000,0.000000,0.000000,0.000000,0.000000,0.000000,0.000000,0.000000,1772720792.799652,0.000000
78.000000,-8104.340208,-16415.098776,140.994804,-25593.060326,7953.331823,4765.950711,-16610.408319,-27304.064012,9602.979970,2846.762877,9502.575934,6260.455401,12212.747301,8660.675128,-14232.160357,-5658.947606,0.003000,-0.012250,1.006500,192.000000,0.000000,8.000000,127.500000,88.000000,15.500000,56.000000,0.000000,0.000000,0.000000,1772720792.799675,0.000000
80.000000,-8099.311066,-16401.955950,148.125011,-25583.158503,7970.341500,4775.897238,-16603.479279,-27297.514951,9606.600953,2871.238037,9521.329048,6287.456308,12232.059208,8696.259105,-14198.833907,-5642.586129,0.003000,-0.012250,1.006500,192.000000,0.000000,0.000000,0.000000,0.000000,0.000000,0.000000,0.000000,0.000000,0.000000,1772720792.799688,0.000000
82.000000,-8123.182729,-16433.226041,122.264042,-25604.817343,7946.983927,4754.618377,-16631.977753,-27330.103794,9595.179212,2856.083555,9496.317446,6265.104564,12214.468386,8674.332043,-14212.446119,-5647.235292,0.003000,-0.012250,1.006500,192.000000,0.000000,0.000000,0.000000,0.000000,0.000000,0.000000,0.000000,0.000000,0.000000,1772720792.799708,0.000000
84.000000,-8108.788205,-16423.637143,147.834438,-25587.472390,7983.149050,4784.815584,-16612.419976,-27321.967759,9596.788537,2845.846456,9494.551658,6256.320328,12224.884298,8676.544866,-14194.430613,-5634.628908,0.003000,-0.012250,1.006500,192.000000,0.000000,0.000000,0.000000,0.000000,0.000000,0.000000,0.000000,0.000000,0.000000,1772720792.799722,0.000000
86.000000,-8125.462607,-16445.944184,123.247519,-25605.711413,7959.322090,4775.517258,-16636.917488,-27348.745149,9603.851688,2838.112752,9490.975379,6243.423372,12232.439188,8676.768384,-14189.177953,-5618.982687,0.003000,-0.012250,1.006500,192.000000,0.000000,0.000000,0.000000,0.000000,0.000000,0.000000,0.000000,0.000000,0.000000,1772720792.799734,0.000000
88.000000,-8116.499557,-16435.371808,133.395211,-25593.507361,7965.669985,4795.007979,-16627.060369,-27335.043530,9600.431871,2824.791113,9477.363166,6230.682877,12216.033008,8662.262101,-14209.741558,-5613.886489,0.003500,-0.013125,1.011250,192.000000,0.000000,16.000000,127.500000,72.000000,15.500000,96.000000,0.000000,0.000000,0.000000,1772720792.799747,0.000000
90.000000,-8102.663827,-16418.384483,140.257196,-25584.119628,7968.128677,4792.482232,-16618.566706,-27321.923056,9620.928421,2854.720098,9506.800414,6263.361128,12246.587842,8690.134727,-14192.687177,-5600.989533,0.003500,-0.013125,1.011250,192.000000,0.000000,0.000000,0.000000,0.000000,0.000000,0.000000,0.000000,0.000000,0.000000,1772720792.799758,0.000000
92.000000,-8109.078778,-16424.195936,126.153246,-25598.760021,7939.272575,4754.551322,-16628.468529,-27328.941504,9618.760302,2849.132162,9494.574010,6253.615767,12230.204014,8670.241674,-14219.486918,-5620.614364,0.003500,-0.013125,1.011250,192.000000,0.000000,0.000000,0.000000,0.000000,0.000000,0.000000,0.000000,0.000000,0.000000,1772720792.799783,0.000000
94.000000,-8093.410205,-16405.420471,157.400984,-25580.677459,7959.456201,4761.569770,-16597.287845,-27301.270044,9623.610630,2857.558770,9507.761539,6265.506895,12238.988249,8677.438936,-14215.597715,-5635.724143,0.003500,-0.013125,1.011250,192.000000,0.000000,0.000000,0.000000,0.000000,0.000000,0.000000,0.000000,0.000000,0.000000,1772720792.799794,0.000000
96.000000,-8102.663827,-16415.478756,142.693537,-25596.949529,7937.551491,4735.351173,-16607.748462,-27304.868675,9624.750569,2858.855171,9520.680847,6274.089965,12241.044610,8680.210552,-14216.804709,-5646.564740,0.003500,-0.013125,1.011250,192.000000,0.000000,0.000000,0.000000,0.000000,0.000000,0.000000,0.000000,0.000000,0.000000,1772720792.799806,0.000000
98.000000,-8097.321760,-16412.103642,151.656586,-25593.797933,7944.011145,4745.632976,-16596.639645,-27295.905625,9612.434758,2845.332366,9508.499147,6262.467058,12219.609287,8651.488561,-14239.514081,-5672.023376,0.004750,-0.012563,1.009625,192.000000,0.000000,24.000000,127.500000,80.000000,15.500000,64.000000,0.000000,0.000000,0.000000,1772720792.799819,0.000000
100.000000,-8097.701740,-16409.488488,152.081269,-25590.825151,7949.710840,4755.959482,-16593.532752,-27295.972681,9623.498872,2861.358566,9528.593365,6282.605980,12245.000868,8679.070613,-14215.620067,-5664.624949,0.004750,-0.012563,1.009625,192.000000,0.000000,0.000000,0.000000,0.000000,0.000000,0.000000,0.000000,0.000000,0.000000,1772720792.799838,0.000000
102.000000,-8123.406246,-16435.081236,122.018173,-25613.355710,7924.878052,4729.740885,-16621.137157,-27325.655797,9600.074244,2842.426639,9496.652722,6255.269796,12215.630676,8654.103715,-14232.875613,-5671.799859,0.004750,-0.012563,1.009625,192.000000,0.000000,0.000000,0.000000,0.000000,0.000000,0.000000,0.000000,0.000000,0.000000,1772720792.799851,0.000000
104.000000,-8113.079740,-16425.402930,143.788772,-25596.726012,7955.321128,4758.440525,-16604.015720,-27311.864771,9592.497002,2840.839665,9491.422414,6252.475828,12219.966915,8656.562407,-14222.750273,-5660.981615,0.004750,-0.012563,1.009625,192.000000,0.000000,0.000000,0.000000,0.000000,0.000000,0.000000,0.000000,0.000000,0.000000,1772720792.799863,0.000000
106.000000,-8126.356676,-16441.317372,120.721772,-25611.813439,7937.864415,4733.540682,-16625.294581,-27326.058129,9589.635979,2837.889235,9492.875277,6252.945215,12211.227383,8654.282529,-14214.256610,-5650.096315,0.004750,-0.012563,1.009625,192.000000,0.000000,0.000000,0.000000,0.000000,0.000000,0.000000,0.000000,0.000000,0.000000,1772720792.799875,0.000000
108.000000,-8119.159415,-16434.388332,127.717868,-25600.905788,7958.584483,4765.257807,-16618.857279,-27319.978454,9579.756508,2822.332421,9474.010405,6237.097828,12191.580199,8636.088209,-14228.762892,-5645.000117,0.006375,-0.013281,1.004812,192.000000,0.000000,32.000000,127.500000,72.000000,15.500000,32.000000,0.000000,0.000000,0.000000,1772720792.799888,0.000000
110.000000,-8118.958249,-16435.707085,135.742144,-25595.653128,7981.718538,4786.648427,-16617.203250,-27324.001768,9598.509621,2842.717212,9496.876239,6254.621596,12223.632601,8676.813087,-14194.520020,-5611.740722,0.006375,-0.013281,1.004812,192.000000,0.000000,0.000000,0.000000,0.000000,0.000000,0.000000,0.000000,0.000000,0.000000,1772720792.799900,0.000000
112.000000,-8139.119522,-16457.589442,112.876309,-25616.350843,7956.483419,4764.766069,-16639.175014,-27347.828728,9584.875057,2821.505406,9469.696518,6228.470055,12205.214763,8649.208683,-14211.037959,-5614.355876,0.006375,-0.013281,1.004812,192.000000,0.000000,0.000000,0.000000,0.000000,0.000000,0.000000,0.000000,0.000000,0.000000,1772720792.799912,0.000000
114.000000,-8119.941726,-16438.791625,140.078383,-25591.719221,7977.158782,4784.167383,-16610.900058,-27320.269027,9586.998473,2826.646307,9479.240713,6238.416581,12210.892106,8655.578930,-14204.243029,-5612.031294,0.006375,-0.013281,1.004812,192.000000,0.000000,0.000000,0.000000,0.000000,0.000000,0.000000,0.000000,0.000000,0.000000,1772720792.799927,0.000000
116.000000,-8127.049580,-16447.866434,118.888929,-25605.778468,7948.906177,4762.843819,-16628.736750,-27330.707291,9591.625284,2832.860092,9486.326216,6248.452514,12213.641371,8665.547808,-14205.986465,-5610.086693,0.006375,-0.013281,1.004812,192.000000,0.000000,0.000000,0.000000,0.000000,0.000000,0.000000,0.000000,0.000000,0.000000,1772720792.799939,0.000000
118.000000,-8115.672543,-16434.455387,128.924862,-25598.961186,7965.111192,4769.728156,-16620.198383,-27322.839477,9587.333749,2822.645345,9470.791754,6234.840302,12203.337217,8644.715982,-14230.148700,-5625.352934,0.008188,-0.013641,1.000406,192.000000,0.000000,40.000000,127.500000,72.000000,15.500000,16.000000,0.000000,0.000000,0.000000,1772720792.799951,0.000000
120.000000,-8106.933010,-16422.541907,138.603167,-25592.255663,7965.379413,4764.788421,-16610.073043,-27312.647082,9604.745758,2847.925168,9497.166812,6260.723622,12232.036857,8674.868485,-14208.400453,-5616.032257,0.008188,-0.013641,1.000406,192.000000,0.000000,0.000000,0.000000,0.000000,0.000000,0.000000,0.000000,0.000000,0.000000,1772720792.799963,0.000000
122.000000,-8117.281868,-16434.589497,123.471036,-25612.327529,7936.456255,4726.879862,-16624.355808,-27324.292341,9596.989703,2833.530645,9483.174620,6245.077401,12211.406197,8647.465247,-14231.981544,-5642.116742,0.008188,-0.013641,1.000406,192.000000,0.000000,0.000000,0.000000,0.000000,0.000000,0.000000,0.000000,0.000000,0.000000,1772720792.799975,0.000000
124.000000,-8098.059368,-16414.025892,150.650758,-25594.110858,7965.200599,4742.704897,-16597.198438,-27300.845361,9610.221936,2844.192427,9499.871373,6254.889817,12223.118511,8653.433162,-14224.426654,-5654.790181,0.008188,-0.013641,1.000406,192.000000,0.000000,0.000000,0.000000,0.000000,0.000000,0.000000,0.000000,0.000000,0.000000,1772720792.799987,0.000000
126.000000,-8116.723075,-16438.836329,126.354411,-25613.847448,7939.786665,4719.928470,-16617.627933,-27323.197105,9605.237497,2845.265310,9502.687693,6258.689613,12226.717141,8655.847151,-14222.862032,-5663.976748,0.008188,-0.013641,1.000406,192.000000,0.000000,0.000000,0.000000,0.000000,0.000000,0.000000,0.000000,0.000000,0.000000,1772720792.799999,0.000000
128.000000,-8113.258554,-16430.163852,132.434086,-25607.968939,7950.224930,4730.344383,-16610.162450,-27318.592646,9595.425081,2831.541339,9481.766460,6241.098790,12214.066054,8630.097941,-14241.816311,-5681.165240,0.008188,-0.013641,1.000406,192.000000,0.000000,0.000000,0.000000,0.000000,0.000000,0.000000,0.000000,0.000000,0.000000,1772720792.800012,0.000000
130.000000,-8116.164281,-16425.738207,137.552635,-25599.676442,7958.025689,4741.073220,-16603.121651,-27313.339986,9595.045101,2852.931959,9498.083234,6263.584645,12220.637467,8658.194084,-14212.468471,-5664.915522,0.010000,-0.018000,0.998000,192.000000,0.000000,40.000000,127.500000,56.000000,15.500000,24.000000,0.000000,0.000000,0.000000,1772720792.800024,0.000000
132.000000,-8141.064124,-16445.608907,112.921013,-25618.720128,7933.841101,4717.425074,-16627.954439,-27336.898725,9574.637958,2833.552996,9471.842286,6240.204721,12190.999054,8630.924956,-14230.215756,-5669.274112,0.010000,-0.018000,0.998000,192.000000,0.000000,0.000000,0.000000,0.000000,0.000000,0.000000,0.000000,0.000000,0.000000,1772720792.800036,0.000000
134.000000,-8114.420845,-16419.837346,144.101697,-25593.887340,7975.527105,4753.076107,-16607.055558,-27313.071765,9583.153973,2846.069973,9481.118260,6248.966604,12201.034987,8644.537168,-14213.921334,-5653.806705,0.010000,-0.018000,0.998000,192.000000,0.000000,0.000000,0.000000,0.000000,0.000000,0.000000,0.000000,0.000000,0.000000,1772720792.800049,0.000000
136.000000,-8125.261441,-16432.577840,126.488522,-25610.181762,7963.434811,4747.309357,-16629.764930,-27332.853059,9599.358988,2855.658872,9493.411719,6259.203703,12222.000923,8659.579892,-14196.218752,-5640.328603,0.010000,-0.018000,0.998000,192.000000,0.000000,0.000000,0.000000,0.000000,0.000000,0.000000,0.000000,0.000000,0.000000,1772720792.800062,0.000000
138.000000,-8127.071932,-16435.617678,134.646909,-25603.655053,7977.359948,4766.285988,-16627.194479,-27335.915248,9592.921685,2839.498560,9472.110507,6238.662450,12201.593781,8640.871482,-14211.552049,-5640.127437,0.010000,-0.018000,0.998000,192.000000,0.000000,0.000000,0.000000,0.000000,0.000000,0.000000,0.000000,0.000000,0.000000,1772720792.800074,0.000000
140.000000,-8122.959211,-16433.628372,142.425316,-25594.379079,7982.634960,4775.897238,-16618.566706,-27329.455594,9603.270543,2852.529627,9490.930675,6254.375727,12231.232194,8674.242636,-14185.467563,-5618.200376,0.012000,-0.014000,1.002000,192.000000,0.000000,48.000000,127.500000,72.000000,15.500000,40.000000,0.000000,0.000000,0.000000,1772720792.800086,0.000000
142.000000,-8127.228394,-16437.942259,123.269871,-25606.739593,7954.985852,4750.170380,-16631.418959,-27334.082405,9594.508659,2845.220607,9479.151306,6242.708116,12206.868792,8653.679032,-14209.920372,-5626.269356,0.012000,-0.014000,1.002000,192.000000,0.000000,0.000000,0.000000,0.000000,0.000000,0.000000,0.000000,0.000000,0.000000,1772720792.800097,0.000000
144.000000,-8096.517098,-16405.643988,150.159019,-25583.113799,7979.952750,4768.498810,-16601.825249,-27301.605320,9604.633999,2862.744375,9495.266914,6260.768325,12217.619981,8666.888913,-14207.729901,-5625.308231,0.012000,-0.014000,1.002000,192.000000,0.000000,0.000000,0.000000,0.000000,0.000000,0.000000,0.000000,0.000000,0.000000,1772720792.800110,0.000000
146.000000,-8098.729920,-16409.264971,130.958871,-25599.072945,7957.422192,4743.330746,-16616.532697,-27312.512971,9613.619401,2878.591761,9509.057940,6277.822706,12227.253583,8678.578875,-14211.462642,-5631.164388,0.012000,-0.014000,1.002000,192.000000,0.000000,0.000000,0.000000,0.000000,0.000000,0.000000,0.000000,0.000000,0.000000,1772720792.800124,0.000000
148.000000,-8098.752272,-16416.171660,143.900531,-25596.770715,7963.300701,4745.521217,-16608.508421,-27309.249617,9609.193755,2858.005805,9493.523478,6255.605072,12207.271124,8655.578930,-14235.110788,-5646.520036,0.012000,-0.014000,1.002000,192.000000,0.000000,0.000000,0.000000,0.000000,0.000000,0.000000,0.000000,0.000000,0.000000,1772720792.800136,0.000000
150.000000,-8098.260534,-16409.957875,154.964644,-25589.171122,7969.112154,4741.319089,-16598.472488,-27299.616015,9616.592183,2875.127241,9519.227984,6277.845058,12234.964935,8680.836401,-14213.898982,-5638.920443,0.008000,-0.010000,1.008000,192.000000,0.000000,32.000000,127.500000,88.000000,15.500000,64.000000,0.000000,0.000000,0.000000,1772720792.800148,0.000000
152.000000,-8116.320743,-16435.930602,131.607071,-25606.940759,7941.150122,4723.750618,-16617.426767,-27317.452707,9601.661217,2854.474229,9499.670207,6256.297977,12215.250697,8653.522569,-14235.379009,-5656.734783,0.008000,-0.010000,1.008000,192.000000,0.000000,0.000000,0.000000,0.000000,0.000000,0.000000,0.000000,0.000000,0.000000,1772720792.800161,0.000000
154.000000,-8093.410205,-16414.294113,158.697386,-25588.165294,7969.112154,4748.292833,-16593.868028,-27295.123314,9610.423101,2851.300281,9505.302847,6259.717793,12210.489775,8657.568235,-14229.835776,-5657.338280,0.008000,-0.010000,1.008000,192.000000,0.000000,0.000000,0.000000,0.000000,0.000000,0.000000,0.000000,0.000000,0.000000,1772720792.800174,0.000000
156.000000,-8109.816385,-16425.469986,136.189179,-25602.448058,7955.656404,4730.612603,-16614.006950,-27312.512971,9610.132529,2857.938750,9509.236754,6269.172581,12220.548060,8668.297072,-14216.603543,-5654.454905,0.008000,-0.010000,1.008000,192.000000,0.000000,0.000000,0.000000,0.000000,0.000000,0.000000,0.000000,0.000000,0.000000,1772720792.800186,0.000000
158.000000,-8096.561801,-16414.584686,148.348528,-25588.947605,7976.331768,4758.082897,-16608.083738,-27304.913378,9608.500851,2854.027194,9496.920943,6255.649776,12209.282781,8656.383593,-14229.276982,-5653.203208,0.008000,-0.010000,1.008000,192.000000,0.000000,0.000000,0.000000,0.000000,0.000000,0.000000,0.000000,0.000000,0.000000,1772720792.800199,0.000000
160.000000,-8092.225563,-16405.599285,155.299920,-25578.442285,7990.659236,4777.059528,-16601.937008,-27298.789000,9622.940078,2874.479040,9521.641972,6281.309579,12240.128188,8693.711006,-14195.548200,-5623.363629,0.006000,-0.010000,1.000000,192.000000,0.000000,24.000000,127.500000,88.000000,15.500000,32.000000,0.000000,0.000000,0.000000,1772720792.800211,0.000000
162.000000,-8118.287697,-16427.906326,128.522531,-25598.335337,7965.513523,4764.117868,-16625.115767,-27323.845306,9603.404653,2860.732718,9496.652722,6261.885913,12211.495604,8674.019119,-14210.501517,-5623.609498,0.006000,-0.010000,1.000000,192.000000,0.000000,0.000000,0.000000,0.000000,0.000000,0.000000,0.000000,0.000000,0.000000,1772720792.800224,0.000000
164.000000,-8108.117653,-16416.216363,154.115278,-25578.263471,8003.489137,4797.645485,-16602.451098,-27311.887123,9599.358988,2863.012596,9493.545829,6264.210494,12212.322618,8678.310654,-14197.582209,-5609.438492,0.006000,-0.010000,1.000000,192.000000,0.000000,0.000000,0.000000,0.000000,0.000000,0.000000,0.000000,0.000000,0.000000,1772720792.800236,0.000000
166.000000,-8127.317801,-16438.322239,125.460342,-25596.748364,7978.298721,4775.651369,-16626.389817,-27338.642161,9601.616514,2859.548075,9493.992864,6261.483581,12220.749226,8683.138631,-14189.423822,-5601.414216,0.006000,-0.010000,1.000000,192.000000,0.000000,0.000000,0.000000,0.000000,0.000000,0.000000,0.000000,0.000000,0.000000,1772720792.800247,0.000000
168.000000,-8123.026266,-16433.829538,128.477827,-25592.456829,7983.931361,4783.385072,-16621.427729,-27333.322446,9589.144241,2841.532569,9471.372899,6239.377706,12198.844516,8657.791753,-14210.702683,-5609.997286,0.006000,-0.010000,1.000000,192.000000,0.000000,0.000000,0.000000,0.000000,0.000000,0.000000,0.000000,0.000000,0.000000,1772720792.800259,0.000000
170.000000,-8114.845528,-16424.374750,135.988013,-25586.667727,7998.571753,4781.351063,-16610.833002,-27324.180582,9599.291932,2857.737584,9491.690635,6259.404869,12218.514051,8683.697424,-14187.479220,-5596.206259,0.008000,-0.010000,0.996000,192.000000,0.000000,32.000000,127.500000,88.000000,15.500000,16.000000,0.000000,0.000000,0.000000,1772720792.800272,0.000000
172.000000,-8126.513139,-16438.813977,117.592528,-25603.565646,7971.503791,4752.606720,-16624.556974,-27336.362283,9586.283217,2842.292528,9475.150344,6243.937462,12200.185621,8657.724697,-14206.925238,-5612.500681,0.008000,-0.010000,0.996000,192.000000,0.000000,0.000000,0.000000,0.000000,0.000000,0.000000,0.000000,0.000000,0.000000,1772720792.800284,0.000000
174.000000,-8103.289676,-16416.149308,148.102659,-25580.163369,7986.166535,4762.799116,-16596.036148,-27308.981396,9592.474650,2852.864904,9488.919018,6254.487485,12210.087444,8663.312633,-14209.071005,-5620.614364,0.008000,-0.010000,0.996000,192.000000,0.000000,0.000000,0.000000,0.000000,0.000000,0.000000,0.000000,0.000000,0.000000,1772720792.800296,0.000000
176.000000,-8114.778473,-16429.202727,130.333022,-25595.854294,7951.454276,4731.327859,-16608.597828,-27320.269027,9601.840031,2858.609302,9503.000617,6265.238674,12213.976647,8671.493372,-14214.368369,-5634.114818,0.008000,-0.010000,0.996000,192.000000,0.000000,0.000000,0.000000,0.000000,0.000000,0.000000,0.000000,0.000000,0.000000,1772720792.800309,0.000000
178.000000,-8106.508327,-16419.502070,142.917054,-25589.238177,7957.712764,4729.942051,-16597.444307,-27308.981396,9593.748700,2847.254616,9490.975379,6252.297014,12200.207973,8648.225206,-14238.843529,-5656.220693,0.008000,-0.010000,0.996000,192.000000,0.000000,0.000000,0.000000,0.000000,0.000000,0.000000,0.000000,0.000000,0.000000,1772720793.279293,0.000000
180.000000,-8107.558859,-16419.524422,148.192066,-25586.243044,7959.679718,4739.955633,-16594.382119,-27305.874503,9603.538764,2862.766726,9509.169699,6273.866448,12214.915420,8675.807259,-14217.877593,-5645.201283,0.004000,-0.012000,1.002000,192.000000,0.000000,16.000000,127.500000,80.000000,15.500000,40.000000,0.000000,0.000000,0.000000,1772720793.279371,0.000000
182.000000,-8118.555918,-16430.208555,129.371897,-25599.363518,7940.256052,4726.857510,-16615.437462,-27322.526553,9593.145203,2851.836723,9492.875277,6261.684747,12200.163269,8658.305843,-14236.004858,-5653.203208,0.004000,-0.012000,1.002000,192.000000,0.000000,0.000000,0.000000,0.000000,0.000000,0.000000,0.000000,0.000000,0.000000,1772720793.279428,0.000000
184.000000,-8096.807670,-16404.369939,161.960740,-25569.725105,7980.511544,4771.158668,-16590.872895,-27299.124277,9602.711749,2865.538343,9504.565239,6271.117183,12217.061188,8678.422413,-14221.520927,-5638.384001,0.004000,-0.012000,1.002000,192.000000,0.000000,0.000000,0.000000,0.000000,0.000000,0.000000,0.000000,0.000000,0.000000,1772720793.279475,0.000000
186.000000,-8114.957287,-16420.642009,141.844170,-25585.192512,7970.140334,4753.500790,-16614.275171,-27321.811297,9613.015904,2879.061148,9514.087083,6281.197820,12230.963973,8693.755709,-14207.126404,-5622.246042,0.004000,-0.012000,1.002000,192.000000,0.000000,0.000000,0.000000,0.000000,0.000000,0.000000,0.000000,0.000000,0.000000,1772720793.279521,0.000000
188.000000,-8127.675429,-16431.460253,140.547769,-25584.432552,7980.265675,4761.346252,-16614.610447,-27329.567352,9598.017883,2863.079651,9483.599303,6254.845113,12210.355665,8668.900570,-14219.822195,-5619.161501,0.004000,-0.012000,1.002000,192.000000,0.000000,0.000000,0.000000,0.000000,0.000000,0.000000,0.000000,0.000000,0.000000,1772720793.279569,0.000000
190.000000,-8134.135083,-16437.249355,139.944272,-25586.935948,7990.167497,4771.449241,-16612.755252,-27333.188335,9596.788537,2863.727851,9489.187239,6261.617692,12227.790025,8684.949122,-14193.648302,-5597.234440,0.004000,-0.010000,1.006000,192.000000,0.000000,16.000000,127.500000,88.000000,15.500000,56.000000,0.000000,0.000000,0.000000,1772720793.279584,0.000000
192.000000,-8150.697726,-16455.443675,114.485635,-25609.555913,7971.369680,4759.647520,-16637.230413,-27356.478853,9584.562133,2848.796886,9468.914207,6239.802389,12205.594743,8664.430221,-14208.243991,-5605.482233,0.004000,-0.010000,1.006000,192.000000,0.000000,0.000000,0.000000,0.000000,0.000000,0.000000,0.000000,0.000000,0.000000,1772720793.279597,0.000000
194.000000,-8126.580194,-16428.465119,143.207627,-25586.108933,8006.551326,4807.681418,-16613.470508,-27332.271914,9592.251133,2856.798811,9474.211571,6245.658546,12214.915420,8678.556523,-14198.453927,-5597.122681,0.004000,-0.010000,1.006000,192.000000,0.000000,0.000000,0.000000,0.000000,0.000000,0.000000,0.000000,0.000000,0.000000,1772720793.279609,0.000000
196.000000,-8137.957232,-16445.944184,124.588624,-25601.978672,7989.720463,4775.852534,-16628.669695,-27344.028931,9604.857517,2857.089383,9487.577914,6252.744049,12229.913441,8686.960779,-14190.072023,-5591.221820,0.004000,-0.010000,1.006000,192.000000,0.000000,0.000000,0.000000,0.000000,0.000000,0.000000,0.000000,0.000000,0.000000,1772720793.279622,0.000000
198.000000,-8137.286679,-16437.361114,132.925824,-25594.893169,7998.616457,4771.248075,-16617.806747,-27333.791832,9587.601970,2840.035002,9468.087193,6238.014250,12208.969856,8660.049279,-14210.859145,-5608.969105,0.004000,-0.010000,1.006000,192.000000,0.000000,0.000000,0.000000,0.000000,0.000000,0.000000,0.000000,0.000000,0.000000,1772720793.279634,0.000000
200.000000,-8120.925202,-16422.720721,152.550656,-25586.421858,8007.534803,4762.262674,-16600.797069,-27317.519762,9601.840031,2869.315787,9497.323274,6268.144401,12237.557738,8690.738224,-14188.194476,-5605.415178,0.005000,-0.010000,1.003000,192.000000,0.000000,24.000000,127.500000,88.000000,15.500000,32.000000,0.000000,0.000000,0.000000,1772720793.279647,0.000000
202.000000,-8132.570461,-16442.949050,135.988013,-25603.029204,7977.248189,4720.956650,-16616.175069,-27328.181544,9602.264715,2846.740526,9490.617751,6253.056974,12229.667572,8663.245578,-14211.976732,-5631.611422,0.005000,-0.010000,1.003000,192.000000,0.000000,0.000000,0.000000,0.000000,0.000000,0.000000,0.000000,0.000000,0.000000,1772720793.279659,0.000000
204.000000,-8103.647304,-16412.997712,166.699310,-25581.593881,7996.403634,4737.206368,-16588.213037,-27299.906588,9613.842918,2857.625825,9502.486527,6263.629349,12235.769598,8670.979282,-14214.122500,-5643.211978,0.005000,-0.010000,1.003000,192.000000,0.000000,0.000000,0.000000,0.000000,0.000000,0.000000,0.000000,0.000000,0.000000,1772720793.279672,0.000000
206.000000,-8108.967019,-16425.224116,145.263987,-25598.849428,7972.017881,4722.275403,-16605.490936,-27312.602378,9634.160654,2861.872657,9517.842176,6271.966549,12245.894938,8681.953988,-14212.334360,-5649.761039,0.005000,-0.010000,1.003000,192.000000,0.000000,0.000000,0.000000,0.000000,0.000000,0.000000,0.000000,0.000000,0.000000,1772720793.279684,0.000000
208.000000,-8116.074874,-16426.721683,150.516647,-25591.786276,7978.254018,4724.041191,-16598.450136,-27308.512009,9623.521223,2845.779401,9499.737263,6253.079325,12221.397426,8660.563369,-14235.222546,-5659.707565,0.005000,-0.010000,1.003000,192.000000,0.000000,0.000000,0.000000,0.000000,0.000000,0.000000,0.000000,0.000000,0.000000,1772720793.279697,0.000000
210.000000,-8112.900926,-16413.511802,158.697386,-25580.789218,7991.262733,4741.050868,-16592.817496,-27303.706384,9614.602877,2867.371186,9512.500109,6275.229904,12249.471217,8692.056977,-14208.825136,-5638.182835,0.008500,-0.010000,1.003500,192.000000,0.000000,48.000000,127.500000,88.000000,15.500000,48.000000,0.000000,0.000000,0.000000,1772720793.279718,0.000000
212.000000,-8140.482979,-16440.244489,131.137685,-25601.553989,7965.781744,4717.670943,-16619.281962,-27334.149460,9603.874040,2858.564598,9492.160021,6258.756668,12224.817243,8669.414660,-14221.967962,-5638.406353,0.008500,-0.010000,1.003500,192.000000,0.000000,0.000000,0.000000,0.000000,0.000000,0.000000,0.000000,0.000000,0.000000,1772720793.279730,0.000000
214.000000,-8139.432447,-16435.640029,147.499162,-25587.070058,7991.285085,4754.439563,-16605.245066,-27330.640236,9593.972217,2849.199217,9482.682882,6252.073497,12214.893069,8665.436049,-14213.519003,-5626.559928,0.008500,-0.010000,1.003500,192.000000,0.000000,0.000000,0.000000,0.000000,0.000000,0.000000,0.000000,0.000000,0.000000,1772720793.279743,0.000000
216.000000,-8167.953273,-16460.450466,121.705249,-25610.181762,7965.513523,4732.177226,-16629.206136,-27359.988077,9583.198676,2844.862979,9474.703309,6244.652718,12215.317752,8663.357337,-14203.416014,-5614.467634,0.008500,-0.010000,1.003500,192.000000,0.000000,0.000000,0.000000,0.000000,0.000000,0.000000,0.000000,0.000000,0.000000,1772720793.279755,0.000000
218.000000,-8173.787078,-16468.430039,123.962775,-25605.420840,7970.028576,4739.732115,-16626.970962,-27360.882146,9561.137505,2822.511235,9446.249538,6218.523528,12185.053490,8635.350601,-14221.006837,-5628.057495,0.008500,-0.010000,1.003500,192.000000,0.000000,0.000000,0.000000,0.000000,0.000000,0.000000,0.000000,0.000000,0.000000,1772720793.279767,0.000000
220.000000,-8158.900816,-16453.208501,135.183350,-25592.881512,7987.306474,4762.396784,-16616.331532,-27346.957010,9573.699185,2839.163284,9469.204780,6241.434066,12214.513089,8667.559465,-14193.894171,-5601.771844,0.007250,-0.011000,1.004750,192.000000,0.000000,24.000000,127.500000,80.000000,15.500000,56.000000,0.000000,0.000000,0.000000,1772720793.279779,0.000000
222.000000,-8169.495543,-16467.021879,114.239766,-25616.172030,7971.593198,4740.827351,-16637.789206,-27363.094969,9572.335729,2827.473322,9456.687803,6230.951098,12201.616132,8647.956985,-14207.171107,-5610.779597,0.007250,-0.011000,1.004750,192.000000,0.000000,0.000000,0.000000,0.000000,0.000000,0.000000,0.000000,0.000000,0.000000,1772720793.279791,0.000000
224.000000,-8141.868787,-16438.590460,146.895665,-25598.625910,8010.015846,4770.063432,-16613.783433,-27338.664512,9584.338615,2836.034040,9467.953082,6234.505026,12214.691903,8654.863674,-14197.045767,-5609.662009,0.007250,-0.011000,1.004750,192.000000,0.000000,0.000000,0.000000,0.000000,0.000000,0.000000,0.000000,0.000000,0.000000,1772720793.279813,0.000000
226.000000,-8146.406191,-16445.564204,132.612900,-25614.115669,7997.744739,4746.482342,-16627.842680,-27348.208707,9598.934305,2849.601549,9485.767422,6243.758648,12235.434322,8668.677052,-14187.300406,-5608.544422,0.007250,-0.011000,1.004750,192.000000,0.000000,0.000000,0.000000,0.000000,0.000000,0.000000,0.000000,0.000000,0.000000,1772720793.279826,0.000000
228.000000,-8134.157435,-16432.801358,143.140571,-25600.928140,8001.745701,4752.562017,-16615.839793,-27331.757823,9596.699130,2839.722078,9476.290283,6231.241671,12213.529612,8649.298090,-14210.233296,-5628.079847,0.007250,-0.011000,1.004750,192.000000,0.000000,0.000000,0.000000,0.000000,0.000000,0.000000,0.000000,0.000000,0.000000,1772720793.279838,0.000000
230.000000,-8111.112787,-16406.515706,161.469002,-25580.141017,8009.792329,4760.027499,-16595.566761,-27302.633500,9617.150976,2875.641331,9511.382522,6272.681805,12243.816226,8697.063768,-14194.140040,-5624.369457,0.004625,-0.011500,1.005375,192.000000,0.000000,8.000000,127.500000,80.000000,15.500000,56.000000,0.000000,0.000000,0.000000,1772720793.279850,0.000000
232.000000,-8127.138987,-16421.916058,141.955929,-25597.575378,7970.810887,4730.925528,-16611.011816,-27313.898780,9609.998418,2871.193334,9503.201783,6267.518552,12226.158348,8681.551657,-14220.045712,-5646.698850,0.004625,-0.011500,1.005375,192.000000,0.000000,0.000000,0.000000,0.000000,0.000000,0.000000,0.000000,0.000000,0.000000,1772720793.279863,0.000000
234.000000,-8099.758100,-16394.915151,172.287246,-25576.251814,7992.581486,4746.907025,-16582.893322,-27285.668526,9610.847784,2871.059224,9512.611868,6275.274608,12230.651048,8678.981206,-14219.576325,-5653.873760,0.004625,-0.011500,1.005375,192.000000,0.000000,0.000000,0.000000,0.000000,0.000000,0.000000,0.000000,0.000000,0.000000,1772720793.279875,0.000000
236.000000,-8119.181766,-16414.629390,145.711022,-25594.624948,7961.356099,4714.362885,-16604.708624,-27305.896855,9616.391017,2875.842497,9522.089007,6283.254180,12236.149578,8684.658549,-14213.340189,-5655.840713,0.004625,-0.011500,1.005375,192.000000,0.000000,0.000000,0.000000,0.000000,0.000000,0.000000,0.000000,0.000000,0.000000,1772720793.279888,0.000000
238.000000,-8128.278926,-16419.636180,142.492371,-25589.014660,7961.892541,4718.721475,-16605.312122,-27308.869637,9587.087880,2856.597645,9493.389367,6261.550636,12200.006807,8655.869503,-14237.256555,-5670.235237,0.004625,-0.011500,1.005375,192.000000,0.000000,0.000000,0.000000,0.000000,0.000000,0.000000,0.000000,0.000000,0.000000,1772720793.279899,0.000000
240.000000,-8127.608374,-16422.094872,144.571083,-25581.526826,7969.738003,4731.193749,-16602.853430,-27309.942521,9594.754528,2866.119488,9506.085158,6278.672073,12231.008676,8683.965645,-14214.167203,-5645.849484,0.005313,-0.013750,1.008687,192.000000,0.000000,24.000000,127.500000,64.000000,15.500000,80.000000,0.000000,0.000000,0.000000,1772720793.279912,0.000000
242.000000,-8160.733659,-16458.416457,112.406923,-25607.790125,7945.508712,4714.832272,-16633.251802,-27351.025027,9582.885752,2844.103020,9478.883085,6248.899549,12193.234228,8656.271834,-14229.992238,-5645.648318,0.005313,-0.013750,1.008687,192.000000,0.000000,0.000000,0.000000,0.000000,0.000000,0.000000,0.000000,0.000000,0.000000,1772720793.279925,0.000000
244.000000,-8150.071877,-16443.843120,136.300938,-25589.640509,7982.746718,4751.846761,-16611.995293,-27338.865678,9572.380432,2834.357659,9466.053184,6234.773247,12192.854249,8655.109543,-14220.738616,-5629.286841,0.005313,-0.013750,1.008687,192.000000,0.000000,0.000000,0.000000,0.000000,0.000000,0.000000,0.000000,0.000000,0.000000,1772720793.279937,0.000000
246.000000,-8158.431430,-16454.504902,117.972507,-25605.823172,7964.127715,4740.916758,-16629.474357,-27349.438053,9580.561171,2842.069011,9477.541980,6245.569139,12205.974723,8664.944311,-14204.086566,-5613.864137,0.005313,-0.013750,1.008687,192.000000,0.000000,0.000000,0.000000,0.000000,0.000000,0.000000,0.000000,0.000000,0.000000,1772720793.279949,0.000000
248.000000,-8155.324537,-16450.079256,127.248481,-25598.581207,7971.839067,4755.423040,-16623.417035,-27340.162079,9569.720575,2833.843569,9462.186332,6233.253328,12185.366414,8643.598395,-14222.504404,-5620.614364,0.005313,-0.013750,1.008687,192.000000,0.000000,0.000000,0.000000,0.000000,0.000000,0.000000,0.000000,0.000000,0.000000,1772720793.279961,0.000000
250.000000,-8146.897930,-16439.663343,138.267891,-25585.796009,7982.389090,4759.871037,-16611.704720,-27328.896800,9582.081089,2855.457706,9482.995806,6258.331985,12214.155461,8675.717852,-14199.415052,-5600.184870,0.005656,-0.012875,1.008344,192.000000,0.000000,24.000000,127.500000,80.000000,15.500000,64.000000,0.000000,0.000000,0.000000,1772720793.279974,0.000000
252.000000,-8160.443087,-16456.538910,115.089132,-25606.538428,7954.807038,4733.361868,-16631.396607,-27347.471100,9574.906179,2839.342098,9465.852018,6239.087133,12194.575333,8646.884101,-14221.699741,-5609.885527,0.005656,-0.012875,1.008344,192.000000,0.000000,0.000000,0.000000,0.000000,0.000000,0.000000,0.000000,0.000000,0.000000,1772720793.279986,0.000000
254.000000,-8124.233261,-16419.524422,148.482638,-25582.532654,7987.127660,4760.206313,-16601.199401,-27311.462439,9589.635979,2850.249749,9480.850039,6250.441819,12211.450900,8658.462305,-14219.911602,-5611.897184,0.005656,-0.012875,1.008344,192.000000,0.000000,0.000000,0.000000,0.000000,0.000000,0.000000,0.000000,0.000000,0.000000,1772720793.279998,0.000000
0.000000,-8122.668639,-16422.966590,136.569159,-25599.609387,7973.649558,4730.679659,-16613.962247,-27317.475059,9607.986761,2863.526686,9503.872335,6271.988901,12230.271069,8676.835439,-14211.775567,-5617.798044,0.005656,-0.012875,1.008344,192.000000,0.000000,0.000000,0.000000,0.000000,0.000000,0.000000,0.000000,0.000000,0.000000,1772720793.280010,0.000000
2.000000,-8119.226470,-16421.938410,147.633272,-25598.111820,7978.835163,4733.183054,-16607.234372,-27309.875466,9604.924572,2855.234188,9491.601228,6258.086116,12213.574316,8654.282529,-14232.607392,-5644.374269,0.005656,-0.012875,1.008344,192.000000,0.000000,0.000000,0.000000,0.000000,0.000000,0.000000,0.000000,0.000000,0.000000,1772720793.280022,0.000000
4.000000,-8107.000066,-16412.662436,161.625464,-25590.065192,7991.732120,4745.118886,-16596.863162,-27300.130105,9619.788482,2861.515029,9516.054036,6272.346529,12242.698639,8678.981206,-14210.948552,-5643.480199,0.005828,-0.014438,1.008172,192.000000,0.000000,24.000000,127.500000,64.000000,15.500000,64.000000,0.000000,0.000000,0.000000,1772720793.280037,0.000000
6.000000,-8125.797883,-16436.668210,136.099772,-25614.272131,7963.412459,4717.916813,-16622.165337,-27325.052300,9614.312305,2851.367337,9499.737263,6257.147343,12224.079636,8657.724697,-14226.125386,-5657.718260,0.005828,-0.014438,1.008172,192.000000,0.000000,0.000000,0.000000,0.000000,0.000000,0.000000,0.000000,0.000000,0.000000,1772720793.280049,0.000000
8.000000,-8107.380045,-16416.216363,159.546752,-25593.149733,7993.721425,4753.769011,-16603.121651,-27308.355547,9614.245250,2847.344023,9495.825707,6255.247445,12229.712275,8658.931692,-14219.173994,-5654.007870,0.005828,-0.014438,1.008172,192.000000,0.000000,0.000000,0.000000,0.000000,0.000000,0.000000,0.000000,0.000000,0.000000,1772720793.280061,0.000000
10.000000,-8126.557842,-16437.763445,133.842246,-25610.204114,7971.861419,4727.259842,-16622.791186,-27330.573181,9622.381285,2855.100078,9503.425301,6263.495238,12240.910499,8673.348567,-14205.986465,-5639.635699,0.005828,-0.014438,1.008172,192.000000,0.000000,0.000000,0.000000,0.000000,0.000000,0.000000,0.000000,0.000000,0.000000,1772720793.280073,0.000000
12.000000,-8145.065086,-16455.488378,126.019135,-25612.461640,7965.915855,4735.842912,-16626.568631,-27342.464309,9591.580581,2822.041848,9468.288358,6231.554595,12201.862002,8638.859825,-14227.555898,-5644.262510,0.005828,-0.014438,1.008172,192.000000,0.000000,0.000000,0.000000,0.000000,0.000000,0.000000,0.000000,0.000000,0.000000,1772720793.280086,0.000000
14.000000,-8138.560729,-16444.848948,135.988013,-25601.978672,7980.332730,4742.324918,-16616.957380,-27335.199992,9592.094671,2832.189540,9478.257236,6245.815008,12223.274973,8659.244616,-14202.946627,-5621.530786,0.006914,-0.016219,1.005086,192.000000,0.000000,32.000000,127.500000,56.000000,15.500000,40.000000,0.000000,0.000000,0.000000,1772720793.280098,0.000000
16.000000,-8158.476133,-16464.920815,116.989030,-25622.139945,7955.343480,4721.470740,-16637.699799,-27355.696542,9585.322092,2822.824159,9463.527437,6231.353430,12207.584048,8641.854959,-14212.781395,-5625.129417,0.006914,-0.016219,1.005086,192.000000,0.000000,0.000000,0.000000,0.000000,0.000000,0.000000,0.000000,0.000000,0.000000,1772720793.280111,0.000000
18.000000,-8134.135083,-16440.400951,146.426278,-25596.815419,7983.953712,4750.751525,-16609.201325,-27326.438108,9587.266694,2822.779456,9473.406908,6237.254290,12210.512127,8647.040563,-14209.674503,-5626.694039,0.006914,-0.016219,1.005086,192.000000,0.000000,0.000000,0.000000,0.000000,0.000000,0.000000,0.000000,0.000000,0.000000,1772720793.280126,0.000000
20.000000,-8143.433409,-16449.475759,128.343717,-25606.046689,7963.613625,4736.088781,-16620.958343,-27336.518745,9600.320113,2838.872712,9491.243600,6253.146381,12225.554851,8666.173657,-14202.857221,-5615.674629,0.006914,-0.016219,1.005086,192.000000,0.000000,0.000000,0.000000,0.000000,0.000000,0.000000,0.000000,0.000000,0.000000,1772720793.280138,0.000000
22.000000,-8139.365392,-16449.475759,132.299975,-25601.486933,7964.708860,4744.180112,-16616.845622,-27329.835573,9587.289046,2820.030191,9466.097887,6232.962755,12200.319731,8638.882177,-14231.445102,-5627.789274,0.006914,-0.016219,1.005086,192.000000,0.000000,0.000000,0.000000,0.000000,0.000000,0.000000,0.000000,0.000000,0.000000,1772720793.280150,0.000000
24.000000,-8121.528700,-16429.895631,148.952025,-25586.980651,7980.891523,4749.969214,-16602.920485,-27312.356509,9614.334657,2843.410116,9497.099757,6260.008366,12237.624793,8674.466154,-14207.104052,-5615.741684,0.006914,-0.016219,1.005086,192.000000,0.000000,0.000000,0.000000,0.000000,0.000000,0.000000,0.000000,0.000000,0.000000,1772720793.280163,0.000000
26.000000,-8139.678316,-16447.419399,127.650813,-25606.001986,7956.192846,4719.280269,-16623.372331,-27327.600399,9595.179212,2839.610319,9483.286379,6247.804314,12215.116586,8655.601282,-14228.159395,-5629.845635,0.004000,-0.014000,1.010000,192.000000,0.000000,16.000000,127.500000,72.000000,15.500000,72.000000,0.000000,0.000000,0.000000,1772720793.280175,0.000000
28.000000,-8115.694894,-16426.989904,157.199819,-25585.214863,7991.687416,4746.683508,-16598.763060,-27303.706384,9604.455185,2835.765819,9492.964684,6251.335889,12225.934830,8657.948215,-14226.795939,-5635.500626,0.004000,-0.014000,1.010000,192.000000,0.000000,0.000000,0.000000,0.000000,0.000000,0.000000,0.000000,0.000000,0.000000,1772720793.280187,0.000000
30.000000,-8135.431485,-16444.044285,132.724659,-25603.565646,7968.642768,4734.971194,-16618.276133,-27325.834611,9613.932325,2845.041793,9502.866507,6259.538979,12245.403200,8671.851000,-14219.196346,-5630.627946,0.004000,-0.014000,1.010000,192.000000,0.000000,0.000000,0.000000,0.000000,0.000000,0.000000,0.000000,0.000000,0.000000,1772720793.280199,0.000000
32.000000,-8136.571424,-16437.986963,134.423391,-25601.017547,7975.996491,4731.171397,-16616.532697,-27324.515858,9594.240438,2827.182749,9477.296111,6236.471979,12213.775481,8644.134837,-14238.620012,-5640.753286,0.004000,-0.014000,1.010000,192.000000,0.000000,0.000000,0.000000,0.000000,0.000000,0.000000,0.000000,0.000000,0.000000,1772720793.280211,0.000000
34.000000,-8124.322668,-16425.514689,146.560388,-25591.115724,7988.357006,4744.113057,-16609.357787,-27316.603341,9604.902220,2852.708441,9500.340760,6261.148305,12231.433360,8672.365090,-14207.752253,-5626.962260,0.004000,-0.014000,1.010000,192.000000,0.000000,0.000000,0.000000,0.000000,0.000000,0.000000,0.000000,0.000000,0.000000,1772720793.280223,0.000000
36.000000,-8149.669546,-16452.135617,117.458417,-25612.595750,7955.075259,4727.326897,-16634.995238,-27346.912306,9587.691377,2839.364450,9476.737318,6241.344659,12207.226420,8654.640157,-14225.723055,-5634.114818,0.006000,-0.012000,1.004000,192.000000,0.000000,24.000000,127.500000,80.000000,15.500000,48.000000,0.000000,0.000000,0.000000,1772720793.280235,0.000000
38.000000,-8141.242938,-16443.463140,141.419487,-25596.860122,7979.863343,4751.086801,-16614.364578,-27333.613018,9583.623360,2834.581177,9467.751916,6238.193064,12203.985417,8656.920035,-14220.693913,-5630.650297,0.006000,-0.012000,1.004000,192.000000,0.000000,0.000000,0.000000,0.000000,0.000000,0.000000,0.000000,0.000000,0.000000,1772720793.280246,0.000000
40.000000,-8157.425601,-16460.986908,119.715943,-25613.087489,7959.746773,4741.341441,-16632.223622,-27355.271859,9584.137450,2834.692935,9469.361242,6241.277604,12210.556830,8665.391346,-14205.315912,-5621.351972,0.006000,-0.012000,1.004000,192.000000,0.000000,0.000000,0.000000,0.000000,0.000000,0.000000,0.000000,0.000000,0.000000,1772720793.280259,0.000000
42.000000,-8155.659813,-16457.589442,123.359278,-25606.359614,7970.252093,4756.182999,-16628.423825,-27353.416664,9573.185095,2816.766836,9444.684916,6218.277659,12189.501487,8638.502197,-14221.587982,-5626.559928,0.006000,-0.012000,1.004000,192.000000,0.000000,0.000000,0.000000,0.000000,0.000000,0.000000,0.000000,0.000000,0.000000,1772720793.759622,0.000000
44.000000,-8142.606395,-16443.887823,137.887912,-25593.663823,7987.686454,4770.264598,-16616.197421,-27340.407949,9588.920723,2838.783305,9468.847152,6243.848055,12218.938734,8676.924846,-14199.079776,-5607.829166,0.006000,-0.012000,1.004000,192.000000,0.000000,0.000000,0.000000,0.000000,0.000000,0.000000,0.000000,0.000000,0.000000,1772720793.759688,0.000000
46.000000,-8149.937767,-16454.482550,118.576004,-25613.355710,7963.077183,4738.391011,-16635.017590,-27351.740283,9586.394976,2834.670584,9461.672242,6236.226110,12203.605438,8660.317500,-14221.811500,-5628.660992,0.006000,-0.018000,1.006000,192.000000,0.000000,24.000000,127.500000,56.000000,15.500000,56.000000,0.000000,0.000000,0.000000,1772720793.759731,0.000000
48.000000,-8118.086531,-16421.021989,154.137630,-25585.237215,7987.440585,4765.704842,-16603.635741,-27314.748146,9599.269581,2844.170075,9477.497277,6247.022003,12217.955258,8668.230017,-14221.565631,-5631.410257,0.006000,-0.018000,1.006000,192.000000,0.000000,0.000000,0.000000,0.000000,0.000000,0.000000,0.000000,0.000000,0.000000,1772720793.759772,0.000000
50.000000,-8120.478168,-16423.883012,135.630385,-25600.279939,7962.406631,4740.559130,-16620.041921,-27324.024120,9615.809872,2859.413965,9497.882068,6268.144401,12230.069903,8688.167773,-14214.010741,-5630.493835,0.006000,-0.018000,1.006000,192.000000,0.000000,0.000000,0.000000,0.000000,0.000000,0.000000,0.000000,0.000000,0.000000,1772720793.759825,0.000000
52.000000,-8113.415016,-16417.222192,144.101697,-25593.306195,7971.749660,4738.078086,-16610.743595,-27314.368166,9612.010075,2851.344985,9485.163925,6252.162904,12216.435339,8665.905436,-14237.167148,-5645.536559,0.006000,-0.018000,1.006000,192.000000,0.000000,0.000000,0.000000,0.000000,0.000000,0.000000,0.000000,0.000000,0.000000,1772720793.759873,0.000000
54.000000,-8115.069045,-16420.530250,149.577874,-25584.700773,7979.595122,4746.884673,-16601.802898,-27309.361375,9617.218032,2863.325520,9509.504975,6274.760517,12241.648107,8694.470965,-14213.094319,-5631.253795,0.006000,-0.018000,1.006000,192.000000,0.000000,0.000000,0.000000,0.000000,0.000000,0.000000,0.000000,0.000000,0.000000,1772720793.759900,0.000000
56.000000,-8141.108828,-16443.977230,121.951118,-25609.220637,7954.941148,4718.766179,-16626.747444,-27335.691730,9599.716616,2847.656947,9489.298998,6256.230921,12214.401330,8663.290282,-14233.836738,-5643.502551,0.004000,-0.012000,1.004000,192.000000,0.000000,16.000000,127.500000,80.000000,15.500000,48.000000,0.000000,0.000000,0.000000,1772720793.759912,0.000000
58.000000,-8132.056371,-16434.880070,142.693537,-25594.714355,7983.663140,4743.755429,-16609.849526,-27324.269989,9591.446470,2839.431505,9483.733414,6244.384497,12211.942638,8649.208683,-14229.589907,-5640.999155,0.004000,-0.012000,1.004000,192.000000,0.000000,0.000000,0.000000,0.000000,0.000000,0.000000,0.000000,0.000000,0.000000,1772720793.759925,0.000000
60.000000,-8151.591796,-16455.242509,117.927804,-25615.255608,7966.966387,4724.108246,-16631.284849,-27349.952143,9595.536839,2839.677374,9486.594437,6247.491389,12224.683133,8658.261139,-14214.793052,-5635.120646,0.004000,-0.012000,1.004000,192.000000,0.000000,0.000000,0.000000,0.000000,0.000000,0.000000,0.000000,0.000000,0.000000,1772720793.759938,0.000000
62.000000,-8162.499447,-16461.948033,114.172711,-25614.138021,7963.993605,4726.656345,-16633.520023,-27358.781082,9564.825543,2819.292583,9448.864692,6218.232956,12196.788156,8627.661601,-14233.099131,-5645.380097,0.004000,-0.012000,1.004000,192.000000,0.000000,0.000000,0.000000,0.000000,0.000000,0.000000,0.000000,0.000000,0.000000,1772720793.759950,0.000000
64.000000,-8155.257482,-16451.956803,123.761609,-25599.140000,7978.790459,4743.062525,-16622.321799,-27352.142614,9573.140391,2843.298357,9463.840361,6237.746029,12212.747301,8661.882122,-14209.003950,-5623.453036,0.004000,-0.012000,1.004000,192.000000,0.000000,0.000000,0.000000,0.000000,0.000000,0.000000,0.000000,0.000000,0.000000,1772720793.759962,0.000000
66.000000,-8165.025194,-16467.446562,104.382647,-25615.546181,7959.612663,4723.795321,-16640.516119,-27364.324315,9567.954787,2828.054467,9450.988108,6223.038581,12198.062205,8643.039601,-14226.170090,-5626.425818,0.002000,-0.012000,1.002000,192.000000,0.000000,8.000000,127.500000,80.000000,15.500000,40.000000,0.000000,0.000000,0.000000,1772720793.759975,0.000000
68.000000,-8131.542281,-16438.188128,144.727545,-25588.947605,8010.954620,4773.595008,-16610.385968,-27329.165021,9585.344444,2836.793999,9472.870466,6234.460322,12215.340104,8655.310709,-14211.686160,-5614.489986,0.002000,-0.012000,1.002000,192.000000,0.000000,0.000000,0.000000,0.000000,0.000000,0.000000,0.000000,0.000000,0.000000,1772720793.759988,0.000000
70.000000,-8134.157435,-16439.417474,133.663432,-25599.341166,8005.567849,4782.759223,-16626.434520,-27337.792794,9603.069377,2858.363433,9495.088100,6252.945215,12242.676287,8679.070613,-14190.317892,-5596.765053,0.002000,-0.012000,1.002000,192.000000,0.000000,0.000000,0.000000,0.000000,0.000000,0.000000,0.000000,0.000000,0.000000,1772720793.760000,0.000000
72.000000,-8125.820235,-16429.940335,141.084211,-25594.289672,8006.081939,4788.101290,-16621.450081,-27330.796698,9597.973180,2857.402308,9478.056071,6243.088096,12226.292458,8667.470058,-14210.322703,-5603.738797,0.002000,-0.012000,1.002000,192.000000,0.000000,0.000000,0.000000,0.000000,0.000000,0.000000,0.000000,0.000000,0.000000,1772720793.760012,0.000000
74.000000,-8112.722112,-16419.010332,155.277569,-25582.376192,8009.166480,4795.857346,-16605.848563,-27313.742317,9617.843880,2876.133070,9508.029760,6268.725546,12254.433305,8702.383483,-14191.234313,-5591.914724,0.002000,-0.012000,1.002000,192.000000,0.000000,0.000000,0.000000,0.000000,0.000000,0.000000,0.000000,0.000000,0.000000,1772720793.760024,0.000000
76.000000,-8129.016534,-16436.355285,130.936519,-25604.370308,7970.721480,4750.438601,-16621.181860,-27322.772422,9610.177232,2863.057299,9499.558449,6258.153171,12231.254546,8678.489468,-14219.553974,-5613.439454,0.004000,-0.016000,1.004000,192.000000,0.000000,16.000000,127.500000,64.000000,15.500000,48.000000,0.000000,0.000000,0.000000,1772720793.760036,0.000000
78.000000,-8112.275077,-16412.617733,154.674072,-25587.360631,7985.563038,4750.170380,-16594.404470,-27295.950329,9609.126700,2864.532514,9505.258144,6264.389308,12230.919269,8670.733413,-14228.360561,-5635.098295,0.004000,-0.016000,1.004000,192.000000,0.000000,0.000000,0.000000,0.000000,0.000000,0.000000,0.000000,0.000000,0.000000,1772720793.760049,0.000000
80.000000,-8128.077761,-16428.576878,133.350507,-25607.678367,7958.606834,4721.738961,-16612.375273,-27317.430355,9608.612610,2873.361453,9511.069597,6277.867410,12231.545118,8674.510857,-14222.370293,-5644.888359,0.004000,-0.016000,1.004000,192.000000,0.000000,0.000000,0.000000,0.000000,0.000000,0.000000,0.000000,0.000000,0.000000,1772720793.760061,0.000000
82.000000,-8140.773552,-16448.358172,130.288318,-25613.020434,7965.133544,4719.213214,-16618.857279,-27335.177640,9588.250171,2840.973776,9479.196010,6238.707154,12203.940714,8637.943403,-14241.659849,-5659.104068,0.004000,-0.016000,1.004000,192.000000,0.000000,0.000000,0.000000,0.000000,0.000000,0.000000,0.000000,0.000000,0.000000,1772720793.760075,0.000000
84.000000,-8130.715267,-16436.489396,138.625519,-25604.862047,7982.299683,4736.446409,-16610.274209,-27327.868620,9601.705921,2855.792982,9496.026873,6252.833456,12226.963011,8664.005538,-14215.038921,-5646.251815,0.004000,-0.016000,1.004000,192.000000,0.000000,0.000000,0.000000,0.000000,0.000000,0.000000,0.000000,0.000000,0.000000,1772720793.760087,0.000000
86.000000,-8152.150589,-16463.937338,110.641135,-25627.660826,7956.885750,4713.647629,-16635.486977,-27350.779158,9586.640845,2833.843569,9476.737318,6237.254290,12205.684150,8637.541072,-14230.774549,-5649.716336,0.008000,-0.018000,1.004000,192.000000,0.000000,32.000000,127.500000,56.000000,15.500000,48.000000,0.000000,0.000000,0.000000,1772720793.760100,0.000000
88.000000,-8129.597679,-16441.876166,136.971490,-25600.324643,7982.634960,4738.234548,-16607.457889,-27324.448803,9590.641807,2833.910624,9482.816992,6240.182369,12205.348874,8638.189273,-14225.812462,-5642.653184,0.008000,-0.018000,1.004000,192.000000,0.000000,0.000000,0.000000,0.000000,0.000000,0.000000,0.000000,0.000000,0.000000,1772720793.760111,0.000000
90.000000,-8143.746334,-16461.724515,115.826740,-25613.668634,7968.933340,4731.841949,-16626.143947,-27349.460405,9598.129642,2834.111790,9491.690635,6246.485561,12218.670513,8650.326270,-14212.267305,-5634.003059,0.008000,-0.018000,1.004000,192.000000,0.000000,0.000000,0.000000,0.000000,0.000000,0.000000,0.000000,0.000000,0.000000,1772720793.760124,0.000000
92.000000,-8145.981508,-16461.165722,120.431199,-25611.701681,7984.065471,4745.163589,-16624.467567,-27353.237850,9592.027616,2818.554976,9467.036661,6223.843244,12201.034987,8630.299107,-14227.086512,-5637.311117,0.008000,-0.018000,1.004000,192.000000,0.000000,0.000000,0.000000,0.000000,0.000000,0.000000,0.000000,0.000000,0.000000,1772720793.760137,0.000000
94.000000,-8130.648211,-16444.491320,141.061859,-25597.396564,8014.687361,4768.096479,-16611.369444,-27337.770443,9605.863345,2838.492732,9489.410757,6246.709078,12234.115569,8663.670261,-14197.962188,-5613.662972,0.008000,-0.018000,1.004000,192.000000,0.000000,0.000000,0.000000,0.000000,0.000000,0.000000,0.000000,0.000000,0.000000,1772720793.760150,0.000000
96.000000,-8135.677354,-16452.247376,125.616804,-25609.175934,8003.846765,4759.222836,-16632.514195,-27347.359341,9609.260811,2833.351831,9484.403966,6239.511816,12225.733665,8654.818971,-14206.187630,-5609.751416,0.008000,-0.016000,1.004000,192.000000,0.000000,32.000000,127.500000,72.000000,15.500000,48.000000,0.000000,0.000000,0.000000,1772720793.760162,0.000000
98.000000,-8105.770720,-16421.290209,154.986996,-25582.577358,8035.094504,4803.456939,-16608.419014,-27317.877390,9624.571755,2847.835761,9496.898591,6249.748915,12240.396409,8670.755764,-14198.543334,-5593.322884,0.008000,-0.016000,1.004000,192.000000,0.000000,0.000000,0.000000,0.000000,0.000000,0.000000,0.000000,0.000000,0.000000,1772720793.760175,0.000000
