Sample_index,EXG Channel 0,EXG Channel 1,EXG Channel 2,EXG Channel 3,EXG Channel 4,EXG Channel 5,EXG Channel 6,EXG Channel 7,EXG Channel 8,EXG Channel 9,EXG Channel 10,EXG Channel 11,EXG Channel 12,EXG Channel 13,EXG Channel 14,EXG Channel 15,Accel Channel 0,Accel Channel 1,Accel Channel 2,Not Used,Digital Channel 0 (D11),Digital Channel 1 (D12),Digital Channel 2 (D13),Digital Channel 3 (D17),Not Used,Digital Channel 4 (D18),Analog Channel 0,Analog Channel 1,Analog Channel 2,Timestamp,Marker Channel
90.000000,-12854.421181,-18625.820413,2223.439780,-30347.857517,10082.693110,3308.214642,-23326.436976,-29007.088126,2979.308722,-828.802684,7140.868263,-300.832129,8734.793512,6104.909611,-11669.711670,-4664.540847,0.008000,-0.014000,1.010000,192.000000,0.000000,0.000000,0.000000,0.000000,0.000000,0.000000,0.000000,0.000000,0.000000,1772721923.713279,101.000000
92.000000,-12846.240443,-18616.946771,2243.154018,-30344.817680,10091.812622,3305.845357,-23315.976359,-28998.594463,2995.759606,-822.924176,7163.577636,-287.622248,8758.687527,6114.006771,-11646.845835,-4671.380481,0.008000,-0.014000,1.010000,192.000000,0.000000,0.000000,0.000000,0.000000,0.000000,0.000000,0.000000,0.000000,0.000000,1772721923.713331,0.000000
94.000000,-12846.732181,-18613.973989,2234.123914,-30348.170441,10087.431680,3299.698627,-23325.274685,-29004.920006,2993.725597,-822.566548,7153.586406,-288.717483,8757.972271,6101.512146,-11660.256882,-4686.490260,0.006000,-0.010000,1.008000,192.000000,0.000000,24.000000,127.500000,88.000000,15.500000,64.000000,0.000000,0.000000,0.000000,1772721923.713372,0.000000
96.000000,-12832.918803,-18597.925436,2244.137495,-30330.825487,10107.749415,3320.329287,-23314.545848,-28992.246567,3001.973391,-810.206033,7158.280272,-278.636846,8764.320167,6113.045646,-11651.472646,-4673.995635,0.006000,-0.010000,1.008000,192.000000,0.000000,0.000000,0.000000,0.000000,0.000000,0.000000,0.000000,0.000000,0.000000,1772721923.713409,0.000000
98.000000,-12828.671971,-18597.746622,2231.061725,-30333.619456,10094.137203,3319.345810,-23325.364092,-28992.403029,3011.227013,-804.416931,7168.115040,-269.718500,8770.310434,6129.027144,-11641.190844,-4656.181294,0.006000,-0.010000,1.008000,192.000000,0.000000,0.000000,0.000000,0.000000,0.000000,0.000000,0.000000,0.000000,0.000000,1772721923.713446,0.000000
100.000000,-12828.113178,-18596.964311,2232.112257,-30332.568924,10107.145918,3332.801560,-23326.928714,-28988.960861,3006.823719,-809.781350,7161.856551,-278.905067,8760.028632,6119.684114,-11657.239396,-4655.175466,0.006000,-0.010000,1.008000,192.000000,0.000000,0.000000,0.000000,0.000000,0.000000,0.000000,0.000000,0.000000,0.000000,1772721923.713483,0.000000
102.000000,-12825.542727,-18590.705823,2233.766286,-30323.985854,10123.932078,3349.364203,-23323.978284,-28983.439980,3019.966545,-801.913536,7178.776822,-263.348253,8780.122850,6140.471237,-11625.522271,-4629.292146,0.006000,-0.010000,1.008000,192.000000,0.000000,0.000000,0.000000,0.000000,0.000000,0.000000,0.000000,0.000000,0.000000,1772721923.713506,0.000000
104.000000,-12833.656410,-18598.283064,2217.203643,-30330.333749,10123.127416,3349.006575,-23337.188165,-28995.107591,3014.199795,-802.226460,7167.802115,-268.556210,8770.310434,6135.285632,-11637.301640,-4627.459303,0.006000,-0.008000,1.006000,192.000000,0.000000,24.000000,127.500000,96.000000,15.500000,56.000000,0.000000,0.000000,0.000000,1772721923.713517,0.000000
106.000000,-12832.561175,-18599.177134,2223.842111,-30322.711804,10148.496646,3371.693596,-23332.673112,-28999.466181,3014.780940,-801.287687,7162.549455,-272.892448,8770.913931,6144.025164,-11623.421207,-4611.477806,0.006000,-0.008000,1.006000,192.000000,0.000000,0.000000,0.000000,0.000000,0.000000,0.000000,0.000000,0.000000,0.000000,1772721923.713528,0.000000
108.000000,-12859.718544,-18623.786405,2197.444701,-30335.944037,10136.985497,3369.525477,-23351.314467,-29032.524411,3001.504004,-811.994173,7142.946976,-287.845765,8767.471763,6148.160237,-11617.140367,-4597.910297,0.006000,-0.008000,1.006000,192.000000,0.000000,0.000000,0.000000,0.000000,0.000000,0.000000,0.000000,0.000000,0.000000,1772721923.713539,0.000000
110.000000,-12877.108202,-18641.220765,2191.141509,-30344.169479,10128.648296,3372.967645,-23352.432055,-29046.673065,2977.945266,-829.450885,7109.598173,-315.293707,8742.683678,6126.479045,-11641.637879,-4601.240707,0.006000,-0.008000,1.006000,192.000000,0.000000,0.000000,0.000000,0.000000,0.000000,0.000000,0.000000,0.000000,0.000000,1772721923.713549,0.000000
112.000000,-12884.193705,-18650.072056,2196.528279,-30348.773938,10125.362590,3369.279607,-23343.804281,-29042.739158,2967.954036,-840.559702,7111.229850,-320.300498,8744.628280,6127.462521,-11631.266669,-4587.807308,0.006000,-0.008000,1.006000,192.000000,0.000000,0.000000,0.000000,0.000000,0.000000,0.000000,0.000000,0.000000,0.000000,1772721923.713560,0.000000
114.000000,-12880.304501,-18649.446207,2191.566192,-30358.049912,10107.458843,3347.464305,-23345.726531,-29033.709053,2963.349576,-845.477086,7110.760464,-326.782504,8731.217233,6111.481024,-11658.111114,-4607.834471,0.010000,-0.014000,1.008000,192.000000,0.000000,40.000000,127.500000,72.000000,15.500000,64.000000,0.000000,0.000000,0.000000,1772721923.713571,0.000000
116.000000,-12851.761323,-18624.769881,2218.768265,-30343.945961,10121.607497,3344.268005,-23325.028816,-29007.870437,2983.399091,-834.010641,7139.951842,-310.421027,8747.645765,6120.868757,-11657.351155,-4623.525396,0.010000,-0.014000,1.008000,192.000000,0.000000,0.000000,0.000000,0.000000,0.000000,0.000000,0.000000,0.000000,0.000000,1772721923.713582,0.000000
118.000000,-12854.220015,-18624.166384,2210.162843,-30348.438662,10094.248962,3312.282659,-23327.733377,-29012.944283,2993.546783,-825.248757,7153.072316,-297.367608,8755.714745,6127.395466,-11661.620338,-4645.765382,0.010000,-0.014000,1.008000,192.000000,0.000000,0.000000,0.000000,0.000000,0.000000,0.000000,0.000000,0.000000,0.000000,1772721923.713592,0.000000
120.000000,-12850.129646,-18616.633846,2223.819759,-30343.275409,10088.102232,3297.776377,-23318.747976,-29007.021070,2982.527373,-825.516978,7138.051944,-302.061475,8739.934413,6109.715236,-11685.112022,-4676.789603,0.010000,-0.014000,1.008000,192.000000,0.000000,0.000000,0.000000,0.000000,0.000000,0.000000,0.000000,0.000000,0.000000,1772721923.713603,0.000000
122.000000,-12843.714695,-18610.375358,2237.789600,-30333.865325,10088.392805,3295.116519,-23310.589589,-28995.979309,2995.111405,-814.855196,7156.648595,-280.402634,8758.486361,6124.668553,-11658.021707,-4672.051033,0.010000,-0.014000,1.008000,192.000000,0.000000,0.000000,0.000000,0.000000,0.000000,0.000000,0.000000,0.000000,0.000000,1772721923.713614,0.000000
124.000000,-12848.565024,-18614.353968,2225.093809,-30336.189906,10069.706746,3281.705473,-23319.776156,-28991.643070,2986.662446,-816.665687,7147.819656,-280.067358,8746.617585,6113.962068,-11676.216027,-4684.679769,0.016000,-0.016000,1.006000,192.000000,0.000000,64.000000,127.500000,64.000000,15.500000,56.000000,0.000000,0.000000,0.000000,1772721923.713625,0.000000
126.000000,-12828.828434,-18591.778707,2241.343527,-30323.181191,10094.740700,3306.873537,-23306.946255,-28961.334105,2996.921897,-805.199242,7163.756450,-262.230666,8754.619510,6119.862928,-11669.264635,-4669.994673,0.016000,-0.016000,1.006000,192.000000,0.000000,0.000000,0.000000,0.000000,0.000000,0.000000,0.000000,0.000000,0.000000,1772721923.713635,0.000000
128.000000,-12831.465939,-18595.757317,2229.832379,-30333.351235,10096.394729,3312.886156,-23320.446708,-28972.062942,3010.891737,-799.901879,7182.800136,-251.881808,8769.841048,6128.647164,-11654.244262,-4649.609882,0.016000,-0.016000,1.006000,192.000000,0.000000,0.000000,0.000000,0.000000,0.000000,0.000000,0.000000,0.000000,0.000000,1772721923.713646,0.000000
130.000000,-12844.206434,-18612.454070,2220.131722,-30337.039272,10107.995285,3331.907491,-23330.750862,-28992.403029,3003.739179,-811.770655,7168.427964,-274.814698,8758.195789,6115.213766,-11662.425001,-4643.329041,0.016000,-0.016000,1.006000,192.000000,0.000000,0.000000,0.000000,0.000000,0.000000,0.000000,0.000000,0.000000,0.000000,1772721923.713657,0.000000
132.000000,-12858.757419,-18624.725178,2208.352352,-30338.514488,10113.225593,3343.485694,-23339.445691,-29015.492382,2995.871365,-819.437303,7159.308453,-286.102329,8757.525236,6127.820149,-11635.871129,-4620.440855,0.016000,-0.016000,1.006000,192.000000,0.000000,0.000000,0.000000,0.000000,0.000000,0.000000,0.000000,0.000000,0.000000,1772721923.713668,0.000000
134.000000,-12880.304501,-18640.036123,2184.883021,-30350.584430,10094.874811,3338.411848,-23355.270726,-29037.486498,2968.289312,-832.848350,7119.499996,-307.537652,8730.904309,6116.510167,-11654.423076,-4631.974355,0.010000,-0.014000,1.002000,192.000000,0.000000,40.000000,127.500000,72.000000,15.500000,40.000000,0.000000,0.000000,0.000000,1772721923.713679,0.000000
136.000000,-12866.804047,-18626.021579,2209.693457,-30332.971255,10121.853366,3358.483715,-23334.550659,-29012.877227,2965.003605,-829.003850,7116.594269,-304.989553,8732.312469,6125.964955,-11647.091704,-4630.052105,0.010000,-0.014000,1.002000,192.000000,0.000000,0.000000,0.000000,0.000000,0.000000,0.000000,0.000000,0.000000,0.000000,1772721923.713690,0.000000
138.000000,-12864.345356,-18623.540535,2205.200756,-30338.268618,10112.733854,3347.710174,-23337.009351,-29008.295120,2978.593466,-818.565585,7137.560205,-287.175213,8748.182207,6144.002812,-11640.162663,-4630.141512,0.010000,-0.014000,1.002000,192.000000,0.000000,0.000000,0.000000,0.000000,0.000000,0.000000,0.000000,0.000000,0.000000,1772721923.713705,0.000000
140.000000,-12854.957623,-18613.214029,2211.503948,-30336.815755,10115.281953,3345.609110,-23330.952028,-29001.388431,2978.146431,-818.856158,7135.749714,-290.416216,8739.219158,6127.663687,-11664.280196,-4639.797466,0.010000,-0.014000,1.002000,192.000000,0.000000,0.000000,0.000000,0.000000,0.000000,0.000000,0.000000,0.000000,0.000000,1772721923.713716,0.000000
142.000000,-12842.552405,-18603.871000,2219.908204,-30328.277389,10121.853366,3344.312709,-23323.531249,-28995.800495,2998.777091,-805.020428,7156.626243,-270.836088,8761.928530,6145.790952,-11646.018821,-4631.236748,0.010000,-0.014000,1.002000,192.000000,0.000000,0.000000,0.000000,0.000000,0.000000,0.000000,0.000000,0.000000,0.000000,1772721923.713727,0.000000
144.000000,-12846.843940,-18614.599838,2210.051085,-30336.771051,10095.388901,3314.853110,-23329.923848,-29004.741192,2995.714902,-814.206995,7144.176322,-282.079015,8750.640899,6130.301193,-11670.136353,-4650.235730,0.011000,-0.013000,1.002000,192.000000,0.000000,48.000000,127.500000,80.000000,15.500000,40.000000,0.000000,0.000000,0.000000,1772721923.713737,0.000000
146.000000,-12838.596146,-18611.939980,2231.464056,-30329.126755,10105.156613,3318.921127,-23313.785888,-28991.486608,2996.340751,-817.403295,7150.032479,-285.320018,8751.914948,6125.495568,-11663.363774,-4656.449515,0.011000,-0.013000,1.002000,192.000000,0.000000,0.000000,0.000000,0.000000,0.000000,0.000000,0.000000,0.000000,0.000000,1772721923.713765,0.000000
148.000000,-12845.659297,-18616.410329,2224.847940,-30339.520316,10088.124584,3304.727769,-23325.587609,-28999.130905,2998.084187,-819.973745,7155.218083,-282.816623,8757.905216,6123.103931,-11652.500826,-4656.941254,0.011000,-0.013000,1.002000,192.000000,0.000000,0.000000,0.000000,0.000000,0.000000,0.000000,0.000000,0.000000,0.000000,1772721923.713775,0.000000
150.000000,-12835.779826,-18603.222800,2232.581643,-30334.044139,10098.451090,3315.702476,-23326.034644,-28990.994870,2997.413635,-815.548100,7151.708859,-283.375416,8752.004355,6110.408140,-11665.733059,-4663.803239,0.011000,-0.013000,1.002000,192.000000,0.000000,0.000000,0.000000,0.000000,0.000000,0.000000,0.000000,0.000000,0.000000,1772721923.713786,0.000000
152.000000,-12833.790521,-18602.127564,2234.392134,-30327.942112,10110.073997,3324.106732,-23324.984112,-28991.151332,3015.049161,-802.382922,7173.211238,-264.532896,8771.450373,6133.944527,-11637.167530,-4641.116219,0.011000,-0.013000,1.002000,192.000000,0.000000,0.000000,0.000000,0.000000,0.000000,0.000000,0.000000,0.000000,0.000000,1772721923.713796,0.000000
154.000000,-12853.348297,-18624.300495,2213.582660,-30339.453261,10096.327674,3312.774397,-23339.356284,-29011.759640,2997.883022,-819.683173,7152.759391,-284.291838,8754.351289,6115.929021,-11655.898292,-4645.407754,0.010500,-0.013500,1.002000,192.000000,0.000000,40.000000,127.500000,72.000000,15.500000,40.000000,0.000000,0.000000,0.000000,1772721923.713807,0.000000
156.000000,-12851.180178,-18621.506527,2224.959698,-30333.060662,10108.777596,3322.787979,-23327.554563,-29001.813114,2990.618705,-825.695792,7146.947938,-290.304457,8749.098629,6111.570431,-11652.769047,-4639.953928,0.010500,-0.013500,1.002000,192.000000,0.000000,0.000000,0.000000,0.000000,0.000000,0.000000,0.000000,0.000000,0.000000,1772721923.713817,0.000000
158.000000,-12857.550425,-18625.999227,2208.799387,-30345.220011,10091.902029,3317.624726,-23336.405854,-29003.981233,2988.741158,-826.321641,7152.044136,-286.348198,8743.868320,6117.158367,-11654.087800,-4632.376687,0.010500,-0.013500,1.002000,192.000000,0.000000,0.000000,0.000000,0.000000,0.000000,0.000000,0.000000,0.000000,0.000000,1772721923.713828,0.000000
160.000000,-12857.662184,-18625.328675,2210.431064,-30346.359950,10102.317941,3322.653869,-23334.103624,-29001.254320,2979.420481,-836.961071,7141.538816,-295.713579,8727.082160,6103.680265,-11671.298644,-4644.066649,0.010500,-0.013500,1.002000,192.000000,0.000000,0.000000,0.000000,0.000000,0.000000,0.000000,0.000000,0.000000,0.000000,1772721923.713838,0.000000
162.000000,-12867.228731,-18634.358780,2211.436893,-30343.141299,10114.946677,3335.528473,-23332.673112,-29010.463239,2984.203754,-831.753115,7149.674851,-288.784538,8741.141408,6130.547062,-11642.420190,-4630.342678,0.010500,-0.013500,1.002000,192.000000,0.000000,0.000000,0.000000,0.000000,0.000000,0.000000,0.000000,0.000000,0.000000,1772721923.713849,0.000000
164.000000,-12886.920617,-18656.509358,2197.958791,-30360.575659,10106.408311,3323.570290,-23348.095816,-29036.324207,2965.472992,-848.047536,7124.305621,-308.878757,8727.931527,6113.783254,-11653.216082,-4639.372783,0.011250,-0.014750,1.001000,192.000000,0.000000,48.000000,127.500000,64.000000,15.500000,32.000000,0.000000,0.000000,0.000000,1772721923.713861,0.000000
166.000000,-12883.791373,-18653.849501,2216.600146,-30353.288991,10125.094369,3330.879310,-23336.562316,-29026.109460,2962.544914,-851.936740,7122.919813,-314.489044,8729.406742,6105.803681,-11638.866262,-4640.579777,0.011250,-0.014750,1.001000,192.000000,0.000000,0.000000,0.000000,0.000000,0.000000,0.000000,0.000000,0.000000,0.000000,1772721923.713871,0.000000
168.000000,-12888.418184,-18659.728010,2207.145358,-30359.592183,10107.212974,3316.171863,-23341.971438,-29027.987007,2964.780088,-855.043632,7132.329897,-312.633850,8732.692448,6110.184623,-11634.172396,-4640.378611,0.011250,-0.014750,1.001000,192.000000,0.000000,0.000000,0.000000,0.000000,0.000000,0.000000,0.000000,0.000000,0.000000,1772721923.713881,0.000000
170.000000,-12887.434708,-18663.304289,2210.095788,-30354.898316,10107.861174,3316.484787,-23334.617714,-29020.543876,2959.281559,-861.950321,7122.472778,-323.094466,8720.242527,6092.549097,-11659.653385,-4653.968472,0.011250,-0.014750,1.001000,192.000000,0.000000,0.000000,0.000000,0.000000,0.000000,0.000000,0.000000,0.000000,0.000000,1772721923.713892,0.000000
172.000000,-12869.821533,-18645.020562,2221.696344,-30342.515450,10116.645410,3325.514892,-23324.268857,-29004.070640,2972.424385,-853.479010,7140.264766,-302.754379,8740.604966,6114.051475,-11642.688411,-4642.502027,0.011250,-0.014750,1.001000,192.000000,0.000000,0.000000,0.000000,0.000000,0.000000,0.000000,0.000000,0.000000,0.000000,1772721923.713903,0.000000
174.000000,-12862.847789,-18633.017675,2215.907242,-30338.000397,10104.150785,3327.906528,-23330.639104,-29001.075506,2979.152260,-834.927062,7142.768162,-290.483271,8743.689506,6118.857100,-11659.631033,-4646.793562,0.010625,-0.016375,0.999500,192.000000,0.000000,40.000000,127.500000,56.000000,15.500000,24.000000,0.000000,0.000000,0.000000,1772721923.713913,0.000000
176.000000,-12842.574756,-18613.236381,2233.900396,-30319.359043,10123.060360,3355.823857,-23317.451574,-28979.774294,2991.401016,-812.485911,7157.453258,-271.752509,8755.670042,6145.433324,-11651.182073,-4637.137608,0.010625,-0.016375,0.999500,192.000000,0.000000,0.000000,0.000000,0.000000,0.000000,0.000000,0.000000,0.000000,0.000000,1772721923.713924,0.000000
178.000000,-12847.201568,-18621.886506,2222.143379,-30326.265732,10109.850479,3351.688785,-23328.202764,-28985.764561,3004.432083,-803.768731,7172.920665,-262.185962,8769.081088,6163.270016,-11644.521254,-4627.325192,0.010625,-0.016375,0.999500,192.000000,0.000000,0.000000,0.000000,0.000000,0.000000,0.000000,0.000000,0.000000,0.000000,1772721923.713934,0.000000
180.000000,-12846.687477,-18621.484175,2224.691477,-30325.773993,10108.889354,3349.967700,-23326.302865,-28985.563396,2994.507908,-815.034010,7160.046060,-275.865230,8752.652556,6143.421667,-11662.536760,-4630.677954,0.010625,-0.016375,0.999500,192.000000,0.000000,0.000000,0.000000,0.000000,0.000000,0.000000,0.000000,0.000000,0.000000,1772721923.713945,0.000000
182.000000,-12849.414390,-18623.160556,2228.535977,-30324.499944,10108.218802,3350.370032,-23322.793641,-28988.670288,2997.458338,-815.659859,7168.606778,-268.846782,8762.219103,6152.384717,-11640.676754,-4614.092960,0.010625,-0.016375,0.999500,192.000000,0.000000,0.000000,0.000000,0.000000,0.000000,0.000000,0.000000,0.000000,0.000000,1772721923.713955,0.000000
184.000000,-12871.296748,-18644.439416,2208.486463,-30338.559191,10090.091537,3335.640232,-23338.641028,-29013.726594,2983.577905,-832.535426,7146.992641,-285.096501,8747.086972,6130.927042,-11657.887597,-4623.346582,0.009312,-0.015187,0.998750,192.000000,0.000000,32.000000,127.500000,72.000000,15.500000,24.000000,0.000000,0.000000,0.000000,1772721923.713965,0.000000
186.000000,-12879.253969,-18648.149806,2215.080227,-30332.345406,10101.937962,3341.228168,-23330.952028,-29014.531257,2968.132850,-841.073792,7133.447484,-296.227669,8738.012163,6126.434341,-11655.250091,-4628.085152,0.009312,-0.015187,0.998750,192.000000,0.000000,0.000000,0.000000,0.000000,0.000000,0.000000,0.000000,0.000000,0.000000,1772721923.713976,0.000000
188.000000,-12887.837039,-18661.449094,2200.328076,-30348.773938,10085.956465,3317.468264,-23341.256182,-29020.879152,2965.540047,-844.247740,7134.855644,-297.702884,8736.112265,6127.395466,-11651.182073,-4633.963660,0.009312,-0.015187,0.998750,192.000000,0.000000,0.000000,0.000000,0.000000,0.000000,0.000000,0.000000,0.000000,0.000000,1772721923.713986,0.000000
190.000000,-12890.586304,-18667.305251,2200.819814,-30352.037293,10088.973950,3316.194214,-23338.752787,-29017.369928,2959.058041,-864.163144,7129.245356,-314.176120,8719.862547,6102.719140,-11672.349175,-4648.246425,0.009312,-0.015187,0.998750,192.000000,0.000000,0.000000,0.000000,0.000000,0.000000,0.000000,0.000000,0.000000,0.000000,1772721923.713997,0.000000
192.000000,-12899.124670,-18677.922330,2204.977239,-30353.333694,10101.490927,3316.797711,-23337.635200,-29025.193039,2956.934626,-868.745252,7139.102476,-310.063399,8731.708971,6109.089388,-11652.031440,-4631.147341,0.009312,-0.015187,0.998750,192.000000,0.000000,0.000000,0.000000,0.000000,0.000000,0.000000,0.000000,0.000000,0.000000,1772721923.714007,0.000000
194.000000,-12916.000237,-18694.440269,2190.694474,-30363.280220,10095.880639,3310.829796,-23350.778025,-29051.679856,2942.026012,-880.301104,7113.710894,-328.928271,8721.650686,6096.304190,-11663.900216,-4640.691536,0.009656,-0.014594,0.998375,192.000000,0.000000,40.000000,127.500000,72.000000,15.500000,24.000000,0.000000,0.000000,0.000000,1772721923.714018,0.000000
196.000000,-12898.610580,-18672.468504,2207.882966,-30350.942057,10114.097311,3330.834607,-23337.791662,-29037.933533,2941.847198,-871.874496,7107.742978,-330.984632,8721.918907,6107.368303,-11656.300623,-4640.870350,0.009656,-0.014594,0.998375,192.000000,0.000000,0.000000,0.000000,0.000000,0.000000,0.000000,0.000000,0.000000,0.000000,1772721923.714028,0.000000
198.000000,-12875.275359,-18650.384980,2209.224070,-30349.802119,10111.124529,3330.991069,-23336.830537,-29018.420460,2965.160068,-847.309929,7131.838159,-312.030353,8736.894576,6132.044629,-11644.856530,-4637.294070,0.009656,-0.014594,0.998375,192.000000,0.000000,0.000000,0.000000,0.000000,0.000000,0.000000,0.000000,0.000000,0.000000,1772721923.714039,0.000000
200.000000,-12855.114085,-18630.313114,2221.606937,-30340.392034,10119.394674,3335.215549,-23326.258162,-28993.900596,2980.471013,-838.749211,7143.349307,-302.508509,8740.426152,6126.523748,-11659.921606,-4653.208512,0.009656,-0.014594,0.998375,192.000000,0.000000,0.000000,0.000000,0.000000,0.000000,0.000000,0.000000,0.000000,0.000000,1772721923.714057,0.000000
202.000000,-12843.312364,-18613.102271,2236.359088,-30327.740947,10125.228480,3337.651889,-23314.814069,-28974.789855,2995.021998,-820.353725,7171.043118,-273.987684,8763.068469,6149.568397,-11635.401742,-4640.758591,0.009656,-0.014594,0.998375,192.000000,0.000000,0.000000,0.000000,0.000000,0.000000,0.000000,0.000000,0.000000,0.000000,1772721923.714067,0.000000
204.000000,-12837.478559,-18605.614436,2230.435876,-30328.299740,10105.626000,3320.262232,-23320.446708,-28971.571204,2991.915106,-807.635582,7171.847781,-262.565942,8756.050021,6141.879397,-11656.367678,-4650.392193,0.007828,-0.015297,1.000188,192.000000,0.000000,24.000000,127.500000,64.000000,15.500000,40.000000,0.000000,0.000000,0.000000,1772721923.714078,0.000000
206.000000,-12825.319210,-18600.875867,2247.087925,-30318.599083,10112.353875,3328.755895,-23307.929731,-28952.661628,3005.884946,-803.455806,7189.796232,-249.557227,8761.548550,6138.079600,-11654.937167,-4646.704155,0.007828,-0.015297,1.000188,192.000000,0.000000,0.000000,0.000000,0.000000,0.000000,0.000000,0.000000,0.000000,0.000000,1772721923.714088,0.000000
208.000000,-12836.897413,-18610.800041,2231.195835,-30325.461069,10096.193563,3322.877386,-23319.977322,-28964.664515,3008.231879,-810.742475,7199.675703,-247.970253,8762.532027,6138.817208,-11652.567882,-4638.948099,0.007828,-0.015297,1.000188,192.000000,0.000000,0.000000,0.000000,0.000000,0.000000,0.000000,0.000000,0.000000,0.000000,1772721923.714099,0.000000
210.000000,-12843.334716,-18610.867096,2226.054934,-30325.505772,10098.004055,3327.548901,-23323.039511,-28977.807340,2985.746024,-814.899899,7174.887618,-259.436698,8743.845969,6128.110722,-11674.405536,-4643.418448,0.007828,-0.015297,1.000188,192.000000,0.000000,0.000000,0.000000,0.000000,0.000000,0.000000,0.000000,0.000000,0.000000,1772721924.193563,0.000000
212.000000,-12842.619460,-18612.096442,2228.267756,-30329.618493,10103.256715,3327.683011,-23321.765461,-28986.166893,2990.819870,-813.715257,7173.255941,-258.006186,8753.188998,6141.231196,-11652.836103,-4627.772227,0.007828,-0.015297,1.000188,192.000000,0.000000,0.000000,0.000000,0.000000,0.000000,0.000000,0.000000,0.000000,0.000000,1772721924.193641,0.000000
214.000000,-12860.903187,-18634.649352,2211.146320,-30346.650523,10084.123621,3307.700551,-23336.271743,-29005.143524,2981.119213,-837.028126,7156.268615,-281.587277,8739.152102,6117.046609,-11666.023632,-4640.602129,0.007828,-0.015297,1.000188,192.000000,0.000000,0.000000,0.000000,0.000000,0.000000,0.000000,0.000000,0.000000,0.000000,1772721924.193703,0.000000
216.000000,-12867.318138,-18640.617268,2222.679820,-30340.056758,10095.187735,3319.189348,-23326.682845,-29001.075506,2973.340806,-845.387679,7151.887673,-289.544498,8732.088951,6117.068960,-11658.491094,-4642.189102,0.006000,-0.016000,1.002000,192.000000,0.000000,24.000000,127.500000,64.000000,15.500000,40.000000,0.000000,0.000000,0.000000,1772721924.193761,0.000000
218.000000,-12888.596998,-18661.762018,2207.324172,-30351.456148,10086.828183,3311.902679,-23338.775139,-29018.979254,2959.527428,-850.841504,7146.880883,-293.500756,8729.853777,6123.215690,-11647.516387,-4644.714850,0.006000,-0.016000,1.002000,192.000000,0.000000,0.000000,0.000000,0.000000,0.000000,0.000000,0.000000,0.000000,0.000000,1772721924.193829,0.000000
220.000000,-12896.755385,-18670.166274,2203.166747,-30349.556249,10087.498735,3311.477996,-23339.021008,-29026.332978,2945.177608,-858.999891,7126.831368,-310.219861,8712.419416,6108.307076,-11663.520236,-4657.812972,0.006000,-0.016000,1.002000,192.000000,0.000000,0.000000,0.000000,0.000000,0.000000,0.000000,0.000000,0.000000,0.000000,1772721924.193856,0.000000
222.000000,-12890.541600,-18665.897091,2208.039428,-30344.057720,10097.355854,3320.239880,-23335.668246,-29027.674082,2951.905483,-862.643226,7134.520368,-306.688286,8724.422303,6119.281783,-11640.699105,-4643.530207,0.006000,-0.016000,1.002000,192.000000,0.000000,0.000000,0.000000,0.000000,0.000000,0.000000,0.000000,0.000000,0.000000,1772721924.193882,0.000000
224.000000,-12884.640740,-18658.789236,2197.623515,-30347.119909,10094.919514,3322.519758,-23344.251316,-29029.663387,2950.139695,-866.666540,7123.165682,-312.790312,8717.314448,6108.284725,-11659.005184,-4642.323213,0.006000,-0.016000,1.002000,192.000000,0.000000,0.000000,0.000000,0.000000,0.000000,0.000000,0.000000,0.000000,0.000000,1772721924.193909,0.000000
226.000000,-12856.544597,-18630.894259,2223.216262,-30332.434813,10121.585145,3345.162075,-23324.805298,-28995.822846,2971.440908,-854.686004,7141.158836,-298.127568,8735.128788,6117.136016,-11649.997431,-4625.604108,0.008000,-0.012000,1.006000,192.000000,0.000000,32.000000,127.500000,80.000000,15.500000,56.000000,0.000000,0.000000,0.000000,1772721924.193935,0.000000
228.000000,-12851.202530,-18622.825280,2222.076323,-30337.933342,10117.941811,3331.862787,-23325.945237,-28985.898672,2988.003551,-835.217635,7165.790458,-276.804003,8751.244396,6131.619946,-11645.147102,-4622.653678,0.008000,-0.012000,1.006000,192.000000,0.000000,0.000000,0.000000,0.000000,0.000000,0.000000,0.000000,0.000000,0.000000,1772721924.193961,0.000000
230.000000,-12845.636945,-18622.624114,2232.134608,-30332.837144,10116.913631,3332.086305,-23316.870429,-28979.371962,2987.601219,-835.485856,7163.756450,-278.525088,8748.673946,6120.153501,-11663.564940,-4640.915053,0.008000,-0.012000,1.006000,192.000000,0.000000,0.000000,0.000000,0.000000,0.000000,0.000000,0.000000,0.000000,0.000000,1772721924.193987,0.000000
232.000000,-12843.759399,-18622.825280,2235.397963,-30331.138412,10111.191584,3322.631517,-23314.098813,-28981.808303,2998.777091,-829.786161,7177.502773,-270.277294,8763.046117,6137.051420,-11644.588309,-4630.588547,0.008000,-0.012000,1.006000,192.000000,0.000000,0.000000,0.000000,0.000000,0.000000,0.000000,0.000000,0.000000,0.000000,1772721924.194013,0.000000
234.000000,-12845.726352,-18629.910783,2222.344544,-30340.660255,10092.058491,3308.236993,-23324.894705,-28990.525483,2989.724635,-841.274958,7166.885694,-284.113024,8749.255091,6120.622888,-11666.716536,-4644.156056,0.008000,-0.012000,1.006000,192.000000,0.000000,0.000000,0.000000,0.000000,0.000000,0.000000,0.000000,0.000000,0.000000,1772721924.194039,0.000000
236.000000,-12835.153977,-18620.366588,2235.912053,-30333.910028,10100.820375,3319.144645,-23312.265970,-28970.967707,2996.251344,-837.966900,7177.569828,-278.592143,8749.389201,6121.405199,-11662.469704,-4637.271719,0.008000,-0.014000,1.008000,192.000000,0.000000,32.000000,127.500000,72.000000,15.500000,64.000000,0.000000,0.000000,0.000000,1772721924.194065,0.000000
238.000000,-12844.787579,-18631.207184,2223.775056,-30343.387168,10083.765994,3301.978505,-23320.022025,-28974.767503,2994.619667,-846.907597,7182.509563,-275.865230,8749.456257,6117.024257,-11657.306451,-4641.227977,0.008000,-0.014000,1.008000,192.000000,0.000000,0.000000,0.000000,0.000000,0.000000,0.000000,0.000000,0.000000,0.000000,1772721924.194091,0.000000
240.000000,-12859.360917,-18640.885489,2219.394114,-30343.096595,10082.916627,3305.688894,-23324.380615,-28990.637242,2978.347597,-856.094164,7161.476572,-292.159652,8733.094780,6101.154518,-11674.450239,-4655.577797,0.008000,-0.014000,1.008000,192.000000,0.000000,0.000000,0.000000,0.000000,0.000000,0.000000,0.000000,0.000000,0.000000,1772721924.194117,0.000000
242.000000,-12864.814742,-18642.472463,2220.757570,-30343.074243,10093.600761,3316.887118,-23328.850964,-29005.501152,2974.816021,-852.361423,7158.548493,-293.478405,8738.995640,6117.694809,-11648.879844,-4640.423315,0.008000,-0.014000,1.008000,192.000000,0.000000,0.000000,0.000000,0.000000,0.000000,0.000000,0.000000,0.000000,0.000000,1772721924.194143,0.000000
244.000000,-12874.247178,-18650.854367,2207.704152,-30354.764206,10091.902029,3314.383723,-23341.345589,-29022.376719,2966.165896,-858.552856,7141.494112,-307.425893,8731.753675,6107.301248,-11657.462914,-4650.012213,0.008000,-0.014000,1.008000,192.000000,0.000000,0.000000,0.000000,0.000000,0.000000,0.000000,0.000000,0.000000,0.000000,1772721924.194169,0.000000
246.000000,-12865.082963,-18641.466634,2222.121027,-30347.812813,10116.891279,3323.525587,-23327.487508,-29005.098820,2968.736347,-862.553819,7146.344441,-304.497815,8733.206538,6109.514071,-11640.944975,-4654.795486,0.002000,-0.016000,1.004000,192.000000,0.000000,8.000000,127.500000,64.000000,15.500000,48.000000,0.000000,0.000000,0.000000,1772721924.194196,0.000000
248.000000,-12875.722393,-18651.524919,2206.608916,-30355.121834,10104.955447,3327.928880,-23338.059883,-29015.224161,2971.932646,-860.184534,7151.060659,-298.507547,8737.676887,6114.967896,-11633.703009,-4647.955853,0.002000,-0.016000,1.004000,192.000000,0.000000,0.000000,0.000000,0.000000,0.000000,0.000000,0.000000,0.000000,0.000000,1772721924.194221,0.000000
250.000000,-12876.392946,-18653.447169,2210.967506,-30350.159746,10118.947639,3336.020212,-23338.149290,-29018.688681,2962.433155,-865.683063,7133.335725,-313.103236,8726.411608,6103.166175,-11648.186940,-4646.994727,0.002000,-0.016000,1.004000,192.000000,0.000000,0.000000,0.000000,0.000000,0.000000,0.000000,0.000000,0.000000,0.000000,1772721924.194251,0.000000
252.000000,-12864.255949,-18640.930193,2219.148245,-30338.626246,10132.112817,3348.559540,-23333.343665,-29010.552646,2976.648864,-852.048499,7148.289043,-300.183928,8746.304661,6126.948431,-11622.929469,-4619.032695,0.002000,-0.016000,1.004000,192.000000,0.000000,0.000000,0.000000,0.000000,0.000000,0.000000,0.000000,0.000000,0.000000,1772721924.194278,0.000000
254.000000,-12860.724373,-18637.890355,2215.102579,-30339.319150,10125.004962,3331.840435,-23334.438900,-29004.249454,2974.301931,-848.360461,7148.400801,-295.735931,8740.135579,6123.059228,-11642.576652,-4623.815968,0.002000,-0.016000,1.004000,192.000000,0.000000,0.000000,0.000000,0.000000,0.000000,0.000000,0.000000,0.000000,0.000000,1772721924.194304,0.000000
0.000000,-12846.575719,-18623.831108,2233.654527,-30326.243380,10136.516110,3338.970642,-23318.725624,-28985.675154,2985.544859,-843.264263,7164.292892,-282.302532,8750.640899,6128.021315,-11640.363829,-4627.191082,0.006000,-0.012000,1.002000,192.000000,0.000000,24.000000,127.500000,80.000000,15.500000,40.000000,0.000000,0.000000,0.000000,1772721924.194330,0.000000
2.000000,-12850.375515,-18625.775710,2221.294012,-30333.530049,10115.326657,3330.432276,-23327.107528,-28992.626547,2992.138623,-836.491684,7170.998415,-274.747643,8760.341556,6137.565510,-11644.387143,-4626.721695,0.006000,-0.012000,1.002000,192.000000,0.000000,0.000000,0.000000,0.000000,0.000000,0.000000,0.000000,0.000000,0.000000,1772721924.194355,0.000000
4.000000,-12850.263757,-18626.021579,2219.885852,-30333.641807,10106.542421,3326.230148,-23326.347569,-28993.274748,2985.522507,-836.625795,7158.101458,-281.520221,8745.723515,6125.182644,-11669.331690,-4641.809123,0.006000,-0.012000,1.002000,192.000000,0.000000,0.000000,0.000000,0.000000,0.000000,0.000000,0.000000,0.000000,0.000000,1772721924.194382,0.000000
6.000000,-12849.459094,-18626.200393,2220.489349,-30333.127717,10106.788290,3320.284584,-23323.888877,-28990.369021,2989.992856,-833.273033,7170.439621,-270.903143,8755.178303,6141.141789,-11651.830274,-4631.929652,0.006000,-0.012000,1.002000,192.000000,0.000000,0.000000,0.000000,0.000000,0.000000,0.000000,0.000000,0.000000,0.000000,1772721924.194407,0.000000
8.000000,-12870.670899,-18647.479254,2203.367913,-30344.549459,10087.431680,3300.682104,-23333.723644,-29007.825733,2973.765489,-848.427516,7153.519351,-285.923515,8737.319259,6119.080617,-11670.896312,-4649.609882,0.006000,-0.012000,1.002000,192.000000,0.000000,0.000000,0.000000,0.000000,0.000000,0.000000,0.000000,0.000000,0.000000,1772721924.194434,0.000000
10.000000,-12866.379364,-18644.841748,2219.572928,-30335.854630,10106.676532,3311.455645,-23321.810165,-28999.421477,2967.149373,-860.117478,7147.596138,-293.433701,8736.425190,6115.839614,-11663.073202,-4650.034565,0.012000,-0.012000,1.000000,192.000000,0.000000,48.000000,127.500000,80.000000,15.500000,32.000000,0.000000,0.000000,0.000000,1772721924.194460,0.000000
12.000000,-12857.706887,-18637.935059,2215.080227,-30343.118947,10106.900049,3313.132025,-23330.862621,-29000.427306,2982.259152,-855.088336,7156.738002,-287.018751,8751.222044,6127.283708,-11645.772951,-4647.620576,0.012000,-0.012000,1.000000,192.000000,0.000000,0.000000,0.000000,0.000000,0.000000,0.000000,0.000000,0.000000,0.000000,1772721924.194486,0.000000
14.000000,-12855.963451,-18631.542460,2221.651640,-30338.358025,10112.979724,3321.782150,-23326.749900,-28992.000698,2974.033710,-853.300196,7150.993604,-288.717483,8740.940242,6117.203071,-11653.529007,-4657.231826,0.012000,-0.012000,1.000000,192.000000,0.000000,0.000000,0.000000,0.000000,0.000000,0.000000,0.000000,0.000000,0.000000,1772721924.194512,0.000000
16.000000,-12853.817684,-18625.596896,2226.233748,-30335.787575,10117.718293,3327.526549,-23322.659531,-28994.347631,2977.721748,-839.933853,7166.393956,-273.652407,8753.613681,6138.928966,-11626.416341,-4643.016117,0.012000,-0.012000,1.000000,192.000000,0.000000,0.000000,0.000000,0.000000,0.000000,0.000000,0.000000,0.000000,0.000000,1772721924.194538,0.000000
18.000000,-12877.622292,-18647.143978,2207.838262,-30348.930400,10100.194526,3325.380781,-23336.964647,-29014.195980,2963.282521,-849.701565,7145.249205,-293.433701,8736.559300,6125.003830,-11644.208329,-4643.843132,0.012000,-0.012000,1.000000,192.000000,0.000000,0.000000,0.000000,0.000000,0.000000,0.000000,0.000000,0.000000,0.000000,1772721924.194564,0.000000
20.000000,-12858.913882,-18621.305361,2224.758533,-30330.177287,10123.216823,3342.479866,-23322.100737,-28993.811189,2961.919065,-843.823057,7144.198673,-290.483271,8738.503902,6129.273013,-11634.798245,-4634.745972,0.006000,-0.014000,0.998000,192.000000,0.000000,24.000000,127.500000,72.000000,15.500000,24.000000,0.000000,0.000000,0.000000,1772721924.194590,0.000000
22.000000,-12859.405620,-18624.635771,2214.096751,-30337.016921,10118.724122,3331.795732,-23332.628409,-29002.126038,2971.150335,-832.244853,7151.306528,-278.636846,8748.226911,6141.253548,-11626.975134,-4623.860672,0.006000,-0.014000,0.998000,192.000000,0.000000,0.000000,0.000000,0.000000,0.000000,0.000000,0.000000,0.000000,0.000000,1772721924.194616,0.000000
24.000000,-12862.937196,-18627.228573,2216.935422,-30337.061624,10123.306230,3334.254424,-23330.437938,-29004.517675,2963.640149,-839.956205,7138.051944,-292.003190,8738.213329,6127.417818,-11650.980908,-4632.443742,0.006000,-0.014000,0.998000,192.000000,0.000000,0.000000,0.000000,0.000000,0.000000,0.000000,0.000000,0.000000,0.000000,1772721924.194642,0.000000
26.000000,-12848.833245,-18614.398672,2225.071457,-30330.601970,10135.107951,3340.468209,-23323.777118,-28994.593500,2980.940399,-826.165179,7158.928473,-276.982817,8760.118039,6146.617966,-11635.245280,-4619.859710,0.006000,-0.014000,0.998000,192.000000,0.000000,0.000000,0.000000,0.000000,0.000000,0.000000,0.000000,0.000000,0.000000,1772721924.194670,0.000000
28.000000,-12853.303594,-18617.147936,2212.576832,-30337.419252,10118.522956,3332.779209,-23334.394197,-28999.265015,2983.980237,-825.516978,7154.458124,-279.732082,8753.524274,6138.817208,-11659.563978,-4631.102637,0.006000,-0.014000,0.998000,192.000000,0.000000,0.000000,0.000000,0.000000,0.000000,0.000000,0.000000,0.000000,0.000000,1772721924.194696,0.000000
30.000000,-12841.591280,-18604.653311,2228.200701,-30324.008205,10130.704657,3345.787924,-23319.999673,-28984.848140,2984.270809,-818.632641,7158.369679,-273.406538,8758.374603,6143.600481,-11657.731135,-4632.287280,0.010000,-0.013000,0.999000,192.000000,0.000000,56.000000,127.500000,80.000000,15.500000,32.000000,0.000000,0.000000,0.000000,1772721924.194722,0.000000
32.000000,-12850.062591,-18613.594009,2218.120065,-30334.066490,10116.198375,3327.615956,-23326.772252,-28994.347631,2988.271771,-818.409123,7161.409517,-270.634922,8761.816771,6151.557702,-11650.690335,-4631.415562,0.010000,-0.013000,0.999000,192.000000,0.000000,0.000000,0.000000,0.000000,0.000000,0.000000,0.000000,0.000000,0.000000,1772721924.194749,0.000000
34.000000,-12850.420219,-18615.248038,2221.115198,-30333.418290,10116.578354,3328.152398,-23322.748938,-28990.480779,2981.990931,-824.779370,7151.284176,-280.715559,8747.064620,6134.078638,-11666.045984,-4649.699289,0.010000,-0.013000,0.999000,192.000000,0.000000,0.000000,0.000000,0.000000,0.000000,0.000000,0.000000,0.000000,0.000000,1772721924.194775,0.000000
36.000000,-12853.057725,-18620.455995,2223.439780,-30335.519354,10118.791177,3334.947328,-23322.078386,-28994.146466,2988.942324,-825.628737,7164.762278,-273.585352,8756.027669,6144.561606,-11639.849739,-4637.316422,0.010000,-0.013000,0.999000,192.000000,0.000000,0.000000,0.000000,0.000000,0.000000,0.000000,0.000000,0.000000,0.000000,1772721924.194801,0.000000
38.000000,-12875.118896,-18641.354876,2204.820777,-30351.545555,10102.966142,3322.407999,-23340.429168,-29019.068661,2968.915161,-848.829847,7143.349307,-296.562945,8737.632184,6122.925117,-11654.803056,-4644.290166,0.010000,-0.013000,0.999000,192.000000,0.000000,0.000000,0.000000,0.000000,0.000000,0.000000,0.000000,0.000000,0.000000,1772721924.194827,0.000000
40.000000,-12877.510533,-18644.104140,2216.041352,-30344.951790,10119.171157,3335.193197,-23334.528307,-29019.158068,2960.332091,-856.272978,7132.307545,-307.314135,8734.078256,6120.108798,-11642.442541,-4639.596300,0.013000,-0.011500,0.998500,192.000000,0.000000,64.000000,127.500000,88.000000,15.500000,24.000000,0.000000,0.000000,0.000000,1772721924.194853,0.000000
42.000000,-12882.919655,-18650.340277,2209.335829,-30354.719502,10104.597819,3310.896851,-23339.892726,-29021.482649,2962.589617,-857.927007,7134.877996,-303.849614,8735.285251,6121.852234,-11632.160739,-4638.612823,0.013000,-0.011500,0.998500,192.000000,0.000000,0.000000,0.000000,0.000000,0.000000,0.000000,0.000000,0.000000,0.000000,1772721924.194879,0.000000
44.000000,-12869.240388,-18637.532727,2219.863501,-30348.818642,10110.006942,3310.539223,-23330.773214,-29004.450620,2959.482725,-860.385699,7135.369734,-303.246117,8728.736189,6104.820204,-11647.605794,-4656.382460,0.013000,-0.011500,0.998500,192.000000,0.000000,0.000000,0.000000,0.000000,0.000000,0.000000,0.000000,0.000000,0.000000,1772721924.194905,0.000000
46.000000,-12862.780733,-18629.821376,2226.390210,-30338.335674,10123.775616,3327.303031,-23324.693540,-28998.438000,2972.580847,-851.713222,7155.128676,-288.605724,8746.371716,6123.908594,-11623.421207,-4636.891739,0.013000,-0.011500,0.998500,192.000000,0.000000,0.000000,0.000000,0.000000,0.000000,0.000000,0.000000,0.000000,0.000000,1772721924.194931,0.000000
48.000000,-12864.032431,-18633.263544,2213.314439,-30341.889601,10119.394674,3328.197101,-23335.690598,-29008.809210,2974.279579,-847.578150,7147.886711,-294.439530,8744.762390,6126.568452,-11642.733114,-4636.601166,0.013000,-0.011500,0.998500,192.000000,0.000000,0.000000,0.000000,0.000000,0.000000,0.000000,0.000000,0.000000,0.000000,1772721924.194957,0.000000
50.000000,-12851.671916,-18620.321884,2228.178350,-30327.048043,10142.886358,3352.985186,-23325.162926,-28996.336937,2982.952056,-834.837655,7152.401763,-288.985704,8753.457219,6138.236062,-11636.653440,-4626.565233,0.011500,-0.011750,0.999250,192.000000,0.000000,40.000000,127.500000,80.000000,15.500000,32.000000,0.000000,0.000000,0.000000,1772721924.194982,0.000000
52.000000,-12855.941100,-18624.412253,2216.801312,-30332.658331,10127.821282,3345.586758,-23333.231906,-29001.254320,2988.316475,-829.495588,7159.397860,-279.128585,8757.994623,6150.216597,-11633.278326,-4620.463207,0.011500,-0.011750,0.999250,192.000000,0.000000,0.000000,0.000000,0.000000,0.000000,0.000000,0.000000,0.000000,0.000000,1772721924.195009,0.000000
54.000000,-12849.816722,-18616.186811,2221.070495,-30328.836182,10126.614288,3343.351584,-23327.755729,-28991.888939,2978.191135,-835.754077,7145.182150,-288.806890,8740.582614,6138.191359,-11659.318108,-4628.375724,0.011500,-0.011750,0.999250,192.000000,0.000000,0.000000,0.000000,0.000000,0.000000,0.000000,0.000000,0.000000,0.000000,1772721924.195035,0.000000
56.000000,-12838.864367,-18604.407442,2225.473788,-30322.868266,10126.636639,3342.368107,-23320.938447,-28982.344744,2995.424330,-819.191434,7168.025633,-268.667968,8758.352251,6159.403164,-11641.749637,-4618.652716,0.011500,-0.011750,0.999250,192.000000,0.000000,0.000000,0.000000,0.000000,0.000000,0.000000,0.000000,0.000000,0.000000,1772721924.195061,0.000000
58.000000,-12847.849768,-18613.973989,2212.442721,-30331.428985,10104.396654,3326.967755,-23328.001598,-28989.921986,2992.049216,-822.052458,7160.649557,-274.747643,8744.874149,6146.103876,-11664.391954,-4629.023925,0.011500,-0.011750,0.999250,192.000000,0.000000,0.000000,0.000000,0.000000,0.000000,0.000000,0.000000,0.000000,0.000000,1772721924.195090,0.000000
60.000000,-12847.469788,-18613.325788,2227.351335,-30321.571865,10115.930154,3333.785037,-23313.428260,-28981.830654,2985.053120,-828.735629,7159.643729,-275.820527,8740.381448,6143.153446,-11658.602853,-4631.504969,0.009750,-0.013875,0.999625,192.000000,0.000000,32.000000,127.500000,64.000000,15.500000,32.000000,0.000000,0.000000,0.000000,1772721924.195116,0.000000
62.000000,-12865.239425,-18632.011847,2210.855748,-30339.520316,10099.792194,3324.240842,-23328.470985,-29002.930701,2984.203754,-835.865836,7158.324976,-280.961428,8739.241509,6144.271033,-11651.383239,-4634.276585,0.009750,-0.013875,0.999625,192.000000,0.000000,0.000000,0.000000,0.000000,0.000000,0.000000,0.000000,0.000000,0.000000,1772721924.195143,0.000000
64.000000,-12865.127667,-18634.984629,2217.091884,-30347.477537,10110.230459,3323.927918,-23329.722682,-29006.439925,2969.563361,-851.914388,7139.527159,-301.077998,8725.361076,6121.449902,-11662.290890,-4649.699289,0.009750,-0.013875,0.999625,192.000000,0.000000,0.000000,0.000000,0.000000,0.000000,0.000000,0.000000,0.000000,0.000000,1772721924.195168,0.000000
66.000000,-12861.529036,-18630.089597,2222.121027,-30346.069377,10126.323715,3330.029944,-23327.532211,-29004.562378,2980.962751,-847.019356,7154.502827,-291.086768,8742.862492,6136.112647,-11626.081064,-4639.328079,0.009750,-0.013875,0.999625,192.000000,0.000000,0.000000,0.000000,0.000000,0.000000,0.000000,0.000000,0.000000,0.000000,1772721924.195195,0.000000
68.000000,-12872.391984,-18640.550213,2205.357218,-30354.093653,10115.818395,3319.614031,-23340.183299,-29017.459335,2967.104669,-856.854124,7136.844949,-302.553213,8726.188091,6126.032010,-11638.821559,-4648.179370,0.009750,-0.013875,0.999625,192.000000,0.000000,0.000000,0.000000,0.000000,0.000000,0.000000,0.000000,0.000000,0.000000,1772721924.195221,0.000000
70.000000,-12863.786562,-18630.849556,2217.874195,-30342.895429,10125.340238,3332.220415,-23327.532211,-29003.713012,2966.300007,-854.797763,7138.342516,-300.675666,8725.249317,6129.809455,-11635.535852,-4639.618652,0.007875,-0.014937,1.001812,192.000000,0.000000,24.000000,127.500000,64.000000,15.500000,48.000000,0.000000,0.000000,0.000000,1772721924.195247,0.000000
72.000000,-12858.980937,-18625.775710,2211.325134,-30345.421177,10109.582258,3327.660659,-23329.230944,-28996.716916,2978.392300,-844.672423,7153.921682,-288.270448,8735.732285,6140.918272,-11637.368695,-4634.298937,0.007875,-0.014937,1.001812,192.000000,0.000000,0.000000,0.000000,0.000000,0.000000,0.000000,0.000000,0.000000,0.000000,1772721924.195289,0.000000
74.000000,-12843.781751,-18608.475460,2220.377591,-30334.513525,10108.263505,3325.291374,-23320.044377,-28978.299079,2980.985103,-837.989251,7157.632072,-284.828280,8728.691486,6133.609251,-11660.346289,-4642.859655,0.007875,-0.014937,1.001812,192.000000,0.000000,0.000000,0.000000,0.000000,0.000000,0.000000,0.000000,0.000000,0.000000,1772721924.674525,0.000000
76.000000,-12831.220070,-18598.104250,2229.273585,-30327.696243,10111.660971,3334.947328,-23314.299979,-28971.146521,2997.637152,-823.527673,7178.955636,-265.426965,8747.735172,6155.670423,-11645.169454,-4630.521492,0.007875,-0.014937,1.001812,192.000000,0.000000,0.000000,0.000000,0.000000,0.000000,0.000000,0.000000,0.000000,0.000000,1772721924.674617,0.000000
78.000000,-12844.541710,-18613.705768,2217.985954,-30340.436738,10092.214953,3316.149511,-23325.118223,-28985.876320,2992.675065,-834.055344,7168.606778,-278.301570,8737.319259,6141.387658,-11666.247149,-4641.496198,0.007875,-0.014937,1.001812,192.000000,0.000000,0.000000,0.000000,0.000000,0.000000,0.000000,0.000000,0.000000,0.000000,1772721924.674684,0.000000
80.000000,-12841.658335,-18610.263599,2229.653565,-30333.261828,10099.568677,3329.717020,-23317.116298,-28981.517730,2989.702283,-837.877493,7165.991624,-279.240343,8734.190015,6136.559681,-11662.849684,-4638.679879,0.004938,-0.012469,0.999906,192.000000,0.000000,8.000000,127.500000,88.000000,15.500000,24.000000,0.000000,0.000000,0.000000,1772721924.674742,0.000000
82.000000,-12849.928480,-18618.980780,2215.728428,-30338.358025,10086.917590,3319.524624,-23327.889839,-28992.514788,2990.574001,-838.480990,7167.802115,-272.266599,8740.202634,6141.968804,-11655.697126,-4639.462190,0.004938,-0.012469,0.999906,192.000000,0.000000,0.000000,0.000000,0.000000,0.000000,0.000000,0.000000,0.000000,0.000000,1772721924.674780,0.000000
84.000000,-12853.661222,-18622.601762,2214.946117,-30334.290008,10089.130412,3321.648040,-23327.934543,-28996.113419,2975.933609,-852.629644,7148.557263,-289.991533,8722.589460,6124.467388,-11673.824391,-4646.547693,0.004938,-0.012469,0.999906,192.000000,0.000000,0.000000,0.000000,0.000000,0.000000,0.000000,0.000000,0.000000,0.000000,1772721924.674847,0.000000
86.000000,-12853.862387,-18622.490003,2221.495178,-30333.306531,10094.316017,3323.324421,-23325.051168,-28997.655689,2984.717844,-846.840542,7157.699127,-282.749567,8738.168626,6140.985327,-11646.421152,-4632.667259,0.004938,-0.012469,0.999906,192.000000,0.000000,0.000000,0.000000,0.000000,0.000000,0.000000,0.000000,0.000000,0.000000,1772721924.674927,0.000000
88.000000,-12856.455190,-18624.926344,2213.895585,-30339.632075,10083.609531,3318.943479,-23332.650761,-29003.467143,2979.398129,-849.433345,7149.272519,-290.438567,8729.429094,6130.323545,-11658.446390,-4640.535073,0.004938,-0.012469,0.999906,192.000000,0.000000,0.000000,0.000000,0.000000,0.000000,0.000000,0.000000,0.000000,0.000000,1772721924.674968,0.000000
90.000000,-12841.457169,-18610.174192,2232.045201,-30325.349310,10110.766901,3343.128066,-23319.105604,-28986.815093,2985.120175,-842.325490,7159.420211,-280.626152,8740.694373,6136.179702,-11645.191806,-4630.543844,0.004469,-0.013234,0.998953,192.000000,0.000000,16.000000,127.500000,72.000000,15.500000,24.000000,0.000000,0.000000,0.000000,1772721924.675001,0.000000
92.000000,-12850.129646,-18617.460861,2216.398980,-30335.206429,10111.973895,3349.252444,-23337.210517,-29005.389393,2987.109481,-840.157371,7161.543627,-278.502736,8746.774047,6146.662670,-11629.031495,-4619.166806,0.004469,-0.013234,0.998953,192.000000,0.000000,0.000000,0.000000,0.000000,0.000000,0.000000,0.000000,0.000000,0.000000,1772721924.675022,0.000000
94.000000,-12852.498931,-18619.003131,2217.404809,-30335.139374,10134.213881,3370.486602,-23339.311581,-29011.647881,2979.599295,-845.119458,7141.851740,-295.445358,8735.128788,6137.386696,-11637.703972,-4620.932593,0.004469,-0.013234,0.998953,192.000000,0.000000,0.000000,0.000000,0.000000,0.000000,0.000000,0.000000,0.000000,0.000000,1772721924.675044,0.000000
96.000000,-12847.246271,-18613.236381,2224.266794,-30332.971255,10149.278957,3377.795622,-23334.684769,-29007.043422,2989.054083,-837.519865,7153.228778,-287.756358,8753.747791,6154.843408,-11609.965457,-4603.341771,0.004469,-0.013234,0.998953,192.000000,0.000000,0.000000,0.000000,0.000000,0.000000,0.000000,0.000000,0.000000,0.000000,1772721924.675066,0.000000
98.000000,-12844.005268,-18611.492945,2216.488387,-30336.949865,10135.152654,3357.567293,-23339.155118,-29005.992890,2987.221239,-837.318699,7147.394973,-291.757320,8747.712820,6147.668498,-11630.707876,-4616.864576,0.004469,-0.013234,0.998953,192.000000,0.000000,0.000000,0.000000,0.000000,0.000000,0.000000,0.000000,0.000000,0.000000,1772721924.675087,0.000000
100.000000,-12835.288088,-18602.082861,2230.793504,-30326.824525,10134.973840,3360.718889,-23322.033682,-28989.609061,2994.485556,-835.038821,7158.459086,-286.705826,8754.060716,6149.568397,-11633.792416,-4616.641059,0.004469,-0.013234,0.998953,192.000000,0.000000,0.000000,0.000000,0.000000,0.000000,0.000000,0.000000,0.000000,0.000000,1772721924.675108,0.000000
102.000000,-12840.786617,-18607.804907,2216.376628,-30333.820621,10105.357779,3333.226244,-23326.191107,-28995.331108,2995.647847,-834.167103,7164.561112,-278.368625,8753.323108,6147.735554,-11643.805998,-4624.173596,0.004000,-0.016000,1.002000,192.000000,0.000000,16.000000,127.500000,64.000000,15.500000,40.000000,0.000000,0.000000,0.000000,1772721924.675130,0.000000
104.000000,-12842.999440,-18608.810736,2218.164768,-30332.814793,10098.182869,3318.496444,-23322.480717,-28993.990003,2982.750891,-837.229292,7149.563092,-281.073187,8735.888748,6128.557757,-11670.873960,-4644.916015,0.004000,-0.016000,1.002000,192.000000,0.000000,0.000000,0.000000,0.000000,0.000000,0.000000,0.000000,0.000000,0.000000,1772721924.675151,0.000000
106.000000,-12843.781751,-18611.180021,2223.015097,-30334.535877,10097.981703,3319.234052,-23320.446708,-28994.235873,2986.863612,-839.620929,7160.761316,-274.948809,8744.538873,6136.403219,-11655.540664,-4641.764419,0.004000,-0.016000,1.002000,192.000000,0.000000,0.000000,0.000000,0.000000,0.000000,0.000000,0.000000,0.000000,0.000000,1772721924.675173,0.000000
108.000000,-12856.634004,-18628.167346,2207.145358,-30352.037293,10076.904008,3302.380836,-23334.394197,-29008.339823,2975.732443,-854.529542,7148.870188,-293.523108,8730.747846,6117.672457,-11674.561998,-4650.883931,0.004000,-0.016000,1.002000,192.000000,0.000000,0.000000,0.000000,0.000000,0.000000,0.000000,0.000000,0.000000,0.000000,1772721924.675195,0.000000
110.000000,-12853.571815,-18624.009922,2222.210434,-30344.415348,10089.510392,3308.415807,-23321.497240,-29000.784934,2973.050233,-856.988234,7150.211293,-297.501719,8723.014143,6111.816300,-11670.471629,-4645.854789,0.004000,-0.016000,1.002000,192.000000,0.000000,0.000000,0.000000,0.000000,0.000000,0.000000,0.000000,0.000000,0.000000,1772721924.675217,0.000000
112.000000,-12868.882760,-18639.320867,2211.995687,-30355.211241,10080.524991,3296.792900,-23333.075444,-29016.520562,2969.384547,-861.615045,7149.093705,-298.976934,8725.338724,6108.575297,-11661.553283,-4645.027774,0.008000,-0.012000,1.006000,192.000000,0.000000,32.000000,127.500000,80.000000,15.500000,56.000000,0.000000,0.000000,0.000000,1772721924.675238,0.000000
114.000000,-12865.842922,-18637.108044,2221.830454,-30347.745758,10098.898125,3316.730656,-23332.293133,-29016.274693,2956.331129,-871.360406,7129.513577,-311.851539,8715.682771,6096.438300,-11670.583388,-4650.459248,0.008000,-0.012000,1.006000,192.000000,0.000000,0.000000,0.000000,0.000000,0.000000,0.000000,0.000000,0.000000,0.000000,1772721924.675259,0.000000
116.000000,-12852.275414,-18622.110024,2233.341602,-30340.146165,10123.887375,3333.896796,-23329.610923,-29003.042460,2977.073547,-854.820115,7149.630147,-294.014847,8744.114190,6125.964955,-11633.211271,-4630.566195,0.008000,-0.012000,1.006000,192.000000,0.000000,0.000000,0.000000,0.000000,0.000000,0.000000,0.000000,0.000000,0.000000,1772721924.675281,0.000000
118.000000,-12852.007193,-18620.657160,2219.975259,-30343.945961,10122.322753,3337.786000,-23338.484566,-29006.037594,2981.253324,-846.393507,7149.227816,-293.791329,8743.823617,6124.087408,-11641.079085,-4630.566195,0.008000,-0.012000,1.006000,192.000000,0.000000,0.000000,0.000000,0.000000,0.000000,0.000000,0.000000,0.000000,0.000000,1772721924.675303,0.000000
120.000000,-12847.290975,-18614.130451,2229.273585,-30332.457165,10137.387829,3354.594511,-23328.023950,-29000.628471,2981.253324,-842.973690,7151.664156,-293.165480,8743.309527,6131.329373,-11624.002352,-4609.689666,0.008000,-0.012000,1.006000,192.000000,0.000000,0.000000,0.000000,0.000000,0.000000,0.000000,0.000000,0.000000,0.000000,1772721924.675323,0.000000
122.000000,-12855.292899,-18621.618285,2211.235727,-30338.223915,10119.595840,3342.144590,-23337.881069,-29010.396184,2979.867516,-847.756964,7149.496037,-292.338466,8743.108361,6135.822074,-11617.877974,-4601.374817,0.010000,-0.014000,1.008000,192.000000,0.000000,40.000000,127.500000,72.000000,15.500000,64.000000,0.000000,0.000000,0.000000,1772721924.675350,0.000000
124.000000,-12845.368725,-18614.175154,2214.074399,-30334.669988,10123.350933,3333.248595,-23329.789737,-28998.035669,2975.061890,-851.422650,7140.577691,-297.635829,8731.396047,6119.594707,-11644.588309,-4619.926765,0.010000,-0.014000,1.008000,192.000000,0.000000,0.000000,0.000000,0.000000,0.000000,0.000000,0.000000,0.000000,0.000000,1772721924.675370,0.000000
126.000000,-12826.526204,-18596.182000,2227.194873,-30329.842011,10129.251794,3335.886101,-23320.714929,-28978.187320,2996.810138,-834.412972,7171.736022,-274.032387,8756.742925,6140.448885,-11627.913908,-4620.865538,0.010000,-0.014000,1.008000,192.000000,0.000000,0.000000,0.000000,0.000000,0.000000,0.000000,0.000000,0.000000,0.000000,1772721924.675392,0.000000
128.000000,-12831.756512,-18604.072166,2218.589451,-30341.554325,10115.281953,3319.882252,-23330.393235,-28984.199939,2994.887888,-834.301214,7168.003281,-277.429852,8743.980079,6129.273013,-11651.964385,-4640.691536,0.010000,-0.014000,1.008000,192.000000,0.000000,0.000000,0.000000,0.000000,0.000000,0.000000,0.000000,0.000000,0.000000,1772721924.675413,0.000000
130.000000,-12831.242422,-18601.054680,2228.915957,-30333.038310,10123.082712,3330.007592,-23319.038548,-28978.187320,2996.988952,-835.374097,7170.774897,-275.552306,8749.322146,6129.675344,-11652.947861,-4646.055954,0.010000,-0.014000,1.008000,192.000000,0.000000,0.000000,0.000000,0.000000,0.000000,0.000000,0.000000,0.000000,0.000000,1772721924.675434,0.000000
132.000000,-12850.397867,-18621.305361,2208.978201,-30347.499889,10095.970046,3306.381799,-23329.432110,-28997.275710,2989.746987,-846.505266,7163.778801,-279.553268,8749.568015,6123.774484,-11658.736963,-4643.127876,0.010000,-0.014000,1.004000,192.000000,0.000000,40.000000,127.500000,72.000000,15.500000,48.000000,0.000000,0.000000,0.000000,1772721924.675456,0.000000
134.000000,-12859.763248,-18632.257716,2205.670143,-30350.763244,10087.454031,3302.269078,-23328.739205,-29007.602216,2968.602236,-867.024167,7139.504807,-301.837957,8715.280439,6094.337236,-11684.754394,-4655.421335,0.010000,-0.014000,1.004000,192.000000,0.000000,0.000000,0.000000,0.000000,0.000000,0.000000,0.000000,0.000000,0.000000,1772721924.675478,0.000000
136.000000,-12867.206379,-18638.337390,2208.799387,-30352.819604,10088.661026,3306.001819,-23328.470985,-29015.291216,2969.518658,-869.974598,7145.450371,-299.893355,8722.254184,6100.059283,-11661.374469,-4646.413582,0.010000,-0.014000,1.004000,192.000000,0.000000,0.000000,0.000000,0.000000,0.000000,0.000000,0.000000,0.000000,0.000000,1772721924.675501,0.000000
138.000000,-12878.069327,-18652.463693,2199.836338,-30365.873023,10079.005072,3298.849261,-23341.949086,-29031.809155,2957.024033,-881.485746,7129.558281,-319.741704,8704.909230,6081.552038,-11674.919626,-4656.382460,0.010000,-0.014000,1.004000,192.000000,0.000000,0.000000,0.000000,0.000000,0.000000,0.000000,0.000000,0.000000,0.000000,1772721924.675523,0.000000
140.000000,-12873.353109,-18648.395675,2219.416466,-30356.105310,10096.931171,3316.082456,-23334.841232,-29023.181382,2956.822867,-882.424519,7131.592289,-323.317984,8709.938372,6086.201201,-11663.184960,-4646.346527,0.010000,-0.014000,1.004000,192.000000,0.000000,0.000000,0.000000,0.000000,0.000000,0.000000,0.000000,0.000000,0.000000,1772721924.675545,0.000000
142.000000,-12871.587321,-18646.182853,2217.494216,-30356.932325,10097.646427,3320.016363,-23345.704179,-29027.316454,2960.242684,-879.049406,7136.353211,-317.528882,8716.956820,6098.852289,-11645.035344,-4633.404867,0.008000,-0.020000,1.008000,192.000000,0.000000,32.000000,127.500000,48.000000,15.500000,64.000000,0.000000,0.000000,0.000000,1772721924.675567,0.000000
144.000000,-12852.588338,-18624.591067,2230.346469,-30340.324979,10120.221689,3342.815142,-23336.875240,-29007.401050,2962.991948,-868.812307,7134.408609,-312.253870,8716.755654,6106.720103,-11648.455161,-4633.963660,0.008000,-0.020000,1.008000,192.000000,0.000000,0.000000,0.000000,0.000000,0.000000,0.000000,0.000000,0.000000,0.000000,1772721924.675588,0.000000
146.000000,-12835.556309,-18604.988587,2234.235672,-30331.741909,10129.899994,3351.845247,-23328.538040,-28988.960861,2989.679931,-846.259397,7163.823505,-279.687378,8744.360059,6138.325469,-11616.335704,-4620.284393,0.008000,-0.020000,1.008000,192.000000,0.000000,0.000000,0.000000,0.000000,0.000000,0.000000,0.000000,0.000000,0.000000,1772721924.675610,0.000000
148.000000,-12838.596146,-18609.146012,2215.393152,-30343.029540,10111.795081,3332.823912,-23337.210517,-28992.492436,2989.478766,-844.627719,7161.543627,-279.307399,8735.709934,6129.094199,-11635.357038,-4635.684745,0.008000,-0.020000,1.008000,192.000000,0.000000,0.000000,0.000000,0.000000,0.000000,0.000000,0.000000,0.000000,0.000000,1772721924.675633,0.000000
150.000000,-12826.637963,-18595.690262,2231.553463,-30333.395938,10126.279012,3337.048392,-23323.240676,-28976.421532,2991.646885,-839.039783,7168.562075,-274.635884,8734.033553,6129.407123,-11631.490187,-4639.886873,0.008000,-0.020000,1.008000,192.000000,0.000000,0.000000,0.000000,0.000000,0.000000,0.000000,0.000000,0.000000,0.000000,1772721924.675655,0.000000
152.000000,-12836.293916,-18605.726195,2218.745913,-30347.343427,10114.387883,3312.729694,-23332.069615,-28986.636279,2992.362141,-840.157371,7172.563037,-271.238419,8740.649669,6128.222481,-11628.338591,-4643.597262,0.012000,-0.026000,1.002000,192.000000,0.000000,48.000000,127.500000,24.000000,15.500000,40.000000,0.000000,0.000000,0.000000,1772721924.675677,0.000000
154.000000,-12842.261832,-18611.761166,2219.416466,-30344.728273,10112.152709,3316.842415,-23327.353397,-28992.045402,2977.498231,-851.042670,7152.915854,-287.309323,8725.137559,6106.228364,-11646.890539,-4658.192951,0.012000,-0.026000,1.002000,192.000000,0.000000,0.000000,0.000000,0.000000,0.000000,0.000000,0.000000,0.000000,0.000000,1772721924.675702,0.000000
156.000000,-12842.932384,-18612.319960,2218.611803,-30339.967351,10106.877697,3315.188386,-23324.917057,-28996.158123,2979.554591,-848.271054,7157.900293,-281.252000,8733.027724,6118.320658,-11632.183091,-4643.418448,0.012000,-0.026000,1.002000,192.000000,0.000000,0.000000,0.000000,0.000000,0.000000,0.000000,0.000000,0.000000,0.000000,1772721924.675724,0.000000
158.000000,-12857.215149,-18626.982704,2199.344599,-30351.679665,10087.163459,3297.843432,-23339.289229,-29012.229027,2966.232951,-859.983368,7140.577691,-295.333599,8710.921849,6100.260448,-11657.239396,-4650.213379,0.012000,-0.026000,1.002000,192.000000,0.000000,0.000000,0.000000,0.000000,0.000000,0.000000,0.000000,0.000000,0.000000,1772721924.675744,0.000000
160.000000,-12858.220978,-18626.110986,2210.676934,-30346.695226,10097.154688,3308.505214,-23331.063787,-29009.815038,2962.276693,-863.134964,7135.928528,-301.815605,8711.502994,6095.879507,-11652.903158,-4641.406791,0.012000,-0.026000,1.002000,192.000000,0.000000,0.000000,0.000000,0.000000,0.000000,0.000000,0.000000,0.000000,0.000000,1772721924.675766,0.000000
162.000000,-12867.072268,-18637.018637,2196.818852,-30363.011999,10083.073089,3297.798729,-23343.021970,-29023.471954,2960.533257,-865.325435,7135.459141,-302.754379,8712.508823,6099.366379,-11649.349230,-4635.572986,0.014000,-0.016000,0.998000,192.000000,0.000000,56.000000,127.500000,64.000000,15.500000,24.000000,0.000000,0.000000,0.000000,1772721924.675787,0.000000
164.000000,-12867.273434,-18637.644486,2201.266849,-30365.537747,10092.885505,3309.801615,-23342.843156,-29025.461260,2950.899655,-877.194211,7121.556356,-319.182911,8701.422358,6083.608399,-11666.671832,-4639.193969,0.014000,-0.016000,0.998000,192.000000,0.000000,0.000000,0.000000,0.000000,0.000000,0.000000,0.000000,0.000000,0.000000,1772721924.675808,0.000000
166.000000,-12863.317175,-18633.352951,2206.474806,-30362.609668,10101.222706,3327.839473,-23340.272706,-29025.103632,2960.689719,-871.315702,7136.129694,-311.203338,8715.526308,6104.641390,-11634.552376,-4619.189157,0.014000,-0.016000,0.998000,192.000000,0.000000,0.000000,0.000000,0.000000,0.000000,0.000000,0.000000,0.000000,0.000000,1772721924.675830,0.000000
168.000000,-12873.442516,-18644.640582,2196.282410,-30372.913822,10085.531781,3316.507139,-23349.951011,-29033.351425,2950.944358,-879.228220,7123.925641,-323.049763,8702.696407,6093.420815,-11647.203463,-4626.006439,0.014000,-0.016000,0.998000,192.000000,0.000000,0.000000,0.000000,0.000000,0.000000,0.000000,0.000000,0.000000,0.000000,1772721924.675859,0.000000
170.000000,-12854.354126,-18626.513317,2220.556405,-30353.624267,10104.396654,3331.527511,-23333.723644,-29009.837390,2960.421498,-871.606275,7133.000449,-316.120722,8709.513689,6099.411082,-11638.083951,-4627.258137,0.014000,-0.016000,0.998000,192.000000,0.000000,0.000000,0.000000,0.000000,0.000000,0.000000,0.000000,0.000000,0.000000,1772721924.675881,0.000000
172.000000,-12845.055800,-18615.896239,2222.433951,-30348.058682,10093.220781,3322.564462,-23336.294095,-29001.544893,2978.660521,-854.149563,7153.586406,-297.077036,8727.506844,6118.164196,-11634.373562,-4631.683783,0.016000,-0.016000,1.001000,192.000000,0.000000,72.000000,127.500000,64.000000,15.500000,48.000000,0.000000,0.000000,0.000000,1772721924.675904,0.000000
174.000000,-12827.844957,-18598.841858,2240.203588,-30332.546572,10106.564773,3328.062991,-23323.687711,-28981.070695,2986.148356,-844.158333,7161.610682,-288.672780,8726.545718,6120.354667,-11651.293832,-4648.179370,0.016000,-0.016000,1.001000,192.000000,0.000000,0.000000,0.000000,0.000000,0.000000,0.000000,0.000000,0.000000,0.000000,1772721924.675930,0.000000
176.000000,-12817.451396,-18589.297663,2246.886760,-30322.532990,10117.472424,3330.633441,-23314.724662,-28967.257317,3005.192042,-828.847388,7188.209258,-262.923570,8747.913986,6147.802609,-11627.556280,-4639.350431,0.016000,-0.016000,1.001000,192.000000,0.000000,0.000000,0.000000,0.000000,0.000000,0.000000,0.000000,0.000000,0.000000,1772721924.675952,0.000000
178.000000,-12818.256058,-18589.029442,2230.771152,-30327.808002,10103.815508,3320.552805,-23321.229019,-28962.138767,3005.817891,-826.388696,7185.504697,-254.854590,8739.956765,6139.241891,-11645.504730,-4647.508818,0.016000,-0.016000,1.001000,192.000000,0.000000,0.000000,0.000000,0.000000,0.000000,0.000000,0.000000,0.000000,0.000000,1772721924.675971,0.000000
180.000000,-12813.204564,-18581.563959,2237.163751,-30321.191886,10111.191584,3327.772418,-23308.779098,-28950.404102,3003.895641,-823.080638,7187.538706,-243.745773,8738.459198,6134.391562,-11641.906100,-4644.893664,0.016000,-0.016000,1.001000,192.000000,0.000000,0.000000,0.000000,0.000000,0.000000,0.000000,0.000000,0.000000,0.000000,1772721924.675990,0.000000
182.000000,-12835.109274,-18604.295683,2214.677896,-30336.413424,10088.169287,3317.356505,-23323.754766,-28977.606175,2997.391283,-832.043687,7181.391976,-250.339538,8735.799341,6132.491664,-11644.633012,-4643.217283,0.018000,-0.016000,1.001500,192.000000,0.000000,80.000000,127.500000,64.000000,15.500000,40.000000,0.000000,0.000000,0.000000,1772721924.676009,0.000000
184.000000,-12845.458131,-18614.286913,2210.699285,-30340.973179,10085.621188,3313.310839,-23327.934543,-28993.073582,2976.514754,-852.651996,7151.977080,-282.123719,8713.805224,6107.725931,-11668.817600,-4651.710946,0.018000,-0.016000,1.001500,192.000000,0.000000,0.000000,0.000000,0.000000,0.000000,0.000000,0.000000,0.000000,0.000000,1772721924.676028,0.000000
186.000000,-12849.146169,-18622.512355,2209.492291,-30345.555287,10084.011863,3324.911395,-23330.952028,-28999.667346,2980.873344,-850.752097,7159.330804,-282.771919,8718.990829,6117.694809,-11652.299661,-4633.226053,0.018000,-0.016000,1.001500,192.000000,0.000000,0.000000,0.000000,0.000000,0.000000,0.000000,0.000000,0.000000,0.000000,1772721924.676055,0.000000
188.000000,-12858.690364,-18638.985591,2200.193965,-30364.062531,10075.786421,3314.204909,-23344.608944,-29013.033690,2971.060928,-871.919199,7145.919758,-303.000248,8701.735282,6095.857155,-11670.449277,-4636.936442,0.018000,-0.016000,1.001500,192.000000,0.000000,0.000000,0.000000,0.000000,0.000000,0.000000,0.000000,0.000000,0.000000,1772721924.676076,0.000000
190.000000,-12854.711754,-18638.449149,2215.996649,-30359.882755,10101.602686,3335.148494,-23336.450557,-29009.300948,2972.826716,-878.982351,7146.523255,-307.448245,8708.306695,6095.097196,-11656.702954,-4628.375724,0.018000,-0.016000,1.001500,192.000000,0.000000,0.000000,0.000000,0.000000,0.000000,0.000000,0.000000,0.000000,0.000000,1772721924.676096,0.000000
192.000000,-12863.808914,-18650.295574,2201.602125,-30370.656296,10097.132337,3326.565424,-23352.275592,-29027.495268,2973.430213,-882.893906,7143.595176,-312.008001,8712.821747,6101.713312,-11645.549434,-4622.340753,0.015000,-0.017000,1.003750,192.000000,0.000000,48.000000,127.500000,56.000000,15.500000,56.000000,0.000000,0.000000,0.000000,1772721924.676115,0.000000
194.000000,-12857.259853,-18643.075960,2201.468015,-30361.559136,10103.301418,3334.589700,-23350.442749,-29022.957864,2971.127983,-885.419653,7132.419304,-321.954527,8702.852869,6088.525783,-11661.553283,-4628.129855,0.015000,-0.017000,1.003750,192.000000,0.000000,0.000000,0.000000,0.000000,0.000000,0.000000,0.000000,0.000000,0.000000,1772721925.156478,0.000000
196.000000,-12846.441608,-18628.770844,2206.452454,-30348.304552,10101.870907,3337.853055,-23343.178432,-29014.128925,2983.443795,-869.661673,7148.289043,-305.302478,8718.029704,6113.827957,-11645.012992,-4607.901526,0.015000,-0.017000,1.003750,192.000000,0.000000,0.000000,0.000000,0.000000,0.000000,0.000000,0.000000,0.000000,0.000000,1772721925.156529,0.000000
198.000000,-12847.156864,-18628.077940,2201.333904,-30349.176270,10079.385052,3313.556709,-23341.926735,-29012.452544,2982.236800,-866.599484,7142.455237,-305.414236,8710.631276,6108.664704,-11669.868132,-4616.104617,0.015000,-0.017000,1.003750,192.000000,0.000000,0.000000,0.000000,0.000000,0.000000,0.000000,0.000000,0.000000,0.000000,1772721925.156588,0.000000
200.000000,-12824.223974,-18602.574599,2230.525283,-30328.456203,10093.913686,3318.541148,-23316.401043,-28983.328221,2993.479728,-853.993100,7157.654423,-288.561021,8722.053018,6116.286649,-11668.124696,-4628.062800,0.015000,-0.017000,1.003750,192.000000,0.000000,0.000000,0.000000,0.000000,0.000000,0.000000,0.000000,0.000000,0.000000,1772721925.156646,0.000000
202.000000,-12820.424178,-18601.233494,2233.118085,-30333.172421,10082.581351,3300.302124,-23318.747976,-28978.902576,3009.416522,-844.024222,7177.905104,-270.210239,8734.122960,6125.629678,-11659.563978,-4637.227015,0.014500,-0.017500,1.005875,192.000000,0.000000,56.000000,127.500000,56.000000,15.500000,64.000000,0.000000,0.000000,0.000000,1772721925.156705,0.000000
204.000000,-12814.456262,-18595.802021,2242.796390,-30326.645711,10093.511354,3304.124272,-23314.210572,-28971.168872,3009.014190,-847.019356,7175.580522,-275.485250,8726.366905,6115.884318,-11669.197580,-4657.187123,0.014500,-0.017500,1.005875,192.000000,0.000000,0.000000,0.000000,0.000000,0.000000,0.000000,0.000000,0.000000,0.000000,1772721925.156764,0.000000
206.000000,-12816.624381,-18595.153820,2241.499989,-30319.113173,10101.066244,3312.550880,-23311.103679,-28974.253413,3018.424275,-837.273996,7189.036273,-260.733099,8741.968422,6138.928966,-11644.387143,-4644.938367,0.014500,-0.017500,1.005875,192.000000,0.000000,0.000000,0.000000,0.000000,0.000000,0.000000,0.000000,0.000000,0.000000,1772721925.156812,0.000000
208.000000,-12830.549518,-18608.006073,2214.387323,-30327.964464,10082.201371,3298.804557,-23326.481679,-28991.330146,3004.834414,-844.739478,7167.288025,-271.283122,8724.042323,6122.321620,-11666.180094,-4651.867408,0.014500,-0.017500,1.005875,192.000000,0.000000,0.000000,0.000000,0.000000,0.000000,0.000000,0.000000,0.000000,0.000000,1772721925.156836,0.000000
210.000000,-12824.022809,-18599.311244,2218.030658,-30311.781801,10096.551191,3319.323459,-23319.083252,-28983.775256,3000.609934,-845.298272,7162.057717,-268.913838,8716.956820,6121.025219,-11664.146085,-4639.976280,0.014500,-0.017500,1.005875,192.000000,0.000000,0.000000,0.000000,0.000000,0.000000,0.000000,0.000000,0.000000,0.000000,1772721925.156859,0.000000
212.000000,-12838.685553,-18615.695073,2201.713884,-30328.433851,10087.141107,3312.081493,-23332.248429,-28998.929739,2995.513737,-850.573284,7158.570845,-268.846782,8717.001524,6125.272051,-11659.496922,-4631.549672,0.012250,-0.017750,1.005937,192.000000,0.000000,40.000000,127.500000,56.000000,15.500000,56.000000,0.000000,0.000000,0.000000,1772721925.156881,0.000000
214.000000,-12853.191835,-18631.676570,2200.953925,-30345.197659,10094.628941,3316.641249,-23338.730435,-29012.407841,2978.459356,-871.315702,7137.671964,-299.423969,8699.522459,6104.306114,-11672.930321,-4631.482617,0.012250,-0.017750,1.005937,192.000000,0.000000,0.000000,0.000000,0.000000,0.000000,0.000000,0.000000,0.000000,0.000000,1772721925.156909,0.000000
216.000000,-12855.963451,-18634.649352,2204.776073,-30352.909011,10108.554078,3330.812255,-23341.189127,-29018.219294,2980.202792,-874.981388,7145.696240,-305.727161,8712.262954,6113.202109,-11640.475588,-4610.673143,0.012250,-0.017750,1.005937,192.000000,0.000000,0.000000,0.000000,0.000000,0.000000,0.000000,0.000000,0.000000,0.000000,1772721925.156931,0.000000
218.000000,-12864.457114,-18645.825225,2189.576887,-30370.589241,10102.384997,3328.733543,-23357.751770,-29032.770280,2970.546838,-887.073682,7130.117074,-326.447228,8699.142480,6095.879507,-11653.618414,-4611.969544,0.012250,-0.017750,1.005937,192.000000,0.000000,0.000000,0.000000,0.000000,0.000000,0.000000,0.000000,0.000000,0.000000,1772721925.156967,0.000000
220.000000,-12851.358992,-18632.056550,2204.843128,-30362.184985,10127.620116,3350.906474,-23348.051113,-29022.734347,2970.815059,-890.381740,7130.228833,-328.056553,8702.249372,6101.333332,-11641.906100,-4602.268887,0.012250,-0.017750,1.005937,192.000000,0.000000,0.000000,0.000000,0.000000,0.000000,0.000000,0.000000,0.000000,0.000000,1772721925.156990,0.000000
222.000000,-12851.828379,-18632.414178,2200.126910,-30371.259793,10113.292648,3329.269985,-23355.762464,-29022.890809,2977.654693,-885.844336,7138.275461,-321.418085,8712.531175,6108.731760,-11635.222928,-4605.755759,0.010125,-0.016875,1.004969,192.000000,0.000000,32.000000,127.500000,64.000000,15.500000,48.000000,0.000000,0.000000,0.000000,1772721925.157011,0.000000
224.000000,-12834.036390,-18613.594009,2214.387323,-30359.279258,10105.871869,3317.602374,-23342.418473,-28998.192131,2982.639132,-877.104804,7142.723458,-314.533748,8708.217288,6098.449957,-11662.536760,-4629.314498,0.010125,-0.016875,1.004969,192.000000,0.000000,0.000000,0.000000,0.000000,0.000000,0.000000,0.000000,0.000000,0.000000,1772721925.157034,0.000000
226.000000,-12813.293971,-18595.019709,2228.737143,-30345.689398,10114.365532,3315.635421,-23329.230944,-28978.209672,3005.840243,-853.814286,7175.848743,-282.414291,8731.999544,6121.539309,-11648.768085,-4629.202739,0.010125,-0.016875,1.004969,192.000000,0.000000,0.000000,0.000000,0.000000,0.000000,0.000000,0.000000,0.000000,0.000000,1772721925.157057,0.000000
228.000000,-12813.003399,-18597.210180,2225.294974,-30349.779767,10102.720273,3301.754987,-23332.874278,-28980.087218,3007.650734,-851.154429,7174.507639,-279.955599,8733.273594,6114.722027,-11663.833161,-4651.219207,0.010125,-0.016875,1.004969,192.000000,0.000000,0.000000,0.000000,0.000000,0.000000,0.000000,0.000000,0.000000,0.000000,1772721925.157080,0.000000
230.000000,-12804.263866,-18585.877846,2243.958681,-30330.087880,10120.780482,3318.071761,-23317.563333,-28969.671305,3015.652658,-848.762792,7182.956598,-271.014902,8740.292041,6121.159330,-11654.132504,-4654.191989,0.010125,-0.016875,1.004969,192.000000,0.000000,0.000000,0.000000,0.000000,0.000000,0.000000,0.000000,0.000000,0.000000,1772721925.157103,0.000000
232.000000,-12817.473747,-18598.238361,2230.860559,-30335.497002,10106.609476,3308.505214,-23327.420453,-28982.210634,3017.753722,-843.085449,7186.376415,-263.571771,8742.661326,6130.725876,-11649.125713,-4650.168675,0.011062,-0.015437,1.005484,192.000000,0.000000,48.000000,127.500000,72.000000,15.500000,56.000000,0.000000,0.000000,0.000000,1772721925.157126,0.000000
234.000000,-12817.026713,-18596.092593,2230.212358,-30332.323054,10106.698883,3314.383723,-23324.760595,-28976.198015,3008.365990,-851.154429,7173.948845,-272.378358,8724.869338,6117.426588,-11666.895350,-4655.510742,0.011062,-0.015437,1.005484,192.000000,0.000000,0.000000,0.000000,0.000000,0.000000,0.000000,0.000000,0.000000,0.000000,1772721925.157149,0.000000
236.000000,-12822.681704,-18599.467707,2225.786713,-30333.954732,10105.000151,3317.915299,-23325.118223,-28980.310736,3008.455397,-848.919254,7184.185944,-263.728233,8728.467969,6131.865815,-11646.175283,-4639.618652,0.011062,-0.015437,1.005484,192.000000,0.000000,0.000000,0.000000,0.000000,0.000000,0.000000,0.000000,0.000000,0.000000,1772721925.157171,0.000000
238.000000,-12838.774960,-18615.002169,2208.262945,-30344.996493,10092.550229,3303.587830,-23335.891764,-28997.163951,2993.703245,-862.620874,7160.180171,-278.838012,8707.882012,6112.375094,-11666.403611,-4648.313480,0.011062,-0.015437,1.005484,192.000000,0.000000,0.000000,0.000000,0.000000,0.000000,0.000000,0.000000,0.000000,0.000000,1772721925.157194,0.000000
240.000000,-12840.227823,-18617.617323,2220.578756,-30338.626246,10105.156613,3313.847281,-23325.587609,-28995.442867,2993.367969,-867.560609,7155.195732,-281.967256,8710.206593,6108.150614,-11657.574672,-4638.434009,0.011062,-0.015437,1.005484,192.000000,0.000000,0.000000,0.000000,0.000000,0.000000,0.000000,0.000000,0.000000,0.000000,1772721925.157217,0.000000
242.000000,-12859.472675,-18636.281030,2205.088997,-30354.138357,10090.739738,3303.364313,-23341.502052,-29015.246512,2982.728539,-877.127156,7147.350269,-289.276277,8707.837308,6104.216707,-11652.523178,-4627.861634,0.011062,-0.015437,1.005484,192.000000,0.000000,0.000000,0.000000,0.000000,0.000000,0.000000,0.000000,0.000000,0.000000,1772721925.157240,0.000000
244.000000,-12867.407545,-18644.841748,2209.224070,-30356.194717,10103.793157,3312.573232,-23344.854813,-29024.433079,2966.724690,-892.080473,7126.943127,-311.695076,8694.046282,6088.704597,-11662.648518,-4632.935480,0.008000,-0.010000,1.006000,192.000000,0.000000,32.000000,127.500000,88.000000,15.500000,56.000000,0.000000,0.000000,0.000000,1772721925.157262,0.000000
246.000000,-12871.497914,-18650.049704,2212.912108,-30356.306476,10115.349008,3333.717982,-23343.625467,-29030.624513,2971.083280,-892.236935,7133.402781,-313.013829,8710.027779,6101.154518,-11631.020800,-4608.750893,0.008000,-0.010000,1.006000,192.000000,0.000000,0.000000,0.000000,0.000000,0.000000,0.000000,0.000000,0.000000,0.000000,1772721925.157285,0.000000
248.000000,-12876.527056,-18656.755228,2201.758588,-30365.135415,10112.577392,3336.266081,-23357.148273,-29040.369873,2967.149373,-899.545956,7122.852757,-327.743629,8698.628390,6090.917419,-11643.113094,-4608.795596,0.008000,-0.010000,1.006000,192.000000,0.000000,0.000000,0.000000,0.000000,0.000000,0.000000,0.000000,0.000000,0.000000,1772721925.157307,0.000000
250.000000,-12853.907091,-18633.442358,2218.388285,-30347.186964,10139.086561,3356.293244,-23342.440825,-29017.593445,2975.196001,-888.347732,7132.933394,-319.674649,8705.468023,6107.882393,-11631.758408,-4605.621649,0.008000,-0.010000,1.006000,192.000000,0.000000,0.000000,0.000000,0.000000,0.000000,0.000000,0.000000,0.000000,0.000000,1772721925.157337,0.000000
252.000000,-12843.401771,-18621.014788,2211.995687,-30345.868211,10131.106988,3345.452648,-23345.368903,-29010.932626,2991.468071,-868.320569,7149.004298,-299.043989,8719.728436,6124.467388,-11625.119939,-4602.626515,0.008000,-0.010000,1.006000,192.000000,0.000000,0.000000,0.000000,0.000000,0.000000,0.000000,0.000000,0.000000,0.000000,1772721925.157360,0.000000
254.000000,-12828.247288,-18604.698015,2220.779922,-30337.843935,10128.402427,3337.853055,-23335.288267,-28992.157160,2998.620629,-862.509115,7150.546569,-292.159652,8718.901422,6116.398408,-11646.488207,-4621.804311,0.014000,-0.012000,1.010000,192.000000,0.000000,56.000000,127.500000,80.000000,15.500000,72.000000,0.000000,0.000000,0.000000,1772721925.157383,0.000000
0.000000,-12815.037407,-18591.577541,2232.536940,-30333.887676,10116.913631,3323.480883,-23322.994807,-28972.800550,3018.848958,-847.734612,7180.095575,-264.041157,8735.754637,6133.765713,-11633.412437,-4629.336849,0.014000,-0.012000,1.010000,192.000000,0.000000,0.000000,0.000000,0.000000,0.000000,0.000000,0.000000,0.000000,0.000000,1772721925.157407,0.000000
2.000000,-12824.089864,-18601.591122,2221.606937,-30343.655389,10090.717386,3303.453720,-23329.275647,-28980.981288,3008.276583,-850.908560,7174.574694,-270.143183,8722.522404,6117.985382,-11666.023632,-4651.643890,0.014000,-0.012000,1.010000,192.000000,0.000000,0.000000,0.000000,0.000000,0.000000,0.000000,0.000000,0.000000,0.000000,1772721925.157428,0.000000
4.000000,-12817.071416,-18595.109116,2236.537902,-30333.328883,10104.754282,3318.161168,-23316.110470,-28970.565375,3007.963658,-850.148600,7177.346310,-267.863306,8725.606945,6120.555832,-11663.319071,-4648.134666,0.014000,-0.012000,1.010000,192.000000,0.000000,0.000000,0.000000,0.000000,0.000000,0.000000,0.000000,0.000000,0.000000,1772721925.157448,0.000000
6.000000,-12825.162748,-18605.122698,2218.365934,-30345.756453,10089.711558,3306.828833,-23331.063787,-28984.289346,3010.645868,-853.903693,7181.302569,-268.153878,8727.775064,6123.640373,-11659.787495,-4644.916015,0.014000,-0.012000,1.010000,192.000000,0.000000,0.000000,0.000000,0.000000,0.000000,0.000000,0.000000,0.000000,0.000000,1772721925.157475,0.000000
8.000000,-12831.868271,-18611.068262,2215.840187,-30343.454223,10095.232438,3312.483825,-23330.639104,-28988.625585,2995.737254,-863.738461,7162.169476,-283.956562,8709.670151,6105.155481,-11677.512428,-4649.364012,0.008000,-0.014000,1.004000,192.000000,0.000000,32.000000,127.500000,72.000000,15.500000,48.000000,0.000000,0.000000,0.000000,1772721925.157500,0.000000
10.000000,-12844.340544,-18621.238306,2210.095788,-30341.800194,10094.226610,3312.036790,-23332.293133,-28999.846160,2992.496251,-866.107746,7160.023708,-282.011960,8718.052056,6119.684114,-11653.886635,-4631.616727,0.008000,-0.014000,1.004000,192.000000,0.000000,0.000000,0.000000,0.000000,0.000000,0.000000,0.000000,0.000000,0.000000,1772721925.157520,0.000000
12.000000,-12866.200550,-18644.752341,2189.420425,-30351.076168,10078.602741,3298.178708,-23345.659476,-29021.080318,2969.920989,-883.028016,7133.268670,-300.005114,8696.147346,6096.192431,-11679.345272,-4638.143437,0.008000,-0.014000,1.004000,192.000000,0.000000,0.000000,0.000000,0.000000,0.000000,0.000000,0.000000,0.000000,0.000000,1772721925.157541,0.000000
14.000000,-12865.820571,-18646.406370,2202.496195,-30344.594162,10089.912723,3309.712208,-23335.802357,-29017.101707,2966.434117,-889.107691,7132.799284,-304.028428,8695.208573,6093.487870,-11670.493981,-4632.734315,0.008000,-0.014000,1.004000,192.000000,0.000000,0.000000,0.000000,0.000000,0.000000,0.000000,0.000000,0.000000,0.000000,1772721925.157566,0.000000
16.000000,-12873.420164,-18653.022486,2191.812061,-30363.526090,10075.182924,3297.239935,-23350.219232,-29029.752794,2960.667367,-891.029941,7132.240490,-307.470597,8697.644913,6094.136071,-11661.709745,-4626.386419,0.008000,-0.014000,1.004000,192.000000,0.000000,0.000000,0.000000,0.000000,0.000000,0.000000,0.000000,0.000000,0.000000,1772721925.157588,0.000000
18.000000,-12875.409469,-18656.777579,2199.389303,-30371.080979,10086.291741,3308.460511,-23353.415531,-29033.530239,2949.022108,-902.161110,7114.694371,-329.509417,8681.842230,6080.345044,-11673.511466,-4639.506893,0.008000,-0.010000,1.002000,192.000000,0.000000,32.000000,127.500000,88.000000,15.500000,40.000000,0.000000,0.000000,0.000000,1772721925.157607,0.000000
20.000000,-12857.259853,-18639.410274,2217.337753,-30361.000342,10112.733854,3326.967755,-23341.882031,-29011.446716,2969.876286,-889.979409,7138.521330,-314.667858,8705.132747,6103.590858,-11634.999411,-4622.273698,0.008000,-0.010000,1.002000,192.000000,0.000000,0.000000,0.000000,0.000000,0.000000,0.000000,0.000000,0.000000,0.000000,1772721925.157634,0.000000
22.000000,-12841.546576,-18623.719349,2211.571003,-30357.289953,10116.198375,3321.871557,-23344.094854,-28999.600291,2985.634266,-874.914333,7150.211293,-300.698018,8711.525346,6106.921268,-11645.281213,-4642.166751,0.008000,-0.010000,1.002000,192.000000,0.000000,0.000000,0.000000,0.000000,0.000000,0.000000,0.000000,0.000000,0.000000,1772721925.157657,0.000000
24.000000,-12817.361989,-18597.925436,2230.257062,-30336.636941,10141.008811,3332.846264,-23325.453499,-28978.187320,3008.522452,-849.500400,7169.724365,-276.781652,8741.409629,6122.791007,-11638.016896,-4644.245463,0.008000,-0.010000,1.002000,192.000000,0.000000,0.000000,0.000000,0.000000,0.000000,0.000000,0.000000,0.000000,0.000000,1772721925.157676,0.000000
26.000000,-12824.827471,-18603.535724,2218.567099,-30340.168517,10121.316924,3312.997915,-23329.074482,-28983.685849,3017.954888,-844.247740,7177.212200,-267.416271,8736.067562,6129.407123,-11641.481416,-4643.038469,0.008000,-0.010000,1.002000,192.000000,0.000000,0.000000,0.000000,0.000000,0.000000,0.000000,0.000000,0.000000,0.000000,1772721925.157704,0.000000
28.000000,-12833.477596,-18616.186811,2220.846977,-30342.090767,10113.359703,3304.191328,-23324.917057,-28982.143579,2997.838318,-861.592694,7160.314281,-282.257829,8714.364018,6107.681228,-11671.209237,-4658.304710,0.008000,-0.014000,0.998000,192.000000,0.000000,32.000000,127.500000,72.000000,15.500000,24.000000,0.000000,0.000000,0.000000,1772721925.157730,0.000000
30.000000,-12839.803140,-18619.539573,2224.266794,-30342.560153,10106.676532,3302.470243,-23320.580819,-28979.506073,3002.509833,-859.111650,7176.161668,-274.211201,8722.544756,6118.052437,-11658.647556,-4645.050126,0.008000,-0.014000,0.998000,192.000000,0.000000,0.000000,0.000000,0.000000,0.000000,0.000000,0.000000,0.000000,0.000000,1772721925.157754,0.000000
32.000000,-12858.332736,-18632.682399,2204.597259,-30357.424063,10083.207200,3287.047540,-23336.517613,-29000.472009,2976.850030,-869.929894,7154.502827,-291.913783,8702.942276,6094.314884,-11683.837972,-4657.768268,0.008000,-0.014000,0.998000,192.000000,0.000000,0.000000,0.000000,0.000000,0.000000,0.000000,0.000000,0.000000,0.000000,1772721925.157775,0.000000
34.000000,-12856.969280,-18627.496794,2212.532128,-30346.359950,10098.093462,3307.052351,-23328.538040,-28999.756753,2972.066757,-870.712205,7147.327917,-295.333599,8703.858698,6095.544230,-11674.338481,-4652.448553,0.008000,-0.014000,0.998000,192.000000,0.000000,0.000000,0.000000,0.000000,0.000000,0.000000,0.000000,0.000000,0.000000,1772721925.157796,0.000000
36.000000,-12870.603844,-18643.388884,2191.096805,-30360.039217,10081.575523,3294.781243,-23346.039456,-29021.996739,2964.690681,-878.177688,7139.057772,-302.933193,8700.170660,6098.896992,-11668.772896,-4642.658489,0.008000,-0.014000,0.998000,192.000000,0.000000,0.000000,0.000000,0.000000,0.000000,0.000000,0.000000,0.000000,0.000000,1772721925.157817,0.000000
38.000000,-12876.795277,-18651.189643,2191.052102,-30355.747683,10084.324787,3304.906583,-23341.077368,-29023.628416,2957.649882,-888.504194,7123.456254,-321.283975,8685.731433,6085.553001,-11683.726213,-4648.067611,0.014000,-0.016000,1.006000,192.000000,0.000000,56.000000,127.500000,64.000000,15.500000,56.000000,0.000000,0.000000,0.000000,1772721925.157840,0.000000
40.000000,-12882.472620,-18651.211995,2193.466090,-30351.903182,10088.795136,3309.779264,-23336.964647,-29023.315492,2951.123172,-885.196136,7128.440693,-312.723257,8691.006445,6099.232268,-11660.122771,-4624.508873,0.014000,-0.016000,1.006000,192.000000,0.000000,0.000000,0.000000,0.000000,0.000000,0.000000,0.000000,0.000000,0.000000,1772721925.157862,0.000000
42.000000,-12892.195629,-18660.532672,2182.960770,-30363.570793,10078.647444,3301.553822,-23346.933525,-29036.771242,2939.008527,-890.404092,7114.001467,-321.641603,8677.863619,6084.904800,-11677.624187,-4633.650736,0.014000,-0.016000,1.006000,192.000000,0.000000,0.000000,0.000000,0.000000,0.000000,0.000000,0.000000,0.000000,0.000000,1772721925.157885,0.000000
44.000000,-12883.165524,-18654.050667,2200.976277,-30360.486252,10099.501622,3313.221432,-23336.271743,-29032.412652,2939.232044,-894.561517,7111.162795,-324.390867,8681.395195,6083.831916,-11665.688356,-4634.477751,0.014000,-0.016000,1.006000,192.000000,0.000000,0.000000,0.000000,0.000000,0.000000,0.000000,0.000000,0.000000,0.000000,1772721925.157907,0.000000
46.000000,-12876.549408,-18651.949603,2204.418445,-30370.052799,10096.215915,3307.409979,-23343.245488,-29031.183306,2954.163009,-893.846261,7122.495129,-320.032277,8694.403910,6085.128317,-11653.394896,-4634.947137,0.014000,-0.016000,1.006000,192.000000,0.000000,0.000000,0.000000,0.000000,0.000000,0.000000,0.000000,0.000000,0.000000,1772721925.157929,0.000000
48.000000,-12854.667050,-18630.961315,2224.065629,-30365.046008,10106.140090,3317.311802,-23335.064749,-29001.813114,2963.416632,-889.487671,7133.469836,-315.561928,8697.846079,6074.287721,-11660.011013,-4651.040393,0.012000,-0.016000,1.004000,192.000000,0.000000,48.000000,127.500000,64.000000,15.500000,48.000000,0.000000,0.000000,0.000000,1772721925.157951,0.000000
50.000000,-12833.835224,-18609.727157,2237.320213,-30353.601915,10131.531671,3330.901662,-23328.493336,-28979.506073,2990.953981,-861.905618,7174.127659,-283.286009,8726.210442,6107.748283,-11628.293887,-4639.417486,0.012000,-0.016000,1.004000,192.000000,0.000000,0.000000,0.000000,0.000000,0.000000,0.000000,0.000000,0.000000,0.000000,1772721925.157974,0.000000
52.000000,-12836.740951,-18610.956503,2222.657469,-30356.977028,10122.099235,3328.331212,-23340.876203,-28990.950166,2991.780995,-852.897865,7171.288988,-282.235477,8725.249317,6111.346914,-11642.442541,-4646.033602,0.012000,-0.016000,1.004000,192.000000,0.000000,0.000000,0.000000,0.000000,0.000000,0.000000,0.000000,0.000000,0.000000,1772721925.157997,0.000000
54.000000,-12830.147187,-18604.586256,2230.994669,-30341.755491,10130.704657,3334.679107,-23326.705197,-28982.098875,2997.927725,-848.181647,7172.361871,-280.760262,8729.809073,6118.812396,-11642.956632,-4640.736239,0.012000,-0.016000,1.004000,192.000000,0.000000,0.000000,0.000000,0.000000,0.000000,0.000000,0.000000,0.000000,0.000000,1772721925.158024,0.000000
56.000000,-12849.570852,-18621.551230,2209.782864,-30343.789499,10098.316979,3313.176729,-23331.846098,-28993.922948,2993.479728,-850.103897,7171.758374,-279.061530,8727.819768,6121.226385,-11653.149027,-4635.997669,0.012000,-0.016000,1.004000,192.000000,0.000000,0.000000,0.000000,0.000000,0.000000,0.000000,0.000000,0.000000,0.000000,1772721925.158044,0.000000
58.000000,-12863.339527,-18633.017675,2206.184233,-30345.197659,10084.794174,3305.867708,-23333.634237,-29001.589596,2968.199905,-863.067909,7148.669022,-295.691227,8700.975323,6101.422739,-11686.833106,-4648.536998,0.010000,-0.016000,1.006000,192.000000,0.000000,40.000000,127.500000,64.000000,15.500000,56.000000,0.000000,0.000000,0.000000,1772721925.638772,0.000000
60.000000,-12864.434763,-18631.475405,2213.336791,-30344.370645,10090.583276,3309.108711,-23332.807223,-28998.460352,2970.882114,-859.201057,7157.229740,-288.426910,8711.860622,6115.481986,-11668.549379,-4635.394172,0.010000,-0.016000,1.006000,192.000000,0.000000,0.000000,0.000000,0.000000,0.000000,0.000000,0.000000,0.000000,0.000000,1772721925.638859,0.000000
62.000000,-12871.028527,-18648.082751,2200.931573,-30354.406578,10085.777651,3300.883269,-23349.191052,-29014.441850,2966.098841,-865.861877,7143.416362,-298.082864,8705.736244,6104.082597,-11680.395803,-4636.511759,0.010000,-0.016000,1.006000,192.000000,0.000000,0.000000,0.000000,0.000000,0.000000,0.000000,0.000000,0.000000,0.000000,1772721925.638930,0.000000
64.000000,-12875.767097,-18654.631812,2210.408713,-30344.102424,10098.696959,3323.056200,-23342.686694,-29016.162934,2971.619722,-877.373025,7138.834255,-306.218899,8713.157024,6107.435358,-11665.800114,-4621.670201,0.010000,-0.016000,1.006000,192.000000,0.000000,0.000000,0.000000,0.000000,0.000000,0.000000,0.000000,0.000000,0.000000,1772721925.639000,0.000000
66.000000,-12896.017777,-18676.514170,2197.154128,-30353.087825,10092.773747,3316.507139,-23354.220194,-29034.558420,2961.404975,-879.094109,7130.675868,-310.108103,8712.352361,6114.632620,-11658.647556,-4618.451550,0.010000,-0.016000,1.006000,192.000000,0.000000,0.000000,0.000000,0.000000,0.000000,0.000000,0.000000,0.000000,0.000000,1772721925.639066,0.000000
68.000000,-12910.367597,-18687.891208,2199.255192,-30350.785595,10100.015712,3321.491578,-23351.761502,-29040.146356,2941.534274,-891.454624,7107.988847,-329.420010,8699.231887,6100.886297,-11670.806905,-4629.448608,0.008000,-0.017000,1.003000,192.000000,0.000000,24.000000,127.500000,56.000000,15.500000,32.000000,0.000000,0.000000,0.000000,1772721925.639110,0.000000
70.000000,-12911.999275,-18695.021414,2207.234765,-30345.264714,10110.856308,3323.883214,-23344.631296,-29037.464146,2945.803457,-883.944438,7116.527214,-316.523053,8711.055960,6118.231251,-11641.861396,-4620.954945,0.008000,-0.017000,1.003000,192.000000,0.000000,0.000000,0.000000,0.000000,0.000000,0.000000,0.000000,0.000000,0.000000,1772721925.639131,0.000000
72.000000,-12911.909868,-18697.278940,2201.579774,-30350.472671,10101.893258,3318.809368,-23347.313505,-29041.129832,2947.077506,-893.600392,7105.776025,-325.597861,8707.882012,6102.830899,-11659.474571,-4637.428181,0.008000,-0.017000,1.003000,192.000000,0.000000,0.000000,0.000000,0.000000,0.000000,0.000000,0.000000,0.000000,0.000000,1772721925.639152,0.000000
74.000000,-12899.325836,-18687.891208,2227.083114,-30342.157822,10119.372322,3326.632479,-23327.308694,-29015.179457,2961.807306,-882.826851,7123.903289,-313.974954,8722.120073,6116.152539,-11650.779742,-4640.266852,0.008000,-0.017000,1.003000,192.000000,0.000000,0.000000,0.000000,0.000000,0.000000,0.000000,0.000000,0.000000,0.000000,1772721925.639173,0.000000
76.000000,-12900.130498,-18695.669615,2224.244442,-30350.472671,10111.951543,3317.647078,-23332.650761,-29003.735364,2971.463260,-881.262229,7146.903234,-299.803948,8734.480588,6126.009658,-11647.158759,-4643.463152,0.008000,-0.017000,1.003000,192.000000,0.000000,0.000000,0.000000,0.000000,0.000000,0.000000,0.000000,0.000000,0.000000,1772721925.639194,0.000000
78.000000,-12889.356958,-18688.293539,2228.066591,-30343.677741,10118.590011,3324.307898,-23327.867487,-28986.233948,2978.504059,-880.234048,7152.580577,-298.038161,8729.742018,6115.638449,-11663.967271,-4646.726507,0.008000,-0.017500,1.004500,192.000000,0.000000,32.000000,127.500000,56.000000,15.500000,56.000000,0.000000,0.000000,0.000000,1772721925.639216,0.000000
80.000000,-12894.788432,-18693.769716,2223.126855,-30340.436738,10117.964163,3334.880273,-23326.146403,-28986.569224,2994.999647,-869.661673,7168.785592,-282.168422,8746.952861,6138.616042,-11646.085876,-4631.728486,0.008000,-0.017500,1.004500,192.000000,0.000000,0.000000,0.000000,0.000000,0.000000,0.000000,0.000000,0.000000,0.000000,1772721925.639237,0.000000
82.000000,-12921.029379,-18724.704531,2203.926707,-30355.434758,10097.579372,3319.949307,-23338.529270,-29011.267902,2977.162954,-887.543069,7145.562130,-303.380227,8733.340649,6122.478082,-11671.030423,-4639.573948,0.008000,-0.017500,1.004500,192.000000,0.000000,0.000000,0.000000,0.000000,0.000000,0.000000,0.000000,0.000000,0.000000,1772721925.639258,0.000000
84.000000,-12918.257763,-18725.397435,2215.236689,-30346.024674,10105.246020,3325.358430,-23325.341740,-29006.417573,2973.989007,-894.494461,7142.566996,-313.416161,8729.585556,6116.577222,-11671.455106,-4638.210492,0.008000,-0.017500,1.004500,192.000000,0.000000,0.000000,0.000000,0.000000,0.000000,0.000000,0.000000,0.000000,0.000000,1772721925.639278,0.000000
86.000000,-12938.553147,-18754.789979,2202.093864,-30361.603840,10088.459860,3302.850223,-23339.378636,-29024.343672,2971.373853,-905.357409,7142.477589,-316.210129,8728.333858,6112.419797,-11668.392917,-4638.903396,0.008000,-0.017500,1.004500,192.000000,0.000000,0.000000,0.000000,0.000000,0.000000,0.000000,0.000000,0.000000,0.000000,1772721925.639299,0.000000
88.000000,-12941.190653,-18766.122313,2211.302782,-30365.537747,10096.819412,3293.484842,-23341.211479,-29030.780975,2964.467164,-932.246558,7125.266746,-338.494818,8719.281402,6084.077786,-11681.491039,-4653.566140,0.006000,-0.016750,1.006250,192.000000,0.000000,16.000000,127.500000,64.000000,15.500000,64.000000,0.000000,0.000000,0.000000,1772721925.639320,0.000000
90.000000,-12951.070124,-18783.780191,2219.058838,-30366.655334,10109.112872,3304.079569,-23342.798453,-29039.498155,2976.335940,-940.829628,7132.419304,-340.595882,8740.202634,6094.136071,-11654.333669,-4643.217283,0.006000,-0.016750,1.006250,192.000000,0.000000,0.000000,0.000000,0.000000,0.000000,0.000000,0.000000,0.000000,0.000000,1772721925.639354,0.000000
92.000000,-12963.274177,-18795.336043,2210.207547,-30378.747628,10109.425796,3298.022246,-23354.913098,-29052.640981,2969.853934,-952.720756,7118.583574,-355.482144,8736.313431,6083.720158,-11662.402649,-4647.888797,0.006000,-0.016750,1.006250,192.000000,0.000000,0.000000,0.000000,0.000000,0.000000,0.000000,0.000000,0.000000,0.000000,1772721925.639374,0.000000
94.000000,-12965.218778,-18798.018253,2227.708963,-30369.046970,10141.299384,3319.435217,-23345.167738,-29042.470937,2969.920989,-954.173619,7118.717685,-357.136173,8742.638975,6087.184678,-11645.191806,-4646.637100,0.006000,-0.016750,1.006250,192.000000,0.000000,0.000000,0.000000,0.000000,0.000000,0.000000,0.000000,0.000000,0.000000,1772721925.639394,0.000000
96.000000,-12965.978738,-18801.952160,2219.572928,-30370.298668,10137.857215,3323.369124,-23354.220194,-29045.667237,2975.844202,-955.425317,7128.463045,-350.542408,8755.804152,6098.919344,-11631.624297,-4639.551597,0.006000,-0.016750,1.006250,192.000000,0.000000,0.000000,0.000000,0.000000,0.000000,0.000000,0.000000,0.000000,0.000000,1772721925.639415,0.000000
98.000000,-12960.189636,-18799.672282,2219.729390,-30367.907032,10138.281898,3323.950270,-23352.208537,-29042.828565,2977.677045,-951.066727,7120.483472,-353.828115,8746.170550,6096.080672,-11649.639803,-4645.251291,0.006000,-0.017375,1.007125,192.000000,0.000000,24.000000,127.500000,56.000000,15.500000,64.000000,0.000000,0.000000,0.000000,1772721925.639435,0.000000
100.000000,-12963.296528,-18805.349625,2221.718695,-30362.967296,10138.930099,3333.360354,-23342.597287,-29038.961713,2985.611914,-949.591511,7129.960612,-343.970995,8758.262844,6112.486853,-11632.875995,-4632.443742,0.006000,-0.017375,1.007125,192.000000,0.000000,0.000000,0.000000,0.000000,0.000000,0.000000,0.000000,0.000000,0.000000,1772721925.639456,0.000000
102.000000,-12969.353851,-18818.201878,2209.604050,-30369.628116,10121.741607,3321.335116,-23346.262973,-29043.275600,2981.342731,-964.276608,7121.556356,-355.169219,8746.863454,6096.505355,-11657.127638,-4639.193969,0.006000,-0.017375,1.007125,192.000000,0.000000,0.000000,0.000000,0.000000,0.000000,0.000000,0.000000,0.000000,0.000000,1772721925.639477,0.000000
104.000000,-12961.821313,-18816.592552,2223.260966,-30359.145148,10139.041858,3329.113523,-23334.550659,-29033.887867,2989.456414,-973.150250,7129.491225,-353.984577,8752.831370,6096.259486,-11653.037268,-4632.935480,0.006000,-0.017375,1.007125,192.000000,0.000000,0.000000,0.000000,0.000000,0.000000,0.000000,0.000000,0.000000,0.000000,1772721925.639497,0.000000
106.000000,-12969.465610,-18827.209631,2211.526300,-30367.012962,10135.510282,3318.965831,-23343.916040,-29044.460242,2998.575926,-974.692520,7131.033496,-353.805763,8762.844951,6099.902821,-11647.806960,-4627.191082,0.006000,-0.017375,1.007125,192.000000,0.000000,0.000000,0.000000,0.000000,0.000000,0.000000,0.000000,0.000000,0.000000,1772721925.639518,0.000000
108.000000,-12969.197389,-18829.914192,2212.398018,-30369.404598,10138.930099,3315.635421,-23343.670171,-29046.114271,2995.580792,-980.816898,7114.895536,-364.512249,8751.423210,6084.502469,-11664.749582,-4638.054030,0.005000,-0.015688,1.008563,192.000000,0.000000,16.000000,127.500000,72.000000,15.500000,72.000000,0.000000,0.000000,0.000000,1772721925.639539,0.000000
110.000000,-12969.242092,-18834.250430,2217.807140,-30373.182043,10142.260509,3316.663601,-23341.926735,-29047.075396,3006.533147,-985.264896,7126.227871,-364.042862,8764.722498,6093.666684,-11642.084914,-4629.538015,0.005000,-0.015688,1.008563,192.000000,0.000000,0.000000,0.000000,0.000000,0.000000,0.000000,0.000000,0.000000,0.000000,1772721925.639559,0.000000
112.000000,-12983.033119,-18850.097817,2207.368875,-30385.676668,10127.463654,3306.806482,-23353.192014,-29061.425216,3001.906336,-1001.984000,7116.236641,-381.074891,8754.954786,6074.086556,-11660.569806,-4645.251291,0.005000,-0.015688,1.008563,192.000000,0.000000,0.000000,0.000000,0.000000,0.000000,0.000000,0.000000,0.000000,0.000000,1772721925.639579,0.000000
114.000000,-12974.897084,-18843.280535,2228.379515,-30371.818587,10143.780427,3319.971659,-23340.250354,-29052.886850,3003.985048,-1004.867375,7120.103493,-380.516098,8761.101515,6077.774594,-11653.573710,-4647.642928,0.005000,-0.015688,1.008563,192.000000,0.000000,0.000000,0.000000,0.000000,0.000000,0.000000,0.000000,0.000000,0.000000,1772721925.639599,0.000000
116.000000,-12977.288720,-18847.795588,2221.673992,-30379.060552,10134.124474,3307.454682,-23351.649744,-29059.972353,3014.691533,-996.261954,7127.636031,-372.648284,8770.668062,6087.519954,-11643.694239,-4645.854789,0.005000,-0.015688,1.008563,192.000000,0.000000,0.000000,0.000000,0.000000,0.000000,0.000000,0.000000,0.000000,0.000000,1772721925.639619,0.000000
118.000000,-12978.428659,-18847.080332,2230.301765,-30374.389037,10141.768770,3317.021229,-23344.631296,-29048.751777,3002.062798,-1005.292059,7115.230812,-383.220659,8760.922701,6071.985492,-11657.217044,-4655.175466,0.005500,-0.014844,1.010281,192.000000,0.000000,24.000000,127.500000,72.000000,15.500000,80.000000,0.000000,0.000000,0.000000,1772721925.639639,0.000000
120.000000,-12971.812543,-18843.146425,2235.353259,-30370.186909,10144.830959,3330.454627,-23340.473871,-29041.822736,3014.155092,-1003.816843,7132.396952,-368.960246,8777.708862,6092.280876,-11633.591251,-4639.171617,0.005500,-0.014844,1.010281,192.000000,0.000000,0.000000,0.000000,0.000000,0.000000,0.000000,0.000000,0.000000,0.000000,1772721925.639659,0.000000
122.000000,-12967.722174,-18841.961782,2224.289146,-30380.446360,10132.403390,3324.732581,-23354.264898,-29047.455376,3023.118141,-1003.950954,7130.027667,-368.356749,8774.087879,6084.055434,-11652.389068,-4646.793562,0.005500,-0.014844,1.010281,192.000000,0.000000,0.000000,0.000000,0.000000,0.000000,0.000000,0.000000,0.000000,0.000000,1772721925.639682,0.000000
124.000000,-12952.567691,-18822.314599,2240.292995,-30365.046008,10147.312003,3346.592587,-23339.959781,-29029.596332,3036.171560,-989.690541,7142.723458,-358.276112,8784.436737,6094.963085,-11645.482379,-4636.355297,0.005500,-0.014844,1.010281,192.000000,0.000000,0.000000,0.000000,0.000000,0.000000,0.000000,0.000000,0.000000,0.000000,1772721925.639703,0.000000
126.000000,-12963.989432,-18832.551698,2225.294974,-30373.897299,10134.124474,3328.465322,-23349.995714,-29040.101652,3030.203644,-981.822727,7149.250168,-350.095373,8782.872115,6104.619039,-11643.627184,-4629.403905,0.005500,-0.014844,1.010281,192.000000,0.000000,0.000000,0.000000,0.000000,0.000000,0.000000,0.000000,0.000000,0.000000,1772721925.639724,0.000000
128.000000,-12970.337328,-18841.470044,2228.245405,-30372.600898,10136.918442,3327.504197,-23349.436921,-29044.661408,3018.290164,-997.312486,7130.340592,-367.619141,8767.985853,6083.720158,-11659.206350,-4640.199797,0.008750,-0.015422,1.007141,192.000000,0.000000,48.000000,127.500000,64.000000,15.500000,48.000000,0.000000,0.000000,0.000000,1772721925.639744,0.000000
130.000000,-12966.090496,-18840.620678,2234.392134,-30372.846767,10142.707544,3329.806427,-23347.425264,-29047.097748,3030.449513,-996.463120,7141.225891,-360.734804,8783.274446,6099.008751,-11634.932355,-4630.588547,0.008750,-0.015422,1.007141,192.000000,0.000000,0.000000,0.000000,0.000000,0.000000,0.000000,0.000000,0.000000,0.000000,1772721925.639764,0.000000
132.000000,-12970.627900,-18846.253317,2224.065629,-30383.195625,10128.067151,3321.916261,-23358.891709,-29055.479652,3025.152150,-1006.052018,7129.133598,-374.995217,8772.322091,6086.067091,-11649.684507,-4642.434972,0.008750,-0.015422,1.007141,192.000000,0.000000,0.000000,0.000000,0.000000,0.000000,0.000000,0.000000,0.000000,0.000000,1772721925.639785,0.000000
134.000000,-12959.988470,-18837.379675,2239.153056,-30374.143168,10145.009773,3330.432276,-23347.939354,-29043.208545,3031.790618,-1001.134634,7135.414438,-371.843621,8780.525181,6091.386806,-11641.950803,-4642.971413,0.008750,-0.015422,1.007141,192.000000,0.000000,0.000000,0.000000,0.000000,0.000000,0.000000,0.000000,0.000000,0.000000,1772721925.639807,0.000000
136.000000,-12967.208084,-18849.963707,2225.518492,-30384.156750,10132.671610,3316.998877,-23358.109398,-29057.446606,3040.686612,-1004.286230,7138.118999,-373.207077,8790.784632,6095.588934,-11638.240413,-4643.887835,0.008750,-0.015422,1.007141,192.000000,0.000000,0.000000,0.000000,0.000000,0.000000,0.000000,0.000000,0.000000,0.000000,1772721925.639827,0.000000
138.000000,-12950.310165,-18835.479776,2231.262890,-30375.976011,10141.098218,3328.755895,-23354.331953,-29048.818832,3043.502932,-1011.841120,7129.066542,-383.868859,8783.319149,6078.623960,-11656.993527,-4651.643890,0.008750,-0.015422,1.007141,192.000000,0.000000,0.000000,0.000000,0.000000,0.000000,0.000000,0.000000,0.000000,0.000000,1772721925.639848,0.000000
140.000000,-12951.606566,-18834.339837,2237.342565,-30367.705866,10143.959241,3332.086305,-23348.766368,-29042.269771,3056.556351,-991.813957,7151.105362,-360.690100,8800.418234,6100.103986,-11634.038285,-4637.741105,0.002000,-0.022000,1.000000,192.000000,0.000000,8.000000,127.500000,40.000000,15.500000,32.000000,0.000000,0.000000,0.000000,1772721925.639868,0.000000
142.000000,-12960.167284,-18841.112416,2227.083114,-30371.952697,10125.697866,3320.217528,-23356.634183,-29045.287257,3040.060763,-1000.285268,7143.259900,-365.339263,8784.146164,6085.865925,-11656.591196,-4648.671108,0.002000,-0.022000,1.000000,192.000000,0.000000,0.000000,0.000000,0.000000,0.000000,0.000000,0.000000,0.000000,0.000000,1772721925.639893,0.000000
144.000000,-12950.757200,-18832.439939,2240.672975,-30359.011037,10138.214843,3340.110581,-23342.552584,-29033.887867,3048.576778,-994.987904,7150.255996,-359.796030,8790.136431,6094.739568,-11650.310355,-4636.154131,0.002000,-0.022000,1.000000,192.000000,0.000000,0.000000,0.000000,0.000000,0.000000,0.000000,0.000000,0.000000,0.000000,1772721925.639914,0.000000
146.000000,-12964.101191,-18841.335933,2224.177387,-30372.757360,10127.441302,3331.236938,-23353.683752,-29047.634190,3048.017984,-990.919887,7144.221025,-362.813516,8789.868211,6096.438300,-11645.661193,-4630.677954,0.002000,-0.022000,1.000000,192.000000,0.000000,0.000000,0.000000,0.000000,0.000000,0.000000,0.000000,0.000000,0.000000,1772721925.639934,0.000000
148.000000,-12972.930130,-18845.806282,2221.405771,-30377.630040,10132.761017,3329.985241,-23353.862566,-29050.271696,3023.364010,-999.927640,7124.730304,-379.778490,8767.963501,6075.539419,-11660.279233,-4641.563254,0.002000,-0.022000,1.000000,192.000000,0.000000,0.000000,0.000000,0.000000,0.000000,0.000000,0.000000,0.000000,0.000000,1772721925.639955,0.000000
150.000000,-12971.298453,-18848.242622,2226.725486,-30380.401657,10137.566642,3332.622747,-23352.297944,-29048.416501,3028.795484,-1000.173509,7138.566034,-371.418938,8781.262789,6086.827050,-11638.061600,-4628.889814,0.012000,-0.022000,1.000000,192.000000,0.000000,48.000000,127.500000,40.000000,15.500000,32.000000,0.000000,0.000000,0.000000,1772721925.639976,0.000000
152.000000,-12980.797944,-18861.027820,2214.320268,-30397.701907,10121.629849,3309.645153,-23364.613755,-29063.772150,3022.067609,-1021.318259,7128.418342,-389.009761,8768.276425,6064.877637,-11656.658251,-4645.653623,0.012000,-0.022000,1.000000,192.000000,0.000000,0.000000,0.000000,0.000000,0.000000,0.000000,0.000000,0.000000,0.000000,1772721925.639996,0.000000
154.000000,-12969.823238,-18848.488492,2230.771152,-30384.961413,10141.254680,3333.136837,-23352.968496,-29057.670123,3033.534054,-1015.439751,7132.352249,-386.238144,8777.060661,6073.483059,-11646.242338,-4643.597262,0.012000,-0.022000,1.000000,192.000000,0.000000,0.000000,0.000000,0.000000,0.000000,0.000000,0.000000,0.000000,0.000000,1772721925.640020,0.000000
156.000000,-12979.702709,-18855.417532,2215.907242,-30391.085791,10132.202224,3326.051334,-23364.099665,-29070.097693,3031.656507,-1012.846948,7125.177339,-385.679351,8780.055795,6082.267294,-11643.716591,-4637.092905,0.012000,-0.022000,1.000000,192.000000,0.000000,0.000000,0.000000,0.000000,0.000000,0.000000,0.000000,0.000000,0.000000,1772721925.640041,0.000000
158.000000,-12970.449086,-18843.213480,2227.753666,-30379.641697,10146.306175,3329.940537,-23355.918927,-29057.133681,3027.744952,-1007.504881,7115.163757,-388.249801,8775.652501,6073.505410,-11657.038231,-4647.754687,0.012000,-0.022000,1.000000,192.000000,0.000000,0.000000,0.000000,0.000000,0.000000,0.000000,0.000000,0.000000,0.000000,1772721925.640061,0.000000
160.000000,-12967.453953,-18839.078407,2234.280376,-30371.572718,10152.832884,3342.479866,-23351.582688,-29047.164803,3042.318290,-991.366922,7135.414438,-368.781432,8797.758376,6093.957257,-11633.635954,-4632.756666,0.008000,-0.022000,0.996000,192.000000,0.000000,32.000000,127.500000,40.000000,15.500000,16.000000,0.000000,0.000000,0.000000,1772721925.640081,0.000000
162.000000,-12974.494752,-18846.543890,2221.584585,-30374.366686,10139.734762,3334.477941,-23359.361095,-29053.892678,3033.936385,-1000.195861,7126.719609,-372.938856,8779.944036,6081.552038,-11653.149027,-4641.675012,0.008000,-0.022000,0.996000,192.000000,0.000000,0.000000,0.000000,0.000000,0.000000,0.000000,0.000000,0.000000,0.000000,1772721925.640101,0.000000
164.000000,-12973.444220,-18847.013276,2236.381440,-30362.855537,10151.804704,3344.022136,-23348.028761,-29047.544783,3034.651641,-997.737169,7134.699182,-367.172106,8782.358024,6088.570486,-11644.543605,-4632.488445,0.008000,-0.022000,0.996000,192.000000,0.000000,0.000000,0.000000,0.000000,0.000000,0.000000,0.000000,0.000000,0.000000,1772721925.640142,0.000000
166.000000,-12989.939808,-18867.487474,2219.774094,-30374.165520,10132.425741,3327.705363,-23359.785778,-29065.895565,3030.382458,-1005.649687,7133.603946,-371.597752,8780.726347,6090.112757,-11643.157797,-4626.587585,0.008000,-0.022000,0.996000,192.000000,0.000000,0.000000,0.000000,0.000000,0.000000,0.000000,0.000000,0.000000,0.000000,1772721925.640163,0.000000
168.000000,-12992.554962,-18866.571053,2219.639983,-30370.902165,10128.201262,3330.588738,-23354.935450,-29062.475748,3017.597260,-1016.602041,7117.443635,-385.388778,8765.102478,6072.544285,-11664.079030,-4637.048201,0.008000,-0.022000,0.996000,192.000000,0.000000,0.000000,0.000000,0.000000,0.000000,0.000000,0.000000,0.000000,0.000000,1772721925.640183,0.000000
170.000000,-12984.396575,-18858.278556,2220.914033,-30366.632982,10132.157520,3339.976470,-23351.113302,-29055.166728,3024.459246,-1008.913041,7128.775970,-371.396586,8775.071356,6089.844536,-11645.795303,-4626.006439,0.010000,-0.020000,0.998000,192.000000,0.000000,40.000000,127.500000,48.000000,15.500000,24.000000,0.000000,0.000000,0.000000,1772721925.640203,0.000000
172.000000,-12997.271180,-18865.878149,2210.207547,-30378.635869,10128.603593,3333.472113,-23359.785778,-29064.755626,3014.624478,-1013.852777,7116.102530,-377.722130,8762.219103,6076.053509,-11660.703917,-4629.202739,0.010000,-0.020000,0.998000,192.000000,0.000000,0.000000,0.000000,0.000000,0.000000,0.000000,0.000000,0.000000,0.000000,1772721925.640222,0.000000
174.000000,-12978.272197,-18843.079369,2231.173483,-30371.907994,10157.929082,3344.692689,-23346.777063,-29050.852841,3022.157016,-1004.800320,7119.187071,-373.922333,8773.618492,6079.540381,-11645.080047,-4625.380591,0.010000,-0.020000,0.998000,192.000000,0.000000,0.000000,0.000000,0.000000,0.000000,0.000000,0.000000,0.000000,0.000000,1772721925.640241,0.000000
176.000000,-12985.357700,-18855.685753,2224.624422,-30382.100389,10155.716259,3337.830703,-23356.745941,-29058.228917,3029.644850,-1005.068541,7126.518443,-368.334397,8785.397862,6086.447070,-11632.496015,-4627.459303,0.010000,-0.020000,0.998000,192.000000,0.000000,0.000000,0.000000,0.000000,0.000000,0.000000,0.000000,0.000000,0.000000,1772721925.640260,0.000000
178.000000,-12977.981624,-18849.315506,2235.420315,-30374.612555,10166.735669,3343.888026,-23350.733322,-29044.750815,3031.276528,-1006.208480,7124.395028,-373.899981,8785.487269,6077.729890,-11643.403666,-4642.412620,0.010000,-0.020000,0.998000,192.000000,0.000000,0.000000,0.000000,0.000000,0.000000,0.000000,0.000000,0.000000,0.000000,1772721926.117504,0.000000
180.000000,-12985.760031,-18849.360210,2238.057821,-30369.024619,10164.276977,3342.412811,-23346.039456,-29036.279504,3033.355240,-991.232811,7144.511598,-353.962225,8795.009112,6098.628771,-11623.510614,-4630.588547,0.010000,-0.016000,1.002000,192.000000,0.000000,40.000000,127.500000,64.000000,15.500000,40.000000,0.000000,0.000000,0.000000,1772721926.117617,0.000000
182.000000,-12999.841630,-18864.335878,2228.379515,-30379.485235,10144.182759,3319.032886,-23353.035552,-29047.701245,3013.015153,-995.859622,7132.955746,-360.578342,8775.831315,6082.088480,-11646.532911,-4644.245463,0.010000,-0.016000,1.002000,192.000000,0.000000,0.000000,0.000000,0.000000,0.000000,0.000000,0.000000,0.000000,0.000000,1772721926.117678,0.000000
184.000000,-12998.187601,-18865.721687,2241.611748,-30372.198566,10152.095276,3327.146569,-23344.698351,-29047.745949,3012.054028,-1006.342591,7131.704048,-368.379100,8777.865324,6080.479155,-11644.811826,-4640.110390,0.010000,-0.016000,1.002000,192.000000,0.000000,0.000000,0.000000,0.000000,0.000000,0.000000,0.000000,0.000000,0.000000,1772721926.117739,0.000000
186.000000,-12998.142898,-18870.728477,2228.692440,-30375.104293,10136.560814,3322.340944,-23353.013200,-29055.792577,3025.085095,-1006.186128,7135.146217,-367.954417,8784.615551,6084.211896,-11643.627184,-4633.002535,0.010000,-0.016000,1.002000,192.000000,0.000000,0.000000,0.000000,0.000000,0.000000,0.000000,0.000000,0.000000,0.000000,1772721926.117811,0.000000
188.000000,-13013.610305,-18873.745963,2223.216262,-30364.889546,10138.773637,3333.539168,-23353.862566,-29059.570022,3004.074455,-1008.175434,7115.230812,-378.258571,8765.996547,6075.070032,-11660.905082,-4632.510797,0.010000,-0.016000,1.002000,192.000000,0.000000,0.000000,0.000000,0.000000,0.000000,0.000000,0.000000,0.000000,0.000000,1772721926.117854,0.000000
190.000000,-13016.717198,-18873.433038,2221.271660,-30359.614534,10153.995175,3344.223302,-23354.376656,-29062.229879,3007.538975,-993.043303,7120.796397,-368.110879,8778.893504,6101.601553,-11636.832254,-4612.662448,0.014000,-0.014000,1.008000,192.000000,0.000000,56.000000,127.500000,72.000000,15.500000,64.000000,0.000000,0.000000,0.000000,1772721926.117883,0.000000
192.000000,-13031.312887,-18881.859646,2205.133701,-30371.818587,10141.165273,3339.797657,-23365.306659,-29073.741028,2991.266905,-989.847003,7100.076330,-379.756138,8766.041251,6098.472309,-11652.210254,-4615.389361,0.014000,-0.014000,1.008000,192.000000,0.000000,0.000000,0.000000,0.000000,0.000000,0.000000,0.000000,0.000000,0.000000,1772721926.117915,0.000000
194.000000,-13014.102043,-18862.927719,2229.362992,-30362.207337,10158.063192,3347.173732,-23347.894650,-29053.199774,2994.642019,-978.022930,7106.424225,-374.928161,8771.495077,6106.340123,-11642.800169,-4613.914146,0.014000,-0.014000,1.008000,192.000000,0.000000,0.000000,0.000000,0.000000,0.000000,0.000000,0.000000,0.000000,0.000000,1772721926.117947,0.000000
196.000000,-13014.794947,-18865.185245,2227.664259,-30368.957564,10145.702677,3337.718944,-23350.040418,-29049.712902,3010.355295,-968.568142,7124.126807,-361.472411,8784.637902,6111.659838,-11635.737018,-4616.864576,0.014000,-0.014000,1.008000,192.000000,0.000000,0.000000,0.000000,0.000000,0.000000,0.000000,0.000000,0.000000,0.000000,1772721926.117979,0.000000
198.000000,-13008.916439,-18854.076428,2236.537902,-30363.615497,10155.760962,3342.368107,-23344.988924,-29038.648789,3006.443740,-963.047262,7123.389199,-357.180876,8783.497963,6102.026236,-11652.322012,-4631.326155,0.014000,-0.014000,1.008000,192.000000,0.000000,0.000000,0.000000,0.000000,0.000000,0.000000,0.000000,0.000000,0.000000,1772721926.118010,0.000000
200.000000,-13001.316846,-18846.789759,2242.572873,-30359.726293,10164.634605,3347.710174,-23342.485528,-29035.787765,3017.172577,-951.245541,7143.841045,-342.473429,8805.559135,6118.901803,-11627.690390,-4621.089056,0.010000,-0.016000,1.008000,192.000000,0.000000,40.000000,127.500000,64.000000,15.500000,64.000000,0.000000,0.000000,0.000000,1772721926.118038,0.000000
202.000000,-13013.655009,-18857.004506,2226.323155,-30371.729180,10151.804704,3332.153360,-23354.019028,-29052.953905,3006.689609,-957.325215,7130.988792,-358.901961,8795.702016,6105.468405,-11646.577614,-4633.091942,0.010000,-0.016000,1.008000,192.000000,0.000000,0.000000,0.000000,0.000000,0.000000,0.000000,0.000000,0.000000,0.000000,1772721926.118068,0.000000
204.000000,-13011.464538,-18851.371867,2235.353259,-30363.816662,10160.745401,3338.210683,-23343.625467,-29047.075396,3000.676990,-954.598302,7126.227871,-363.618179,8790.203487,6106.787158,-11639.827387,-4629.962698,0.010000,-0.016000,1.008000,192.000000,0.000000,0.000000,0.000000,0.000000,0.000000,0.000000,0.000000,0.000000,0.000000,1772721926.118089,0.000000
206.000000,-13034.084503,-18871.711954,2216.577794,-30376.579508,10132.336334,3320.731618,-23354.399008,-29063.459225,2986.081301,-958.263988,7117.421283,-363.349958,8777.708862,6106.183661,-11641.682582,-4631.415562,0.010000,-0.016000,1.008000,192.000000,0.000000,0.000000,0.000000,0.000000,0.000000,0.000000,0.000000,0.000000,0.000000,1772721926.118109,0.000000
208.000000,-13046.221500,-18881.546722,2217.695381,-30376.087770,10123.999134,3314.093150,-23349.928659,-29062.498100,2959.549780,-971.987959,7096.902382,-377.118632,8747.198730,6081.999073,-11668.348213,-4645.698326,0.010000,-0.016000,1.008000,192.000000,0.000000,0.000000,0.000000,0.000000,0.000000,0.000000,0.000000,0.000000,0.000000,1772721926.118129,0.000000
210.000000,-13056.927986,-18887.961672,2214.610841,-30382.435665,10120.154634,3310.494520,-23352.499110,-29069.963583,2948.731536,-975.161907,7102.646780,-372.894153,8742.482512,6089.308094,-11650.422114,-4636.109428,0.011000,-0.014000,1.005000,192.000000,0.000000,48.000000,127.500000,80.000000,15.500000,40.000000,0.000000,0.000000,0.000000,1772721926.118151,0.000000
212.000000,-13068.059155,-18894.734251,2192.393207,-30392.158674,10110.409273,3310.248650,-23370.380505,-29092.136513,2924.234024,-985.980151,7074.528286,-392.071949,8719.057884,6067.671605,-11665.017803,-4645.631271,0.011000,-0.014000,1.005000,192.000000,0.000000,0.000000,0.000000,0.000000,0.000000,0.000000,0.000000,0.000000,0.000000,1772721926.118170,0.000000
214.000000,-13049.797779,-18875.489399,2200.573945,-30377.384171,10131.151692,3331.639270,-23359.674020,-29077.741990,2923.474064,-980.347512,7074.572989,-393.636572,8720.600154,6072.924265,-11651.606757,-4630.387381,0.011000,-0.014000,1.005000,192.000000,0.000000,0.000000,0.000000,0.000000,0.000000,0.000000,0.000000,0.000000,0.000000,1772721926.118193,0.000000
216.000000,-13032.922212,-18857.317431,2192.773186,-30371.617421,10128.782407,3337.450723,-23363.518520,-29068.555423,2942.160123,-967.607017,7091.359149,-380.918429,8735.329954,6086.782347,-11647.471684,-4615.814044,0.011000,-0.014000,1.005000,192.000000,0.000000,0.000000,0.000000,0.000000,0.000000,0.000000,0.000000,0.000000,0.000000,1772721926.118213,0.000000
218.000000,-13009.005846,-18830.517689,2204.731370,-30356.798215,10139.064209,3346.369069,-23352.990848,-29042.247420,2948.776239,-952.027852,7097.572934,-367.954417,8737.676887,6087.184678,-11665.218969,-4614.919974,0.011000,-0.014000,1.005000,192.000000,0.000000,0.000000,0.000000,0.000000,0.000000,0.000000,0.000000,0.000000,0.000000,1772721926.118240,0.000000
220.000000,-12977.489886,-18800.052261,2220.601108,-30345.667046,10143.825131,3355.801506,-23342.172604,-29019.001605,2978.884039,-921.920052,7133.313374,-330.515245,8766.175361,6117.627754,-11643.582480,-4603.587640,0.011500,-0.015000,1.004500,192.000000,0.000000,48.000000,127.500000,64.000000,15.500000,48.000000,0.000000,0.000000,0.000000,1772721926.118262,0.000000
222.000000,-12977.199313,-18796.431279,2214.432027,-30351.724369,10128.089503,3342.815142,-23346.955877,-29023.896637,2987.243591,-907.838453,7133.246318,-324.390867,8760.475667,6118.499472,-11662.335594,-4624.821797,0.011500,-0.015000,1.004500,192.000000,0.000000,0.000000,0.000000,0.000000,0.000000,0.000000,0.000000,0.000000,0.000000,1772721926.118282,0.000000
224.000000,-12976.059374,-18792.452668,2228.983012,-30352.484328,10136.314945,3343.888026,-23337.501089,-29021.594408,2986.036597,-900.484729,7132.911042,-324.502626,8765.035422,6124.825016,-11653.461951,-4632.287280,0.011500,-0.015000,1.004500,192.000000,0.000000,0.000000,0.000000,0.000000,0.000000,0.000000,0.000000,0.000000,0.000000,1772721926.118304,0.000000
226.000000,-12990.275084,-18809.015311,2213.694419,-30370.879814,10115.527822,3319.435217,-23347.939354,-29032.546763,2983.823774,-913.336982,7128.999487,-332.795123,8763.135524,6119.125321,-11652.925510,-4642.837303,0.011500,-0.015000,1.004500,192.000000,0.000000,0.000000,0.000000,0.000000,0.000000,0.000000,0.000000,0.000000,0.000000,1772721926.118325,0.000000
228.000000,-13002.926171,-18818.067767,2209.134663,-30373.919651,10106.028331,3310.539223,-23348.565203,-29033.239667,2968.468126,-927.284470,7116.616621,-351.145905,8742.326050,6090.425681,-11675.053737,-4660.964568,0.011500,-0.015000,1.004500,192.000000,0.000000,0.000000,0.000000,0.000000,0.000000,0.000000,0.000000,0.000000,0.000000,1772721926.118345,0.000000
230.000000,-12995.326578,-18804.120279,2215.750780,-30365.828319,10107.682360,3309.108711,-23346.419435,-29024.857762,2961.293216,-920.064857,7134.453313,-340.238254,8747.042268,6099.478137,-11656.770010,-4645.988899,0.009750,-0.016500,1.003250,192.000000,0.000000,32.000000,127.500000,56.000000,15.500000,40.000000,0.000000,0.000000,0.000000,1772721926.118366,0.000000
