Sample_index,EXG Channel 0,EXG Channel 1,EXG Channel 2,EXG Channel 3,EXG Channel 4,EXG Channel 5,EXG Channel 6,EXG Channel 7,EXG Channel 8,EXG Channel 9,EXG Channel 10,EXG Channel 11,EXG Channel 12,EXG Channel 13,EXG Channel 14,EXG Channel 15,Accel Channel 0,Accel Channel 1,Accel Channel 2,Not Used,Digital Channel 0 (D11),Digital Channel 1 (D12),Digital Channel 2 (D13),Digital Channel 3 (D17),Not Used,Digital Channel 4 (D18),Analog Channel 0,Analog Channel 1,Analog Channel 2,Timestamp,Marker Channel
90.000000,-11486.047385,-16268.828961,3546.417182,-30565.943487,11163.981100,2832.077781,-20676.503560,-27223.418918,4256.241531,-804.327524,6439.336412,1568.466612,8517.020466,8605.086339,-10047.086781,-5210.593964,0.022000,-0.012000,1.002000,192.000000,0.000000,0.000000,0.000000,0.000000,0.000000,0.000000,0.000000,0.000000,0.000000,1772722592.889997,101.000000
92.000000,-11467.540141,-16249.718219,3567.070194,-30549.514955,11183.740042,2845.444124,-20658.108074,-27198.988461,4263.461144,-795.431530,6451.182836,1579.351911,8525.067094,8614.876403,-10040.560072,-5213.231470,0.022000,-0.012000,1.002000,192.000000,0.000000,0.000000,0.000000,0.000000,0.000000,0.000000,0.000000,0.000000,0.000000,1772722592.890062,0.000000
94.000000,-11474.111554,-16258.949489,3556.319005,-30553.426511,11176.967463,2839.811485,-20666.691144,-27210.164334,4275.195810,-790.648257,6462.917502,1589.030217,8530.140940,8623.817101,-10027.037266,-5213.231470,0.020000,-0.014000,1.002000,192.000000,0.000000,80.000000,127.500000,72.000000,15.500000,40.000000,0.000000,0.000000,0.000000,1772722592.890103,0.000000
96.000000,-11477.196095,-16262.726934,3559.850581,-30550.945467,11186.735175,2856.485886,-20667.987545,-27212.623025,4266.568037,-797.845518,6443.672650,1573.428699,8519.635620,8617.513909,-10041.252976,-5210.169281,0.020000,-0.014000,1.002000,192.000000,0.000000,0.000000,0.000000,0.000000,0.000000,0.000000,0.000000,0.000000,0.000000,1772722592.890141,0.000000
98.000000,-11474.223313,-16254.367382,3569.260665,-30541.669493,11201.062644,2871.841535,-20660.298545,-27206.230427,4270.568999,-790.178870,6455.116743,1586.482118,8538.321678,8633.920089,-10009.066464,-5196.959400,0.020000,-0.014000,1.002000,192.000000,0.000000,0.000000,0.000000,0.000000,0.000000,0.000000,0.000000,0.000000,0.000000,1772722592.890178,0.000000
100.000000,-11485.198019,-16265.386792,3554.061479,-30550.677246,11184.410594,2862.029119,-20673.284909,-27221.139040,4259.504886,-791.609382,6443.024450,1582.838784,8524.575356,8628.063932,-10024.824443,-5192.556106,0.020000,-0.014000,1.002000,192.000000,0.000000,0.000000,0.000000,0.000000,0.000000,0.000000,0.000000,0.000000,0.000000,1772722592.890195,0.000000
102.000000,-11476.257321,-16257.608385,3571.629950,-30538.093214,11208.975161,2894.170927,-20660.969098,-27214.455869,4260.443659,-792.726969,6442.756229,1581.028292,8533.828978,8630.276755,-10013.983847,-5177.982769,0.020000,-0.014000,1.002000,192.000000,0.000000,0.000000,0.000000,0.000000,0.000000,0.000000,0.000000,0.000000,0.000000,1772722592.890206,0.000000
104.000000,-11494.451641,-16280.563626,3557.905979,-30556.891031,11200.682664,2887.778328,-20676.570615,-27234.728901,4264.645787,-798.985457,6442.309194,1573.026368,8536.444132,8641.050296,-10002.696216,-5165.555199,0.010000,-0.016000,1.008000,192.000000,0.000000,40.000000,127.500000,64.000000,15.500000,64.000000,0.000000,0.000000,0.000000,1772722592.890218,0.000000
106.000000,-11494.384586,-16279.110763,3560.945816,-30556.309886,11200.302684,2885.409043,-20674.760124,-27232.158450,4255.079240,-810.764827,6425.299516,1552.440411,8525.067094,8610.786034,-10024.824443,-5160.704870,0.010000,-0.016000,1.008000,192.000000,0.000000,0.000000,0.000000,0.000000,0.000000,0.000000,0.000000,0.000000,0.000000,1772722592.890229,0.000000
108.000000,-11491.076528,-16274.483952,3562.421031,-30551.012522,11195.385301,2871.327444,-20665.215929,-27218.367424,4262.745889,-803.634620,6441.549235,1569.874772,8535.371248,8622.096017,-10010.094644,-5158.089716,0.010000,-0.016000,1.008000,192.000000,0.000000,0.000000,0.000000,0.000000,0.000000,0.000000,0.000000,0.000000,0.000000,1772722592.890240,0.000000
110.000000,-11501.403034,-16290.398394,3547.311252,-30570.927926,11162.170608,2827.585081,-20675.229511,-27227.397529,4249.670118,-820.219615,6433.837883,1561.470516,8517.847481,8591.742348,-10042.750542,-5182.900153,0.010000,-0.016000,1.008000,192.000000,0.000000,0.000000,0.000000,0.000000,0.000000,0.000000,0.000000,0.000000,0.000000,1772722592.890250,0.000000
112.000000,-11489.377795,-16278.753135,3569.506534,-30559.997923,11180.633149,2832.480113,-20658.510406,-27215.327587,4250.720650,-819.236138,6440.185778,1558.743603,8512.393655,8589.417766,-10040.582423,-5199.775720,0.010000,-0.016000,1.008000,192.000000,0.000000,0.000000,0.000000,0.000000,0.000000,0.000000,0.000000,0.000000,0.000000,1772722592.890270,0.000000
114.000000,-11499.726653,-16285.503362,3559.023566,-30569.922098,11174.195847,2823.159435,-20670.043906,-27232.761947,4255.839200,-813.245870,6442.733877,1560.196466,8521.356704,8602.158261,-10028.668943,-5208.604659,0.014000,-0.020000,1.006000,192.000000,0.000000,56.000000,127.500000,48.000000,15.500000,56.000000,0.000000,0.000000,0.000000,1772722592.890281,0.000000
116.000000,-11488.908409,-16272.114667,3562.711604,-30563.797720,11183.605931,2834.134142,-20666.378220,-27222.346034,4253.201694,-810.094274,6428.205243,1553.647405,8514.785292,8599.677217,-10045.544511,-5219.624069,0.014000,-0.020000,1.006000,192.000000,0.000000,0.000000,0.000000,0.000000,0.000000,0.000000,0.000000,0.000000,0.000000,1772722592.890292,0.000000
118.000000,-11473.105725,-16257.451923,3572.591075,-30551.928944,11186.712824,2845.198255,-20655.314106,-27201.983595,4271.910104,-792.436396,6453.686232,1582.257638,8534.477178,8625.001743,-10019.974115,-5215.958383,0.014000,-0.020000,1.006000,192.000000,0.000000,0.000000,0.000000,0.000000,0.000000,0.000000,0.000000,0.000000,0.000000,1772722592.890303,0.000000
120.000000,-11478.939531,-16265.677365,3559.939988,-30563.395389,11168.294986,2832.144836,-20665.662964,-27205.917502,4269.876095,-792.145823,6453.283900,1581.721196,8525.067094,8612.194194,-10042.728191,-5225.949612,0.014000,-0.020000,1.006000,192.000000,0.000000,0.000000,0.000000,0.000000,0.000000,0.000000,0.000000,0.000000,0.000000,1772722592.890313,0.000000
122.000000,-11466.467257,-16250.075847,3577.463755,-30545.290476,11193.395995,2855.189485,-20655.202348,-27196.440363,4271.083089,-790.983533,6458.983595,1584.336350,8524.888280,8611.344828,-10033.720438,-5221.389857,0.014000,-0.020000,1.006000,192.000000,0.000000,0.000000,0.000000,0.000000,0.000000,0.000000,0.000000,0.000000,0.000000,1772722592.890324,0.000000
124.000000,-11476.994929,-16260.938795,3562.465735,-30549.537307,11191.898428,2860.397441,-20671.608528,-27218.479183,4276.715729,-786.401425,6457.240159,1584.358702,8534.857158,8631.103770,-10014.900269,-5202.077949,0.016000,-0.016000,0.998000,192.000000,0.000000,64.000000,127.500000,64.000000,15.500000,24.000000,0.000000,0.000000,0.000000,1772722592.890335,0.000000
126.000000,-11480.526505,-16265.476199,3560.476430,-30542.630618,11198.000455,2872.601494,-20671.317955,-27222.882476,4266.433926,-794.135129,6433.100275,1565.739699,8523.837748,8621.872499,-10030.345324,-5187.661074,0.016000,-0.016000,0.998000,192.000000,0.000000,0.000000,0.000000,0.000000,0.000000,0.000000,0.000000,0.000000,0.000000,1772722592.890346,0.000000
128.000000,-11480.682967,-16262.928100,3567.360767,-30537.981455,11206.404711,2891.198145,-20664.500673,-27210.544313,4266.724499,-786.982571,6445.729011,1582.436452,8540.758019,8643.374877,-10004.774929,-5169.131478,0.016000,-0.016000,0.998000,192.000000,0.000000,0.000000,0.000000,0.000000,0.000000,0.000000,0.000000,0.000000,0.000000,1772722592.890357,0.000000
130.000000,-11489.668368,-16272.248777,3558.397717,-30552.621848,11192.904257,2882.749186,-20674.134275,-27215.819325,4262.611778,-790.625905,6442.912691,1580.760071,8532.063190,8632.333116,-10028.266612,-5168.527981,0.016000,-0.016000,0.998000,192.000000,0.000000,0.000000,0.000000,0.000000,0.000000,0.000000,0.000000,0.000000,0.000000,1772722592.890368,0.000000
132.000000,-11481.241760,-16267.398449,3570.132383,-30547.637409,11207.946981,2898.753035,-20666.109999,-27215.864028,4266.657444,-796.884393,6448.567682,1571.662911,8526.519957,8630.679087,-10026.478473,-5163.990577,0.016000,-0.016000,0.998000,192.000000,0.000000,0.000000,0.000000,0.000000,0.000000,0.000000,0.000000,0.000000,0.000000,1772722592.890378,0.000000
134.000000,-11493.088185,-16280.496571,3550.798124,-30561.361380,11192.390167,2881.855116,-20682.158551,-27240.853279,4267.283293,-803.656972,6444.253796,1561.112888,8538.008754,8632.668392,-10018.185975,-5159.699042,0.012000,-0.018000,0.994000,192.000000,0.000000,48.000000,127.500000,56.000000,15.500000,8.000000,0.000000,0.000000,0.000000,1772722592.890389,0.000000
136.000000,-11500.732482,-16287.515019,3546.685403,-30560.601420,11180.946074,2862.409098,-20682.315014,-27244.943648,4250.631243,-814.050533,6416.135301,1542.359774,8519.345047,8611.858918,-10042.348211,-5163.096507,0.012000,-0.018000,0.994000,192.000000,0.000000,0.000000,0.000000,0.000000,0.000000,0.000000,0.000000,0.000000,0.000000,1772722592.890400,0.000000
138.000000,-11488.036691,-16274.506304,3560.297616,-30553.784138,11177.660367,2838.604491,-20669.976851,-27221.139040,4254.118115,-806.965030,6431.602708,1561.135240,8529.783312,8619.816139,-10024.489167,-5173.668882,0.012000,-0.018000,0.994000,192.000000,0.000000,0.000000,0.000000,0.000000,0.000000,0.000000,0.000000,0.000000,0.000000,1772722592.890411,0.000000
140.000000,-11491.478859,-16279.714260,3553.659147,-30564.177700,11154.883940,2808.966077,-20672.860226,-27211.103107,4252.575845,-806.875623,6439.917557,1572.780499,8525.894109,8601.219487,-10049.456066,-5203.441406,0.012000,-0.018000,0.994000,192.000000,0.000000,0.000000,0.000000,0.000000,0.000000,0.000000,0.000000,0.000000,0.000000,1772722592.890422,0.000000
142.000000,-11471.898731,-16257.653088,3575.139174,-30555.393464,11172.608873,2820.298412,-20652.944821,-27189.265453,4258.968444,-800.594783,6454.043860,1582.995246,8517.489853,8603.365255,-10043.801074,-5222.798016,0.012000,-0.018000,0.994000,192.000000,0.000000,0.000000,0.000000,0.000000,0.000000,0.000000,0.000000,0.000000,0.000000,1772722592.890432,0.000000
144.000000,-11475.363252,-16260.558815,3569.171258,-30565.362342,11169.524332,2817.124464,-20661.438484,-27205.314005,4268.199714,-796.191489,6464.526828,1585.699807,8527.548138,8612.797691,-10027.238432,-5231.224624,0.014000,-0.016000,1.000000,192.000000,0.000000,64.000000,127.500000,72.000000,15.500000,56.000000,0.000000,0.000000,0.000000,1772722592.890443,0.000000
146.000000,-11478.201923,-16263.039859,3572.032281,-30557.539231,11181.594274,2836.369316,-20663.181920,-27215.841677,4261.583598,-797.219669,6443.002098,1570.299455,8521.826091,8609.579040,-10039.107208,-5228.564766,0.014000,-0.016000,1.000000,192.000000,0.000000,0.000000,0.000000,0.000000,0.000000,0.000000,0.000000,0.000000,0.000000,1772722592.890453,0.000000
148.000000,-11479.610083,-16264.179798,3578.626046,-30548.978513,11193.485402,2849.422735,-20659.650345,-27212.600674,4269.227894,-789.463614,6451.473409,1581.810603,8533.247832,8630.008534,-10008.395911,-5211.577441,0.014000,-0.016000,1.000000,192.000000,0.000000,0.000000,0.000000,0.000000,0.000000,0.000000,0.000000,0.000000,0.000000,1772722592.890463,0.000000
150.000000,-11483.298121,-16267.711373,3563.583322,-30556.511051,11180.163763,2839.900892,-20668.814560,-27209.449078,4265.964540,-796.102082,6447.181874,1582.391749,8525.603536,8616.642191,-10027.081970,-5209.029342,0.014000,-0.016000,1.000000,192.000000,0.000000,0.000000,0.000000,0.000000,0.000000,0.000000,0.000000,0.000000,0.000000,1772722592.890474,0.000000
152.000000,-11470.445868,-16252.892167,3576.480279,-30540.618961,11201.621437,2859.883351,-20650.866109,-27190.025412,4268.736156,-790.312980,6457.486028,1596.205127,8527.056399,8619.145586,-10022.186938,-5196.087682,0.014000,-0.016000,1.000000,192.000000,0.000000,0.000000,0.000000,0.000000,0.000000,0.000000,0.000000,0.000000,0.000000,1772722592.890485,0.000000
154.000000,-11488.282560,-16269.588920,3559.537656,-30549.917287,11191.026710,2858.452840,-20663.785418,-27215.104069,4266.523333,-795.386826,6456.435496,1595.176947,8532.689039,8626.074627,-10017.828347,-5183.771871,0.012000,-0.015000,0.998000,192.000000,0.000000,40.000000,127.500000,72.000000,15.500000,16.000000,0.000000,0.000000,0.000000,1772722592.890496,0.000000
156.000000,-11497.983217,-16281.949435,3555.581397,-30550.207859,11196.614647,2882.905648,-20670.826217,-27235.757081,4249.558359,-813.111760,6425.970069,1563.169248,8516.439321,8614.071740,-10042.012935,-5171.478411,0.012000,-0.015000,0.998000,192.000000,0.000000,0.000000,0.000000,0.000000,0.000000,0.000000,0.000000,0.000000,0.000000,1772722592.890507,0.000000
158.000000,-11491.590618,-16278.864894,3563.873895,-30544.396406,11204.974199,2902.731645,-20669.775685,-27234.304218,4261.114211,-807.300306,6435.558967,1564.979740,8534.566585,8635.529415,-10014.676751,-5149.394888,0.012000,-0.015000,0.998000,192.000000,0.000000,0.000000,0.000000,0.000000,0.000000,0.000000,0.000000,0.000000,0.000000,1772722592.890517,0.000000
160.000000,-11493.892848,-16283.290539,3556.520171,-30562.590726,11188.724481,2885.856078,-20681.197426,-27234.214811,4262.321205,-810.608364,6432.206205,1556.419022,8527.190510,8625.649944,-10031.909946,-5155.943949,0.012000,-0.015000,0.998000,192.000000,0.000000,0.000000,0.000000,0.000000,0.000000,0.000000,0.000000,0.000000,0.000000,1772722592.890527,0.000000
162.000000,-11478.626606,-16265.878530,3576.815555,-30554.141766,11198.939228,2876.200125,-20662.377258,-27209.002043,4269.563171,-804.908670,6442.689174,1563.638635,8535.773580,8623.615935,-10029.518310,-5168.013891,0.012000,-0.015000,0.998000,192.000000,0.000000,0.000000,0.000000,0.000000,0.000000,0.000000,0.000000,0.000000,0.000000,1772722592.890538,0.000000
164.000000,-11490.160106,-16275.109801,3561.392851,-30567.351647,11171.759507,2828.300336,-20670.759162,-27220.535543,4270.837220,-804.483986,6449.618214,1573.585161,8531.370286,8619.592621,-10024.913850,-5191.416167,0.012000,-0.013500,0.998000,192.000000,0.000000,48.000000,127.500000,80.000000,15.500000,24.000000,0.000000,0.000000,0.000000,1772722592.890553,0.000000
166.000000,-11491.881191,-16272.449943,3561.973996,-30565.474101,11163.087030,2808.831967,-20666.177054,-27221.496668,4255.794496,-809.311963,6426.394752,1568.064281,8503.855288,8592.010569,-10054.015822,-5221.836891,0.012000,-0.013500,0.998000,192.000000,0.000000,0.000000,0.000000,0.000000,0.000000,0.000000,0.000000,0.000000,0.000000,1772722592.890563,0.000000
168.000000,-11482.381699,-16264.045687,3574.267456,-30552.845365,11169.166704,2815.850415,-20652.140159,-27205.738688,4262.097688,-799.499547,6443.762057,1588.806699,8520.887318,8605.935705,-10030.524138,-5225.994316,0.012000,-0.013500,0.998000,192.000000,0.000000,0.000000,0.000000,0.000000,0.000000,0.000000,0.000000,0.000000,0.000000,1772722592.890574,0.000000
170.000000,-11481.778202,-16269.745382,3565.125592,-30562.434264,11156.046230,2807.647325,-20661.080856,-27208.599711,4262.052984,-802.718199,6446.444267,1586.459766,8512.795986,8596.480918,-10050.864226,-5234.756200,0.012000,-0.013500,0.998000,192.000000,0.000000,0.000000,0.000000,0.000000,0.000000,0.000000,0.000000,0.000000,0.000000,1772722592.890584,0.000000
172.000000,-11459.918196,-16249.315888,3586.918543,-30547.391540,11187.249266,2836.615185,-20647.111016,-27192.819380,4277.296874,-797.756111,6458.044822,1585.655103,8525.625888,8610.070778,-10043.018763,-5230.263499,0.012000,-0.013500,0.998000,192.000000,0.000000,0.000000,0.000000,0.000000,0.000000,0.000000,0.000000,0.000000,0.000000,1772722592.890594,0.000000
174.000000,-11474.357423,-16260.089428,3573.641607,-30559.416778,11178.174457,2833.240072,-20659.627993,-27208.219732,4286.058758,-790.111815,6467.611369,1591.779481,8540.288632,8623.682991,-10023.975077,-5223.557976,0.014000,-0.014750,0.999000,192.000000,0.000000,64.000000,127.500000,64.000000,15.500000,32.000000,0.000000,0.000000,0.000000,1772722592.890605,0.000000
176.000000,-11483.365176,-16267.554911,3570.288845,-30561.942525,11178.889713,2834.558825,-20664.098342,-27217.205133,4268.445583,-802.204109,6441.392772,1574.054548,8521.714332,8605.980409,-10038.369601,-5221.971002,0.014000,-0.014750,0.999000,192.000000,0.000000,0.000000,0.000000,0.000000,0.000000,0.000000,0.000000,0.000000,0.000000,1772722592.890615,0.000000
178.000000,-11482.694624,-16268.560740,3572.568723,-30556.443996,11188.724481,2843.141895,-20660.566766,-27218.501534,4272.312435,-798.404312,6448.835903,1585.386882,8534.320716,8622.811272,-10007.367731,-5209.498728,0.014000,-0.014750,0.999000,192.000000,0.000000,0.000000,0.000000,0.000000,0.000000,0.000000,0.000000,0.000000,0.000000,1772722592.890626,0.000000
180.000000,-11497.804403,-16286.643301,3556.162543,-30569.720932,11173.502943,2833.418886,-20676.816485,-27235.198287,4262.410612,-808.753170,6435.849540,1571.417042,8521.133187,8604.236973,-10025.316182,-5209.945763,0.014000,-0.014750,0.999000,192.000000,0.000000,0.000000,0.000000,0.000000,0.000000,0.000000,0.000000,0.000000,0.000000,1772722592.890636,0.000000
182.000000,-11485.600351,-16273.344013,3573.172220,-30554.342932,11199.989760,2859.861000,-20664.254804,-27221.943703,4259.817810,-810.563661,6435.871891,1565.851458,8517.646315,8607.455624,-10019.728246,-5196.758234,0.014000,-0.014750,0.999000,192.000000,0.000000,0.000000,0.000000,0.000000,0.000000,0.000000,0.000000,0.000000,0.000000,1772722592.890647,0.000000
184.000000,-11491.948246,-16279.110763,3560.610540,-30556.242830,11193.865382,2864.845439,-20671.653232,-27233.298389,4263.125868,-807.076789,6438.397639,1566.969045,8530.789141,8623.370066,-10011.771025,-5185.716472,0.012000,-0.015375,0.999500,192.000000,0.000000,40.000000,127.500000,64.000000,15.500000,32.000000,0.000000,0.000000,0.000000,1772722592.890658,0.000000
186.000000,-11490.718900,-16276.629719,3558.196552,-30553.202993,11196.681702,2876.088366,-20671.653232,-27235.846488,4252.955824,-806.383885,6417.655220,1557.089574,8514.382960,8616.776301,-10038.816635,-5186.409376,0.012000,-0.015375,0.999500,192.000000,0.000000,0.000000,0.000000,0.000000,0.000000,0.000000,0.000000,0.000000,0.000000,1772722592.890669,0.000000
188.000000,-11469.417688,-16255.820245,3571.875819,-30542.451804,11203.208411,2887.465404,-20660.790284,-27215.819325,4273.742947,-785.864983,6441.012793,1582.883487,8542.568510,8644.715982,-10019.012990,-5182.587228,0.012000,-0.015375,0.999500,192.000000,0.000000,0.000000,0.000000,0.000000,0.000000,0.000000,0.000000,0.000000,0.000000,1772722592.890680,0.000000
190.000000,-11474.782106,-16260.447056,3556.833095,-30556.488699,11177.928588,2868.935808,-20673.597833,-27215.349938,4276.849839,-781.841669,6446.131342,1589.812528,8526.721123,8637.362258,-10045.924490,-5188.242219,0.012000,-0.015375,0.999500,192.000000,0.000000,0.000000,0.000000,0.000000,0.000000,0.000000,0.000000,0.000000,0.000000,1772722592.890692,0.000000
192.000000,-11461.169894,-16245.337277,3573.172220,-30540.753071,11187.696300,2869.695767,-20654.554147,-27188.505493,4275.486383,-783.629809,6451.562816,1595.221650,8526.363495,8627.125159,-10050.417191,-5189.270400,0.012000,-0.015375,0.999500,192.000000,0.000000,0.000000,0.000000,0.000000,0.000000,0.000000,0.000000,0.000000,0.000000,1772722592.890702,0.000000
194.000000,-11468.903597,-16255.037934,3560.007043,-30553.650028,11170.440754,2845.377069,-20664.545377,-27202.005947,4273.318264,-782.176945,6457.463677,1597.613287,8526.631716,8636.155264,-10042.974060,-5197.719359,0.013000,-0.014687,1.000750,192.000000,0.000000,56.000000,127.500000,72.000000,15.500000,40.000000,0.000000,0.000000,0.000000,1772722592.890713,0.000000
196.000000,-11473.776278,-16263.263376,3561.012871,-30564.311810,11168.898483,2836.212854,-20668.322822,-27215.551104,4265.606912,-797.510242,6438.397639,1572.713443,8512.125434,8612.752987,-10060.967214,-5213.454987,0.013000,-0.014687,1.000750,192.000000,0.000000,0.000000,0.000000,0.000000,0.000000,0.000000,0.000000,0.000000,0.000000,1772722592.890723,0.000000
198.000000,-11473.463353,-16262.481065,3572.188744,-30558.857984,11178.688547,2837.777476,-20660.186787,-27213.561799,4273.921761,-793.017542,6451.853389,1578.837821,8527.659896,8624.733523,-10027.305487,-5214.192595,0.013000,-0.014687,1.000750,192.000000,0.000000,0.000000,0.000000,0.000000,0.000000,0.000000,0.000000,0.000000,0.000000,1772722592.890733,0.000000
200.000000,-11484.840391,-16267.979594,3559.805877,-30568.402179,11163.288196,2822.310069,-20670.848569,-27219.037976,4264.221104,-794.671571,6442.622118,1578.636656,8510.091425,8612.060083,-10041.342383,-5222.350982,0.013000,-0.014687,1.000750,192.000000,0.000000,0.000000,0.000000,0.000000,0.000000,0.000000,0.000000,0.000000,0.000000,1772722592.890743,0.000000
202.000000,-11475.027975,-16254.210920,3575.832078,-30548.866755,11186.534010,2846.181732,-20655.783493,-27195.747458,4265.003415,-788.547193,6446.488970,1590.840708,8512.907745,8614.719941,-10033.698086,-5213.253822,0.013000,-0.014687,1.000750,192.000000,0.000000,0.000000,0.000000,0.000000,0.000000,0.000000,0.000000,0.000000,0.000000,1772722592.890754,0.000000
204.000000,-11485.063909,-16270.013603,3562.979825,-30559.930868,11179.023824,2845.712345,-20670.088609,-27213.315930,4269.540819,-795.275068,6449.215883,1592.159461,8523.815396,8622.297182,-10020.443502,-5202.368522,0.013500,-0.016344,1.001375,192.000000,0.000000,56.000000,127.500000,56.000000,15.500000,40.000000,0.000000,0.000000,0.000000,1772722592.890764,0.000000
206.000000,-11496.977388,-16288.073812,3557.056613,-30567.262240,11176.520428,2853.110773,-20675.430676,-27231.063215,4253.224045,-819.660821,6422.840824,1557.871885,8505.174041,8600.861859,-10035.508577,-5196.534717,0.013500,-0.016344,1.001375,192.000000,0.000000,0.000000,0.000000,0.000000,0.000000,0.000000,0.000000,0.000000,0.000000,1772722592.890775,0.000000
208.000000,-11494.630455,-16287.425612,3565.416165,-30563.954182,11190.333806,2859.637482,-20668.479284,-27233.320741,4255.950958,-826.321641,6431.602708,1554.228551,8513.332428,8609.243764,-10011.838080,-5185.202382,0.013500,-0.016344,1.001375,192.000000,0.000000,0.000000,0.000000,0.000000,0.000000,0.000000,0.000000,0.000000,0.000000,1772722592.890786,0.000000
210.000000,-11508.689703,-16299.853182,3548.339432,-30579.935679,11172.586521,2838.649194,-20682.560883,-27248.609334,4252.307624,-826.723972,6425.724200,1549.892312,8505.598725,8603.432310,-10032.178167,-5191.684388,0.013500,-0.016344,1.001375,192.000000,0.000000,0.000000,0.000000,0.000000,0.000000,0.000000,0.000000,0.000000,0.000000,1772722593.370726,0.000000
212.000000,-11493.378758,-16280.854199,3565.840848,-30561.137862,11192.166649,2849.132162,-20665.417095,-27224.424747,4253.246397,-819.616117,6429.121665,1555.524952,8504.123509,8602.426482,-10037.497883,-5197.518193,0.013500,-0.016344,1.001375,192.000000,0.000000,0.000000,0.000000,0.000000,0.000000,0.000000,0.000000,0.000000,0.000000,1772722593.370789,0.000000
214.000000,-11493.289351,-16278.842542,3557.771868,-30560.623772,11188.612722,2847.165209,-20670.714458,-27218.859162,4260.689528,-804.886318,6438.084714,1578.144917,8519.389751,8616.508081,-10027.953688,-5198.904002,0.013500,-0.016344,1.001375,192.000000,0.000000,0.000000,0.000000,0.000000,0.000000,0.000000,0.000000,0.000000,0.000000,1772722593.370831,0.000000
216.000000,-11484.818040,-16270.482990,3560.990520,-30559.841461,11197.776937,2852.775497,-20670.356830,-27218.121555,4256.152124,-809.311963,6423.645487,1570.299455,8515.858175,8610.964848,-10047.600871,-5203.687275,0.012000,-0.016000,1.002000,192.000000,0.000000,48.000000,127.500000,64.000000,15.500000,40.000000,0.000000,0.000000,0.000000,1772722593.370873,0.000000
218.000000,-11472.837504,-16261.631699,3573.328683,-30556.399293,11206.471766,2859.637482,-20661.997278,-27214.366462,4271.887752,-805.400408,6438.442342,1576.110909,8533.180777,8629.136816,-10020.331743,-5198.479318,0.012000,-0.016000,1.002000,192.000000,0.000000,0.000000,0.000000,0.000000,0.000000,0.000000,0.000000,0.000000,0.000000,1772722593.370929,0.000000
220.000000,-11477.777240,-16269.410106,3559.917636,-30578.527520,11179.783783,2832.211892,-20678.179941,-27224.335340,4277.095709,-812.709428,6441.459828,1564.711519,8529.068056,8607.343865,-10041.252976,-5214.594926,0.012000,-0.016000,1.002000,192.000000,0.000000,0.000000,0.000000,0.000000,0.000000,0.000000,0.000000,0.000000,0.000000,1772722593.371015,0.000000
222.000000,-11469.596502,-16260.134132,3580.548296,-30566.144653,11190.087937,2840.169113,-20662.466665,-27207.415069,4280.180249,-809.110798,6454.110915,1566.991397,8522.228422,8601.867688,-10041.878824,-5222.261575,0.012000,-0.016000,1.002000,192.000000,0.000000,0.000000,0.000000,0.000000,0.000000,0.000000,0.000000,0.000000,0.000000,1772722593.371044,0.000000
224.000000,-11485.533295,-16275.109801,3570.847639,-30571.710237,11175.067565,2827.294508,-20669.060429,-27216.154601,4276.648674,-805.579222,6462.626930,1574.479231,8532.152597,8608.617915,-10027.596060,-5223.736790,0.012000,-0.016000,1.002000,192.000000,0.000000,0.000000,0.000000,0.000000,0.000000,0.000000,0.000000,0.000000,0.000000,1772722593.371076,0.000000
226.000000,-11499.570191,-16286.285673,3560.632892,-30566.345819,11170.999547,2831.094304,-20673.016688,-27227.643398,4249.021917,-814.296402,6430.015734,1560.040004,8506.895126,8600.481880,-10050.260729,-5227.156607,0.014000,-0.018000,1.010000,192.000000,0.000000,56.000000,127.500000,56.000000,15.500000,72.000000,0.000000,0.000000,0.000000,1772722593.371102,0.000000
228.000000,-11490.405976,-16279.378984,3563.650377,-30555.214650,11183.494173,2844.348889,-20667.249938,-27223.173049,4249.133676,-808.842577,6430.351011,1569.494792,8512.773635,8618.653848,-10019.124749,-5211.957420,0.014000,-0.018000,1.010000,192.000000,0.000000,0.000000,0.000000,0.000000,0.000000,0.000000,0.000000,0.000000,0.000000,1772722593.371130,0.000000
230.000000,-11496.820926,-16291.113650,3548.026508,-30568.849214,11168.742021,2831.988374,-20678.269348,-27233.052520,4249.848932,-822.097161,6423.757246,1560.554094,8498.692036,8606.673313,-10030.479435,-5209.386970,0.014000,-0.018000,1.010000,192.000000,0.000000,0.000000,0.000000,0.000000,0.000000,0.000000,0.000000,0.000000,0.000000,1772722593.371156,0.000000
232.000000,-11490.473031,-16284.452830,3564.298578,-30565.094121,11179.515562,2840.191464,-20661.706705,-27220.669653,4251.480609,-829.987327,6427.668801,1555.301434,8498.580277,8602.180612,-10033.809845,-5205.318952,0.014000,-0.018000,1.010000,192.000000,0.000000,0.000000,0.000000,0.000000,0.000000,0.000000,0.000000,0.000000,0.000000,1772722593.371183,0.000000
234.000000,-11502.095938,-16292.857086,3555.894322,-30580.606232,11160.315414,2824.724057,-20667.562862,-27227.330473,4255.839200,-830.501417,6441.683345,1558.676548,8513.019504,8597.419691,-10026.903156,-5203.754330,0.014000,-0.018000,1.010000,192.000000,0.000000,0.000000,0.000000,0.000000,0.000000,0.000000,0.000000,0.000000,0.000000,1772722593.371210,0.000000
236.000000,-11509.695531,-16295.315778,3555.000252,-30584.361325,11158.616681,2819.806674,-20669.909796,-27228.179840,4238.695412,-833.787123,6422.706714,1545.377260,8483.805774,8577.347824,-10055.178112,-5219.445255,0.014000,-0.014000,1.002000,192.000000,0.000000,56.000000,127.500000,72.000000,15.500000,40.000000,0.000000,0.000000,0.000000,1772722593.371237,0.000000
238.000000,-11508.108557,-16287.492667,3560.565836,-30565.496453,11174.061736,2830.490807,-20664.478322,-27225.765851,4239.321260,-819.772580,6424.271336,1564.286836,8503.251791,8599.498403,-10024.153891,-5218.774702,0.014000,-0.014000,1.002000,192.000000,0.000000,0.000000,0.000000,0.000000,0.000000,0.000000,0.000000,0.000000,0.000000,1772722593.371263,0.000000
240.000000,-11513.338865,-16294.846391,3548.339432,-30571.464368,11172.698280,2827.428618,-20680.169246,-27246.620029,4235.812036,-820.040801,6406.367589,1561.761089,8499.921381,8604.505194,-10038.436656,-5224.027362,0.014000,-0.014000,1.002000,192.000000,0.000000,0.000000,0.000000,0.000000,0.000000,0.000000,0.000000,0.000000,0.000000,1772722593.371293,0.000000
242.000000,-11486.829697,-16268.896016,3573.060462,-30556.153423,11201.733196,2855.077726,-20663.427790,-27228.783337,4252.575845,-806.830920,6417.811682,1567.326673,8510.426701,8614.250554,-10029.853586,-5216.740694,0.014000,-0.014000,1.002000,192.000000,0.000000,0.000000,0.000000,0.000000,0.000000,0.000000,0.000000,0.000000,0.000000,1772722593.371320,0.000000
244.000000,-11476.458487,-16262.123437,3567.137249,-30567.508110,11191.898428,2848.372203,-20668.993374,-27226.145831,4276.335749,-793.397521,6445.438438,1577.675531,8527.101103,8627.795711,-10015.973153,-5210.705723,0.014000,-0.014000,1.002000,192.000000,0.000000,0.000000,0.000000,0.000000,0.000000,0.000000,0.000000,0.000000,0.000000,1772722593.371346,0.000000
246.000000,-11470.311757,-16255.708487,3567.628988,-30568.178662,11185.103498,2842.739563,-20666.467627,-27213.472392,4278.593275,-794.023370,6445.170217,1568.734833,8519.412103,8613.155319,-10041.342383,-5218.037095,0.014000,-0.018000,1.002000,192.000000,0.000000,56.000000,127.500000,56.000000,15.500000,40.000000,0.000000,0.000000,0.000000,1772722593.371373,0.000000
248.000000,-11468.076583,-16255.149693,3578.514287,-30554.968781,11188.053928,2850.853247,-20653.615374,-27197.379136,4284.292970,-786.982571,6461.978729,1583.486984,8530.073885,8627.974525,-10024.489167,-5216.070141,0.014000,-0.018000,1.002000,192.000000,0.000000,0.000000,0.000000,0.000000,0.000000,0.000000,0.000000,0.000000,0.000000,1772722593.371400,0.000000
250.000000,-11493.311702,-16281.636510,3556.698985,-30568.089255,11160.494227,2827.875653,-20668.971022,-27218.456831,4268.512639,-801.354742,6446.600729,1575.216839,8511.298419,8612.775339,-10044.337516,-5218.059447,0.014000,-0.018000,1.002000,192.000000,0.000000,0.000000,0.000000,0.000000,0.000000,0.000000,0.000000,0.000000,0.000000,1772722593.371442,0.000000
252.000000,-11492.015301,-16275.579187,3568.701871,-30556.086368,11177.794478,2834.000031,-20657.638688,-27215.662863,4258.342595,-806.853271,6437.861197,1572.534629,8511.320771,8607.589735,-10040.269499,-5214.773740,0.014000,-0.018000,1.002000,192.000000,0.000000,0.000000,0.000000,0.000000,0.000000,0.000000,0.000000,0.000000,0.000000,1772722593.371469,0.000000
254.000000,-11509.717883,-16292.767679,3552.407450,-30565.451749,11160.114248,2818.376162,-20670.468589,-27235.399453,4251.838237,-808.596707,6436.900072,1574.121603,8505.576373,8616.351618,-10022.857490,-5209.275211,0.014000,-0.018000,1.002000,192.000000,0.000000,0.000000,0.000000,0.000000,0.000000,0.000000,0.000000,0.000000,0.000000,1772722593.371496,0.000000
0.000000,-11508.063854,-16293.549990,3549.568778,-30566.189357,11153.408724,2824.209967,-20674.156627,-27236.025302,4236.326127,-823.572376,6417.185833,1553.535647,8487.896143,8594.871592,-10047.332650,-5206.749464,0.014000,-0.014000,1.004000,192.000000,0.000000,56.000000,127.500000,72.000000,15.500000,48.000000,0.000000,0.000000,0.000000,1772722593.371525,0.000000
2.000000,-11500.777185,-16284.877513,3557.257778,-30561.361380,11159.510751,2833.776514,-20665.931185,-27218.657996,4252.844066,-812.932946,6437.660031,1567.594894,8503.609419,8607.545031,-10026.634935,-5195.439481,0.014000,-0.014000,1.004000,192.000000,0.000000,0.000000,0.000000,0.000000,0.000000,0.000000,0.000000,0.000000,0.000000,1772722593.371552,0.000000
4.000000,-11501.492441,-16282.597635,3543.600862,-30574.526557,11145.429152,2824.344078,-20675.922415,-27222.815421,4235.230891,-816.911556,6430.172197,1564.622112,8482.375262,8594.111633,-10049.098438,-5202.010894,0.014000,-0.014000,1.004000,192.000000,0.000000,0.000000,0.000000,0.000000,0.000000,0.000000,0.000000,0.000000,0.000000,1772722593.371578,0.000000
6.000000,-11481.353519,-16256.490798,3563.024528,-30558.433301,11169.367870,2831.966022,-20656.677563,-27201.581264,4245.825618,-809.133149,6436.140112,1573.026368,8487.314998,8598.760795,-10047.310298,-5209.588135,0.014000,-0.014000,1.004000,192.000000,0.000000,0.000000,0.000000,0.000000,0.000000,0.000000,0.000000,0.000000,0.000000,1772722593.371605,0.000000
8.000000,-11482.627569,-16256.535501,3555.581397,-30561.026104,11162.595291,2833.642403,-20662.444313,-27208.420898,4256.599159,-793.308114,6448.724145,1589.097272,8504.414082,8618.519738,-10030.814711,-5216.025438,0.014000,-0.014000,1.004000,192.000000,0.000000,0.000000,0.000000,0.000000,0.000000,0.000000,0.000000,0.000000,0.000000,1772722593.371631,0.000000
10.000000,-11481.711147,-16251.528710,3559.090621,-30556.220479,11172.385356,2842.381935,-20661.885519,-27210.298444,4248.552531,-791.229402,6432.519130,1583.777557,8494.981646,8607.612086,-10051.825351,-5219.959345,0.018000,-0.016000,1.002000,192.000000,0.000000,72.000000,127.500000,64.000000,15.500000,40.000000,0.000000,0.000000,0.000000,1772722593.371658,0.000000
12.000000,-11467.942472,-16234.921364,3574.066290,-30545.201069,11194.602990,2861.693843,-20655.627031,-27202.587092,4260.488362,-776.611361,6446.600729,1599.557888,8516.752245,8629.337982,-10019.504728,-5210.973944,0.018000,-0.016000,1.002000,192.000000,0.000000,0.000000,0.000000,0.000000,0.000000,0.000000,0.000000,0.000000,0.000000,1772722593.371684,0.000000
14.000000,-11471.764621,-16241.112797,3559.492953,-30560.757883,11180.431984,2853.334290,-20670.692107,-27213.986482,4261.650653,-780.031178,6440.409296,1589.209031,8519.233289,8624.599412,-10033.631031,-5212.091531,0.018000,-0.016000,1.002000,192.000000,0.000000,0.000000,0.000000,0.000000,0.000000,0.000000,0.000000,0.000000,0.000000,1772722593.371711,0.000000
16.000000,-11455.693716,-16224.550155,3575.876781,-30545.893973,11197.016978,2870.880410,-20654.710609,-27195.255720,4264.668139,-776.164326,6446.623081,1586.482118,8513.220669,8632.444874,-10036.760275,-5206.548298,0.018000,-0.016000,1.002000,192.000000,0.000000,0.000000,0.000000,0.000000,0.000000,0.000000,0.000000,0.000000,0.000000,1772722593.371737,0.000000
18.000000,-11460.432286,-16230.361608,3562.890418,-30549.425548,11183.002434,2861.671491,-20660.276194,-27200.106049,4273.720595,-765.055509,6463.900979,1602.083636,8521.066132,8649.365145,-10024.064484,-5198.300504,0.018000,-0.016000,1.002000,192.000000,0.000000,0.000000,0.000000,0.000000,0.000000,0.000000,0.000000,0.000000,0.000000,1772722593.371764,0.000000
20.000000,-11472.390470,-16241.336315,3555.469639,-30552.755958,11167.378565,2851.546151,-20665.350040,-27207.549180,4255.056888,-777.483079,6443.650299,1588.426720,8499.831974,8626.566366,-10053.658194,-5204.469586,0.014000,-0.012000,0.998000,192.000000,0.000000,56.000000,127.500000,80.000000,15.500000,24.000000,0.000000,0.000000,0.000000,1772722593.371791,0.000000
22.000000,-11479.766545,-16249.248832,3563.315101,-30547.816223,11169.971367,2854.697747,-20660.365601,-27209.180857,4252.821714,-781.819318,6448.455924,1592.114758,8508.213879,8630.232052,-10030.904118,-5193.941914,0.014000,-0.012000,0.998000,192.000000,0.000000,0.000000,0.000000,0.000000,0.000000,0.000000,0.000000,0.000000,0.000000,1772722593.371817,0.000000
24.000000,-11505.024017,-16277.523789,3547.333604,-30570.167967,11150.190073,2834.134142,-20679.923377,-27237.031130,4236.840217,-802.874661,6428.182891,1568.220743,8494.512259,8607.992066,-10037.743752,-5191.729092,0.014000,-0.012000,0.998000,192.000000,0.000000,0.000000,0.000000,0.000000,0.000000,0.000000,0.000000,0.000000,0.000000,1772722593.371844,0.000000
26.000000,-11499.011397,-16270.930024,3563.158639,-30567.016371,11174.508771,2841.353755,-20671.586176,-27232.717244,4226.223138,-815.682210,6418.348124,1551.769859,8485.415099,8593.776356,-10028.512481,-5192.354940,0.014000,-0.012000,0.998000,192.000000,0.000000,0.000000,0.000000,0.000000,0.000000,0.000000,0.000000,0.000000,0.000000,1772722593.371874,0.000000
28.000000,-11500.307798,-16274.662766,3558.710642,-30577.231118,11171.670100,2838.403325,-20678.805790,-27240.272133,4233.219234,-814.519920,6428.629926,1556.016690,8506.179870,8605.779243,-10007.323028,-5192.712568,0.014000,-0.012000,0.998000,192.000000,0.000000,0.000000,0.000000,0.000000,0.000000,0.000000,0.000000,0.000000,0.000000,1772722593.371900,0.000000
30.000000,-11487.544952,-16264.827998,3564.566799,-30575.308868,11175.067565,2833.620052,-20672.770819,-27227.084604,4234.180359,-821.806588,6422.393790,1547.455972,8493.975817,8586.981426,-10031.507615,-5210.213984,0.011000,-0.010000,0.999000,192.000000,0.000000,32.000000,127.500000,96.000000,15.500000,32.000000,0.000000,0.000000,0.000000,1772722593.371926,0.000000
32.000000,-11471.518752,-16243.795007,3581.352959,-30558.053322,11192.591333,2847.276967,-20655.850548,-27206.208075,4257.157952,-799.700713,6449.372345,1574.523935,8525.894109,8609.199060,-10010.564030,-5212.024476,0.011000,-0.010000,0.999000,192.000000,0.000000,0.000000,0.000000,0.000000,0.000000,0.000000,0.000000,0.000000,0.000000,1772722593.371953,0.000000
34.000000,-11482.828734,-16252.668649,3565.125592,-30566.390522,11168.674966,2838.693898,-20667.607566,-27220.692005,4253.827543,-795.565640,6441.817456,1578.323731,8513.600649,8610.160185,-10032.714609,-5220.629897,0.011000,-0.010000,0.999000,192.000000,0.000000,0.000000,0.000000,0.000000,0.000000,0.000000,0.000000,0.000000,0.000000,1772722593.371970,0.000000
36.000000,-11470.199999,-16237.424760,3578.268418,-30546.385711,11188.545667,2862.252636,-20654.107112,-27206.744517,4253.984005,-789.910649,6439.090543,1582.436452,8513.354780,8617.446854,-10039.733057,-5217.277136,0.011000,-0.010000,0.999000,192.000000,0.000000,0.000000,0.000000,0.000000,0.000000,0.000000,0.000000,0.000000,0.000000,1772722593.371984,0.000000
38.000000,-11465.215560,-16237.357704,3571.406433,-30545.379883,11191.451394,2861.000939,-20658.733923,-27205.962206,4266.210409,-781.931076,6455.474371,1595.176947,8525.558832,8638.524549,-10024.332705,-5205.229545,0.011000,-0.010000,0.999000,192.000000,0.000000,0.000000,0.000000,0.000000,0.000000,0.000000,0.000000,0.000000,0.000000,1772722593.371999,0.000000
40.000000,-11463.226254,-16235.524861,3568.903037,-30544.977551,11195.921742,2860.442145,-20661.304374,-27205.962206,4263.550551,-783.071015,6448.075944,1586.057435,8510.650219,8627.013400,-10042.705839,-5206.905926,0.010500,-0.011000,1.000500,192.000000,0.000000,40.000000,127.500000,80.000000,15.500000,40.000000,0.000000,0.000000,0.000000,1772722593.372011,0.000000
42.000000,-11455.626661,-16220.660951,3572.501668,-30532.080595,11208.349312,2867.415889,-20651.290792,-27198.362613,4269.183191,-765.703710,6455.429668,1607.448054,8528.844539,8646.213549,-10014.073254,-5196.132385,0.010500,-0.011000,1.000500,192.000000,0.000000,0.000000,0.000000,0.000000,0.000000,0.000000,0.000000,0.000000,0.000000,1772722593.372023,0.000000
44.000000,-11470.177647,-16234.206108,3550.686365,-30545.201069,11180.633149,2854.206008,-20665.662964,-27211.326624,4257.157952,-763.803812,6438.263528,1606.397522,8513.801815,8640.983241,-10033.452217,-5198.367560,0.010500,-0.011000,1.000500,192.000000,0.000000,0.000000,0.000000,0.000000,0.000000,0.000000,0.000000,0.000000,0.000000,1772722593.372035,0.000000
46.000000,-11467.964824,-16237.156539,3564.902075,-30540.395443,11189.976178,2866.052433,-20656.319935,-27205.738688,4251.078278,-774.219724,6433.614365,1594.707560,8513.086559,8634.612994,-10037.810807,-5191.058539,0.010500,-0.011000,1.000500,192.000000,0.000000,0.000000,0.000000,0.000000,0.000000,0.000000,0.000000,0.000000,0.000000,1772722593.372047,0.000000
48.000000,-11479.028938,-16253.629774,3557.302482,-30554.030008,11178.956768,2857.581122,-20667.898139,-27221.429613,4255.235702,-785.105024,6443.918519,1587.912630,8513.175966,8633.897738,-10020.309391,-5179.636798,0.010500,-0.011000,1.000500,192.000000,0.000000,0.000000,0.000000,0.000000,0.000000,0.000000,0.000000,0.000000,0.000000,1772722593.372059,0.000000
50.000000,-11483.700452,-16258.122475,3556.453116,-30559.886165,11180.186114,2859.816296,-20672.860226,-27228.135136,4249.312490,-796.660876,6430.283955,1570.165344,8499.742568,8614.675237,-10037.073199,-5179.793260,0.009250,-0.012500,1.003250,192.000000,0.000000,32.000000,127.500000,72.000000,15.500000,56.000000,0.000000,0.000000,0.000000,1772722593.372072,0.000000
52.000000,-11473.351595,-16245.963126,3567.897209,-30552.510089,11185.796402,2864.510162,-20659.315069,-27214.567627,4254.207522,-790.156518,6445.438438,1579.418967,8506.313980,8625.247613,-10015.034379,-5175.300559,0.009250,-0.012500,1.003250,192.000000,0.000000,0.000000,0.000000,0.000000,0.000000,0.000000,0.000000,0.000000,0.000000,1772722593.372084,0.000000
54.000000,-11490.048348,-16266.325565,3552.385098,-30567.642220,11158.281405,2841.353755,-20668.814560,-27231.599657,4243.635147,-799.432492,6437.280051,1570.388862,8496.814489,8612.685932,-10037.229662,-5190.387987,0.009250,-0.012500,1.003250,192.000000,0.000000,0.000000,0.000000,0.000000,0.000000,0.000000,0.000000,0.000000,0.000000,1772722593.372096,0.000000
56.000000,-11480.682967,-16256.021411,3573.172220,-30555.080540,11179.783783,2851.121467,-20652.207214,-27220.624950,4238.427191,-802.718199,6429.367534,1560.487039,8497.932076,8610.763682,-10041.744714,-5198.389911,0.009250,-0.012500,1.003250,192.000000,0.000000,0.000000,0.000000,0.000000,0.000000,0.000000,0.000000,0.000000,0.000000,1772722593.372108,0.000000
58.000000,-11470.512923,-16248.310059,3572.725185,-30557.092197,11179.672024,2842.225473,-20656.319935,-27216.869857,4257.962615,-789.664780,6449.104124,1575.552115,8523.681286,8624.174729,-10022.991600,-5204.626048,0.009250,-0.012500,1.003250,192.000000,0.000000,0.000000,0.000000,0.000000,0.000000,0.000000,0.000000,0.000000,0.000000,1772722593.372122,0.000000
60.000000,-11458.711202,-16235.904841,3573.731014,-30551.727778,11178.889713,2839.275043,-20655.984659,-27205.425764,4263.170572,-781.864021,6448.545331,1578.144917,8518.294515,8617.200985,-10047.332650,-5219.914641,0.011625,-0.012250,1.004625,192.000000,0.000000,56.000000,127.500000,80.000000,15.500000,56.000000,0.000000,0.000000,0.000000,1772722593.372134,0.000000
62.000000,-11445.233100,-16222.314980,3588.125537,-30538.964932,11193.440699,2849.825066,-20643.110054,-27189.913653,4280.984912,-763.937922,6473.378119,1601.971877,8541.629737,8637.809293,-10022.946897,-5215.623106,0.011625,-0.012250,1.004625,192.000000,0.000000,0.000000,0.000000,0.000000,0.000000,0.000000,0.000000,0.000000,0.000000,1772722593.372146,0.000000
64.000000,-11467.406031,-16245.180815,3565.974959,-30557.807452,11174.218199,2835.721116,-20660.432656,-27208.845581,4271.105441,-773.660931,6461.956377,1592.382978,8523.189547,8630.410866,-10037.743752,-5218.640592,0.011625,-0.012250,1.004625,192.000000,0.000000,0.000000,0.000000,0.000000,0.000000,0.000000,0.000000,0.000000,0.000000,1772722593.372158,0.000000
66.000000,-11456.856007,-16232.417969,3584.348093,-30547.168022,11198.961580,2853.669566,-20647.938031,-27192.394697,4261.762412,-777.393672,6456.547255,1585.073958,8511.365475,8629.002706,-10035.486226,-5213.387932,0.011625,-0.012250,1.004625,192.000000,0.000000,0.000000,0.000000,0.000000,0.000000,0.000000,0.000000,0.000000,0.000000,1772722593.372169,0.000000
68.000000,-11461.415763,-16239.525824,3574.870953,-30557.874508,11199.185097,2845.444124,-20658.756275,-27202.274168,4269.183191,-772.968027,6469.779488,1593.746435,8522.898975,8640.066819,-10010.005237,-5205.654228,0.011625,-0.012250,1.004625,192.000000,0.000000,0.000000,0.000000,0.000000,0.000000,0.000000,0.000000,0.000000,0.000000,1772722593.372182,0.000000
70.000000,-11470.535275,-16246.521920,3567.204305,-30562.098987,11207.544650,2848.305148,-20667.093476,-27217.808630,4255.548627,-782.489870,6446.198397,1576.937923,8511.745454,8625.001743,-10024.735036,-5201.943839,0.012813,-0.011125,1.005313,192.000000,0.000000,56.000000,127.500000,88.000000,15.500000,56.000000,0.000000,0.000000,0.000000,1772722593.372194,0.000000
72.000000,-11475.877342,-16246.097236,3572.971055,-30555.013484,11214.719560,2861.336215,-20661.326726,-27221.608427,4256.867380,-776.209030,6442.398601,1583.397577,8526.877585,8640.580909,-9994.761347,-5185.537658,0.012813,-0.011125,1.005313,192.000000,0.000000,0.000000,0.000000,0.000000,0.000000,0.000000,0.000000,0.000000,0.000000,1772722593.372206,0.000000
74.000000,-11491.434156,-16261.922271,3557.727165,-30564.803548,11185.505830,2857.469363,-20672.927281,-27232.560782,4243.679851,-787.139033,6426.774731,1575.105080,8513.846518,8627.862767,-10011.078121,-5177.446327,0.012813,-0.011125,1.005313,192.000000,0.000000,0.000000,0.000000,0.000000,0.000000,0.000000,0.000000,0.000000,0.000000,1772722593.851025,0.000000
76.000000,-11478.358385,-16251.528710,3572.300502,-30544.329351,11194.535934,2880.826936,-20657.079894,-27213.472392,4238.807170,-794.760978,6427.199415,1569.718310,8504.861117,8624.800578,-10022.633972,-5169.265588,0.012813,-0.011125,1.005313,192.000000,0.000000,0.000000,0.000000,0.000000,0.000000,0.000000,0.000000,0.000000,0.000000,1772722593.851113,0.000000
78.000000,-11466.958996,-16244.264393,3570.490011,-30538.830821,11182.354234,2885.431395,-20657.191653,-27207.750345,4255.705089,-783.741568,6454.401488,1585.766862,8516.327562,8647.822875,-10016.554298,-5164.705833,0.012813,-0.011125,1.005313,192.000000,0.000000,0.000000,0.000000,0.000000,0.000000,0.000000,0.000000,0.000000,0.000000,1772722593.851158,0.000000
80.000000,-11459.649975,-16237.245946,3574.021587,-30542.272990,11178.085050,2874.099061,-20656.476397,-27204.822267,4262.544723,-778.041873,6455.586130,1585.766862,8513.891222,8643.821912,-10045.388048,-5178.519211,0.014406,-0.012563,1.004656,192.000000,0.000000,64.000000,127.500000,72.000000,15.500000,48.000000,0.000000,0.000000,0.000000,1772722593.851209,0.000000
82.000000,-11445.881301,-16220.728006,3590.405415,-30537.959103,11196.614647,2865.605398,-20643.802958,-27191.679441,4278.593275,-762.529762,6474.093375,1603.402389,8525.581184,8657.232959,-10020.443502,-5190.723263,0.014406,-0.012563,1.004656,192.000000,0.000000,0.000000,0.000000,0.000000,0.000000,0.000000,0.000000,0.000000,0.000000,1772722593.851250,0.000000
84.000000,-11461.460467,-16237.469463,3574.178049,-30555.482871,11180.454335,2832.591871,-20656.051714,-27205.671633,4277.430985,-767.871829,6466.538485,1597.210955,8530.610327,8642.436104,-10032.692257,-5212.538566,0.014406,-0.012563,1.004656,192.000000,0.000000,0.000000,0.000000,0.000000,0.000000,0.000000,0.000000,0.000000,0.000000,1772722593.851300,0.000000
86.000000,-11460.365231,-16236.821262,3588.974904,-30545.603400,11198.671007,2837.710421,-20642.975943,-27193.959319,4266.232761,-778.243038,6458.849485,1592.293572,8524.083617,8625.448778,-10032.535795,-5219.892290,0.014406,-0.012563,1.004656,192.000000,0.000000,0.000000,0.000000,0.000000,0.000000,0.000000,0.000000,0.000000,0.000000,1772722593.851329,0.000000
88.000000,-11467.607196,-16245.516091,3583.297561,-30554.342932,11192.546629,2829.932014,-20652.050752,-27199.614310,4267.707976,-778.757129,6470.606502,1600.474310,8529.626850,8632.444874,-10016.151967,-5218.551185,0.014406,-0.012563,1.004656,192.000000,0.000000,0.000000,0.000000,0.000000,0.000000,0.000000,0.000000,0.000000,0.000000,1772722593.851341,0.000000
90.000000,-11471.809324,-16250.724048,3578.648398,-30560.601420,11190.713786,2833.038906,-20659.113903,-27209.180857,4262.745889,-792.101120,6460.257645,1584.559868,8517.221632,8614.317610,-10034.368638,-5221.032229,0.016203,-0.013281,1.002328,192.000000,0.000000,72.000000,127.500000,72.000000,15.500000,32.000000,0.000000,0.000000,0.000000,1772722593.851362,0.000000
92.000000,-11473.709223,-16249.628812,3581.531773,-30554.432339,11204.348350,2849.713308,-20655.470569,-27216.378119,4263.237627,-786.647294,6461.017604,1587.420891,8522.943678,8630.343810,-10008.530022,-5208.112920,0.016203,-0.013281,1.002328,192.000000,0.000000,0.000000,0.000000,0.000000,0.000000,0.000000,0.000000,0.000000,0.000000,1772722593.851373,0.000000
94.000000,-11489.914237,-16263.710411,3559.492953,-30570.749112,11193.977141,2839.655023,-20674.737772,-27241.255610,4246.138542,-799.097216,6437.995307,1568.064281,8511.186661,8621.067836,-10016.464891,-5201.429749,0.016203,-0.013281,1.002328,192.000000,0.000000,0.000000,0.000000,0.000000,0.000000,0.000000,0.000000,0.000000,0.000000,1772722593.851384,0.000000
96.000000,-11482.448755,-16255.373210,3571.227619,-30562.344857,11216.462996,2856.821162,-20664.143045,-27228.895095,4245.736211,-795.185661,6430.775694,1565.762051,8503.989399,8620.106711,-10010.429920,-5191.326760,0.016203,-0.013281,1.002328,192.000000,0.000000,0.000000,0.000000,0.000000,0.000000,0.000000,0.000000,0.000000,0.000000,1772722593.851396,0.000000
98.000000,-11488.908409,-16261.899920,3560.632892,-30570.726761,11202.783728,2851.702613,-20669.842740,-27232.493726,4246.093839,-800.863004,6444.074982,1575.797984,8510.672571,8628.689781,-9988.167583,-5181.670807,0.016203,-0.013281,1.002328,192.000000,0.000000,0.000000,0.000000,0.000000,0.000000,0.000000,0.000000,0.000000,0.000000,1772722593.851408,0.000000
100.000000,-11492.887019,-16271.689984,3557.593054,-30571.464368,11206.158841,2859.704537,-20671.854397,-27240.562706,4236.102609,-815.861024,6430.038086,1556.329615,8494.601666,8605.086339,-10008.462966,-5181.581400,0.016203,-0.013281,1.002328,192.000000,0.000000,0.000000,0.000000,0.000000,0.000000,0.000000,0.000000,0.000000,0.000000,1772722593.851419,0.000000
102.000000,-11476.726708,-16254.836768,3575.183877,-30546.609228,11237.183063,2906.754959,-20658.733923,-27231.264380,4247.278481,-807.434417,6440.521054,1564.689167,8514.137091,8632.936613,-9982.356129,-5160.436649,0.014000,-0.016000,1.002000,192.000000,0.000000,56.000000,127.500000,64.000000,15.500000,40.000000,0.000000,0.000000,0.000000,1772722593.851431,0.000000
104.000000,-11467.249568,-16245.404332,3567.740746,-30544.776385,11222.319153,2909.370114,-20666.109999,-27228.492764,4256.487400,-789.865946,6440.453999,1574.859211,8518.540385,8648.895758,-9995.878934,-5145.036297,0.014000,-0.016000,1.002000,192.000000,0.000000,0.000000,0.000000,0.000000,0.000000,0.000000,0.000000,0.000000,0.000000,1772722593.851442,0.000000
106.000000,-11441.410952,-16219.923344,3587.142061,-30529.264275,11223.704961,2899.647105,-20645.680505,-27194.384002,4271.664235,-776.521954,6454.177970,1593.411159,8532.063190,8655.131895,-10009.200574,-5147.405582,0.014000,-0.016000,1.002000,192.000000,0.000000,0.000000,0.000000,0.000000,0.000000,0.000000,0.000000,0.000000,0.000000,1772722593.851454,0.000000
108.000000,-11431.263260,-16215.520050,3585.286866,-30537.668531,11196.122908,2857.625825,-20640.539603,-27180.704734,4292.294895,-765.167268,6483.503459,1616.053476,8546.792990,8659.959872,-10013.022722,-5180.419109,0.014000,-0.016000,1.002000,192.000000,0.000000,0.000000,0.000000,0.000000,0.000000,0.000000,0.000000,0.000000,0.000000,1772722593.851466,0.000000
110.000000,-11432.984344,-16218.001094,3582.984636,-30544.150537,11176.475725,2832.971851,-20634.728150,-27175.161502,4289.679741,-770.911666,6482.676444,1610.174967,8531.794969,8633.718924,-10049.836045,-5213.633801,0.014000,-0.016000,1.002000,192.000000,0.000000,0.000000,0.000000,0.000000,0.000000,0.000000,0.000000,0.000000,0.000000,1772722593.851484,0.000000
112.000000,-11436.515920,-16224.885431,3590.539526,-30545.044606,11184.678815,2825.729886,-20630.078987,-27176.256737,4290.707921,-774.599704,6495.327532,1615.964069,8534.030144,8635.797636,-10030.077103,-5218.551185,0.008000,-0.020000,1.002000,192.000000,0.000000,32.000000,127.500000,48.000000,15.500000,40.000000,0.000000,0.000000,0.000000,1772722593.851496,0.000000
114.000000,-11460.208769,-16245.449036,3572.121688,-30560.534365,11170.731326,2811.603583,-20651.670772,-27201.648319,4279.621456,-794.001018,6475.814459,1597.054493,8521.312001,8612.842394,-10041.677659,-5225.077894,0.008000,-0.020000,1.002000,192.000000,0.000000,0.000000,0.000000,0.000000,0.000000,0.000000,0.000000,0.000000,0.000000,1772722593.851508,0.000000
116.000000,-11457.884187,-16240.665763,3583.811651,-30552.018351,11191.429042,2829.462627,-20645.591098,-27199.614310,4265.137525,-795.319771,6460.995252,1590.483080,8513.175966,8610.495461,-10039.554243,-5222.663906,0.008000,-0.020000,1.002000,192.000000,0.000000,0.000000,0.000000,0.000000,0.000000,0.000000,0.000000,0.000000,0.000000,1772722593.851519,0.000000
118.000000,-11461.862798,-16248.421818,3573.708662,-30561.137862,11187.092803,2827.450970,-20654.822368,-27206.722165,4268.870267,-796.146786,6463.856276,1594.081711,8527.212861,8624.465302,-10021.292868,-5217.701819,0.008000,-0.020000,1.002000,192.000000,0.000000,0.000000,0.000000,0.000000,0.000000,0.000000,0.000000,0.000000,0.000000,1772722593.851530,0.000000
120.000000,-11464.857932,-16251.796931,3564.656206,-30567.999848,11183.471821,2827.786246,-20661.416133,-27208.286787,4263.103516,-800.818300,6450.758153,1582.190583,8508.727969,8610.160185,-10042.728191,-5218.238261,0.008000,-0.020000,1.002000,192.000000,0.000000,0.000000,0.000000,0.000000,0.000000,0.000000,0.000000,0.000000,0.000000,1772722593.851542,0.000000
122.000000,-11464.433249,-16252.311021,3573.596904,-30560.623772,11200.034463,2842.448991,-20652.676601,-27204.554046,4263.841124,-801.846481,6464.750345,1587.890278,8523.837748,8620.106711,-10013.737978,-5205.095435,0.012000,-0.018000,1.002000,192.000000,0.000000,48.000000,127.500000,56.000000,15.500000,40.000000,0.000000,0.000000,0.000000,1772722593.851555,0.000000
124.000000,-11491.925894,-16280.921254,3549.412316,-30581.142674,11185.461126,2830.557863,-20677.017650,-27239.355712,4250.899464,-823.013583,6444.991403,1567.751356,8504.347027,8603.409958,-10018.655362,-5200.826252,0.012000,-0.018000,1.002000,192.000000,0.000000,0.000000,0.000000,0.000000,0.000000,0.000000,0.000000,0.000000,0.000000,1772722593.851566,0.000000
126.000000,-11493.579923,-16282.977615,3556.609578,-30566.479929,11218.161728,2867.035910,-20675.765953,-27243.848412,4242.294042,-833.675365,6424.941888,1549.892312,8499.831974,8595.028054,-10014.296772,-5188.890420,0.012000,-0.018000,1.002000,192.000000,0.000000,0.000000,0.000000,0.000000,0.000000,0.000000,0.000000,0.000000,0.000000,1772722593.851578,0.000000
128.000000,-11501.537144,-16286.978577,3543.220883,-30567.195185,11225.157824,2885.654913,-20684.393726,-27252.029151,4243.612795,-825.606385,6426.372400,1558.162458,8516.506376,8622.833624,-9987.631141,-5161.263664,0.012000,-0.018000,1.002000,192.000000,0.000000,0.000000,0.000000,0.000000,0.000000,0.000000,0.000000,0.000000,0.000000,1772722593.851589,0.000000
130.000000,-11491.054176,-16271.801743,3543.265586,-30561.137862,11230.030504,2899.155366,-20681.018613,-27238.640456,4229.754714,-823.818245,6411.821414,1552.976853,8501.173079,8615.055217,-10008.798243,-5149.953681,0.012000,-0.018000,1.002000,192.000000,0.000000,0.000000,0.000000,0.000000,0.000000,0.000000,0.000000,0.000000,0.000000,1772722593.851600,0.000000
132.000000,-11462.443943,-16242.655068,3568.388947,-30540.127223,11239.440589,2915.561547,-20658.510406,-27205.828095,4251.525313,-800.192451,6441.973918,1582.525859,8518.853309,8645.855921,-9990.827440,-5146.466809,0.006000,-0.016000,0.998000,192.000000,0.000000,24.000000,127.500000,64.000000,15.500000,24.000000,0.000000,0.000000,0.000000,1772722593.851611,0.000000
134.000000,-11462.198074,-16247.751265,3557.950682,-30549.246734,11195.653521,2872.668549,-20663.405438,-27206.900979,4263.572903,-789.776539,6452.859217,1597.948563,8518.205108,8642.100828,-10018.968286,-5171.232542,0.006000,-0.016000,0.998000,192.000000,0.000000,0.000000,0.000000,0.000000,0.000000,0.000000,0.000000,0.000000,0.000000,1772722593.851623,0.000000
136.000000,-11445.657783,-16235.122530,3578.447232,-30537.601475,11188.322149,2851.724965,-20640.986638,-27179.989479,4268.043252,-790.581201,6460.458810,1606.174005,8512.058379,8628.622726,-10044.158702,-5202.837909,0.006000,-0.016000,0.998000,192.000000,0.000000,0.000000,0.000000,0.000000,0.000000,0.000000,0.000000,0.000000,0.000000,1772722593.851635,0.000000
138.000000,-11453.592653,-16242.878585,3575.563857,-30550.453728,11165.501018,2818.174996,-20642.663019,-27178.871891,4276.872191,-787.183736,6482.922314,1621.417895,8519.657972,8628.958002,-10038.548415,-5225.301412,0.006000,-0.016000,0.998000,192.000000,0.000000,0.000000,0.000000,0.000000,0.000000,0.000000,0.000000,0.000000,0.000000,1772722593.851646,0.000000
140.000000,-11464.343842,-16255.037934,3568.411299,-30564.758845,11156.247396,2800.517118,-20650.195557,-27191.992365,4256.219179,-806.652106,6464.660938,1599.826109,8498.423815,8600.526583,-10069.863209,-5246.289700,0.006000,-0.016000,0.998000,192.000000,0.000000,0.000000,0.000000,0.000000,0.000000,0.000000,0.000000,0.000000,0.000000,1772722593.851657,0.000000
142.000000,-11466.690775,-16258.345992,3577.821383,-30560.310848,11170.932492,2814.978697,-20645.434635,-27195.501589,4257.739098,-810.340143,6467.924293,1597.814452,8511.656047,8613.445892,-10046.080952,-5240.701764,0.010000,-0.014000,1.002000,192.000000,0.000000,40.000000,127.500000,72.000000,15.500000,40.000000,0.000000,0.000000,0.000000,1772722593.851668,0.000000
144.000000,-11479.654787,-16270.862969,3560.521133,-30576.515863,11157.744963,2805.814481,-20667.406400,-27219.708528,4253.112287,-817.626812,6451.339299,1583.866964,8500.793099,8603.342903,-10051.981813,-5238.779514,0.010000,-0.014000,1.002000,192.000000,0.000000,0.000000,0.000000,0.000000,0.000000,0.000000,0.000000,0.000000,0.000000,1772722593.851680,0.000000
146.000000,-11477.374909,-16264.827998,3568.008967,-30566.703447,11172.139486,2826.132217,-20661.550243,-27214.858200,4248.418420,-814.274051,6442.555063,1579.508374,8492.634713,8601.554764,-10052.518255,-5226.441351,0.010000,-0.014000,1.002000,192.000000,0.000000,0.000000,0.000000,0.000000,0.000000,0.000000,0.000000,0.000000,0.000000,1772722593.851691,0.000000
148.000000,-11488.819002,-16275.020394,3553.234464,-30575.040647,11167.847951,2825.662831,-20671.787342,-27226.168183,4250.385374,-816.039838,6449.439400,1584.649275,8504.324675,8611.680104,-10032.334630,-5214.304354,0.010000,-0.014000,1.002000,192.000000,0.000000,0.000000,0.000000,0.000000,0.000000,0.000000,0.000000,0.000000,0.000000,1772722593.851702,0.000000
150.000000,-11501.335979,-16289.571379,3543.511455,-30582.193206,11165.679832,2826.959232,-20680.191598,-27240.294485,4235.476760,-829.093257,6430.060438,1562.588103,8478.709576,8594.715130,-10054.664022,-5217.590060,0.010000,-0.014000,1.002000,192.000000,0.000000,0.000000,0.000000,0.000000,0.000000,0.000000,0.000000,0.000000,0.000000,1772722593.851713,0.000000
152.000000,-11503.504098,-16293.795859,3552.228636,-30572.537252,11191.987835,2852.797848,-20672.703764,-27246.754139,4236.951975,-832.982461,6435.134284,1557.469554,8492.902934,8607.589735,-10024.109188,-5201.630914,0.012000,-0.014000,1.002000,192.000000,0.000000,48.000000,127.500000,72.000000,15.500000,40.000000,0.000000,0.000000,0.000000,1772722593.851725,0.000000
154.000000,-11513.651790,-16305.552877,3535.777752,-30581.120322,11183.158896,2847.656947,-20686.248921,-27266.982468,4234.336821,-838.324528,6418.526938,1543.477362,8490.891277,8602.828813,-10027.238432,-5198.904002,0.012000,-0.014000,1.002000,192.000000,0.000000,0.000000,0.000000,0.000000,0.000000,0.000000,0.000000,0.000000,0.000000,1772722593.851738,0.000000
156.000000,-11508.466185,-16291.627740,3549.255854,-30558.813281,11201.889658,2870.634540,-20672.413191,-27249.972790,4225.619641,-833.138923,6410.346199,1546.494847,8486.532687,8606.807423,-10029.495958,-5191.460871,0.012000,-0.014000,1.002000,192.000000,0.000000,0.000000,0.000000,0.000000,0.000000,0.000000,0.000000,0.000000,0.000000,1772722593.851749,0.000000
158.000000,-11496.172726,-16282.061193,3549.501723,-30560.869641,11193.217181,2872.735604,-20673.061391,-27239.176898,4241.221159,-817.671516,6434.329621,1570.120641,8501.910687,8631.774322,-10012.955667,-5184.040092,0.012000,-0.014000,1.002000,192.000000,0.000000,0.000000,0.000000,0.000000,0.000000,0.000000,0.000000,0.000000,0.000000,1772722593.851760,0.000000
160.000000,-11489.176630,-16275.199208,3551.155752,-30566.189357,11190.311455,2872.914418,-20674.961290,-27235.220639,4244.976252,-820.085504,6433.971993,1565.113850,8494.512259,8611.814214,-10043.264633,-5187.996350,0.012000,-0.014000,1.002000,192.000000,0.000000,0.000000,0.000000,0.000000,0.000000,0.000000,0.000000,0.000000,0.000000,1772722593.851772,0.000000
162.000000,-11475.229141,-16258.323641,3568.008967,-30555.572278,11205.175365,2876.200125,-20661.214967,-27221.429613,4260.421307,-800.035989,6451.696927,1584.425757,8510.069073,8632.333116,-10022.902193,-5184.822403,0.006000,-0.016000,1.002000,192.000000,0.000000,24.000000,127.500000,64.000000,15.500000,40.000000,0.000000,0.000000,0.000000,1772722593.851784,0.000000
164.000000,-11486.852048,-16272.315833,3551.915711,-30572.671362,11176.788649,2848.036927,-20673.419019,-27234.661846,4255.906255,-809.222556,6439.828150,1576.937923,8505.084634,8620.799615,-10043.398743,-5196.422958,0.006000,-0.016000,1.002000,192.000000,0.000000,0.000000,0.000000,0.000000,0.000000,0.000000,0.000000,0.000000,0.000000,1772722593.851795,0.000000
166.000000,-11473.441002,-16263.173969,3569.171258,-30558.902688,11182.935379,2845.757049,-20653.056580,-27208.376194,4256.777973,-811.502434,6441.593938,1578.591952,8498.356759,8610.204889,-10056.429810,-5208.224679,0.006000,-0.016000,1.002000,192.000000,0.000000,0.000000,0.000000,0.000000,0.000000,0.000000,0.000000,0.000000,0.000000,1772722593.851806,0.000000
168.000000,-11479.610083,-16267.420801,3562.175162,-30563.909479,11166.104515,2826.154569,-20656.834025,-27208.510305,4262.276502,-807.769693,6460.771735,1595.959258,8506.179870,8615.256383,-10042.147045,-5214.170243,0.006000,-0.016000,1.002000,192.000000,0.000000,0.000000,0.000000,0.000000,0.000000,0.000000,0.000000,0.000000,0.000000,1772722593.851818,0.000000
170.000000,-11494.943380,-16275.780353,3548.674708,-30574.459502,11156.314451,2814.732828,-20666.288813,-27222.681310,4242.919891,-821.180740,6440.968089,1581.341217,8488.231419,8591.742348,-10069.483229,-5227.402476,0.006000,-0.016000,1.002000,192.000000,0.000000,0.000000,0.000000,0.000000,0.000000,0.000000,0.000000,0.000000,0.000000,1772722593.851829,0.000000
172.000000,-11493.266999,-16273.344013,3551.580435,-30571.911403,11167.624434,2823.606470,-20662.868996,-27229.096261,4236.482589,-821.158388,6439.179950,1579.530725,8496.680379,8597.464394,-10045.924490,-5219.735827,0.010000,-0.016000,1.000000,192.000000,0.000000,40.000000,127.500000,64.000000,15.500000,32.000000,0.000000,0.000000,0.000000,1772722593.851840,0.000000
174.000000,-11517.384531,-16301.104880,3525.674763,-30597.057116,11150.771219,2804.160452,-20685.712479,-27262.221546,4226.357249,-833.340089,6416.358819,1557.290740,8478.664872,8588.858973,-10057.055659,-5220.294621,0.010000,-0.016000,1.000000,192.000000,0.000000,0.000000,0.000000,0.000000,0.000000,0.000000,0.000000,0.000000,0.000000,1772722593.851851,0.000000
176.000000,-11509.248496,-16296.701586,3539.286976,-30588.406991,11182.398937,2822.421828,-20678.157589,-27255.091340,4218.109455,-840.872626,6401.561964,1538.962309,8473.769840,8577.928970,-10056.653328,-5214.147891,0.010000,-0.016000,1.000000,192.000000,0.000000,0.000000,0.000000,0.000000,0.000000,0.000000,0.000000,0.000000,0.000000,1772722593.851862,0.000000
178.000000,-11499.950171,-16290.085469,3545.120781,-30585.188339,11188.568019,2828.546206,-20678.470514,-27247.424692,4230.872301,-841.118496,6420.113912,1549.445277,8500.726044,8592.815231,-10027.484301,-5202.793205,0.010000,-0.016000,1.000000,192.000000,0.000000,0.000000,0.000000,0.000000,0.000000,0.000000,0.000000,0.000000,0.000000,1772722593.851874,0.000000
180.000000,-11501.872421,-16286.397432,3546.014851,-30579.555700,11184.500001,2831.898967,-20678.224644,-27244.295447,4232.302813,-832.200150,6419.175138,1551.725155,8480.922399,8588.143717,-10044.315165,-5208.112920,0.010000,-0.016000,1.000000,192.000000,0.000000,0.000000,0.000000,0.000000,0.000000,0.000000,0.000000,0.000000,0.000000,1772722593.851885,0.000000
182.000000,-11496.284484,-16282.016490,3565.304406,-30565.161176,11206.874097,2854.429526,-20665.037115,-27233.656017,4239.567130,-814.385809,6435.827188,1569.651254,8498.893201,8610.964848,-10022.969249,-5209.878708,0.011000,-0.016000,1.001000,192.000000,0.000000,48.000000,127.500000,64.000000,15.500000,40.000000,0.000000,0.000000,0.000000,1772722593.851898,0.000000
184.000000,-11512.243630,-16295.092260,3553.122706,-30579.689810,11187.025748,2835.676412,-20679.431639,-27246.865898,4234.359173,-818.833806,6430.753342,1565.851458,8493.171155,8609.400226,-10032.222871,-5215.086665,0.011000,-0.016000,1.001000,192.000000,0.000000,0.000000,0.000000,0.000000,0.000000,0.000000,0.000000,0.000000,0.000000,1772722593.851910,0.000000
186.000000,-11493.155240,-16276.674423,3575.362691,-30567.709275,11200.794423,2850.294453,-20667.696973,-27222.435441,4228.771237,-814.788141,6431.356839,1567.170211,8490.421890,8605.376912,-10040.135388,-5215.176072,0.011000,-0.016000,1.001000,192.000000,0.000000,0.000000,0.000000,0.000000,0.000000,0.000000,0.000000,0.000000,0.000000,1772722593.851926,0.000000
188.000000,-11486.762641,-16277.993176,3578.916619,-30574.705371,11198.514545,2843.141895,-20672.077915,-27218.076851,4250.966519,-819.392600,6461.151714,1580.156574,8511.723103,8610.808386,-10019.951763,-5212.024476,0.011000,-0.016000,1.001000,192.000000,0.000000,0.000000,0.000000,0.000000,0.000000,0.000000,0.000000,0.000000,0.000000,1772722593.851938,0.000000
190.000000,-11497.223258,-16291.650092,3570.042976,-30586.484741,11185.684643,2831.340174,-20680.996261,-27232.203154,4246.295005,-831.931929,6447.852427,1562.252827,8490.332483,8590.714167,-10046.393877,-5222.552147,0.011000,-0.016000,1.001000,192.000000,0.000000,0.000000,0.000000,0.000000,0.000000,0.000000,0.000000,0.000000,0.000000,1772722593.851949,0.000000
192.000000,-11503.168822,-16287.380908,3573.015758,-30575.465331,11188.858591,2834.692935,-20668.993374,-27230.929104,4240.528255,-824.891129,6444.365554,1568.488964,8497.730911,8599.207830,-10029.317144,-5214.438464,0.008500,-0.017000,1.002500,192.000000,0.000000,24.000000,127.500000,56.000000,15.500000,48.000000,0.000000,0.000000,0.000000,1772722593.851960,0.000000
194.000000,-11525.118235,-16310.336150,3545.523112,-30587.937604,11150.771219,2801.142967,-20684.013746,-27251.671523,4214.823748,-835.128228,6420.292726,1563.102193,8473.613378,8586.467336,-10046.125656,-5220.540490,0.008500,-0.017000,1.002500,192.000000,0.000000,0.000000,0.000000,0.000000,0.000000,0.000000,0.000000,0.000000,0.000000,1772722594.332894,0.000000
196.000000,-11509.829642,-16294.041728,3556.967206,-30572.157272,11158.102591,2809.480168,-20671.027383,-27232.963113,4212.610926,-840.559702,6414.973010,1559.816487,8460.671718,8571.066984,-10059.514351,-5225.212005,0.008500,-0.017000,1.002500,192.000000,0.000000,0.000000,0.000000,0.000000,0.000000,0.000000,0.000000,0.000000,0.000000,1772722594.332966,0.000000
198.000000,-11501.313627,-16289.861952,3556.542522,-30577.856967,11159.197826,2813.056447,-20674.156627,-27229.588000,4226.200786,-822.924176,6437.771790,1581.430624,8478.486059,8594.983351,-10040.247147,-5218.014743,0.008500,-0.017000,1.002500,192.000000,0.000000,0.000000,0.000000,0.000000,0.000000,0.000000,0.000000,0.000000,0.000000,1772722594.333025,0.000000
200.000000,-11499.436080,-16290.577208,3551.021642,-30588.608156,11164.271672,2816.386857,-20681.309185,-27238.863973,4230.380563,-830.188493,6428.317002,1564.867981,8476.362643,8583.516906,-10056.809790,-5217.388894,0.008500,-0.017000,1.002500,192.000000,0.000000,0.000000,0.000000,0.000000,0.000000,0.000000,0.000000,0.000000,0.000000,1772722594.333078,0.000000
202.000000,-11484.907446,-16271.757039,3560.632892,-30578.214595,11192.747795,2838.939767,-20667.316993,-27228.783337,4240.640013,-816.062190,6438.732915,1570.634731,8495.316922,8603.856993,-10030.322973,-5210.549260,0.010250,-0.017500,1.004250,192.000000,0.000000,48.000000,127.500000,56.000000,15.500000,56.000000,0.000000,0.000000,0.000000,1772722594.333141,0.000000
204.000000,-11485.935627,-16278.775487,3541.812723,-30591.245662,11181.840143,2828.657964,-20679.297528,-27242.216735,4244.685679,-815.615155,6434.374325,1565.426775,8503.497661,8606.181575,-10038.950746,-5216.941859,0.010250,-0.017500,1.004250,192.000000,0.000000,0.000000,0.000000,0.000000,0.000000,0.000000,0.000000,0.000000,0.000000,1772722594.333175,0.000000
206.000000,-11481.532333,-16271.108838,3552.541560,-30575.733551,11197.195792,2847.902816,-20668.568691,-27231.242029,4252.106458,-811.368324,6431.245080,1565.829106,8492.791175,8604.259325,-10047.980851,-5222.283926,0.010250,-0.017500,1.004250,192.000000,0.000000,0.000000,0.000000,0.000000,0.000000,0.000000,0.000000,0.000000,0.000000,1772722594.333199,0.000000
208.000000,-11484.460412,-16269.320699,3550.038165,-30571.397313,11195.117080,2850.473267,-20670.557996,-27230.683235,4252.441734,-798.896050,6443.672650,1586.213897,8501.173079,8625.314668,-10031.060580,-5216.852452,0.010250,-0.017500,1.004250,192.000000,0.000000,0.000000,0.000000,0.000000,0.000000,0.000000,0.000000,0.000000,0.000000,1772722594.333223,0.000000
210.000000,-11488.059042,-16273.813400,3544.986671,-30575.487682,11193.217181,2848.707479,-20677.509389,-27234.594790,4250.541836,-803.925193,6435.581319,1578.279028,8483.939884,8612.350656,-10053.702897,-5218.417074,0.010250,-0.017500,1.004250,192.000000,0.000000,0.000000,0.000000,0.000000,0.000000,0.000000,0.000000,0.000000,0.000000,1772722594.333246,0.000000
212.000000,-11484.885095,-16269.700679,3559.112973,-30566.167005,11209.668065,2863.213761,-20669.038077,-27232.024340,4252.955824,-801.108873,6447.561854,1583.710502,8497.194469,8624.174729,-10026.299659,-5206.861223,0.011125,-0.016750,1.003125,192.000000,0.000000,48.000000,127.500000,64.000000,15.500000,40.000000,0.000000,0.000000,0.000000,1772722594.333270,0.000000
214.000000,-11519.060912,-16305.888153,3539.108162,-30588.004659,11179.917893,2841.353755,-20693.624996,-27269.284698,4237.644880,-821.560719,6426.662973,1562.498696,8490.444242,8602.225316,-10033.921603,-5207.196499,0.011125,-0.016750,1.003125,192.000000,0.000000,0.000000,0.000000,0.000000,0.000000,0.000000,0.000000,0.000000,0.000000,1772722594.333293,0.000000
216.000000,-11531.689648,-16313.934781,3546.216017,-30578.125188,11183.628283,2842.024307,-20687.746488,-27268.748256,4203.849042,-842.437249,6397.628057,1542.315071,8462.459858,8576.498458,-10041.968231,-5203.374350,0.011125,-0.016750,1.003125,192.000000,0.000000,0.000000,0.000000,0.000000,0.000000,0.000000,0.000000,0.000000,0.000000,1772722594.333316,0.000000
218.000000,-11540.250366,-16325.267115,3531.776790,-30581.612060,11166.059812,2827.920357,-20693.759107,-27275.833759,4205.391312,-846.192342,6405.138243,1547.187751,8465.142067,8582.086394,-10027.886632,-5197.473490,0.011125,-0.016750,1.003125,192.000000,0.000000,0.000000,0.000000,0.000000,0.000000,0.000000,0.000000,0.000000,0.000000,1772722594.333350,0.000000
220.000000,-11547.380572,-16330.005685,3518.991592,-30580.315659,11145.742076,2817.951479,-20695.815467,-27277.554843,4191.667341,-857.725842,6388.821469,1532.703821,8442.835026,8562.573321,-10066.152819,-5198.836946,0.011125,-0.016750,1.003125,192.000000,0.000000,0.000000,0.000000,0.000000,0.000000,0.000000,0.000000,0.000000,0.000000,1772722594.333373,0.000000
222.000000,-11523.195985,-16306.849278,3538.258796,-30568.156310,11162.595291,2831.362525,-20678.984604,-27249.056369,4207.067693,-849.701565,6408.803929,1551.434583,8452.334518,8578.554818,-10051.534778,-5195.014798,0.013562,-0.018375,1.003562,192.000000,0.000000,64.000000,127.500000,48.000000,15.500000,48.000000,0.000000,0.000000,0.000000,1772722594.333396,0.000000
224.000000,-11515.596392,-16297.439193,3534.526054,-30588.585805,11148.334878,2813.257612,-20687.657081,-27241.903811,4221.864548,-841.006737,6422.013810,1565.516182,8459.218855,8580.074737,-10057.435639,-5205.430711,0.013562,-0.018375,1.003562,192.000000,0.000000,0.000000,0.000000,0.000000,0.000000,0.000000,0.000000,0.000000,0.000000,1772722594.333420,0.000000
226.000000,-11496.083319,-16275.825057,3560.074098,-30579.086313,11166.596254,2825.953403,-20668.009897,-27219.306197,4224.859682,-833.764772,6427.735857,1572.914609,8466.393765,8578.398356,-10059.201426,-5220.227566,0.013562,-0.018375,1.003562,192.000000,0.000000,0.000000,0.000000,0.000000,0.000000,0.000000,0.000000,0.000000,0.000000,1772722594.333444,0.000000
228.000000,-11487.969635,-16268.717202,3563.605674,-30581.656764,11168.473800,2825.014630,-20670.468589,-27217.160430,4244.417458,-815.570452,6447.494799,1594.439339,8488.544344,8603.074682,-10034.748618,-5223.893252,0.013562,-0.018375,1.003562,192.000000,0.000000,0.000000,0.000000,0.000000,0.000000,0.000000,0.000000,0.000000,0.000000,1772722594.333467,0.000000
230.000000,-11484.102784,-16266.727897,3563.091584,-30580.248604,11168.518504,2826.646307,-20672.949633,-27217.428651,4243.657499,-815.615155,6437.548272,1584.135185,8487.672626,8591.317665,-10056.854493,-5236.142008,0.013562,-0.018375,1.003562,192.000000,0.000000,0.000000,0.000000,0.000000,0.000000,0.000000,0.000000,0.000000,0.000000,1772722594.333490,0.000000
232.000000,-11463.561531,-16243.727951,3579.788337,-30554.365284,11190.110289,2846.360546,-20656.163473,-27196.239197,4265.204580,-794.693922,6461.285825,1603.961182,8509.733797,8616.217508,-10033.251051,-5226.597813,0.013781,-0.019188,1.003781,192.000000,0.000000,56.000000,127.500000,48.000000,15.500000,48.000000,0.000000,0.000000,0.000000,1772722594.333513,0.000000
234.000000,-11472.189304,-16252.042800,3557.391889,-30559.461482,11179.604969,2842.583101,-20672.144970,-27213.293578,4266.121002,-785.574411,6457.776601,1604.095293,8505.263448,8628.578023,-10042.683487,-5222.149816,0.013781,-0.019188,1.003781,192.000000,0.000000,0.000000,0.000000,0.000000,0.000000,0.000000,0.000000,0.000000,0.000000,1772722594.333537,0.000000
236.000000,-11471.541103,-16250.791103,3561.549313,-30552.286572,11200.190926,2861.000939,-20666.937013,-27217.026319,4260.063679,-781.975780,6446.064287,1594.618153,8499.340236,8629.293278,-10046.572691,-5219.668772,0.013781,-0.019188,1.003781,192.000000,0.000000,0.000000,0.000000,0.000000,0.000000,0.000000,0.000000,0.000000,0.000000,1772722594.333560,0.000000
238.000000,-11486.516772,-16267.554911,3548.741764,-30568.670400,11193.328940,2851.792020,-20678.001127,-27233.208982,4257.537932,-784.278009,6449.394697,1596.652162,8503.475309,8638.971584,-10028.735999,-5212.896194,0.013781,-0.019188,1.003781,192.000000,0.000000,0.000000,0.000000,0.000000,0.000000,0.000000,0.000000,0.000000,0.000000,1772722594.333583,0.000000
240.000000,-11510.321380,-16295.293426,3537.878816,-30589.524578,11182.711861,2831.183711,-20688.081764,-27253.392607,4233.085124,-810.988344,6423.936060,1565.985568,8482.710538,8603.477014,-10051.154798,-5214.639630,0.013781,-0.019188,1.003781,192.000000,0.000000,0.000000,0.000000,0.000000,0.000000,0.000000,0.000000,0.000000,0.000000,1772722594.333606,0.000000
242.000000,-11510.366083,-16292.678272,3550.440496,-30584.271918,11194.223010,2833.396534,-20678.649328,-27246.530622,4228.570071,-828.601519,6426.484159,1556.843705,8480.453012,8593.754005,-10030.725304,-5206.436539,0.012891,-0.016594,1.000891,192.000000,0.000000,48.000000,127.500000,72.000000,15.500000,24.000000,0.000000,0.000000,0.000000,1772722594.333629,0.000000
244.000000,-11520.938459,-16303.094185,3539.622252,-30600.052249,11173.122963,2815.761008,-20692.641520,-27254.599602,4217.438903,-834.122400,6420.248022,1551.591045,8471.266445,8583.986292,-10043.935185,-5211.577441,0.012891,-0.016594,1.000891,192.000000,0.000000,0.000000,0.000000,0.000000,0.000000,0.000000,0.000000,0.000000,0.000000,1772722594.333652,0.000000
246.000000,-11500.352502,-16282.821153,3566.354938,-30587.065886,11187.875114,2826.847473,-20675.765953,-27227.665750,4224.725571,-827.930966,6428.853444,1556.396670,8474.775669,8581.773470,-10054.149932,-5217.768874,0.012891,-0.016594,1.000891,192.000000,0.000000,0.000000,0.000000,0.000000,0.000000,0.000000,0.000000,0.000000,0.000000,1772722594.333675,0.000000
248.000000,-11494.496345,-16280.004833,3575.049767,-30584.316621,11177.973292,2822.086551,-20669.932147,-27220.669653,4243.054002,-816.308059,6454.446191,1580.469499,8492.232381,8596.436214,-10038.324897,-5225.524929,0.012891,-0.016594,1.000891,192.000000,0.000000,0.000000,0.000000,0.000000,0.000000,0.000000,0.000000,0.000000,0.000000,1772722594.333698,0.000000
250.000000,-11496.999740,-16282.396469,3571.451136,-30588.317584,11156.895597,2806.149758,-20673.016688,-27224.447098,4238.538949,-818.878510,6443.717354,1575.082728,8479.760108,8581.035862,-10068.812677,-5241.931110,0.012891,-0.016594,1.000891,192.000000,0.000000,0.000000,0.000000,0.000000,0.000000,0.000000,0.000000,0.000000,0.000000,1772722594.333725,0.000000
252.000000,-11480.168877,-16264.537426,3583.744595,-30572.067865,11164.092858,2816.409208,-20658.868034,-27204.039956,4246.630281,-809.356667,6458.156581,1590.483080,8494.288742,8600.571287,-10055.312223,-5243.160456,0.012891,-0.016594,1.000891,192.000000,0.000000,0.000000,0.000000,0.000000,0.000000,0.000000,0.000000,0.000000,0.000000,1772722594.333749,0.000000
254.000000,-11484.482763,-16272.069963,3559.872932,-30583.534310,11147.977251,2803.646362,-20673.754296,-27213.360633,4251.190037,-808.283783,6461.643453,1590.907763,8490.377187,8594.603371,-10064.543493,-5246.937900,0.008000,-0.016000,0.998000,192.000000,0.000000,32.000000,127.500000,64.000000,15.500000,24.000000,0.000000,0.000000,0.000000,1772722594.333772,0.000000
0.000000,-11469.752964,-16255.797894,3567.494877,-30566.904612,11174.486419,2829.708496,-20659.605641,-27200.731897,4252.709955,-801.019466,6458.894188,1589.052569,8491.852402,8598.403168,-10069.080897,-5244.836836,0.008000,-0.016000,0.998000,192.000000,0.000000,0.000000,0.000000,0.000000,0.000000,0.000000,0.000000,0.000000,0.000000,1772722594.333796,0.000000
2.000000,-11475.452659,-16259.061248,3554.329700,-30568.201014,11180.074356,2835.072915,-20666.199406,-27211.058403,4261.404784,-790.983533,6467.812534,1600.206089,8514.427664,8625.381723,-10040.493016,-5231.403438,0.008000,-0.016000,0.998000,192.000000,0.000000,0.000000,0.000000,0.000000,0.000000,0.000000,0.000000,0.000000,0.000000,1772722594.333820,0.000000
4.000000,-11494.652807,-16275.243911,3536.805932,-30578.393409,11170.686623,2831.496636,-20679.945729,-27233.432500,4244.640976,-800.572431,6437.749438,1579.374263,8492.835878,8609.221412,-10063.962348,-5227.916566,0.008000,-0.016000,0.998000,192.000000,0.000000,0.000000,0.000000,0.000000,0.000000,0.000000,0.000000,0.000000,0.000000,1772722594.333833,0.000000
6.000000,-11487.768470,-16267.443152,3550.306386,-30567.865737,11191.406690,2853.535456,-20670.334479,-27230.750290,4244.171589,-797.018504,6437.034182,1580.737720,8494.422852,8624.197081,-10037.631993,-5215.377237,0.008000,-0.016000,0.998000,192.000000,0.000000,0.000000,0.000000,0.000000,0.000000,0.000000,0.000000,0.000000,0.000000,1772722594.333844,0.000000
8.000000,-11506.029845,-16286.285673,3530.413333,-30586.820017,11179.627321,2839.297395,-20689.959310,-27255.404264,4234.202711,-800.907707,6422.527900,1572.489926,8483.761070,8621.403113,-10039.062505,-5211.443330,0.008000,-0.014000,1.000000,192.000000,0.000000,32.000000,127.500000,72.000000,15.500000,32.000000,0.000000,0.000000,0.000000,1772722594.333856,0.000000
10.000000,-11509.941400,-16290.264283,3536.425952,-30585.322450,11193.127774,2855.748279,-20686.204217,-27257.974715,4220.791664,-815.704562,6404.087711,1551.389879,8473.903951,8605.533374,-10042.795246,-5204.715455,0.008000,-0.014000,1.000000,192.000000,0.000000,0.000000,0.000000,0.000000,0.000000,0.000000,0.000000,0.000000,0.000000,1772722594.333868,0.000000
12.000000,-11510.343732,-16291.851257,3534.660165,-30590.061020,11201.196754,2858.162267,-20693.423831,-27266.043695,4226.312545,-814.586975,6410.882641,1554.809696,8488.901971,8618.832662,-10015.012028,-5193.450176,0.008000,-0.014000,1.000000,192.000000,0.000000,0.000000,0.000000,0.000000,0.000000,0.000000,0.000000,0.000000,0.000000,1772722594.333880,0.000000
14.000000,-11500.464261,-16282.754097,3541.030412,-30589.144598,11204.325998,2856.597645,-20695.256674,-27258.913488,4228.972403,-813.782312,6405.406464,1548.193580,8489.952503,8606.762720,-10034.882728,-5192.869031,0.008000,-0.014000,1.000000,192.000000,0.000000,0.000000,0.000000,0.000000,0.000000,0.000000,0.000000,0.000000,0.000000,1772722594.333893,0.000000
16.000000,-11473.955092,-16256.736667,3570.445308,-30569.296249,11220.173385,2864.376052,-20673.061391,-27226.883438,4253.179342,-796.817338,6439.582281,1574.456879,8512.348951,8623.839453,-10015.570821,-5195.506536,0.008000,-0.014000,1.000000,192.000000,0.000000,0.000000,0.000000,0.000000,0.000000,0.000000,0.000000,0.000000,0.000000,1772722594.333905,0.000000
18.000000,-11477.978406,-16265.610309,3561.035223,-30578.616927,11184.522353,2835.139970,-20677.352926,-27232.091395,4260.533066,-794.716274,6450.758153,1583.732853,8511.007847,8620.084360,-10037.542586,-5216.383066,0.008000,-0.014000,0.998000,192.000000,0.000000,32.000000,127.500000,72.000000,15.500000,24.000000,0.000000,0.000000,0.000000,1772722594.333917,0.000000
20.000000,-11482.895789,-16268.650147,3571.339377,-30572.961935,11173.994681,2825.640479,-20662.690182,-27227.710453,4253.760487,-801.622963,6444.566720,1577.452013,8501.709521,8608.796729,-10061.861284,-5232.610432,0.008000,-0.014000,0.998000,192.000000,0.000000,0.000000,0.000000,0.000000,0.000000,0.000000,0.000000,0.000000,0.000000,1772722594.333929,0.000000
22.000000,-11493.222295,-16277.032051,3565.192648,-30575.957069,11156.381506,2814.643421,-20662.287851,-27233.030168,4244.998603,-806.607402,6445.304328,1581.765900,8493.461727,8611.680104,-10052.674717,-5238.578348,0.008000,-0.014000,0.998000,192.000000,0.000000,0.000000,0.000000,0.000000,0.000000,0.000000,0.000000,0.000000,0.000000,1772722594.333941,0.000000
24.000000,-11492.596447,-16276.741478,3560.588188,-30580.226252,11152.961690,2812.855281,-20668.032249,-27232.605485,4232.034592,-814.922251,6428.294650,1572.199353,8477.189657,8594.581019,-10076.278159,-5245.842665,0.008000,-0.014000,0.998000,192.000000,0.000000,0.000000,0.000000,0.000000,0.000000,0.000000,0.000000,0.000000,0.000000,1772722594.333952,0.000000
26.000000,-11471.339938,-16253.070981,3580.011854,-30564.267107,11181.683681,2841.599624,-20654.062409,-27207.035089,4248.887807,-800.080693,6451.853389,1590.952467,8501.217783,8617.357447,-10045.030420,-5232.386915,0.008000,-0.014000,0.998000,192.000000,0.000000,0.000000,0.000000,0.000000,0.000000,0.000000,0.000000,0.000000,0.000000,1772722594.333967,0.000000
28.000000,-11478.313682,-16259.418876,3558.397717,-30578.236947,11166.797419,2834.156493,-20671.697935,-27219.261494,4258.253188,-793.084597,6458.983595,1596.562755,8502.514184,8620.084360,-10048.405534,-5229.458836,0.008000,-0.016000,0.998000,192.000000,0.000000,32.000000,127.500000,64.000000,15.500000,24.000000,0.000000,0.000000,0.000000,1772722594.333979,0.000000
30.000000,-11475.944397,-16254.881472,3562.398680,-30570.771464,11179.403803,2852.261406,-20666.959365,-27218.970921,4251.748830,-797.599649,6445.393735,1586.862098,8492.388844,8609.713150,-10057.793267,-5221.009877,0.008000,-0.016000,0.998000,192.000000,0.000000,0.000000,0.000000,0.000000,0.000000,0.000000,0.000000,0.000000,0.000000,1772722594.333991,0.000000
32.000000,-11486.159144,-16267.465504,3553.860313,-30578.862796,11179.739079,2853.758973,-20675.922415,-27234.058348,4253.849894,-795.923268,6449.573511,1589.745473,8501.061320,8628.443912,-10032.379333,-5204.313124,0.008000,-0.016000,0.998000,192.000000,0.000000,0.000000,0.000000,0.000000,0.000000,0.000000,0.000000,0.000000,0.000000,1772722594.334003,0.000000
34.000000,-11503.481746,-16288.967882,3540.225749,-30589.926909,11176.743946,2850.987357,-20686.763011,-27253.280849,4235.901443,-816.308059,6425.321868,1560.017653,8486.219762,8604.102862,-10052.853531,-5201.742673,0.008000,-0.016000,0.998000,192.000000,0.000000,0.000000,0.000000,0.000000,0.000000,0.000000,0.000000,0.000000,0.000000,1772722594.334014,0.000000
36.000000,-11492.149412,-16279.490743,3553.547389,-30579.086313,11202.023769,2867.550000,-20673.977813,-27244.720131,4240.394144,-817.895033,6431.781522,1559.660025,8495.696902,8615.502252,-10024.153891,-5189.180993,0.008000,-0.016000,0.998000,192.000000,0.000000,0.000000,0.000000,0.000000,0.000000,0.000000,0.000000,0.000000,0.000000,1772722594.334027,0.000000
38.000000,-11496.128022,-16284.408126,3542.438572,-30591.402124,11200.682664,2864.845439,-20687.433563,-27254.018456,4242.830484,-816.375114,6430.976859,1558.318920,8492.522954,8616.731598,-10023.371580,-5187.035225,0.008000,-0.016000,1.000000,192.000000,0.000000,32.000000,127.500000,64.000000,15.500000,32.000000,0.000000,0.000000,0.000000,1772722594.334038,0.000000
40.000000,-11479.163048,-16267.465504,3564.320930,-30580.449770,11232.556252,2892.986285,-20675.207159,-27237.679331,4247.636109,-815.034010,6431.312136,1553.155667,8495.808660,8612.305953,-10023.148063,-5185.448251,0.008000,-0.016000,1.000000,192.000000,0.000000,0.000000,0.000000,0.000000,0.000000,0.000000,0.000000,0.000000,0.000000,1772722594.334051,0.000000
42.000000,-11474.156257,-16261.989327,3565.170296,-30583.534310,11233.182100,2880.044625,-20680.191598,-27235.891191,4269.585522,-799.030161,6455.340261,1574.479231,8521.133187,8630.075589,-9993.979036,-5179.189763,0.008000,-0.016000,1.000000,192.000000,0.000000,0.000000,0.000000,0.000000,0.000000,0.000000,0.000000,0.000000,0.000000,1772722594.334063,0.000000
44.000000,-11482.448755,-16268.851312,3555.335528,-30591.133903,11213.713731,2846.986395,-20686.137162,-27239.400415,4257.023842,-806.830920,6440.029316,1566.745528,8502.916515,8603.186441,-10028.221909,-5200.468624,0.008000,-0.016000,1.000000,192.000000,0.000000,0.000000,0.000000,0.000000,0.000000,0.000000,0.000000,0.000000,0.000000,1772722594.334075,0.000000
46.000000,-11472.435173,-16257.004888,3571.674653,-30576.202938,11214.540746,2836.123447,-20667.875787,-27221.451965,4255.638034,-802.449978,6450.177008,1578.726063,8511.343123,8611.657752,-10024.355057,-5217.634763,0.008000,-0.016000,1.000000,192.000000,0.000000,0.000000,0.000000,0.000000,0.000000,0.000000,0.000000,0.000000,0.000000,1772722594.334087,0.000000
48.000000,-11485.019205,-16271.019431,3557.458944,-30590.150427,11173.793515,2806.730903,-20680.236301,-27232.650189,4255.883903,-804.931021,6454.759116,1581.028292,8499.407291,8602.918220,-10045.522159,-5234.800903,0.008000,-0.012000,1.010000,192.000000,0.000000,32.000000,127.500000,80.000000,15.500000,72.000000,0.000000,0.000000,0.000000,1772722594.334099,0.000000
50.000000,-11479.140696,-16264.649184,3570.579418,-30582.595537,11171.267768,2805.680371,-20666.512330,-27218.278017,4245.713859,-811.234213,6450.311118,1574.680397,8481.816468,8586.892019,-10067.851552,-5245.999127,0.008000,-0.012000,1.010000,192.000000,0.000000,0.000000,0.000000,0.000000,0.000000,0.000000,0.000000,0.000000,0.000000,1772722594.334111,0.000000
52.000000,-11486.740290,-16269.611272,3567.941912,-30582.260261,11158.482570,2798.639572,-20665.931185,-27220.267322,4247.457295,-809.200205,6463.498648,1588.694941,8487.985550,8598.805499,-10048.338479,-5243.987470,0.008000,-0.012000,1.010000,192.000000,0.000000,0.000000,0.000000,0.000000,0.000000,0.000000,0.000000,0.000000,0.000000,1772722594.334123,0.000000
54.000000,-11495.748043,-16277.657900,3559.336491,-30584.562491,11148.580748,2795.465624,-20674.201330,-27230.079738,4229.799417,-820.532539,6441.906862,1575.283894,8465.946730,8578.845391,-10072.768935,-5243.294566,0.008000,-0.012000,1.010000,192.000000,0.000000,0.000000,0.000000,0.000000,0.000000,0.000000,0.000000,0.000000,0.000000,1772722594.334135,0.000000
56.000000,-11484.706281,-16265.833827,3571.339377,-30563.909479,11170.485457,2825.171092,-20663.584252,-27220.088508,4238.293080,-810.340143,6449.640566,1586.437414,8479.849515,8599.744272,-10050.238377,-5225.502577,0.008000,-0.012000,1.010000,192.000000,0.000000,0.000000,0.000000,0.000000,0.000000,0.000000,0.000000,0.000000,0.000000,1772722594.334146,0.000000
58.000000,-11487.254380,-16267.420801,3553.569740,-30569.296249,11160.941262,2825.752238,-20674.916586,-27230.169145,4238.047211,-802.785254,6446.220749,1588.314961,8482.062338,8607.612086,-10053.591139,-5214.103188,0.010000,-0.010000,1.010000,192.000000,0.000000,40.000000,127.500000,88.000000,15.500000,72.000000,0.000000,0.000000,0.000000,1772722594.813747,0.000000
60.000000,-11480.280635,-16260.156484,3561.996348,-30560.623772,11176.274559,2844.550055,-20664.098342,-27222.301331,4239.276557,-801.690018,6442.242139,1584.872792,8476.206181,8604.125214,-10056.966252,-5206.972981,0.010000,-0.010000,1.010000,192.000000,0.000000,0.000000,0.000000,0.000000,0.000000,0.000000,0.000000,0.000000,0.000000,1772722594.813810,0.000000
62.000000,-11486.114441,-16268.940719,3553.413278,-30568.491586,11178.129754,2848.349851,-20668.300470,-27231.219677,4243.188112,-802.204109,6449.461752,1586.437414,8488.432585,8613.378836,-10032.044057,-5197.317028,0.010000,-0.010000,1.010000,192.000000,0.000000,0.000000,0.000000,0.000000,0.000000,0.000000,0.000000,0.000000,0.000000,1772722594.813853,0.000000
64.000000,-11492.194115,-16275.981519,3545.321947,-30576.314697,11182.488344,2852.999014,-20675.855360,-27242.507308,4233.062772,-812.843539,6428.428761,1566.477307,8476.541457,8598.537278,-10051.043040,-5194.366597,0.010000,-0.010000,1.010000,192.000000,0.000000,0.000000,0.000000,0.000000,0.000000,0.000000,0.000000,0.000000,0.000000,1772722594.813895,0.000000
66.000000,-11481.912313,-16264.671536,3561.705775,-30565.831729,11210.830356,2873.875543,-20665.975888,-27234.460680,4242.696374,-803.813434,6437.905900,1573.652217,8497.015655,8616.083397,-10023.125711,-5182.676635,0.010000,-0.010000,1.010000,192.000000,0.000000,0.000000,0.000000,0.000000,0.000000,0.000000,0.000000,0.000000,0.000000,1772722594.813936,0.000000
68.000000,-11488.841354,-16272.695812,3546.797162,-30584.383677,11198.291027,2858.564598,-20682.471476,-27248.586982,4243.188112,-803.634620,6434.821359,1569.919475,8489.483117,8611.680104,-10028.132502,-5185.984693,0.009000,-0.014000,1.012000,192.000000,0.000000,32.000000,127.500000,56.000000,15.500000,88.000000,0.000000,0.000000,0.000000,1772722594.813976,0.000000
70.000000,-11478.403089,-16262.682231,3559.448249,-30580.561528,11209.355141,2854.809505,-20672.279080,-27237.187593,4241.355269,-803.947545,6430.663935,1560.554094,8485.750375,8602.761758,-10042.191749,-5195.148909,0.009000,-0.014000,1.012000,192.000000,0.000000,0.000000,0.000000,0.000000,0.000000,0.000000,0.000000,0.000000,0.000000,1772722594.814018,0.000000
72.000000,-11480.884132,-16266.884359,3558.107145,-30589.390467,11196.346426,2824.858168,-20671.854397,-27234.304218,4250.452429,-800.438321,6450.400525,1572.624036,8500.502527,8609.042598,-10029.764179,-5207.598830,0.009000,-0.014000,1.012000,192.000000,0.000000,0.000000,0.000000,0.000000,0.000000,0.000000,0.000000,0.000000,0.000000,1772722594.814030,0.000000
74.000000,-11497.960865,-16284.564589,3544.584339,-30600.946319,11169.524332,2793.185746,-20679.811618,-27246.329456,4235.119132,-815.592803,6435.089580,1559.280045,8480.967102,8578.376005,-10064.990528,-5234.555034,0.009000,-0.014000,1.012000,192.000000,0.000000,0.000000,0.000000,0.000000,0.000000,0.000000,0.000000,0.000000,0.000000,1772722594.814049,0.000000
76.000000,-11497.402072,-16278.127286,3558.777697,-30588.563453,11172.921797,2794.839775,-20670.982679,-27242.775529,4230.715839,-819.973745,6434.016697,1561.872847,8476.653215,8580.298255,-10051.646537,-5242.758124,0.009000,-0.014000,1.012000,192.000000,0.000000,0.000000,0.000000,0.000000,0.000000,0.000000,0.000000,0.000000,0.000000,1772722594.814061,0.000000
78.000000,-11509.472014,-16289.750193,3547.937101,-30597.817075,11155.062754,2782.613371,-20685.421906,-27252.856166,4222.333935,-822.052458,6426.528862,1563.012786,8467.913683,8577.459583,-10060.251958,-5242.624014,0.010500,-0.015000,1.011000,192.000000,0.000000,48.000000,127.500000,64.000000,15.500000,72.000000,0.000000,0.000000,0.000000,1772722594.814073,0.000000
80.000000,-11496.999740,-16276.763830,3564.611502,-30583.131979,11178.420327,2804.026342,-20672.748467,-27234.952418,4224.211481,-816.665687,6427.221766,1563.079842,8476.608512,8580.052385,-10067.158647,-5232.453970,0.010500,-0.015000,1.011000,192.000000,0.000000,0.000000,0.000000,0.000000,0.000000,0.000000,0.000000,0.000000,0.000000,1772722594.814085,0.000000
82.000000,-11490.316569,-16271.175894,3561.594017,-30580.829749,11176.766297,2811.201252,-20671.675583,-27231.309084,4236.571996,-808.887280,6448.254758,1580.089519,8488.454937,8602.471185,-10042.996412,-5219.557013,0.010500,-0.015000,1.011000,192.000000,0.000000,0.000000,0.000000,0.000000,0.000000,0.000000,0.000000,0.000000,0.000000,1772722594.814097,0.000000
84.000000,-11495.904505,-16276.227388,3547.467714,-30586.283575,11167.713841,2810.173072,-20678.224644,-27241.568535,4228.301850,-814.072885,6433.234386,1570.746490,8470.126506,8587.495516,-10064.051755,-5216.986563,0.010500,-0.015000,1.011000,192.000000,0.000000,0.000000,0.000000,0.000000,0.000000,0.000000,0.000000,0.000000,0.000000,1772722594.814109,0.000000
86.000000,-11486.203848,-16264.671536,3561.012871,-30570.212671,11186.645768,2834.201197,-20664.366563,-27232.292561,4233.576862,-808.931984,6435.782485,1579.642484,8475.848553,8595.318627,-10040.425961,-5205.564821,0.010500,-0.015000,1.011000,192.000000,0.000000,0.000000,0.000000,0.000000,0.000000,0.000000,0.000000,0.000000,0.000000,1772722594.814121,0.000000
88.000000,-11499.860764,-16279.893074,3542.036240,-30584.450732,11174.486419,2832.949499,-20681.622110,-27252.207965,4228.681830,-809.826053,6426.238290,1575.194487,8473.233399,8602.247668,-10042.527025,-5198.211098,0.012250,-0.015500,1.007500,192.000000,0.000000,56.000000,127.500000,64.000000,15.500000,48.000000,0.000000,0.000000,0.000000,1772722594.814133,0.000000
90.000000,-11491.009473,-16273.254606,3549.524075,-30577.454636,11192.434870,2858.050508,-20676.280043,-27245.167165,4224.010315,-819.012620,6415.487101,1558.564789,8466.214951,8589.082490,-10050.774819,-5192.399644,0.012250,-0.015500,1.007500,192.000000,0.000000,0.000000,0.000000,0.000000,0.000000,0.000000,0.000000,0.000000,0.000000,1772722594.814151,0.000000
92.000000,-11488.997816,-16271.153542,3544.852560,-30579.779217,11192.881905,2855.569465,-20679.409287,-27243.691950,4234.605042,-806.294478,6432.005040,1571.998188,8485.459803,8609.400226,-10029.160682,-5186.185859,0.012250,-0.015500,1.007500,192.000000,0.000000,0.000000,0.000000,0.000000,0.000000,0.000000,0.000000,0.000000,0.000000,1772722594.814163,0.000000
94.000000,-11490.025996,-16271.578225,3537.901168,-30590.396296,11185.662292,2833.240072,-20684.997223,-27248.274058,4227.117208,-814.676382,6416.492929,1559.749432,8474.686262,8588.099013,-10060.386069,-5208.425845,0.012250,-0.015500,1.007500,192.000000,0.000000,0.000000,0.000000,0.000000,0.000000,0.000000,0.000000,0.000000,0.000000,1772722594.814175,0.000000
96.000000,-11470.825847,-16251.551062,3559.045918,-30579.399238,11204.527164,2830.691973,-20667.473455,-27226.704624,4239.321260,-800.639486,6434.843711,1574.747452,8499.161422,8594.737481,-10045.879787,-5219.936993,0.012250,-0.015500,1.007500,192.000000,0.000000,0.000000,0.000000,0.000000,0.000000,0.000000,0.000000,0.000000,0.000000,1772722594.814187,0.000000
98.000000,-11482.404051,-16267.085524,3544.919615,-30596.274805,11178.822658,2805.188633,-20679.744563,-27240.339189,4243.165760,-801.578260,6439.872854,1575.373301,8484.565733,8589.931856,-10054.574615,-5235.538511,0.013125,-0.014750,1.004750,192.000000,0.000000,56.000000,127.500000,72.000000,15.500000,40.000000,0.000000,0.000000,0.000000,1772722594.814198,0.000000
100.000000,-11484.371005,-16270.706507,3551.848656,-30591.111552,11179.426155,2805.412150,-20672.793171,-27237.254648,4233.085124,-813.379981,6429.367534,1561.939903,8469.120678,8570.597597,-10069.997319,-5245.105057,0.013125,-0.014750,1.004750,192.000000,0.000000,0.000000,0.000000,0.000000,0.000000,0.000000,0.000000,0.000000,0.000000,1772722594.814210,0.000000
102.000000,-11492.819964,-16278.440211,3546.931272,-30590.440999,11175.022861,2806.753255,-20676.034173,-27244.898944,4232.213406,-812.620021,6436.587147,1567.997225,8476.675567,8582.399319,-10054.373450,-5240.031211,0.013125,-0.014750,1.004750,192.000000,0.000000,0.000000,0.000000,0.000000,0.000000,0.000000,0.000000,0.000000,0.000000,1772722594.814222,0.000000
104.000000,-11498.698473,-16286.017452,3538.571720,-30594.553720,11164.696355,2804.741598,-20685.220740,-27252.766759,4217.438903,-823.460617,6419.309249,1553.826219,8457.833047,8573.995063,-10077.954540,-5239.338307,0.013125,-0.014750,1.004750,192.000000,0.000000,0.000000,0.000000,0.000000,0.000000,0.000000,0.000000,0.000000,0.000000,1772722594.814234,0.000000
106.000000,-11481.442926,-16269.678327,3556.296653,-30578.058133,11186.377548,2827.942708,-20671.563825,-27238.171069,4229.173568,-815.346934,6435.536615,1563.213952,8477.547285,8591.608237,-10053.993470,-5225.971964,0.013125,-0.014750,1.004750,192.000000,0.000000,0.000000,0.000000,0.000000,0.000000,0.000000,0.000000,0.000000,0.000000,1772722594.814245,0.000000
108.000000,-11494.094013,-16281.435344,3538.616423,-30585.545967,11168.496152,2819.605508,-20682.583235,-27251.850337,4227.072504,-814.609327,6432.183854,1565.851458,8472.629901,8595.788013,-10054.418153,-5217.545356,0.012563,-0.017375,1.004375,192.000000,0.000000,48.000000,127.500000,48.000000,15.500000,48.000000,0.000000,0.000000,0.000000,1772722594.814257,0.000000
110.000000,-11492.931723,-16273.835751,3546.260720,-30572.649011,11179.850838,2835.587005,-20674.201330,-27248.072892,4217.394199,-816.241004,6416.761150,1561.492868,8471.534666,8594.603371,-10065.348156,-5211.152758,0.012563,-0.017375,1.004375,192.000000,0.000000,0.000000,0.000000,0.000000,0.000000,0.000000,0.000000,0.000000,0.000000,1772722594.814269,0.000000
112.000000,-11495.815098,-16276.137981,3546.104258,-30571.889051,11179.403803,2843.700688,-20677.576444,-27253.459663,4227.519539,-805.445111,6427.489987,1575.127432,8479.424832,8618.385627,-10037.944917,-5197.451138,0.012563,-0.017375,1.004375,192.000000,0.000000,0.000000,0.000000,0.000000,0.000000,0.000000,0.000000,0.000000,0.000000,1772722594.814281,0.000000
114.000000,-11503.884078,-16286.777411,3539.711659,-30587.199996,11169.501980,2836.726944,-20688.774668,-27266.893061,4219.919946,-815.793969,6410.569717,1558.497734,8462.370451,8601.398301,-10056.943900,-5202.793205,0.012563,-0.017375,1.004375,192.000000,0.000000,0.000000,0.000000,0.000000,0.000000,0.000000,0.000000,0.000000,0.000000,1772722594.814292,0.000000
116.000000,-11489.042519,-16272.360536,3562.242217,-30581.366191,11192.747795,2837.643366,-20673.329612,-27249.838680,4225.239661,-812.642373,6421.455016,1561.962254,8473.456916,8606.338037,-10036.827330,-5209.163452,0.012563,-0.017375,1.004375,192.000000,0.000000,0.000000,0.000000,0.000000,0.000000,0.000000,0.000000,0.000000,0.000000,1772722594.814304,0.000000
118.000000,-11498.698473,-16283.290539,3545.634871,-30598.800552,11171.446582,2810.709514,-20685.399554,-27261.819215,4228.547720,-811.971821,6425.008944,1564.644464,8485.839782,8596.726787,-10041.476493,-5221.300450,0.010281,-0.019688,1.004188,192.000000,0.000000,32.000000,127.500000,40.000000,15.500000,48.000000,0.000000,0.000000,0.000000,1772722594.814316,0.000000
120.000000,-11497.066795,-16280.161295,3551.915711,-30592.296194,11178.666196,2812.475301,-20676.727078,-27255.024285,4221.193996,-818.833806,6414.593031,1553.446240,8467.846628,8580.208848,-10060.609586,-5231.716362,0.010281,-0.019688,1.004188,192.000000,0.000000,0.000000,0.000000,0.000000,0.000000,0.000000,0.000000,0.000000,0.000000,1772722594.814327,0.000000
122.000000,-11492.954074,-16276.652071,3547.400659,-30591.491531,11175.916931,2804.763949,-20675.318918,-27246.888250,4229.531196,-815.503396,6430.865101,1566.834935,8480.475364,8593.575191,-10045.455104,-5229.995278,0.010281,-0.019688,1.004188,192.000000,0.000000,0.000000,0.000000,0.000000,0.000000,0.000000,0.000000,0.000000,0.000000,1772722594.814340,0.000000
124.000000,-11499.123156,-16284.005795,3536.671822,-30604.164970,11164.696355,2787.731920,-20683.522008,-27251.827985,4221.596327,-822.544196,6421.723237,1556.061394,8467.779573,8574.978539,-10076.278159,-5241.707592,0.010281,-0.019688,1.004188,192.000000,0.000000,0.000000,0.000000,0.000000,0.000000,0.000000,0.000000,0.000000,0.000000,1772722594.814353,0.000000
126.000000,-11494.988083,-16277.322623,3550.485200,-30592.229139,11183.047138,2803.199327,-20672.212025,-27245.837718,4223.786798,-819.213786,6427.601746,1559.771783,8475.848553,8580.007682,-10057.413287,-5236.924319,0.010281,-0.019688,1.004188,192.000000,0.000000,0.000000,0.000000,0.000000,0.000000,0.000000,0.000000,0.000000,0.000000,1772722594.814365,0.000000
128.000000,-11501.984179,-16284.139905,3531.888548,-30598.644090,11167.892655,2799.064255,-20688.864075,-27259.807558,4221.216347,-820.130208,6421.410313,1558.922417,8460.627015,8582.041691,-10061.637767,-5234.644441,0.009141,-0.016844,1.008094,192.000000,0.000000,32.000000,127.500000,72.000000,15.500000,80.000000,0.000000,0.000000,0.000000,1772722594.814376,0.000000
130.000000,-11494.161069,-16273.634586,3538.571720,-30583.064924,11180.923722,2824.053505,-20680.169246,-27251.604468,4216.567185,-817.202129,6410.480310,1556.910760,8454.793209,8579.784164,-10070.042022,-5221.948650,0.009141,-0.016844,1.008094,192.000000,0.000000,0.000000,0.000000,0.000000,0.000000,0.000000,0.000000,0.000000,0.000000,1772722594.814388,0.000000
132.000000,-11495.524525,-16271.757039,3537.342374,-30579.600403,11180.186114,2829.596738,-20678.984604,-27251.604468,4224.367943,-805.512167,6421.276202,1575.395653,8473.546323,8604.147566,-10043.979888,-5208.828176,0.009141,-0.016844,1.008094,192.000000,0.000000,0.000000,0.000000,0.000000,0.000000,0.000000,0.000000,0.000000,0.000000,1772722594.814400,0.000000
134.000000,-11505.314589,-16280.831847,3528.647545,-30589.055191,11170.999547,2827.138046,-20688.372336,-27262.467416,4216.075446,-811.457731,6403.372455,1562.051661,8460.582311,8591.362368,-10066.175171,-5206.101263,0.009141,-0.016844,1.008094,192.000000,0.000000,0.000000,0.000000,0.000000,0.000000,0.000000,0.000000,0.000000,0.000000,1772722594.814412,0.000000
136.000000,-11494.652807,-16270.460638,3544.897264,-30573.319563,11189.976178,2854.071898,-20676.503560,-27254.621953,4223.876205,-808.484949,6413.050760,1565.538533,8472.428736,8604.751063,-10044.829255,-5188.711606,0.009141,-0.016844,1.008094,192.000000,0.000000,0.000000,0.000000,0.000000,0.000000,0.000000,0.000000,0.000000,0.000000,1772722594.814423,0.000000
138.000000,-11506.186307,-16283.715222,3529.787484,-30588.027011,11171.983024,2838.872712,-20692.015671,-27270.469340,4221.104589,-812.262394,6408.513356,1562.118716,8470.618244,8604.572249,-10045.522159,-5187.169336,0.009141,-0.016844,1.008094,192.000000,0.000000,0.000000,0.000000,0.000000,0.000000,0.000000,0.000000,0.000000,0.000000,1772722594.814435,0.000000
140.000000,-11495.144545,-16273.612234,3546.148961,-30579.376886,11175.760469,2834.849398,-20678.314051,-27254.733712,4217.349496,-811.569489,6402.880717,1557.178981,8461.923416,8596.011531,-10058.240301,-5195.953571,0.008000,-0.014000,1.006000,192.000000,0.000000,32.000000,127.500000,72.000000,15.500000,56.000000,0.000000,0.000000,0.000000,1772722594.814447,0.000000
142.000000,-11485.510944,-16265.565606,3554.329700,-30585.255395,11164.919873,2814.174034,-20672.949633,-27240.786224,4228.972403,-805.758036,6426.126531,1573.987493,8477.614340,8607.232107,-10044.426923,-5211.108054,0.008000,-0.014000,1.006000,192.000000,0.000000,0.000000,0.000000,0.000000,0.000000,0.000000,0.000000,0.000000,0.000000,1772722594.814458,0.000000
144.000000,-11486.896752,-16269.879493,3550.105220,-30594.598424,11150.771219,2793.699836,-20677.218816,-27242.641418,4226.781932,-812.150635,6424.986592,1567.594894,8463.085707,8583.651016,-10077.127525,-5237.036078,0.008000,-0.014000,1.006000,192.000000,0.000000,0.000000,0.000000,0.000000,0.000000,0.000000,0.000000,0.000000,0.000000,1772722594.814470,0.000000
146.000000,-11479.207752,-16263.017507,3564.611502,-30585.680078,11164.316376,2797.454929,-20666.132351,-27230.862049,4235.722630,-812.508263,6437.995307,1574.345121,8481.816468,8589.238952,-10064.007051,-5241.528778,0.008000,-0.014000,1.006000,192.000000,0.000000,0.000000,0.000000,0.000000,0.000000,0.000000,0.000000,0.000000,0.000000,1772722594.814481,0.000000
148.000000,-11488.707243,-16271.533522,3547.065383,-30601.035726,11148.111361,2782.434557,-20680.683336,-27242.417901,4236.303775,-813.044705,6439.202301,1573.585161,8473.658082,8586.713205,-10067.672738,-5247.340232,0.008000,-0.014000,1.006000,192.000000,0.000000,0.000000,0.000000,0.000000,0.000000,0.000000,0.000000,0.000000,0.000000,1772722594.814493,0.000000
150.000000,-11482.024071,-16266.660841,3550.619310,-30595.917177,11162.707050,2792.850470,-20675.274214,-27236.382930,4229.151217,-817.492702,6426.685325,1563.973911,8461.722250,8573.302159,-10076.792249,-5245.395630,0.006000,-0.018000,1.004000,192.000000,0.000000,24.000000,127.500000,56.000000,15.500000,48.000000,0.000000,0.000000,0.000000,1772722594.814505,0.000000
152.000000,-11482.851086,-16268.381926,3546.350127,-30595.403087,11171.670100,2801.433540,-20678.850493,-27239.109843,4238.091914,-815.011658,6439.850502,1573.741624,8481.280027,8590.825926,-10049.210197,-5234.845607,0.006000,-0.018000,1.004000,192.000000,0.000000,0.000000,0.000000,0.000000,0.000000,0.000000,0.000000,0.000000,0.000000,1772722594.814517,0.000000
154.000000,-11497.871458,-16284.274016,3532.380287,-30601.259244,11166.305681,2798.907792,-20690.048717,-27256.879480,4225.619641,-825.449923,6419.309249,1554.832048,8459.889407,8574.240932,-10070.846685,-5235.314993,0.006000,-0.018000,1.004000,192.000000,0.000000,0.000000,0.000000,0.000000,0.000000,0.000000,0.000000,0.000000,0.000000,1772722594.814530,0.000000
156.000000,-11493.758737,-16277.814362,3545.433706,-30583.154331,11184.567056,2823.382953,-20678.805790,-27253.861994,4224.300888,-818.543234,6418.370476,1560.375280,8468.763050,8587.026130,-10048.874920,-5222.507444,0.006000,-0.018000,1.004000,192.000000,0.000000,0.000000,0.000000,0.000000,0.000000,0.000000,0.000000,0.000000,0.000000,1772722594.814542,0.000000
158.000000,-11504.219354,-16288.364385,3531.754438,-30592.631470,11174.329957,2823.450008,-20693.155610,-27269.463512,4220.612850,-820.018449,6411.419083,1558.005996,8470.350024,8589.954208,-10047.690278,-5212.560917,0.006000,-0.018000,1.004000,192.000000,0.000000,0.000000,0.000000,0.000000,0.000000,0.000000,0.000000,0.000000,0.000000,1772722594.814553,0.000000
160.000000,-11494.272827,-16280.965958,3546.506589,-30584.204863,11191.160821,2846.896988,-20683.879636,-27257.639439,4224.055019,-824.824074,6406.412292,1547.768897,8468.763050,8588.300179,-10052.898234,-5202.323818,0.010000,-0.014000,0.998000,192.000000,0.000000,40.000000,127.500000,72.000000,15.500000,24.000000,0.000000,0.000000,0.000000,1772722594.814565,0.000000
162.000000,-11489.154278,-16276.406202,3551.379270,-30582.930813,11191.272580,2850.137991,-20679.878674,-27247.983485,4239.589481,-816.822149,6428.875795,1564.085670,8484.990416,8609.891964,-10026.098493,-5185.314141,0.010000,-0.014000,0.998000,192.000000,0.000000,0.000000,0.000000,0.000000,0.000000,0.000000,0.000000,0.000000,0.000000,1772722594.814576,0.000000
164.000000,-11496.753871,-16283.111725,3540.739839,-30593.883168,11172.541818,2830.535511,-20686.718307,-27253.213793,4229.486493,-818.990269,6417.096426,1556.821353,8472.696957,8595.676255,-10055.200464,-5194.523060,0.010000,-0.014000,0.998000,192.000000,0.000000,0.000000,0.000000,0.000000,0.000000,0.000000,0.000000,0.000000,0.000000,1772722594.814588,0.000000
166.000000,-11475.922045,-16261.028202,3563.426860,-30582.394371,11182.845972,2830.267290,-20667.473455,-27233.097223,4235.655574,-811.144806,6428.294650,1567.483135,8487.583219,8602.404130,-10050.081915,-5203.843737,0.010000,-0.014000,0.998000,192.000000,0.000000,0.000000,0.000000,0.000000,0.000000,0.000000,0.000000,0.000000,0.000000,1772722594.814600,0.000000
168.000000,-11484.482763,-16272.293481,3549.926406,-30602.510941,11154.012222,2794.482147,-20678.895197,-27246.597677,4241.444676,-812.552966,6436.408333,1569.673606,8478.128431,8598.090243,-10061.861284,-5226.955441,0.010000,-0.014000,0.998000,192.000000,0.000000,0.000000,0.000000,0.000000,0.000000,0.000000,0.000000,0.000000,0.000000,1772722594.814611,0.000000
170.000000,-11483.722804,-16270.639452,3556.877799,-30595.738363,11156.806190,2788.871859,-20668.769857,-27242.574363,4234.180359,-818.364420,6428.115836,1559.928246,8467.958387,8575.760850,-10084.838877,-5247.697860,0.012000,-0.018000,1.000000,192.000000,0.000000,48.000000,127.500000,56.000000,15.500000,32.000000,0.000000,0.000000,0.000000,1772722594.814623,0.000000
172.000000,-11492.060005,-16278.440211,3550.574607,-30597.526502,11150.190073,2780.981693,-20671.742639,-27249.458700,4236.683755,-816.889205,6435.558967,1568.824240,8472.741660,8581.304083,-10065.079935,-5251.721174,0.012000,-0.018000,1.000000,192.000000,0.000000,0.000000,0.000000,0.000000,0.000000,0.000000,0.000000,0.000000,0.000000,1772722594.814634,0.000000
174.000000,-11499.234915,-16282.776449,3539.465790,-30607.875360,11139.729457,2773.449156,-20685.332499,-27261.998029,4223.630336,-828.378001,6416.001191,1551.322824,8453.250939,8558.460600,-10086.045872,-5257.733793,0.012000,-0.018000,1.000000,192.000000,0.000000,0.000000,0.000000,0.000000,0.000000,0.000000,0.000000,0.000000,0.000000,1772722594.814646,0.000000
176.000000,-11495.278656,-16275.959167,3553.167409,-30597.615909,11164.159914,2791.174089,-20677.062354,-27255.292506,4225.887862,-827.886263,6419.577470,1553.468591,8466.237303,8567.624815,-10065.258749,-5248.703688,0.012000,-0.018000,1.000000,192.000000,0.000000,0.000000,0.000000,0.000000,0.000000,0.000000,0.000000,0.000000,0.000000,1772722594.814657,0.000000
178.000000,-11512.914182,-16292.588865,3532.804970,-30614.066793,11145.116227,2780.668769,-20695.167267,-27274.067971,4219.405856,-832.758943,6414.324810,1550.942844,8464.560922,8570.239970,-10064.789363,-5244.702726,0.012000,-0.018000,1.000000,192.000000,0.000000,0.000000,0.000000,0.000000,0.000000,0.000000,0.000000,0.000000,0.000000,1772722595.294672,0.000000
180.000000,-11509.404958,-16289.012586,3537.789409,-30608.076526,11157.320280,2793.498670,-20690.786325,-27270.469340,4207.671190,-839.240949,6399.997342,1538.381164,8448.400610,8554.996080,-10077.529857,-5241.193502,0.010000,-0.018000,0.996000,192.000000,0.000000,40.000000,127.500000,56.000000,15.500000,16.000000,0.000000,0.000000,0.000000,1772722595.294741,0.000000
182.000000,-11508.041502,-16285.168086,3534.548406,-30600.968671,11161.500056,2803.467548,-20691.143953,-27270.558747,4212.990905,-835.709373,6409.429778,1545.243149,8464.270349,8573.637435,-10050.596005,-5228.095380,0.010000,-0.018000,0.996000,192.000000,0.000000,0.000000,0.000000,0.000000,0.000000,0.000000,0.000000,0.000000,0.000000,1772722595.294795,0.000000
184.000000,-11515.462281,-16291.851257,3522.880795,-30600.946319,11158.393163,2813.749351,-20699.972892,-27279.745314,4207.045341,-832.736591,6396.599876,1539.409344,8452.043945,8572.832772,-10067.002185,-5216.316011,0.010000,-0.018000,0.996000,192.000000,0.000000,0.000000,0.000000,0.000000,0.000000,0.000000,0.000000,0.000000,0.000000,1772722595.294833,0.000000
186.000000,-11503.526450,-16279.066059,3541.969185,-30580.740342,11186.377548,2846.159380,-20684.304319,-27268.904718,4212.409760,-822.410085,6400.086749,1545.578426,8451.261634,8592.926990,-10041.320031,-5189.225696,0.010000,-0.018000,0.996000,192.000000,0.000000,0.000000,0.000000,0.000000,0.000000,0.000000,0.000000,0.000000,0.000000,1772722595.294887,0.000000
188.000000,-11499.078452,-16279.915426,3539.465790,-30590.463351,11188.188039,2850.607377,-20692.060374,-27267.653020,4219.428208,-820.934870,6407.507528,1550.696975,8463.979776,8604.035807,-10033.765141,-5181.447289,0.010000,-0.018000,0.996000,192.000000,0.000000,0.000000,0.000000,0.000000,0.000000,0.000000,0.000000,0.000000,0.000000,1772722595.294924,0.000000
190.000000,-11467.316624,-16251.618117,3562.599845,-30578.818092,11220.218089,2871.841535,-20677.040002,-27240.585058,4238.449542,-812.932946,6420.315077,1553.155667,8479.648349,8606.583906,-10036.737923,-5181.983731,0.016000,-0.012000,0.996000,192.000000,0.000000,64.000000,127.500000,80.000000,15.500000,16.000000,0.000000,0.000000,0.000000,1772722595.294962,0.000000
192.000000,-11447.535330,-16231.948582,3569.953569,-30577.946374,11217.826452,2859.972758,-20672.904929,-27224.111822,4268.602046,-791.363512,6452.300424,1582.525859,8509.018541,8626.923993,-10012.530984,-5191.527926,0.016000,-0.012000,0.996000,192.000000,0.000000,0.000000,0.000000,0.000000,0.000000,0.000000,0.000000,0.000000,0.000000,1772722595.294999,0.000000
194.000000,-11456.453676,-16241.783350,3561.012871,-30591.491531,11187.539838,2820.879557,-20677.196464,-27228.090433,4265.182229,-792.101120,6446.064287,1584.202240,8494.646370,8606.472147,-10051.333612,-5218.282964,0.016000,-0.012000,0.996000,192.000000,0.000000,0.000000,0.000000,0.000000,0.000000,0.000000,0.000000,0.000000,0.000000,1772722595.295037,0.000000
196.000000,-11446.149522,-16229.691056,3576.770851,-30577.409932,11188.590370,2809.502519,-20656.543452,-27209.359671,4263.818772,-796.526765,6454.759116,1589.454900,8498.356759,8602.113557,-10050.104266,-5232.588080,0.016000,-0.012000,0.996000,192.000000,0.000000,0.000000,0.000000,0.000000,0.000000,0.000000,0.000000,0.000000,0.000000,1772722595.295074,0.000000
198.000000,-11462.175722,-16244.644373,3554.195589,-30588.764618,11159.153123,2782.278095,-20671.563825,-27223.664787,4259.303720,-797.063207,6455.072040,1593.589973,8491.070091,8595.743310,-10062.777706,-5243.965118,0.016000,-0.012000,0.996000,192.000000,0.000000,0.000000,0.000000,0.000000,0.000000,0.000000,0.000000,0.000000,0.000000,1772722595.295110,0.000000
200.000000,-11466.199036,-16248.108893,3556.967206,-30584.450732,11163.064678,2788.357769,-20670.401534,-27228.693930,4247.859627,-805.288649,6438.107066,1581.072996,8479.625997,8579.515943,-10081.173191,-5248.971909,0.016000,-0.022000,1.000000,192.000000,0.000000,64.000000,127.500000,40.000000,15.500000,32.000000,0.000000,0.000000,0.000000,1772722595.295147,0.000000
202.000000,-11483.745156,-16264.872702,3548.965281,-30586.529444,11155.420381,2788.871859,-20676.682374,-27247.335285,4246.920853,-805.154539,6440.006964,1586.012731,8482.241152,8592.547010,-10057.972080,-5238.466589,0.016000,-0.022000,1.000000,192.000000,0.000000,0.000000,0.000000,0.000000,0.000000,0.000000,0.000000,0.000000,0.000000,1772722595.295202,0.000000
204.000000,-11507.572115,-16288.856124,3527.485255,-30601.460409,11130.609945,2772.622141,-20692.172133,-27271.408113,4222.445693,-828.690926,6408.222784,1559.212990,8454.748506,8567.960092,-10089.152764,-5241.506427,0.016000,-0.022000,1.000000,192.000000,0.000000,0.000000,0.000000,0.000000,0.000000,0.000000,0.000000,0.000000,0.000000,1772722595.295239,0.000000
206.000000,-11503.280580,-16283.871685,3539.734011,-30595.850121,11145.607966,2785.854374,-20680.817447,-27261.841567,4215.516653,-838.190417,6404.802967,1551.993376,8441.940956,8564.182647,-10075.227627,-5233.035115,0.016000,-0.022000,1.000000,192.000000,0.000000,0.000000,0.000000,0.000000,0.000000,0.000000,0.000000,0.000000,0.000000,1772722595.295251,0.000000
208.000000,-11516.892793,-16300.613141,3521.986726,-30613.485648,11134.320335,2781.674597,-20694.340252,-27274.827930,4214.019086,-846.795839,6405.272353,1548.484152,8446.232491,8561.880417,-10070.712575,-5228.005973,0.016000,-0.022000,1.000000,192.000000,0.000000,0.000000,0.000000,0.000000,0.000000,0.000000,0.000000,0.000000,0.000000,1772722595.295263,0.000000
210.000000,-11513.472976,-16297.439193,3530.972127,-30605.528427,11157.432038,2808.004952,-20689.892255,-27274.269137,4205.726588,-852.920217,6390.855478,1534.626071,8437.336497,8554.057307,-10078.625092,-5217.701819,0.016000,-0.018000,1.000000,192.000000,0.000000,64.000000,127.500000,56.000000,15.500000,32.000000,0.000000,0.000000,0.000000,1772722595.295276,0.000000
212.000000,-11506.968618,-16288.945531,3537.968223,-30598.152351,11182.354234,2833.418886,-20687.277101,-27270.067009,4216.455426,-838.749211,6404.847670,1551.009899,8455.888445,8582.399319,-10039.464836,-5195.953571,0.016000,-0.018000,1.000000,192.000000,0.000000,0.000000,0.000000,0.000000,0.000000,0.000000,0.000000,0.000000,0.000000,1772722595.295288,0.000000
214.000000,-11507.616819,-16291.806554,3534.101371,-30604.544950,11185.729347,2835.341136,-20695.457839,-27272.168073,4215.181376,-839.330356,6399.751472,1544.416135,8453.809733,8576.565513,-10050.640708,-5193.852507,0.016000,-0.018000,1.000000,192.000000,0.000000,0.000000,0.000000,0.000000,0.000000,0.000000,0.000000,0.000000,0.000000,1772722595.295300,0.000000
216.000000,-11486.919103,-16270.304176,3558.308310,-30586.775313,11213.669028,2854.273063,-20677.397630,-27248.698741,4230.157045,-831.037859,6418.839862,1556.016690,8479.625997,8591.228258,-10028.557185,-5191.751443,0.016000,-0.018000,1.000000,192.000000,0.000000,0.000000,0.000000,0.000000,0.000000,0.000000,0.000000,0.000000,0.000000,1772722595.295313,0.000000
218.000000,-11486.852048,-16269.946548,3548.473543,-30595.604252,11198.313379,2831.518988,-20685.243092,-27253.012628,4238.136618,-820.890167,6428.406409,1564.912685,8483.828125,8598.425519,-10031.619374,-5202.837909,0.016000,-0.018000,1.000000,192.000000,0.000000,0.000000,0.000000,0.000000,0.000000,0.000000,0.000000,0.000000,0.000000,1772722595.295328,0.000000
220.000000,-11478.090164,-16256.267280,3557.034261,-30583.869586,11196.994626,2822.712400,-20674.313089,-27239.266305,4235.007374,-815.816321,6420.851519,1567.304321,8473.479268,8590.356540,-10055.803961,-5220.294621,0.015000,-0.016000,1.000000,192.000000,0.000000,56.000000,127.500000,72.000000,15.500000,32.000000,0.000000,0.000000,0.000000,1772722595.295340,0.000000
222.000000,-11475.989100,-16256.267280,3560.878761,-30580.449770,11184.835277,2808.720208,-20669.574519,-27234.550087,4245.557397,-807.233251,6438.040011,1587.398539,8483.559905,8606.583906,-10044.091647,-5232.878653,0.015000,-0.016000,1.000000,192.000000,0.000000,0.000000,0.000000,0.000000,0.000000,0.000000,0.000000,0.000000,0.000000,1772722595.295352,0.000000
224.000000,-11492.641150,-16274.796876,3549.077040,-30591.580938,11153.565187,2781.473432,-20676.816485,-27248.966962,4235.342650,-818.230309,6426.931194,1574.792156,8465.320881,8588.568400,-10077.529857,-5251.229435,0.015000,-0.016000,1.000000,192.000000,0.000000,0.000000,0.000000,0.000000,0.000000,0.000000,0.000000,0.000000,0.000000,1772722595.295365,0.000000
226.000000,-11498.296141,-16275.288615,3552.452153,-30581.656764,11148.692506,2778.254781,-20666.847607,-27244.876593,4227.407781,-827.774504,6426.551214,1572.825202,8457.542474,8581.773470,-10074.311206,-5255.297453,0.015000,-0.016000,1.000000,192.000000,0.000000,0.000000,0.000000,0.000000,0.000000,0.000000,0.000000,0.000000,0.000000,1772722595.295377,0.000000
228.000000,-11521.720770,-16297.863877,3522.009077,-30593.480837,11113.823785,2753.980786,-20685.846589,-27264.881404,4205.480719,-834.927062,6411.732007,1569.315978,8437.448256,8570.999929,-10088.616322,-5260.304244,0.015000,-0.016000,1.000000,192.000000,0.000000,0.000000,0.000000,0.000000,0.000000,0.000000,0.000000,0.000000,0.000000,1772722595.295389,0.000000
230.000000,-11519.619706,-16293.460583,3521.584394,-30591.782104,11122.697428,2766.810687,-20686.315976,-27262.780340,4188.649856,-846.505266,6390.609609,1557.067222,8411.095549,8553.297347,-10108.531726,-5257.733793,0.014500,-0.017000,1.001000,192.000000,0.000000,56.000000,127.500000,56.000000,15.500000,40.000000,0.000000,0.000000,0.000000,1772722595.295401,0.000000
