Sample_index,EXG Channel 0,EXG Channel 1,EXG Channel 2,EXG Channel 3,EXG Channel 4,EXG Channel 5,EXG Channel 6,EXG Channel 7,EXG Channel 8,EXG Channel 9,EXG Channel 10,EXG Channel 11,EXG Channel 12,EXG Channel 13,EXG Channel 14,EXG Channel 15,Accel Channel 0,Accel Channel 1,Accel Channel 2,Not Used,Digital Channel 0 (D11),Digital Channel 1 (D12),Digital Channel 2 (D13),Digital Channel 3 (D17),Not Used,Digital Channel 4 (D18),Analog Channel 0,Analog Channel 1,Analog Channel 2,Timestamp,Marker Channel
210.000000,7088.721644,6265.864523,5848.088068,-17116.585924,11300.483203,8875.810668,-4442.297452,-1529.149893,5882.845030,6458.648319,6009.400607,11647.248166,10642.201977,13271.817657,1805.842138,13167.770287,-0.002000,-0.010000,1.012000,192.000000,0.000000,0.000000,0.000000,0.000000,0.000000,0.000000,0.000000,0.000000,0.000000,1772528405.465293,101.000000
212.000000,7095.896554,6259.203703,5839.750867,-17132.969753,11291.989540,8871.094450,-4455.395574,-1541.152780,5903.542746,6459.654148,6007.746578,11636.899309,10655.456562,13267.749639,1819.946089,13219.469871,-0.002000,-0.010000,1.012000,192.000000,0.000000,0.000000,0.000000,0.000000,0.000000,0.000000,0.000000,0.000000,0.000000,1772528405.465379,0.000000
214.000000,7099.808109,6268.770250,5848.512751,-17111.512078,11286.021624,8900.196421,-4439.771705,-1528.077010,5898.982990,6468.460735,6011.546375,11645.683544,10646.113532,13310.173250,1800.187147,13216.452386,-0.002000,-0.010000,1.012000,192.000000,0.000000,0.000000,0.000000,0.000000,0.000000,0.000000,0.000000,0.000000,0.000000,1772528405.465424,0.000000
216.000000,7072.606036,6244.473904,5834.028820,-17121.950343,11270.822438,8879.766927,-4450.478190,-1539.655213,5872.585579,6446.108990,5996.347189,11639.514463,10641.039686,13273.874017,1796.096777,13174.162885,-0.002000,-0.014000,1.006000,192.000000,127.500000,120.000000,127.500000,72.000000,15.500000,56.000000,0.000000,0.000000,0.000000,1772528405.465459,0.000000
218.000000,7077.121088,6248.988956,5836.822788,-17120.519831,11272.699985,8857.236368,-4447.013670,-1538.001184,5904.012132,6446.131342,6002.225697,11637.681620,10645.264166,13257.669003,1808.658458,13255.634994,-0.002000,-0.014000,1.006000,192.000000,0.000000,0.000000,0.000000,0.000000,0.000000,0.000000,0.000000,0.000000,0.000000,1772528405.465497,0.000000
220.000000,7093.750786,6267.518552,5844.981175,-17118.083491,11285.775755,8895.904886,-4438.899987,-1524.254861,5868.942245,6462.358709,5995.877802,11644.074219,10648.661631,13288.357948,1783.356283,13169.983109,-0.002000,-0.014000,1.006000,192.000000,0.000000,0.000000,0.000000,0.000000,0.000000,0.000000,0.000000,0.000000,0.000000,1772528405.465530,0.000000
222.000000,7090.934466,6236.293165,5842.410724,-17133.103863,11279.964302,8876.548276,-4450.925225,-1534.670774,5884.946094,6448.187703,6006.427825,11639.201538,10647.186416,13266.140314,1806.155062,13209.009255,-0.002000,-0.014000,1.006000,192.000000,0.000000,0.000000,0.000000,0.000000,0.000000,0.000000,0.000000,0.000000,0.000000,1772528405.465571,0.000000
224.000000,7091.962646,6276.280436,5856.112344,-17114.171936,11303.053654,8867.160543,-4435.726039,-1521.818521,5901.844013,6440.074019,6009.490014,11639.223890,10643.118399,13260.842950,1810.290135,13198.705101,-0.002000,-0.014000,1.006000,192.000000,0.000000,0.000000,0.000000,0.000000,0.000000,0.000000,0.000000,0.000000,0.000000,1772528405.465613,0.000000
226.000000,7095.561277,6266.110392,5850.189132,-17129.192308,11282.177124,8866.221770,-4445.426696,-1522.936108,5892.948019,6475.657997,6011.747540,11643.671887,10661.580939,13281.473611,1804.992772,13142.758684,-0.002000,-0.014000,1.006000,192.000000,0.000000,0.000000,127.500000,88.000000,15.500000,72.000000,0.000000,0.000000,0.000000,1772528405.465629,0.000000
228.000000,7093.437862,6255.538017,5848.780972,-17127.337113,11285.351072,8870.468601,-4443.459742,-1523.986640,5911.499967,6457.106049,6018.855395,11636.653440,10652.841407,13273.717555,1815.185167,13218.419339,-0.002000,-0.014000,1.006000,192.000000,0.000000,0.000000,0.000000,0.000000,0.000000,0.000000,0.000000,0.000000,0.000000,1772528405.465646,0.000000
230.000000,7100.188088,6249.726564,5852.156085,-17118.619933,11276.276264,8878.515229,-4439.592891,-1522.019687,5900.525260,6456.636662,6015.122654,11643.493073,10653.444904,13277.427945,1795.828557,13145.954984,-0.002000,-0.014000,1.006000,192.000000,0.000000,0.000000,0.000000,0.000000,0.000000,0.000000,0.000000,0.000000,0.000000,1772528405.465662,0.000000
232.000000,7087.246428,6248.877197,5841.561358,-17129.058198,11275.024566,8894.429671,-4449.561769,-1527.853492,5907.566060,6443.829113,6014.317991,11638.642745,10654.115457,13279.752526,1807.898499,13206.371749,-0.002000,-0.014000,1.006000,192.000000,0.000000,0.000000,0.000000,0.000000,0.000000,0.000000,0.000000,0.000000,0.000000,1772528405.465679,0.000000
234.000000,7088.319312,6259.449572,5848.780972,-17114.060177,11292.168354,8895.256686,-4438.743524,-1526.802960,5906.582583,6465.063270,6016.061427,11644.007164,10671.482762,13287.799154,1799.181318,13222.152081,-0.002000,-0.014000,1.006000,192.000000,0.000000,0.000000,0.000000,0.000000,0.000000,0.000000,0.000000,0.000000,0.000000,1772528405.465696,0.000000
236.000000,7097.103548,6262.020023,5840.041440,-17128.119424,11293.308293,8889.445232,-4449.606472,-1533.016745,5884.186135,6444.499665,6002.113939,11633.591251,10652.707297,13278.925512,1807.719685,13178.812048,0.006000,-0.018000,1.006000,192.000000,0.000000,24.000000,127.500000,56.000000,15.500000,56.000000,0.000000,0.000000,0.000000,1772528405.465712,0.000000
238.000000,7097.260010,6267.943235,5838.275652,-17120.229259,11290.313159,8893.490898,-4446.074897,-1528.188768,5919.859519,6468.527790,6011.278154,11641.235547,10662.944396,13310.150899,1814.156987,13244.146197,0.006000,-0.018000,1.006000,192.000000,0.000000,0.000000,0.000000,0.000000,0.000000,0.000000,0.000000,0.000000,0.000000,1772528405.465728,0.000000
240.000000,7081.323216,6266.535075,5842.455428,-17113.657846,11263.669880,8858.756287,-4441.224568,-1526.288870,5886.488365,6461.263473,6005.243183,11642.487245,10643.520730,13281.205390,1784.116242,13169.536074,0.006000,-0.018000,1.006000,192.000000,0.000000,0.000000,0.000000,0.000000,0.000000,0.000000,0.000000,0.000000,0.000000,1772528405.465744,0.000000
242.000000,7093.549620,6253.638119,5838.141541,-17128.857032,11277.147982,8871.966168,-4450.120562,-1529.485170,5902.223993,6448.031240,6013.110997,11634.172396,10643.140750,13270.476552,1794.912135,13213.323142,0.006000,-0.018000,1.006000,192.000000,0.000000,0.000000,0.000000,0.000000,0.000000,0.000000,0.000000,0.000000,0.000000,1772528405.465760,0.000000
244.000000,7104.613734,6278.850887,5853.050155,-17111.243857,11302.070177,8867.920502,-4435.904853,-1523.293736,5918.585470,6465.756174,6021.939936,11645.370620,10657.848198,13296.561038,1794.330990,13208.785738,0.006000,-0.018000,1.006000,192.000000,0.000000,0.000000,0.000000,0.000000,0.000000,0.000000,0.000000,0.000000,0.000000,1772528405.465775,0.000000
246.000000,7102.177394,6270.267817,5846.232873,-17123.850241,11286.580418,8886.919485,-4446.030193,-1528.993431,5894.713806,6460.995252,6014.966192,11641.727286,10681.138716,13280.601893,1798.935449,13152.839321,0.007000,-0.017000,1.007000,192.000000,0.000000,32.000000,127.500000,64.000000,15.500000,64.000000,0.000000,0.000000,0.000000,1772528405.465791,0.000000
248.000000,7121.534004,6280.616674,5851.060850,-17116.742386,11286.982749,8901.783395,-4441.112809,-1519.538643,5933.628194,6468.930122,6023.973945,11644.074219,10657.490570,13293.856477,1815.721609,13232.366828,0.007000,-0.017000,1.007000,192.000000,0.000000,0.000000,0.000000,0.000000,0.000000,0.000000,0.000000,0.000000,0.000000,1772528405.465807,0.000000
250.000000,7105.373693,6275.721642,5846.769315,-17111.109747,11287.698005,8884.326683,-4438.609414,-1522.913757,5915.880908,6472.662863,6019.548299,11653.506655,10658.697564,13300.092614,1799.896574,13150.492388,0.007000,-0.017000,1.007000,192.000000,0.000000,0.000000,0.000000,0.000000,0.000000,0.000000,0.000000,0.000000,0.000000,1772528405.465823,0.000000
252.000000,7094.354283,6264.210494,5834.989945,-17125.303105,11266.687365,8900.285828,-4452.221626,-1534.827237,5893.707978,6473.691043,6008.528889,11649.818617,10641.442018,13292.850649,1810.178376,13204.047168,0.007000,-0.017000,1.007000,192.000000,0.000000,0.000000,0.000000,0.000000,0.000000,0.000000,0.000000,0.000000,0.000000,1772528405.465839,0.000000
254.000000,7094.935428,6269.843134,5843.707126,-17113.389625,11276.253912,8881.353901,-4439.928167,-1529.038135,5891.763376,6457.329566,6003.902078,11642.688411,10652.528483,13291.844820,1806.758560,13206.639970,0.007000,-0.017000,1.007000,192.000000,0.000000,0.000000,0.000000,0.000000,0.000000,0.000000,0.000000,0.000000,0.000000,1772528405.465857,0.000000
0.000000,7094.130766,6260.097773,5834.498207,-17124.878421,11273.303482,8849.994403,-4453.361565,-1541.353946,5880.408690,6463.386889,6000.236392,11632.764236,10643.051343,13290.101384,1805.752731,13159.835417,0.004500,-0.016500,1.006500,192.000000,0.000000,8.000000,127.500000,64.000000,15.500000,56.000000,0.000000,0.000000,0.000000,1772528405.465872,0.000000
2.000000,7096.254181,6261.260064,5839.192073,-17119.536354,11263.379307,8888.774680,-4448.153609,-1533.977870,5914.629211,6449.282938,6007.657171,11629.612640,10633.484797,13265.335651,1815.542795,13246.180206,0.004500,-0.016500,1.006500,192.000000,0.000000,0.000000,0.000000,0.000000,0.000000,0.000000,0.000000,0.000000,0.000000,1772528405.465888,0.000000
4.000000,7085.614751,6260.365994,5841.695469,-17114.954247,11256.450266,8877.263531,-4440.375202,-1525.618318,5879.626379,6456.413145,6007.835985,11640.542643,10638.446884,13290.950750,1789.771234,13165.043374,0.004500,-0.016500,1.006500,192.000000,0.000000,0.000000,0.000000,0.000000,0.000000,0.000000,0.000000,0.000000,0.000000,1772528405.465904,0.000000
6.000000,7082.329045,6261.349471,5832.531253,-17134.914355,11255.042107,8841.031354,-4452.333385,-1537.554149,5883.023844,6453.395659,6010.764064,11637.726323,10632.881300,13275.036308,1799.382484,13210.462118,0.004500,-0.016500,1.006500,192.000000,0.000000,0.000000,0.000000,0.000000,0.000000,0.000000,0.000000,0.000000,0.000000,1772528405.465920,0.000000
8.000000,7096.477699,6270.536038,5844.221216,-17112.473203,11251.018793,8884.818421,-4436.798923,-1527.920547,5891.919838,6456.614310,6008.439482,11636.921661,10636.479930,13277.785573,1794.219231,13215.312447,0.004500,-0.016500,1.006500,192.000000,0.000000,0.000000,0.000000,0.000000,0.000000,0.000000,0.000000,0.000000,0.000000,1772528405.465936,0.000000
10.000000,7098.757577,6258.376689,5841.293137,-17127.292410,11269.011947,8881.130383,-4445.650213,-1528.613452,5883.157955,6461.531694,6007.657171,11640.140312,10652.886111,13284.200523,1786.127899,13168.753763,0.004500,-0.016500,1.006500,192.000000,0.000000,0.000000,127.500000,80.000000,15.500000,80.000000,0.000000,0.000000,0.000000,1772528405.465952,0.000000
12.000000,7101.640952,6265.506895,5844.891768,-17116.317703,11276.589188,8886.941837,-4443.280929,-1525.774780,5919.926574,6468.840715,6019.660058,11651.226777,10659.189303,13300.092614,1810.223080,13242.782741,0.004500,-0.016500,1.006500,192.000000,0.000000,0.000000,0.000000,0.000000,0.000000,0.000000,0.000000,0.000000,0.000000,1772528405.465969,0.000000
14.000000,7114.470853,6291.121994,5851.373774,-17106.035901,11283.205305,8888.238238,-4433.960251,-1516.811730,5890.601085,6474.763927,6013.200404,11654.803056,10646.024125,13295.175230,1795.448577,13155.789752,0.004500,-0.016500,1.006500,192.000000,0.000000,0.000000,0.000000,0.000000,0.000000,0.000000,0.000000,0.000000,0.000000,1772528405.465985,0.000000
16.000000,7110.067559,6282.583628,5844.958823,-17126.845375,11280.478392,8868.255778,-4445.493751,-1523.226681,5901.285219,6478.563723,6024.108055,11658.178170,10664.419611,13293.789422,1806.736208,13186.992787,0.004500,-0.016500,1.006500,192.000000,0.000000,0.000000,0.000000,0.000000,0.000000,0.000000,0.000000,0.000000,0.000000,1772528405.466002,0.000000
18.000000,7104.256106,6280.929599,5854.324204,-17105.320645,11281.260703,8881.577418,-4433.803789,-1518.197539,5903.743911,6482.452927,6022.074046,11656.546492,10662.117381,13288.827335,1815.743961,13189.764403,0.004500,-0.016500,1.006500,192.000000,0.000000,0.000000,0.000000,0.000000,0.000000,0.000000,0.000000,0.000000,0.000000,1772528405.466017,0.000000
20.000000,7105.753673,6272.145363,5844.891768,-17119.089320,11271.627101,8863.986595,-4443.839722,-1523.785475,5879.916952,6471.992311,6016.441407,11656.546492,10642.850178,13293.387090,1804.255164,13145.396190,0.000250,-0.014250,1.009250,192.000000,127.500000,112.000000,127.500000,80.000000,15.500000,80.000000,0.000000,0.000000,0.000000,1772528405.466032,0.000000
22.000000,7095.471870,6271.564218,5844.332974,-17110.193325,11281.059537,8884.416090,-4443.437391,-1524.679545,5904.548574,6462.068136,6020.084741,11651.986736,10640.659707,13275.483343,1818.314411,13232.947973,0.000250,-0.014250,1.009250,192.000000,0.000000,0.000000,0.000000,0.000000,0.000000,0.000000,0.000000,0.000000,0.000000,1772528405.466046,0.000000
24.000000,7100.501013,6282.158945,5845.785838,-17101.789069,11285.105203,8881.309197,-4437.089495,-1519.739809,5876.273617,6476.015625,6015.390875,11659.474571,10658.295233,13297.052776,1798.086083,13159.321327,0.000250,-0.014250,1.009250,192.000000,0.000000,0.000000,0.000000,0.000000,0.000000,0.000000,0.000000,0.000000,0.000000,1772528405.466061,0.000000
26.000000,7095.963609,6262.869389,5836.129884,-17126.823023,11285.239313,8879.029319,-4448.734754,-1531.318013,5883.292065,6473.534581,6013.938011,11651.025611,10643.453675,13297.455108,1804.612792,13208.852793,0.000250,-0.014250,1.009250,192.000000,0.000000,0.000000,0.000000,0.000000,0.000000,0.000000,0.000000,0.000000,0.000000,1772528405.466075,0.000000
28.000000,7088.542830,6266.579779,5846.322280,-17115.758910,11279.472563,8864.724203,-4436.396591,-1524.277213,5883.023844,6463.565703,6012.529851,11647.114056,10640.436189,13292.247151,1802.891708,13211.244429,0.000250,-0.014250,1.009250,192.000000,0.000000,0.000000,0.000000,0.000000,0.000000,0.000000,0.000000,0.000000,0.000000,1772528405.466090,0.000000
30.000000,7091.046225,6261.260064,5833.805303,-17119.916334,11282.870028,8874.223694,-4445.851379,-1529.261652,5848.602158,6460.771735,6010.562898,11644.811826,10643.744247,13269.448372,1783.356283,13157.376725,-0.000875,-0.013125,1.007625,192.000000,127.500000,120.000000,127.500000,80.000000,15.500000,56.000000,0.000000,0.000000,0.000000,1772528405.466105,0.000000
32.000000,7104.077292,6275.699291,5836.845140,-17117.859974,11287.921523,8887.813555,-4443.660908,-1525.841835,5899.720597,6477.826116,6019.391837,11649.505693,10632.523672,13283.529971,1785.591458,13240.212290,-0.000875,-0.013125,1.007625,192.000000,0.000000,0.000000,0.000000,0.000000,0.000000,0.000000,0.000000,0.000000,0.000000,1772528405.466120,0.000000
34.000000,7083.513687,6265.439840,5846.523445,-17111.310913,11264.854522,8868.188723,-4436.642460,-1522.846701,5871.736213,6467.857238,6008.439482,11647.628146,10650.449771,13285.742794,1786.351417,13149.754781,-0.000875,-0.013125,1.007625,192.000000,0.000000,0.000000,0.000000,0.000000,0.000000,0.000000,0.000000,0.000000,0.000000,1772528405.466135,0.000000
36.000000,7099.539888,6272.905323,5843.863588,-17122.866764,11272.543522,8882.069156,-4446.164304,-1522.198501,5873.881981,6468.572494,6015.927317,11649.684507,10649.846274,13293.543553,1808.680810,13187.573932,-0.000875,-0.013125,1.007625,192.000000,0.000000,0.000000,0.000000,0.000000,0.000000,0.000000,0.000000,0.000000,0.000000,1772528405.466150,0.000000
38.000000,7076.405832,6273.575875,5852.223140,-17111.757947,11287.921523,8890.138136,-4434.720210,-1520.522120,5890.846955,6485.425709,6016.284945,11657.149989,10649.667460,13301.746643,1814.268746,13196.134650,-0.000875,-0.013125,1.007625,192.000000,0.000000,0.000000,0.000000,0.000000,0.000000,0.000000,0.000000,0.000000,0.000000,1772528405.466165,0.000000
40.000000,7070.124992,6254.420430,5842.298966,-17112.026168,11278.109107,8881.957398,-4442.364507,-1525.819483,5847.529274,6471.031186,6006.427825,11649.550396,10648.974556,13295.510506,1798.555469,13151.274699,-0.000875,-0.013125,1.007625,192.000000,0.000000,0.000000,127.500000,56.000000,15.500000,48.000000,0.000000,0.000000,0.000000,1772528405.466180,0.000000
42.000000,7091.582667,6270.513686,5842.410724,-17116.429462,11285.529886,8871.966168,-4441.850417,-1526.758257,5887.740062,6471.165296,6014.385046,11651.807922,10654.808361,13288.112079,1819.029667,13236.412494,-0.000875,-0.013125,1.007625,192.000000,0.000000,0.000000,0.000000,0.000000,0.000000,0.000000,0.000000,0.000000,0.000000,1772528405.466195,0.000000
44.000000,7079.848001,6273.844096,5842.768352,-17106.639398,11287.496839,8893.133270,-4436.575405,-1525.171283,5865.544780,6480.687139,6005.936087,11653.171379,10646.135884,13307.915724,1794.710969,13160.617728,-0.000875,-0.013125,1.007625,192.000000,0.000000,0.000000,0.000000,0.000000,0.000000,0.000000,0.000000,0.000000,0.000000,1772528405.466210,0.000000
46.000000,7086.330007,6265.439840,5838.208596,-17121.793881,11285.820459,8884.036110,-4446.834856,-1526.244167,5872.071489,6487.973808,6010.205270,11649.438637,10651.880282,13306.641675,1805.909193,13211.914982,-0.000875,-0.013125,1.007625,192.000000,0.000000,0.000000,0.000000,0.000000,0.000000,0.000000,0.000000,0.000000,0.000000,1772528405.466223,0.000000
48.000000,7095.605981,6279.834363,5849.317413,-17107.555819,11294.425880,8858.800990,-4434.362582,-1519.113960,5888.477670,6489.158450,6014.876785,11656.881768,10665.112515,13298.438585,1808.524347,13219.022837,-0.000875,-0.013125,1.007625,192.000000,0.000000,0.000000,0.000000,0.000000,0.000000,0.000000,0.000000,0.000000,0.000000,1772528405.466237,0.000000
50.000000,7072.606036,6263.316424,5835.615794,-17116.675331,11298.337436,8891.233372,-4442.923301,-1527.317050,5854.503018,6480.821250,6005.801976,11653.216082,10664.307852,13288.827335,1791.537022,13167.144438,-0.001437,-0.016563,1.005812,192.000000,127.500000,120.000000,127.500000,48.000000,15.500000,48.000000,0.000000,0.000000,0.000000,1772528405.466251,0.000000
52.000000,7077.121088,6262.511761,5836.711030,-17116.898849,11260.205359,8886.092470,-4443.213873,-1531.809751,5875.379548,6467.633720,6007.143081,11647.672850,10638.692753,13288.760279,1806.602097,13246.940165,-0.001437,-0.016563,1.005812,192.000000,0.000000,0.000000,0.000000,0.000000,0.000000,0.000000,0.000000,0.000000,0.000000,1772528405.466266,0.000000
54.000000,7107.474757,6290.563201,5845.159989,-17108.159317,11268.922540,8864.433630,-4436.217777,-1524.500731,5869.031652,6483.794032,6006.807805,11654.333669,10653.936643,13302.461899,1777.880106,13165.378650,-0.001437,-0.016563,1.005812,192.000000,0.000000,0.000000,0.000000,0.000000,0.000000,0.000000,0.000000,0.000000,0.000000,1772528405.466280,0.000000
56.000000,7086.754690,6270.312520,5835.124056,-17123.179689,11277.080927,8872.703775,-4448.958272,-1527.920547,5871.445640,6477.781412,6007.210136,11640.185015,10643.274861,13284.379337,1805.104530,13212.920810,-0.001437,-0.016563,1.005812,192.000000,0.000000,0.000000,0.000000,0.000000,0.000000,0.000000,0.000000,0.000000,0.000000,1772528405.466294,0.000000
58.000000,7108.190013,6291.501974,5851.418477,-17104.493630,11310.474433,8890.540468,-4431.903891,-1509.972097,5898.021865,6490.141927,6022.074046,11657.686431,10660.865684,13304.272390,1793.883955,13215.088930,-0.001437,-0.016563,1.005812,192.000000,0.000000,0.000000,0.000000,0.000000,0.000000,0.000000,0.000000,0.000000,0.000000,1772528405.466304,0.000000
60.000000,7087.805222,6274.916980,5846.434038,-17115.043654,11281.506572,8916.312029,-4438.341193,-1514.353039,5872.786745,6488.890229,6022.342267,11660.368640,10659.055192,13312.967219,1793.816900,13153.398115,-0.001437,-0.016563,1.005812,192.000000,0.000000,0.000000,0.000000,0.000000,0.000000,0.000000,0.000000,0.000000,0.000000,1772528405.466315,0.000000
62.000000,7112.436844,6287.232791,5848.468047,-17110.685064,11274.488124,8898.989427,-4437.111847,-1514.867129,5891.048120,6493.897020,6029.740695,11662.089725,10658.764620,13310.374416,1812.212385,13230.645744,-0.001437,-0.016563,1.005812,192.000000,0.000000,0.000000,127.500000,40.000000,15.500000,40.000000,0.000000,0.000000,0.000000,1772528405.466326,0.000000
64.000000,7108.949972,6312.154986,5850.993794,-17105.879439,11289.620255,8891.389834,-4430.674545,-1508.318068,5872.272655,6495.305180,6017.938974,11659.318108,10665.693660,13303.735948,1801.662362,13149.486560,-0.001437,-0.016563,1.005812,192.000000,0.000000,0.000000,0.000000,0.000000,0.000000,0.000000,0.000000,0.000000,0.000000,1772528405.466336,0.000000
66.000000,7092.677902,6279.834363,5838.722687,-17122.486785,11283.741746,8879.230485,-4445.717269,-1520.008030,5891.204583,6497.383892,6020.375314,11655.339498,10660.128076,13304.026521,1813.218214,13199.196839,-0.001437,-0.016563,1.005812,192.000000,0.000000,0.000000,0.000000,0.000000,0.000000,0.000000,0.000000,0.000000,0.000000,1772528405.466347,0.000000
68.000000,7105.038417,6298.654532,5845.987004,-17103.465450,11282.914732,8879.454002,-4433.066181,-1514.040114,5874.977216,6486.856221,6015.502634,11660.838027,10658.474047,13314.196564,1811.072446,13213.390197,-0.001437,-0.016563,1.005812,192.000000,0.000000,0.000000,0.000000,0.000000,0.000000,0.000000,0.000000,0.000000,0.000000,1772528405.466358,0.000000
70.000000,7095.941257,6295.905268,5836.241643,-17116.496517,11272.632929,8875.542447,-4441.917472,-1518.644574,5869.210466,6499.842584,6015.234413,11662.693222,10660.306890,13301.009035,1796.230888,13168.954929,-0.001437,-0.016563,1.005812,192.000000,0.000000,0.000000,0.000000,0.000000,0.000000,0.000000,0.000000,0.000000,0.000000,1772528405.466368,0.000000
72.000000,7096.187126,6284.170602,5837.448637,-17114.708378,11286.289845,8892.641532,-4441.582196,-1521.013858,5897.574830,6497.562706,6025.493863,11662.603815,10664.106687,13320.946791,1805.328048,13244.727343,0.002000,-0.018000,1.004000,192.000000,0.000000,8.000000,127.500000,56.000000,15.500000,48.000000,0.000000,0.000000,0.000000,1772528405.466379,0.000000
74.000000,7098.981094,6293.290114,5836.085181,-17108.338131,11272.230598,8888.618218,-4437.603585,-1522.064390,5866.394146,6485.693930,6009.534718,11657.015879,10648.527521,13295.935189,1782.171641,13174.095830,0.002000,-0.018000,1.004000,192.000000,0.000000,0.000000,0.000000,0.000000,0.000000,0.000000,0.000000,0.000000,0.000000,1772528405.946112,0.000000
76.000000,7085.368882,6272.525343,5826.026896,-17127.739445,11266.955586,8872.636720,-4450.187618,-1530.759219,5866.796478,6484.688101,6010.987581,11655.183036,10644.213634,13301.612532,1792.811071,13214.105453,0.002000,-0.018000,1.004000,192.000000,0.000000,0.000000,0.000000,0.000000,0.000000,0.000000,0.000000,0.000000,0.000000,1772528405.946190,0.000000
78.000000,7099.986923,6294.832384,5839.706163,-17113.791956,11287.988578,8869.529828,-4436.865978,-1520.276251,5871.244475,6488.934933,6015.636744,11657.798190,10647.186416,13294.415271,1792.028760,13217.011180,0.002000,-0.018000,1.004000,192.000000,0.000000,0.000000,0.000000,0.000000,0.000000,0.000000,0.000000,0.000000,0.000000,1772528405.946231,0.000000
80.000000,7116.460158,6294.273590,5838.856797,-17118.575229,11263.669880,8891.948627,-4443.504446,-1519.784512,5863.622530,6484.598694,6014.116825,11658.625204,10649.466294,13303.914762,1793.615734,13157.555539,0.002000,-0.018000,1.004000,192.000000,0.000000,0.000000,0.000000,0.000000,0.000000,0.000000,0.000000,0.000000,0.000000,1772528405.946272,0.000000
82.000000,7118.315353,6305.650628,5845.562320,-17119.357541,11288.100337,8899.347055,-4440.621071,-1519.695106,5884.990798,6499.507308,6028.086666,11662.939091,10663.436134,13318.331637,1805.618621,13229.729322,0.002000,-0.014000,1.010000,192.000000,0.000000,8.000000,127.500000,72.000000,15.500000,72.000000,0.000000,0.000000,0.000000,1772528405.946320,0.000000
84.000000,7109.844042,6309.986867,5850.658518,-17104.605389,11288.726185,8893.043863,-4433.915548,-1517.079951,5868.271693,6500.669599,6020.397666,11665.263673,10670.588692,13314.956524,1795.336818,13145.530301,0.002000,-0.014000,1.010000,192.000000,0.000000,0.000000,0.000000,0.000000,0.000000,0.000000,0.000000,0.000000,0.000000,1772528405.946357,0.000000
86.000000,7103.853775,6297.536945,5846.478742,-17125.034884,11291.341340,8862.556084,-4444.666737,-1514.285983,5881.392167,6496.914506,6023.035171,11665.755411,10656.752963,13311.670817,1813.084103,13190.636121,0.002000,-0.014000,1.010000,192.000000,0.000000,0.000000,0.000000,0.000000,0.000000,0.000000,0.000000,0.000000,0.000000,1772528405.946379,0.000000
88.000000,7114.895536,6314.524271,5853.765411,-17097.609293,11289.284979,8901.045787,-4431.143931,-1507.602812,5899.921763,6509.185613,6033.115808,11679.635844,10680.848143,13310.955562,1808.501996,13200.850868,0.002000,-0.014000,1.010000,192.000000,0.000000,0.000000,0.000000,0.000000,0.000000,0.000000,0.000000,0.000000,0.000000,1772528405.946391,0.000000
90.000000,7121.601060,6304.644800,5841.136675,-17111.288561,11264.541598,8896.262514,-4440.218740,-1511.916698,5873.211428,6506.346942,6019.436541,11674.606702,10681.518696,13316.968181,1793.459272,13149.441856,0.002000,-0.014000,1.010000,192.000000,0.000000,0.000000,0.000000,0.000000,0.000000,0.000000,0.000000,0.000000,0.000000,1772528405.946402,0.000000
92.000000,7109.419359,6295.949971,5837.381582,-17116.407110,11270.643624,8887.925313,-4440.442257,-1512.654306,5898.513603,6499.104977,6022.297564,11672.237417,10656.864721,13312.810756,1807.362057,13229.997543,0.006000,-0.010000,1.010000,192.000000,0.000000,24.000000,127.500000,88.000000,15.500000,72.000000,0.000000,0.000000,0.000000,1772528405.946414,0.000000
94.000000,7100.299847,6292.686617,5842.030745,-17111.243857,11282.579456,8864.254816,-4436.508350,-1516.632917,5851.172608,6495.707511,6014.675619,11670.583388,10656.663556,13312.676646,1780.875239,13152.928728,0.006000,-0.010000,1.010000,192.000000,0.000000,0.000000,0.000000,0.000000,0.000000,0.000000,0.000000,0.000000,0.000000,1772528405.946426,0.000000
96.000000,7086.397062,6277.621541,5830.340782,-17121.950343,11260.719450,8848.854464,-4450.612301,-1529.373411,5853.988928,6474.294540,6008.059503,11660.256882,10655.098934,13288.246189,1802.422321,13204.360092,0.006000,-0.010000,1.010000,192.000000,0.000000,0.000000,0.000000,0.000000,0.000000,0.000000,0.000000,0.000000,0.000000,1772528405.946436,0.000000
98.000000,7097.729397,6290.719663,5843.774181,-17108.740462,11280.456040,8881.175087,-4438.028269,-1521.483245,5866.818829,6491.237162,6012.440445,11663.743754,10648.371059,13304.004169,1799.941277,13216.452386,0.006000,-0.010000,1.010000,192.000000,0.000000,0.000000,0.000000,0.000000,0.000000,0.000000,0.000000,0.000000,0.000000,1772528405.946451,0.000000
100.000000,7097.036492,6288.216268,5838.096838,-17124.923125,11280.388985,8874.648377,-4443.593853,-1518.912794,5849.675041,6485.224543,6010.138215,11659.876902,10653.020221,13308.318056,1789.748882,13163.478752,0.006000,-0.010000,1.010000,192.000000,0.000000,0.000000,0.000000,0.000000,0.000000,0.000000,0.000000,0.000000,0.000000,1772528405.946465,0.000000
102.000000,7102.982056,6287.501012,5838.298003,-17115.758910,11266.910883,8888.037072,-4440.419905,-1515.537681,5866.349443,6485.626875,6024.420980,11666.515370,10659.144599,13307.602800,1798.197841,13231.785683,0.004000,-0.010000,1.008000,192.000000,0.000000,16.000000,127.500000,88.000000,15.500000,64.000000,0.000000,0.000000,0.000000,1772528405.946476,0.000000
104.000000,7111.676885,6299.950933,5844.936472,-17106.214715,11260.160656,8895.971941,-4432.328574,-1510.754408,5846.478742,6484.911619,6015.636744,11666.180094,10668.085297,13304.026521,1780.942295,13154.158074,0.004000,-0.010000,1.008000,192.000000,0.000000,0.000000,0.000000,0.000000,0.000000,0.000000,0.000000,0.000000,0.000000,1772528405.946491,0.000000
106.000000,7091.157984,6286.249314,5839.437942,-17126.644209,11277.036223,8855.358822,-4443.549149,-1519.650402,5870.149239,6490.208982,6018.363657,11663.766106,10656.641204,13311.424948,1794.062769,13186.679862,0.004000,-0.010000,1.008000,192.000000,0.000000,0.000000,0.000000,0.000000,0.000000,0.000000,0.000000,0.000000,0.000000,1772528405.946506,0.000000
108.000000,7092.633199,6291.323160,5846.970480,-17107.242895,11280.299578,8883.164392,-4432.641498,-1517.594042,5872.339710,6490.544258,6015.390875,11662.715574,10668.778201,13317.683437,1800.701237,13189.138554,0.004000,-0.010000,1.008000,192.000000,0.000000,0.000000,0.000000,0.000000,0.000000,0.000000,0.000000,0.000000,0.000000,1772528405.946525,0.000000
110.000000,7096.768272,6282.874201,5841.226082,-17115.557744,11266.709717,8887.902962,-4443.370336,-1522.511425,5856.581730,6491.930067,6010.518194,11656.658251,10656.015355,13318.152823,1790.531193,13153.666336,0.004000,-0.010000,1.008000,192.000000,0.000000,0.000000,0.000000,0.000000,0.000000,0.000000,0.000000,0.000000,0.000000,1772528405.946541,0.000000
112.000000,7083.401928,6278.493259,5841.494303,-17116.317703,11267.648490,8872.971996,-4442.677431,-1518.801036,5871.043309,6483.659921,6016.687276,11655.697126,10665.894826,13307.446338,1809.172548,13233.842043,0.002000,-0.006000,1.002000,192.000000,0.000000,8.000000,127.500000,104.000000,15.500000,40.000000,0.000000,0.000000,0.000000,1772528405.946553,0.000000
114.000000,7095.226001,6287.992750,5845.115286,-17113.121404,11288.860296,8868.591055,-4435.837798,-1516.990544,5845.428210,6487.817346,6012.418093,11667.834123,10671.147486,13310.687341,1796.901440,13153.442818,0.002000,-0.006000,1.002000,192.000000,0.000000,0.000000,0.000000,0.000000,0.000000,0.000000,0.000000,0.000000,0.000000,1772528405.946568,0.000000
116.000000,7095.024835,6281.175468,5835.034649,-17119.737520,11281.171296,8897.603619,-4446.007841,-1519.829216,5867.847010,6495.908677,6019.771817,11671.186885,10667.571207,13316.565849,1797.616696,13198.593342,0.002000,-0.006000,1.002000,192.000000,0.000000,0.000000,0.000000,0.000000,0.000000,0.000000,0.000000,0.000000,0.000000,1772528405.946579,0.000000
118.000000,7089.258085,6292.485451,5844.109457,-17105.410052,11267.179104,8900.509346,-4433.423809,-1515.805902,5880.587504,6495.841622,6012.127520,11664.257844,10664.151390,13319.449224,1803.204632,13216.742959,0.002000,-0.006000,1.002000,192.000000,0.000000,0.000000,0.000000,0.000000,0.000000,0.000000,0.000000,0.000000,0.000000,1772528405.946590,0.000000
120.000000,7078.909228,6269.507858,5838.521521,-17122.307971,11272.767040,8865.372403,-4443.415039,-1520.589175,5837.538044,6482.095299,6011.278154,11659.653385,10666.945358,13322.042027,1789.279495,13160.863597,0.002000,-0.006000,1.002000,192.000000,0.000000,0.000000,0.000000,0.000000,0.000000,0.000000,0.000000,0.000000,0.000000,1772528405.946602,0.000000
122.000000,7100.501013,6286.875163,5842.813056,-17116.407110,11269.861313,8874.670729,-4443.102115,-1519.270422,5872.898504,6488.107918,6016.463759,11662.045021,10671.013376,13306.149936,1808.434940,13240.435808,0.006000,0.002000,1.000000,192.000000,0.000000,24.000000,0.000000,8.000000,15.500000,32.000000,0.000000,0.000000,0.000000,1772528405.946631,0.000000
124.000000,7105.038417,6297.313428,5847.529274,-17109.589828,11288.726185,8880.303369,-4433.423809,-1512.117864,5864.337786,6500.647247,6012.663962,11669.465800,10679.775259,13321.192660,1789.167737,13159.388382,0.006000,0.002000,1.000000,192.000000,0.000000,0.000000,0.000000,0.000000,0.000000,0.000000,0.000000,0.000000,0.000000,1772528405.946642,0.000000
126.000000,7092.096757,6286.025797,5838.476817,-17125.079587,11277.818534,8880.951569,-4443.526798,-1516.342344,5873.144373,6500.401378,6019.101264,11666.403611,10661.357422,13324.120739,1793.571030,13203.734243,0.006000,0.002000,1.000000,192.000000,0.000000,0.000000,0.000000,0.000000,0.000000,0.000000,0.000000,0.000000,0.000000,1772528405.946654,0.000000
128.000000,7104.680789,6298.431015,5849.742097,-17101.543200,11296.214020,8893.245029,-4427.858225,-1505.881727,5885.884867,6498.188555,6024.689200,11674.226722,10679.127059,13312.654294,1799.762464,13206.505860,0.006000,0.002000,1.000000,192.000000,0.000000,0.000000,0.000000,0.000000,0.000000,0.000000,0.000000,0.000000,0.000000,1772528405.946666,0.000000
130.000000,7103.764368,6300.017989,5843.818884,-17112.495555,11274.197552,8889.244066,-4435.658984,-1508.206309,5875.446603,6509.073855,6020.263555,11671.298644,10681.384585,13341.532748,1785.993789,13154.180426,0.006000,0.002000,1.000000,192.000000,0.000000,0.000000,0.000000,0.000000,0.000000,0.000000,0.000000,0.000000,0.000000,1772528405.946678,0.000000
132.000000,7097.103548,6302.879012,5844.847065,-17109.478069,11273.549351,8877.218828,-4435.748391,-1509.815634,5887.047158,6508.805634,6033.004049,11673.377356,10681.988082,13318.331637,1801.729417,13231.673924,0.006000,-0.001000,1.001000,192.000000,0.000000,24.000000,127.500000,112.000000,15.500000,40.000000,0.000000,0.000000,0.000000,1772528405.946690,0.000000
134.000000,7093.706083,6293.983018,5847.596329,-17101.051462,11272.476467,8887.254761,-4429.802827,-1507.982791,5852.625472,6503.620029,6015.949668,11669.734021,10663.972576,13305.457032,1794.398045,13155.812103,0.006000,-0.001000,1.001000,192.000000,0.000000,0.000000,0.000000,0.000000,0.000000,0.000000,0.000000,0.000000,0.000000,1772528405.946701,0.000000
136.000000,7086.754690,6278.403852,5839.080315,-17130.309895,11304.975904,8883.924351,-4445.650213,-1518.242242,5872.384414,6495.685160,6019.838872,11672.997376,10660.709221,13317.102291,1803.405798,13197.475755,0.006000,-0.001000,1.001000,192.000000,0.000000,0.000000,0.000000,0.000000,0.000000,0.000000,0.000000,0.000000,0.000000,1772528405.946713,0.000000
138.000000,7110.514594,6302.946067,5846.858722,-17107.578171,11286.982749,8896.754253,-4431.523911,-1509.748579,5875.625417,6499.104977,6020.799997,11674.517295,10677.808306,13330.088655,1817.889728,13209.500993,0.006000,-0.001000,1.001000,192.000000,0.000000,0.000000,0.000000,0.000000,0.000000,0.000000,0.000000,0.000000,0.000000,1772528405.946725,0.000000
140.000000,7074.438879,6284.751747,5835.794608,-17116.563572,11265.435668,8878.649340,-4439.659946,-1518.108132,5843.148332,6492.399453,6007.612468,11669.756373,10653.154332,13313.324846,1795.269763,13159.835417,0.006000,-0.001000,1.001000,192.000000,0.000000,0.000000,0.000000,0.000000,0.000000,0.000000,0.000000,0.000000,0.000000,1772528405.946736,0.000000
142.000000,7082.910190,6286.830459,5834.118227,-17118.396416,11267.804953,8880.236313,-4438.609414,-1517.214062,5868.808135,6489.180802,6013.468625,11663.855513,10659.681041,13315.135338,1809.127844,13241.195767,0.006000,-0.001000,1.001000,192.000000,0.000000,0.000000,127.500000,88.000000,15.500000,64.000000,0.000000,0.000000,0.000000,1772528405.946747,0.000000
144.000000,7103.719664,6298.028683,5841.248434,-17106.661750,11271.627101,8859.650357,-4431.032173,-1508.787454,5859.040422,6498.121500,6012.038113,11676.148972,10657.825846,13307.446338,1780.651722,13163.746973,0.006000,-0.001000,1.001000,192.000000,0.000000,0.000000,0.000000,0.000000,0.000000,0.000000,0.000000,0.000000,0.000000,1772528405.946759,0.000000
146.000000,7093.281399,6277.599189,5833.581785,-17126.040712,11267.648490,8877.464697,-4442.230397,-1517.459931,5883.850859,6494.299351,6019.682410,11672.662100,10679.216466,13294.661140,1794.085120,13205.790604,0.006000,-0.001000,1.001000,192.000000,0.000000,0.000000,0.000000,0.000000,0.000000,0.000000,0.000000,0.000000,0.000000,1772528405.946772,0.000000
148.000000,7099.830461,6299.682713,5845.539969,-17106.147660,11285.194610,8895.547258,-4430.518082,-1511.782588,5877.972350,6490.432500,6016.307296,11669.488152,10652.997870,13316.297628,1793.839251,13221.526232,0.006000,-0.001000,1.001000,192.000000,0.000000,0.000000,0.000000,0.000000,0.000000,0.000000,0.000000,0.000000,0.000000,1772528405.946784,0.000000
150.000000,7109.575821,6301.359093,5840.287309,-17110.796822,11284.099374,8906.477261,-4435.569577,-1511.827291,5860.001547,6507.084549,6013.088645,11674.360832,10660.441001,13332.279126,1781.434033,13167.479714,0.006000,-0.001000,1.001000,192.000000,0.000000,0.000000,0.000000,0.000000,0.000000,0.000000,0.000000,0.000000,0.000000,1772528405.946796,0.000000
152.000000,7096.388292,6291.211401,5841.606062,-17111.959113,11278.846714,8895.994293,-4434.899024,-1513.078989,5881.012187,6499.082625,6021.224680,11670.985719,10678.009472,13319.315114,1807.987906,13240.055828,0.002000,-0.006500,1.002500,192.000000,127.500000,120.000000,127.500000,80.000000,15.500000,48.000000,0.000000,0.000000,0.000000,1772528405.946807,0.000000
154.000000,7115.208461,6323.956707,5850.189132,-17101.923180,11279.852543,8872.681424,-4425.377181,-1500.986695,5872.540876,6502.211869,6013.558032,11675.880751,10675.304911,13314.442434,1791.626429,13151.386458,0.002000,-0.006500,1.002500,192.000000,0.000000,0.000000,0.000000,0.000000,0.000000,0.000000,0.000000,0.000000,0.000000,1772528405.946819,0.000000
156.000000,7097.394120,6302.901364,5836.711030,-17122.665599,11286.111031,8882.247970,-4440.822237,-1513.816597,5878.709957,6518.618049,6025.695029,11674.629053,10667.750021,13307.915724,1800.678885,13195.464098,0.002000,-0.006500,1.002500,192.000000,0.000000,0.000000,0.000000,0.000000,0.000000,0.000000,0.000000,0.000000,0.000000,1772528405.946830,0.000000
158.000000,7114.135577,6307.483471,5845.629376,-17105.141831,11300.326741,8888.886438,-4427.590004,-1506.038190,5874.016091,6506.861032,6021.738770,11672.773859,10659.748096,13325.394788,1797.437882,13212.429072,0.002000,-0.006500,1.002500,192.000000,0.000000,0.000000,0.000000,0.000000,0.000000,0.000000,0.000000,0.000000,0.000000,1772528405.946842,0.000000
160.000000,7094.331931,6289.155041,5837.672155,-17122.687950,11274.510476,8875.385985,-4437.983565,-1515.738847,5859.979196,6504.983485,6014.675619,11676.528952,10661.960919,13319.918611,1791.313504,13157.577891,0.002000,-0.006500,1.002500,192.000000,0.000000,0.000000,0.000000,0.000000,0.000000,0.000000,0.000000,0.000000,0.000000,1772528405.946853,0.000000
162.000000,7088.766347,6283.544753,5836.621623,-17119.044616,11266.217979,8886.025415,-4441.224568,-1521.997335,5869.009300,6482.184706,6006.561936,11661.173303,10657.289405,13294.102346,1815.743961,13244.816750,0.002000,-0.006500,1.002500,192.000000,0.000000,0.000000,127.500000,96.000000,15.500000,48.000000,0.000000,0.000000,0.000000,1772528405.946865,0.000000
164.000000,7103.093815,6300.710893,5842.768352,-17114.216639,11271.448287,8870.178028,-4433.088533,-1517.482283,5850.993794,6486.900924,6004.751444,11663.654347,10655.054230,13307.088710,1798.108434,13170.497199,0.002000,-0.006500,1.002500,192.000000,0.000000,0.000000,0.000000,0.000000,0.000000,0.000000,0.000000,0.000000,0.000000,1772528405.946876,0.000000
166.000000,7092.432033,6280.884895,5833.201806,-17133.819119,11264.809819,8861.952586,-4445.739620,-1526.110056,5853.676004,6483.369348,6003.231526,11657.239396,10655.300099,13294.057643,1803.919888,13211.222078,0.002000,-0.006500,1.002500,192.000000,0.000000,0.000000,0.000000,0.000000,0.000000,0.000000,0.000000,0.000000,0.000000,1772528405.946888,0.000000
168.000000,7101.685655,6301.604963,5847.417515,-17112.652017,11279.427860,8866.087659,-4430.383972,-1513.615431,5865.745946,6488.420843,6007.679523,11660.994489,10653.601367,13298.371529,1797.750807,13220.520403,0.002000,-0.006500,1.002500,192.000000,0.000000,0.000000,0.000000,0.000000,0.000000,0.000000,0.000000,0.000000,0.000000,1772528405.946900,0.000000
170.000000,7093.840193,6294.564163,5839.013259,-17121.145680,11264.563950,8872.480258,-4438.542359,-1518.711629,5865.477725,6490.454851,6005.578459,11664.973100,10666.475972,13302.618361,1786.865507,13168.731412,0.002000,-0.006500,1.002500,192.000000,0.000000,0.000000,0.000000,0.000000,0.000000,0.000000,0.000000,0.000000,0.000000,1772528405.946912,0.000000
172.000000,7092.342626,6287.679826,5839.527349,-17113.456680,11264.742764,8904.711474,-4437.134199,-1522.422018,5873.747870,6496.355712,6005.466700,11664.257844,10660.329242,13318.935134,1800.723589,13249.756485,0.002000,-0.007250,1.005250,192.000000,0.000000,8.000000,127.500000,96.000000,15.500000,64.000000,0.000000,0.000000,0.000000,1772528405.946923,0.000000
174.000000,7087.693463,6282.583628,5845.025879,-17111.087395,11273.683461,8874.737784,-4431.456856,-1522.667888,5854.301853,6484.665750,5998.492956,11660.726268,10669.895788,13301.299608,1788.698350,13166.742106,0.002000,-0.007250,1.005250,192.000000,0.000000,0.000000,0.000000,0.000000,0.000000,0.000000,0.000000,0.000000,0.000000,1772528405.946935,0.000000
176.000000,7113.710894,6298.185146,5842.589538,-17126.688913,11276.499781,8876.324758,-4439.972870,-1526.154760,5880.855725,6485.313950,5998.314142,11655.093629,10668.442925,13302.596009,1808.747865,13200.739110,0.002000,-0.007250,1.005250,192.000000,0.000000,0.000000,0.000000,0.000000,0.000000,0.000000,0.000000,0.000000,0.000000,1772528405.946946,0.000000
178.000000,7095.091891,6297.849869,5850.390297,-17116.764738,11292.861258,8863.628967,-4428.394667,-1516.923489,5876.430080,6498.501479,6006.472529,11662.425001,10672.265073,13299.109137,1808.032609,13206.528211,0.002000,-0.007250,1.005250,192.000000,0.000000,0.000000,0.000000,0.000000,0.000000,0.000000,0.000000,0.000000,0.000000,1772528405.946959,0.000000
180.000000,7093.884897,6276.168677,5837.918024,-17125.973657,11274.398717,8878.090546,-4436.173074,-1518.376353,5848.043364,6495.573401,5998.828232,11663.207312,10663.436134,13300.025558,1801.796472,13157.264967,0.002000,-0.007250,1.005250,192.000000,0.000000,0.000000,0.000000,0.000000,0.000000,0.000000,0.000000,0.000000,0.000000,1772528405.946971,0.000000
182.000000,7081.569085,6288.752709,5843.662422,-17126.532451,11271.805915,8864.210113,-4435.658984,-1517.258765,5866.036518,6504.961134,6009.087683,11664.168437,10654.540140,13334.000210,1811.631240,13236.971287,0.002000,-0.010625,1.005625,192.000000,0.000000,8.000000,127.500000,72.000000,15.500000,56.000000,0.000000,0.000000,0.000000,1772528405.946982,0.000000
184.000000,7077.903399,6279.990826,5846.165818,-17116.049482,11272.565874,8852.117819,-4430.652193,-1521.170321,5835.124056,6491.281866,5997.755348,11667.632957,10654.741306,13311.067320,1803.115225,13159.835417,0.002000,-0.010625,1.005625,192.000000,0.000000,0.000000,0.000000,0.000000,0.000000,0.000000,0.000000,0.000000,0.000000,1772528405.946994,0.000000
186.000000,7081.345568,6287.702177,5836.375753,-17132.343904,11270.978900,8870.803877,-4445.069068,-1532.547359,5848.982137,6484.777508,5996.637761,11652.903158,10654.249567,13290.101384,1811.005391,13207.422281,0.002000,-0.010625,1.005625,192.000000,0.000000,0.000000,0.000000,0.000000,0.000000,0.000000,0.000000,0.000000,0.000000,1772528405.947006,0.000000
188.000000,7076.025853,6292.038416,5847.529274,-17112.674369,11281.819496,8885.824249,-4430.294565,-1524.277213,5861.879094,6492.332398,5991.966247,11651.852626,10657.915253,13318.398692,1808.054961,13221.481528,0.002000,-0.010625,1.005625,192.000000,0.000000,0.000000,0.000000,0.000000,0.000000,0.000000,0.000000,0.000000,0.000000,1772528405.947018,0.000000
190.000000,7078.685710,6280.728433,5837.605099,-17120.698645,11269.213112,8891.300427,-4438.497655,-1526.110056,5841.650765,6505.028189,5993.642627,11658.513446,10659.904559,13317.750492,1795.113301,13163.523455,0.002000,-0.010625,1.005625,192.000000,0.000000,0.000000,0.000000,0.000000,0.000000,0.000000,0.000000,0.000000,0.000000,1772528405.947029,0.000000
192.000000,7073.745975,6272.234770,5838.633280,-17124.766663,11277.416203,8879.543409,-4436.664812,-1524.210158,5844.042402,6499.440253,5992.502688,11661.709745,10662.854989,13325.215974,1803.226984,13245.107322,0.002000,-0.010625,1.005625,192.000000,0.000000,0.000000,127.500000,88.000000,15.500000,64.000000,0.000000,0.000000,0.000000,1772528405.947040,0.000000
194.000000,7087.112318,6279.990826,5840.846102,-17106.549991,11288.569723,8876.391813,-4427.567652,-1516.811730,5842.656594,6510.370256,5991.765081,11673.399707,10662.787934,13316.521146,1784.764443,13162.674089,0.002000,-0.010625,1.005625,192.000000,0.000000,0.000000,0.000000,0.000000,0.000000,0.000000,0.000000,0.000000,0.000000,1772528406.427119,0.000000
196.000000,7084.139536,6293.066596,5834.162931,-17116.027131,11263.781639,8887.947665,-4438.072972,-1522.243204,5848.065716,6513.052465,5998.627066,11670.672795,10652.729649,13327.205280,1785.524402,13205.634142,0.002000,-0.010625,1.005625,192.000000,0.000000,0.000000,0.000000,0.000000,0.000000,0.000000,0.000000,0.000000,0.000000,1772528406.427180,0.000000
198.000000,7083.759556,6297.536945,5850.882036,-17103.666616,11290.156697,8872.189685,-4425.421885,-1512.520196,5842.567187,6521.680238,6003.075064,11670.248112,10672.577998,13314.889469,1793.794548,13217.301752,0.002000,-0.010625,1.005625,192.000000,0.000000,0.000000,0.000000,0.000000,0.000000,0.000000,0.000000,0.000000,0.000000,1772528406.427226,0.000000
200.000000,7097.595286,6310.255088,5852.200789,-17117.837622,11287.385081,8849.234444,-4431.210987,-1509.368600,5851.977271,6529.726866,6010.071160,11678.853533,10665.894826,13322.198489,1793.123995,13150.715906,0.002000,-0.010625,1.005625,192.000000,0.000000,0.000000,0.000000,0.000000,0.000000,0.000000,0.000000,0.000000,0.000000,1772528406.427269,0.000000
202.000000,7103.540850,6296.709931,5848.378640,-17122.933820,11289.284979,8890.920447,-4432.328574,-1512.430789,5875.044271,6525.301221,6016.888442,11677.534780,10669.225236,13315.895297,1811.988868,13219.022837,0.002000,-0.010625,1.005625,192.000000,0.000000,0.000000,0.000000,0.000000,0.000000,0.000000,0.000000,0.000000,0.000000,1772528406.427312,0.000000
204.000000,7081.122050,6303.124881,5849.138600,-17111.936761,11290.715491,8874.290749,-4426.718286,-1514.062466,5831.771294,6516.986372,6001.197517,11682.653330,10663.190265,13332.837919,1796.432054,13152.884025,0.002000,-0.010625,1.005625,192.000000,0.000000,0.000000,127.500000,104.000000,15.500000,48.000000,0.000000,0.000000,0.000000,1772528406.427353,0.000000
206.000000,7074.394175,6278.984997,5836.129884,-17125.347808,11285.239313,8879.677520,-4441.135161,-1524.657193,5833.090047,6512.896003,5995.922505,11670.516332,10652.260262,13317.974009,1812.525310,13195.598208,0.002000,-0.010625,1.005625,192.000000,0.000000,0.000000,0.000000,0.000000,0.000000,0.000000,0.000000,0.000000,0.000000,1772528406.427391,0.000000
208.000000,7104.457272,6301.001465,5843.014222,-17107.645226,11273.236427,8893.043863,-4429.847530,-1520.767989,5845.964652,6521.657887,5993.754386,11671.410402,10668.577035,13332.949678,1809.977211,13230.489281,0.002000,-0.010625,1.005625,192.000000,0.000000,0.000000,0.000000,0.000000,0.000000,0.000000,0.000000,0.000000,0.000000,1772528406.427403,0.000000
210.000000,7085.346530,6289.132689,5832.620660,-17121.480956,11264.541598,8887.098299,-4441.068106,-1526.892367,5830.094913,6532.990221,5984.634874,11669.152876,10664.084335,13331.586222,1795.359170,13178.342662,0.002000,-0.010625,1.005625,192.000000,0.000000,0.000000,0.000000,0.000000,0.000000,0.000000,0.000000,0.000000,0.000000,1772528406.427422,0.000000
212.000000,7074.528286,6279.968474,5829.670230,-17121.235087,11256.070287,8873.597845,-4441.068106,-1528.680507,5840.108495,6505.408168,5988.300561,11661.486228,10649.019259,13316.901126,1805.819786,13260.954709,0.002000,-0.010625,1.005625,192.000000,0.000000,0.000000,0.000000,0.000000,0.000000,0.000000,0.000000,0.000000,0.000000,1772528406.427434,0.000000
214.000000,7081.636141,6295.301771,5835.235814,-17115.758910,11293.062424,8872.122630,-4433.580271,-1525.193635,5817.756750,6510.482014,5985.595999,11663.184960,10647.745210,13320.097425,1780.517612,13178.879104,-0.002000,-0.010000,1.006000,192.000000,127.500000,120.000000,127.500000,88.000000,15.500000,56.000000,0.000000,0.000000,0.000000,1772528406.427446,0.000000
216.000000,7067.152210,6275.989863,5827.278593,-17129.415826,11261.010022,8853.749496,-4445.203179,-1535.296623,5825.490454,6505.877555,5985.551296,11656.792361,10647.901672,13305.121756,1791.112338,13210.909153,-0.002000,-0.010000,1.006000,192.000000,0.000000,0.000000,0.000000,0.000000,0.000000,0.000000,0.000000,0.000000,0.000000,1772528406.427457,0.000000
218.000000,7084.720681,6288.015102,5837.225120,-17110.282732,11281.417165,8879.833982,-4432.976774,-1531.027440,5837.292175,6513.655962,5985.104261,11659.653385,10648.907500,13317.258753,1792.811071,13225.773063,-0.002000,-0.010000,1.006000,192.000000,0.000000,0.000000,0.000000,0.000000,0.000000,0.000000,0.000000,0.000000,0.000000,1772528406.427469,0.000000
220.000000,7084.452460,6286.472832,5835.638146,-17124.006703,11262.820514,8868.009909,-4439.324670,-1527.898196,5826.004544,6522.440198,5979.829249,11656.658251,10644.571262,13336.928289,1792.207574,13159.298975,-0.002000,-0.010000,1.006000,192.000000,0.000000,0.000000,0.000000,0.000000,0.000000,0.000000,0.000000,0.000000,0.000000,1772528406.427495,0.000000
222.000000,7099.070501,6302.163756,5839.437942,-17121.615067,11273.482296,8894.362616,-4437.022440,-1518.488111,5845.875245,6507.531584,5995.698988,11663.743754,10663.100858,13312.676646,1810.558356,13242.581575,-0.002000,-0.010000,1.006000,192.000000,0.000000,0.000000,0.000000,0.000000,0.000000,0.000000,0.000000,0.000000,0.000000,1772528406.427507,0.000000
224.000000,7102.780891,6323.308506,5847.886902,-17110.930933,11276.790354,8894.206154,-4428.819350,-1512.721361,5841.874283,6518.059256,6001.599848,11675.053737,10658.071716,13334.559004,1790.397083,13164.506932,0.004000,-0.008000,1.008000,192.000000,0.000000,16.000000,127.500000,96.000000,15.500000,64.000000,0.000000,0.000000,0.000000,1772528406.427519,0.000000
226.000000,7095.248353,6291.189050,5837.940376,-17124.833718,11273.012909,8877.263531,-4441.045754,-1516.901137,5841.114323,6517.746331,5996.883630,11671.477457,10650.896806,13325.663009,1803.808129,13204.851831,0.004000,-0.008000,1.008000,192.000000,0.000000,0.000000,0.000000,0.000000,0.000000,0.000000,0.000000,0.000000,0.000000,1772528406.427531,0.000000
228.000000,7118.740036,6311.193861,5850.502056,-17110.282732,11284.144078,8874.693081,-4428.595832,-1510.352076,5853.161914,6530.084494,6004.147947,11681.178115,10670.074602,13327.585259,1803.629315,13217.838194,0.004000,-0.008000,1.008000,192.000000,0.000000,0.000000,0.000000,0.000000,0.000000,0.000000,0.000000,0.000000,0.000000,1772528406.427543,0.000000
230.000000,7089.436899,6304.890669,5837.001602,-17121.503308,11277.907941,8891.926276,-4440.017574,-1521.662059,5841.315489,6523.177805,5990.558087,11671.455106,10648.192245,13319.024541,1800.008333,13164.551635,0.004000,-0.008000,1.008000,192.000000,0.000000,0.000000,0.000000,0.000000,0.000000,0.000000,0.000000,0.000000,0.000000,1772528406.427554,0.000000
232.000000,7083.603094,6292.641913,5834.654669,-17127.873555,11278.533790,8902.923334,-4442.498617,-1525.797132,5855.508847,6517.656924,5996.905982,11666.671832,10642.716067,13323.517242,1806.222118,13246.984869,0.004000,-0.008000,1.008000,192.000000,0.000000,0.000000,0.000000,0.000000,0.000000,0.000000,0.000000,0.000000,0.000000,1772528406.427567,0.000000
234.000000,7094.846022,6314.032532,5838.454466,-17117.770567,11284.613464,8895.323741,-4436.307184,-1522.332611,5839.080315,6531.515006,5994.648456,11664.615472,10654.160160,13338.090579,1793.191051,13174.721679,0.004000,-0.008000,1.008000,192.000000,0.000000,0.000000,127.500000,64.000000,15.500000,56.000000,0.000000,0.000000,0.000000,1772528406.427579,0.000000
236.000000,7096.254181,6290.809070,5825.468102,-17134.132044,11274.957511,8873.933121,-4447.728926,-1529.239300,5839.661460,6514.952363,5991.362750,11661.039193,10659.055192,13318.801024,1798.577821,13212.831403,0.004000,-0.008000,1.008000,192.000000,0.000000,0.000000,0.000000,0.000000,0.000000,0.000000,0.000000,0.000000,0.000000,1772528406.427590,0.000000
238.000000,7092.454385,6296.866393,5837.225120,-17113.724901,11267.290862,8860.767944,-4434.250824,-1527.138236,5836.867492,6505.542279,5987.317084,11663.028498,10645.085352,13307.021654,1795.672094,13223.694351,0.004000,-0.008000,1.008000,192.000000,0.000000,0.000000,0.000000,0.000000,0.000000,0.000000,0.000000,0.000000,0.000000,1772528406.427602,0.000000
240.000000,7109.374655,6323.688486,5835.615794,-17120.206907,11265.972110,8860.298557,-4440.732830,-1526.065353,5834.431152,6506.972791,5977.638778,11660.234530,10647.544044,13314.129509,1795.135652,13162.875254,0.004000,-0.008000,1.008000,192.000000,0.000000,0.000000,0.000000,0.000000,0.000000,0.000000,0.000000,0.000000,0.000000,1772528406.427614,0.000000
242.000000,7117.108359,6315.418341,5838.163893,-17121.570363,11280.880723,8889.087604,-4438.005917,-1517.705800,5864.896579,6527.826968,5992.435633,11670.114001,10652.796704,13327.227631,1807.071484,13238.468854,0.004000,-0.008000,1.008000,192.000000,0.000000,0.000000,0.000000,0.000000,0.000000,0.000000,0.000000,0.000000,0.000000,1772528406.427628,0.000000
244.000000,7116.884842,6331.109265,5843.036573,-17111.713244,11290.268456,8873.351976,-4429.087571,-1509.748579,5839.102666,6529.883329,5998.001218,11684.575580,10660.597463,13327.987591,1789.793586,13154.538054,0.004000,-0.016000,1.010000,192.000000,0.000000,16.000000,127.500000,64.000000,15.500000,72.000000,0.000000,0.000000,0.000000,1772528406.427639,0.000000
246.000000,7109.553469,6315.351285,5835.235814,-17128.857032,11274.823400,8853.458924,-4439.727001,-1514.151873,5854.570073,6521.702590,6004.594982,11681.692205,10656.060059,13316.409387,1798.488414,13196.939313,0.004000,-0.016000,1.010000,192.000000,0.000000,0.000000,0.000000,0.000000,0.000000,0.000000,0.000000,0.000000,0.000000,1772528406.427651,0.000000
248.000000,7123.478606,6335.803132,5845.361155,-17113.121404,11278.265569,8891.680407,-4426.517120,-1506.082893,5856.402916,6525.457683,6006.405474,11682.809792,10659.435172,13333.396713,1804.881013,13218.396988,0.004000,-0.016000,1.010000,192.000000,0.000000,0.000000,0.000000,0.000000,0.000000,0.000000,0.000000,0.000000,0.000000,1772528406.427663,0.000000
250.000000,7119.567051,6326.057771,5838.901501,-17123.492613,11279.852543,8884.214924,-4435.100190,-1511.335553,5846.009355,6523.758951,6003.589154,11681.871019,10665.850123,13333.575527,1793.213402,13161.154170,0.004000,-0.016000,1.010000,192.000000,0.000000,0.000000,0.000000,0.000000,0.000000,0.000000,0.000000,0.000000,0.000000,1772528406.427675,0.000000
252.000000,7114.202632,6326.325992,5836.822788,-17121.704474,11274.130496,8893.937933,-4437.424771,-1511.514367,5876.072452,6523.848358,6010.495843,11678.741774,10665.827771,13327.898184,1809.798397,13232.344476,0.004000,-0.016000,1.010000,192.000000,0.000000,0.000000,0.000000,0.000000,0.000000,0.000000,0.000000,0.000000,0.000000,1772528406.427687,0.000000
254.000000,7118.158891,6328.203538,5839.482646,-17113.031997,11267.447325,8889.847563,-4431.635670,-1511.648478,5852.513713,6532.990221,6001.644552,11685.894333,10661.558588,13343.879681,1796.096777,13164.104600,0.002000,-0.016000,1.006000,192.000000,0.000000,8.000000,127.500000,64.000000,15.500000,56.000000,0.000000,0.000000,0.000000,1772528406.427699,0.000000
0.000000,7102.825594,6311.417378,5827.077428,-17125.660732,11257.813723,8873.329624,-4443.817370,-1521.080914,5844.020050,6517.232241,5994.804918,11673.913798,10645.375925,13320.142128,1809.329010,13207.511688,0.002000,-0.016000,1.006000,192.000000,0.000000,0.000000,0.000000,0.000000,0.000000,0.000000,0.000000,0.000000,0.000000,1772528406.427711,0.000000
2.000000,7098.623466,6321.632126,5833.067695,-17105.387700,11277.125630,8886.651264,-4430.540434,-1516.185882,5848.780972,6527.894023,5995.386064,11674.763164,10649.376887,13323.785463,1796.454405,13225.817767,0.002000,-0.016000,1.006000,192.000000,0.000000,0.000000,0.000000,0.000000,0.000000,0.000000,0.000000,0.000000,0.000000,1772528406.427723,0.000000
4.000000,7081.993768,6303.482509,5823.501149,-17116.563572,11254.975051,8874.357805,-4441.783362,-1530.938033,5824.909309,6513.678314,5981.550334,11672.438582,10641.173797,13326.735893,1778.215382,13172.151228,0.002000,-0.016000,1.006000,192.000000,0.000000,0.000000,0.000000,0.000000,0.000000,0.000000,0.000000,0.000000,0.000000,1772528406.427735,0.000000
6.000000,7102.065635,6317.653515,5831.480721,-17127.225355,11262.686403,8850.955528,-4442.275100,-1529.485170,5837.001602,6511.577250,5986.065386,11664.414306,10636.614041,13316.319980,1808.256126,13247.387200,0.002000,-0.016000,1.006000,192.000000,0.000000,0.000000,0.000000,0.000000,0.000000,0.000000,0.000000,0.000000,0.000000,1772528406.427747,0.000000
8.000000,7094.756615,6313.920774,5839.795570,-17121.257439,11266.709717,8869.887456,-4433.244995,-1520.767989,5838.029783,6518.796863,5985.327778,11669.018766,10649.712163,13308.362759,1793.593382,13164.328118,0.003000,-0.018000,1.006000,192.000000,0.000000,16.000000,127.500000,48.000000,15.500000,56.000000,0.000000,0.000000,0.000000,1772528406.427759,0.000000
10.000000,7105.619562,6317.854681,5835.057001,-17132.388608,11261.300595,8872.457906,-4441.716306,-1514.978887,5845.092934,6526.016477,5994.290828,11673.176190,10649.510997,13324.500719,1797.795510,13186.948083,0.003000,-0.018000,1.006000,192.000000,0.000000,0.000000,0.000000,0.000000,0.000000,0.000000,0.000000,0.000000,0.000000,1772528406.427771,0.000000
12.000000,7127.747789,6339.312355,5845.025879,-17110.796822,11271.738860,8890.495764,-4427.388838,-1503.870070,5860.985024,6542.355602,6008.730055,11690.364682,10674.164972,13335.475425,1799.248373,13202.549601,0.003000,-0.018000,1.006000,192.000000,0.000000,0.000000,0.000000,0.000000,0.000000,0.000000,0.000000,0.000000,0.000000,1772528406.427783,0.000000
14.000000,7112.436844,6332.875053,5835.280518,-17111.735596,11260.406525,8876.816496,-4436.374239,-1511.402608,5836.800437,6540.522759,5999.677598,11693.113946,10662.273844,13323.271373,1786.977266,13151.766438,0.003000,-0.018000,1.006000,192.000000,0.000000,0.000000,0.000000,0.000000,0.000000,0.000000,0.000000,0.000000,0.000000,1772528406.427794,0.000000
16.000000,7105.261934,6341.927510,5834.073524,-17113.680197,11257.187874,8891.680407,-4436.508350,-1511.782588,5855.710012,6539.360468,6002.069235,11687.414251,10651.902634,13328.993419,1803.048170,13233.149139,0.003000,-0.018000,1.006000,192.000000,0.000000,0.000000,0.000000,0.000000,0.000000,0.000000,0.000000,0.000000,0.000000,1772528406.427806,0.000000
18.000000,7115.901365,6351.158780,5840.577881,-17106.192363,11270.040127,8879.409299,-4428.394667,-1508.675695,5836.509864,6554.514951,6001.264572,11690.141164,10662.430306,13348.215920,1783.356283,13158.159036,0.002500,-0.023000,1.004000,192.000000,0.000000,8.000000,127.500000,16.000000,15.500000,40.000000,0.000000,0.000000,0.000000,1772528406.427819,0.000000
20.000000,7111.788644,6328.382352,5830.653707,-17127.404169,11273.214075,8885.153697,-4441.336327,-1517.124655,5864.136620,6543.182617,6004.125596,11686.140202,10659.368117,13336.078922,1798.086083,13196.872258,0.002500,-0.023000,1.004000,192.000000,0.000000,0.000000,0.000000,0.000000,0.000000,0.000000,0.000000,0.000000,0.000000,1772528406.427831,0.000000
22.000000,7106.156004,6329.298774,5838.566224,-17109.142793,11270.062479,8878.314063,-4431.769780,-1519.672754,5848.177475,6538.645212,5998.560011,11683.480344,10654.964823,13328.769902,1804.433978,13219.559278,0.002500,-0.023000,1.004000,192.000000,0.000000,0.000000,0.000000,0.000000,0.000000,0.000000,0.000000,0.000000,0.000000,1772528406.427843,0.000000
24.000000,7099.584591,6322.906175,5825.401047,-17111.914410,11264.027508,8886.941837,-4440.218740,-1530.133370,5831.346611,6536.700611,5983.696101,11677.266559,10661.379774,13323.293724,1796.275591,13169.804295,0.002500,-0.023000,1.004000,192.000000,0.000000,0.000000,0.000000,0.000000,0.000000,0.000000,0.000000,0.000000,0.000000,1772528406.427855,0.000000
26.000000,7088.520478,6321.609774,5825.021067,-17108.204020,11263.692232,8877.442345,-4439.995222,-1531.429771,5839.639108,6537.818198,5984.389005,11670.650443,10642.000811,13331.429759,1804.992772,13251.768142,0.002500,-0.023000,1.004000,192.000000,0.000000,0.000000,0.000000,0.000000,0.000000,0.000000,0.000000,0.000000,0.000000,1772528406.427867,0.000000
28.000000,7086.821745,6326.951841,5829.871396,-17100.872648,11286.803935,8879.565761,-4433.624975,-1528.747562,5816.415646,6542.757933,5985.797165,11678.406498,10646.515864,13346.763056,1782.775138,13172.084173,0.002250,-0.021500,1.006000,192.000000,0.000000,8.000000,127.500000,48.000000,15.500000,64.000000,0.000000,0.000000,0.000000,1772528406.427879,0.000000
30.000000,7090.509783,6309.986867,5823.188224,-17120.944514,11270.844790,8866.758211,-4446.119600,-1533.843760,5834.028820,6539.852207,5988.814651,11673.936149,10642.492550,13338.627021,1798.443711,13203.555429,0.002250,-0.021500,1.006000,192.000000,0.000000,0.000000,0.000000,0.000000,0.000000,0.000000,0.000000,0.000000,0.000000,1772528406.427891,0.000000
32.000000,7086.553524,6324.224928,5837.873320,-17112.629665,11268.855485,8886.248933,-4432.261519,-1523.964289,5845.070582,6531.358544,5988.747595,11670.561036,10655.367155,13308.340407,1793.794548,13212.652589,0.002250,-0.021500,1.006000,192.000000,0.000000,0.000000,0.000000,0.000000,0.000000,0.000000,0.000000,0.000000,0.000000,1772528406.427903,0.000000
34.000000,7087.492298,6323.308506,5833.402971,-17119.379892,11255.042107,8878.224656,-4439.078801,-1523.472550,5833.693544,6543.719058,5989.954590,11679.859362,10664.441963,13342.158597,1785.166774,13152.369935,0.002250,-0.021500,1.006000,192.000000,0.000000,0.000000,0.000000,0.000000,0.000000,0.000000,0.000000,0.000000,0.000000,1772528406.427915,0.000000
36.000000,7089.280437,6319.285192,5840.734344,-17122.129157,11264.698060,8878.425822,-4438.721173,-1519.181015,5850.658518,6537.572329,6001.644552,11680.619321,10659.591634,13339.163463,1807.965554,13230.221061,0.002250,-0.021500,1.006000,192.000000,0.000000,0.000000,0.000000,0.000000,0.000000,0.000000,0.000000,0.000000,0.000000,1772528406.427927,0.000000
38.000000,7105.373693,6332.807998,5843.550663,-17108.226372,11264.005156,8876.883552,-4429.333440,-1509.770931,5830.787817,6546.490675,6002.695084,11689.023577,10668.800553,13334.268431,1788.184260,13155.789752,0.002125,-0.018750,1.006000,192.000000,0.000000,8.000000,127.500000,64.000000,15.500000,56.000000,0.000000,0.000000,0.000000,1772528406.427939,0.000000
40.000000,7093.504917,6325.543681,5832.777123,-17123.492613,11267.715546,8859.851522,-4441.492789,-1519.560995,5843.304794,6548.435277,6005.757273,11688.733004,10663.838466,13338.783483,1795.582687,13189.585589,0.002125,-0.018750,1.006000,192.000000,0.000000,0.000000,0.000000,0.000000,0.000000,0.000000,0.000000,0.000000,0.000000,1772528406.427951,0.000000
42.000000,7099.472833,6339.960556,5840.801399,-17104.583037,11272.901150,8899.280000,-4428.349963,-1510.463835,5856.268806,6548.569387,6004.058540,11690.655254,10659.524579,13336.593012,1802.869356,13211.758520,0.002125,-0.018750,1.006000,192.000000,0.000000,0.000000,0.000000,0.000000,0.000000,0.000000,0.000000,0.000000,0.000000,1772528406.427963,0.000000
44.000000,7116.840138,6350.622338,5835.839312,-17112.070872,11273.616406,8882.471488,-4435.681335,-1512.184919,5841.315489,6563.545056,6002.449215,11697.360778,10661.983271,13363.482161,1789.055978,13146.871405,0.002125,-0.018750,1.006000,192.000000,0.000000,0.000000,0.000000,0.000000,0.000000,0.000000,0.000000,0.000000,0.000000,1772528406.427975,0.000000
46.000000,7106.424225,6334.953765,5831.212500,-17114.082529,11292.682444,8900.576401,-4438.140027,-1519.516292,5868.741079,6554.112620,6005.913735,11690.163516,10673.583826,13342.270355,1804.858661,13239.429979,0.002125,-0.018750,1.006000,192.000000,0.000000,0.000000,0.000000,0.000000,0.000000,0.000000,0.000000,0.000000,0.000000,1772528406.427987,0.000000
48.000000,7108.145309,6338.619451,5839.236777,-17098.391604,11276.298615,8893.021511,-4429.936937,-1513.637783,5833.090047,6558.292396,5997.755348,11688.107155,10669.359347,13355.748457,1791.872298,13168.038507,-0.000937,-0.017375,1.005000,192.000000,127.500000,112.000000,127.500000,64.000000,15.500000,48.000000,0.000000,0.000000,0.000000,1772528406.427999,0.000000
50.000000,7118.740036,6341.547530,5828.373829,-17107.131136,11280.031357,8917.608430,-4442.342155,-1516.543510,5856.268806,6557.845361,6002.382160,11689.247094,10672.108611,13356.553120,1797.549641,13206.751729,-0.000937,-0.017375,1.005000,192.000000,0.000000,0.000000,0.000000,0.000000,0.000000,0.000000,0.000000,0.000000,0.000000,1772528406.428012,0.000000
52.000000,7105.820728,6348.901254,5842.187207,-17099.844468,11284.032319,8894.787299,-4430.920414,-1513.503672,5865.254207,6561.913378,6010.182918,11691.683434,10681.742213,13355.279071,1794.465100,13220.945087,-0.000937,-0.017375,1.005000,192.000000,0.000000,0.000000,0.000000,0.000000,0.000000,0.000000,0.000000,0.000000,0.000000,1772528406.428025,0.000000
54.000000,7106.290115,6339.982908,5835.749905,-17107.578171,11266.732069,8896.106052,-4438.832931,-1519.538643,5846.009355,6556.995995,6000.750482,11685.447298,10657.825846,13356.374306,1790.128862,13161.757667,-0.000937,-0.017375,1.005000,192.000000,0.000000,0.000000,0.000000,0.000000,0.000000,0.000000,0.000000,0.000000,0.000000,1772528406.428037,0.000000
56.000000,7116.817786,6353.930396,5839.057963,-17110.796822,11274.599883,8903.683293,-4438.654117,-1517.169358,5878.374681,6558.202989,6005.131424,11688.755356,10662.922044,13349.020582,1796.007370,13245.129674,-0.000937,-0.017375,1.005000,192.000000,0.000000,0.000000,0.000000,0.000000,0.000000,0.000000,0.000000,0.000000,0.000000,1772528406.428049,0.000000
58.000000,7111.565126,6360.166533,5844.668251,-17103.107822,11269.816610,8902.208078,-4431.434504,-1513.391914,5856.425268,6558.985300,5998.358846,11681.647501,10664.866646,13354.876739,1789.301847,13172.128877,-0.000937,-0.017375,1.005000,192.000000,0.000000,0.000000,127.500000,64.000000,15.500000,56.000000,0.000000,0.000000,0.000000,1772528406.428061,0.000000
60.000000,7119.231775,6346.487265,5836.219291,-17124.096110,11268.855485,8886.852430,-4443.213873,-1515.895309,5876.541838,6557.375974,6005.757273,11689.381205,10673.114440,13354.586167,1797.102606,13199.330950,-0.000937,-0.017375,1.005000,192.000000,0.000000,0.000000,0.000000,0.000000,0.000000,0.000000,0.000000,0.000000,0.000000,1772528406.908325,0.000000
62.000000,7134.162740,6363.608702,5848.043364,-17111.310913,11280.791316,8884.527848,-4430.741600,-1507.513405,5868.785783,6555.476076,6007.880689,11690.118812,10676.444850,13344.036143,1809.619583,13212.429072,-0.000937,-0.017375,1.005000,192.000000,0.000000,0.000000,0.000000,0.000000,0.000000,0.000000,0.000000,0.000000,0.000000,1772528406.908418,0.000000
64.000000,7123.456254,6360.188885,5841.583710,-17128.544108,11271.962377,8859.560950,-4438.631766,-1510.977925,5853.050155,6557.264216,6008.394779,11687.123679,10687.307797,13343.522053,1793.213402,13139.517682,-0.000937,-0.017375,1.005000,192.000000,0.000000,0.000000,0.000000,0.000000,0.000000,0.000000,0.000000,0.000000,0.000000,1772528406.908465,0.000000
66.000000,7116.683676,6352.969271,5837.672155,-17117.435291,11273.594054,8906.812538,-4438.609414,-1515.649440,5883.157955,6558.314748,6007.813633,11685.246132,10676.623663,13330.446283,1807.607926,13222.263840,-0.000937,-0.017375,1.005000,192.000000,0.000000,0.000000,0.000000,0.000000,0.000000,0.000000,0.000000,0.000000,0.000000,1772528406.908511,0.000000
68.000000,7116.348400,6359.741850,5838.722687,-17106.505287,11274.465772,8907.818366,-4433.580271,-1520.611527,5871.780917,6563.500352,6001.085758,11682.765088,10658.071716,13336.302440,1789.525365,13162.674089,-0.000937,-0.017375,1.005000,192.000000,0.000000,0.000000,127.500000,64.000000,15.500000,32.000000,0.000000,0.000000,0.000000,1772528406.908558,0.000000
70.000000,7135.012106,6348.700088,5828.507939,-17115.893020,11281.618331,8894.004988,-4443.124466,-1518.465760,5871.915027,6556.593663,5993.039130,11681.021652,10658.854027,13341.286879,1797.571993,13205.969418,-0.000937,-0.017375,1.005000,192.000000,0.000000,0.000000,0.000000,0.000000,0.000000,0.000000,0.000000,0.000000,0.000000,1772528406.908616,0.000000
72.000000,7139.705973,6397.471595,5845.338803,-17098.525715,11318.364599,8894.228505,-4426.092437,-1499.600887,5892.746853,6564.774402,6012.753369,11699.238324,10678.612969,13362.051649,1792.609905,13220.207479,-0.000937,-0.017375,1.005000,192.000000,0.000000,0.000000,0.000000,0.000000,0.000000,0.000000,0.000000,0.000000,0.000000,1772528406.908665,0.000000
74.000000,7135.749714,6373.264655,5841.248434,-17106.304122,11287.765060,8890.406357,-4432.976774,-1502.350152,5865.164800,6570.876428,6019.190671,11707.620228,10688.313626,13363.415106,1792.766368,13151.878196,-0.000937,-0.017375,1.005000,192.000000,0.000000,0.000000,0.000000,0.000000,0.000000,0.000000,0.000000,0.000000,0.000000,1772528406.908706,0.000000
76.000000,7134.162740,6368.794306,5841.203730,-17111.333264,11283.384118,8900.710511,-4435.524873,-1507.558108,5885.840164,6565.489658,6020.420017,11701.272333,10674.567303,13351.926309,1803.629315,13240.256994,-0.000937,-0.017375,1.005000,192.000000,0.000000,0.000000,0.000000,0.000000,0.000000,0.000000,0.000000,0.000000,0.000000,1772528406.908748,0.000000
78.000000,7137.537853,6371.431812,5846.188169,-17101.364386,11269.973072,8903.727997,-4428.014687,-1506.909908,5877.279446,6565.936692,6007.388950,11697.941923,10686.637245,13354.541463,1799.740112,13162.629385,-0.000937,-0.017375,1.005000,192.000000,0.000000,0.000000,0.000000,0.000000,0.000000,0.000000,0.000000,0.000000,0.000000,1772528406.908790,0.000000
80.000000,7130.340592,6361.217065,5835.816960,-17115.691854,11260.540636,8889.780508,-4439.838760,-1512.520196,5878.017053,6559.119410,6008.215965,11693.382167,10668.375870,13350.160521,1804.836310,13197.587514,-0.002000,-0.020000,1.010000,192.000000,127.500000,120.000000,127.500000,48.000000,15.500000,72.000000,0.000000,0.000000,0.000000,1772528406.908820,0.000000
82.000000,7137.359039,6378.986702,5848.110419,-17109.254552,11274.108145,8897.983598,-4429.221681,-1505.993486,5886.086033,6565.646120,6015.145006,11699.439490,10678.277693,13347.947699,1797.884917,13219.201651,-0.002000,-0.020000,1.010000,192.000000,0.000000,0.000000,0.000000,0.000000,0.000000,0.000000,0.000000,0.000000,0.000000,1772528406.908839,0.000000
84.000000,7134.967403,6371.856495,5841.963690,-17115.870668,11261.524112,8895.077872,-4435.793094,-1506.596983,5867.154106,6562.472172,6007.076026,11694.611513,10687.888943,13354.899091,1797.437882,13153.576929,-0.002000,-0.020000,1.010000,192.000000,0.000000,0.000000,0.000000,0.000000,0.000000,0.000000,0.000000,0.000000,0.000000,1772528406.908850,0.000000
86.000000,7137.314336,6372.750565,5841.002565,-17123.626724,11281.283055,8864.880665,-4439.257615,-1511.447312,5895.451414,6560.460515,6012.261631,11694.030368,10668.912312,13328.591088,1808.122016,13227.404741,-0.002000,-0.020000,1.010000,192.000000,0.000000,0.000000,0.000000,0.000000,0.000000,0.000000,0.000000,0.000000,0.000000,1772528406.908861,0.000000
88.000000,7144.176322,6379.657254,5843.327146,-17112.719072,11270.777735,8896.106052,-4430.875710,-1510.441483,5880.296931,6563.321538,6001.465738,11686.564885,10670.856913,13338.761132,1799.494243,13149.017173,-0.002000,-0.020000,1.010000,192.000000,0.000000,0.000000,0.000000,0.000000,0.000000,0.000000,0.000000,0.000000,0.000000,1772528406.908872,0.000000
90.000000,7138.878958,6369.956597,5832.084219,-17110.528601,11266.307386,8898.073005,-4441.001051,-1511.603774,5892.500984,6561.421640,5998.112976,11690.699958,10660.798628,13341.130417,1796.879089,13194.346511,0.002000,-0.016000,1.014000,192.000000,0.000000,8.000000,127.500000,64.000000,15.500000,88.000000,0.000000,0.000000,0.000000,1772528406.908882,0.000000
92.000000,7127.904252,6375.678644,5840.935509,-17098.212790,11275.158677,8889.735805,-4429.646364,-1506.015838,5892.344522,6567.121335,6006.181956,11693.225705,10675.707242,13352.730972,1794.956838,13220.430996,0.002000,-0.016000,1.014000,192.000000,0.000000,0.000000,0.000000,0.000000,0.000000,0.000000,0.000000,0.000000,0.000000,1772528406.908893,0.000000
94.000000,7126.831368,6373.510524,5834.140579,-17115.177764,11272.722336,8894.563782,-4439.056449,-1513.391914,5864.293082,6571.435222,6000.795186,11686.944865,10665.358384,13351.881606,1787.714873,13156.192083,0.002000,-0.016000,1.014000,192.000000,0.000000,0.000000,0.000000,0.000000,0.000000,0.000000,0.000000,0.000000,0.000000,1772528406.908904,0.000000
96.000000,7133.000449,6368.257865,5834.922890,-17113.076700,11285.529886,8907.304276,-4438.229434,-1509.010972,5880.386338,6568.015405,6003.700912,11685.424946,10653.176684,13348.014754,1805.752731,13230.042247,0.002000,-0.016000,1.014000,192.000000,0.000000,0.000000,0.000000,0.000000,0.000000,0.000000,0.000000,0.000000,0.000000,1772528406.908914,0.000000
98.000000,7138.878958,6385.938094,5844.310623,-17101.878476,11288.703834,8930.192462,-4427.478245,-1500.249088,5868.674024,6575.927922,6007.076026,11706.748510,10666.587730,13365.449114,1780.696426,13160.796542,0.002000,-0.016000,1.014000,192.000000,0.000000,0.000000,0.000000,0.000000,0.000000,0.000000,0.000000,0.000000,0.000000,1772528406.908925,0.000000
100.000000,7139.571862,6369.442507,5834.721724,-17120.028093,11279.539618,8902.319837,-4441.962176,-1513.280155,5885.326074,6567.836591,6012.932183,11695.438528,10670.745155,13346.986574,1804.433978,13193.675958,0.008000,-0.010000,1.016000,192.000000,0.000000,32.000000,127.500000,88.000000,15.500000,96.000000,0.000000,0.000000,0.000000,1772528406.908936,0.000000
102.000000,7139.415400,6378.785536,5843.796533,-17108.651055,11280.031357,8903.079796,-4431.590966,-1510.329725,5902.000475,6562.181599,6009.110035,11688.889466,10676.489553,13349.154693,1809.418417,13221.928563,0.008000,-0.010000,1.016000,192.000000,0.000000,0.000000,0.000000,0.000000,0.000000,0.000000,0.000000,0.000000,0.000000,1772528406.908947,0.000000
104.000000,7131.122903,6362.401707,5837.605099,-17118.619933,11263.446362,8868.456944,-4437.067144,-1514.308335,5870.573922,6572.977492,6005.511404,11690.655254,10676.131925,13348.774713,1791.805243,13153.353411,0.008000,-0.010000,1.016000,192.000000,0.000000,0.000000,0.000000,0.000000,0.000000,0.000000,0.000000,0.000000,0.000000,1772528406.908958,0.000000
106.000000,7123.992696,6368.503734,5837.023954,-17124.990180,11269.369575,8875.341281,-4438.743524,-1515.962364,5887.002455,6555.453724,6010.227622,11682.765088,10673.717937,13323.606649,1808.569051,13226.421264,0.008000,-0.010000,1.016000,192.000000,0.000000,0.000000,0.000000,0.000000,0.000000,0.000000,0.000000,0.000000,0.000000,1772528406.908969,0.000000
108.000000,7138.834255,6377.511487,5839.683812,-17107.309950,11282.825325,8904.376197,-4429.892234,-1507.848681,5877.301798,6557.510085,6004.930258,11687.660120,10661.089201,13331.675629,1784.116242,13152.571100,0.008000,-0.010000,1.016000,192.000000,0.000000,0.000000,0.000000,0.000000,0.000000,0.000000,0.000000,0.000000,0.000000,1772528406.908980,0.000000
110.000000,7130.742923,6364.882751,5834.162931,-17128.298238,11264.966281,8881.555066,-4443.258577,-1516.409399,5880.542800,6560.572274,6005.712569,11689.314150,10664.687832,13345.712524,1790.799414,13182.410679,0.008000,-0.012000,1.012000,192.000000,0.000000,32.000000,127.500000,80.000000,15.500000,80.000000,0.000000,0.000000,0.000000,1772528406.908991,0.000000
112.000000,7130.608813,6371.722385,5842.991870,-17115.133061,11275.605711,8889.042901,-4433.714382,-1516.834082,5895.406711,6556.370146,6001.286924,11682.630978,10670.298120,13335.900108,1816.570975,13203.667188,0.008000,-0.012000,1.012000,192.000000,0.000000,0.000000,0.000000,0.000000,0.000000,0.000000,0.000000,0.000000,0.000000,1772528406.909002,0.000000
114.000000,7137.627260,6364.681585,5837.515692,-17112.674369,11271.515342,8888.886438,-4436.910681,-1510.597946,5872.540876,6556.839532,6002.762139,11681.066356,10664.978405,13327.518204,1800.254202,13149.553615,0.008000,-0.012000,1.012000,192.000000,0.000000,0.000000,0.000000,0.000000,0.000000,0.000000,0.000000,0.000000,0.000000,1772528406.909014,0.000000
116.000000,7140.532987,6373.197600,5836.956899,-17116.563572,11259.914787,8896.888363,-4436.843626,-1506.529928,5904.705036,6560.684033,6016.039075,11688.643597,10669.046422,13334.380190,1805.395103,13228.365866,0.008000,-0.012000,1.012000,192.000000,0.000000,0.000000,0.000000,0.000000,0.000000,0.000000,0.000000,0.000000,0.000000,1772528406.909025,0.000000
118.000000,7140.331821,6383.747623,5840.399067,-17105.275942,11275.471601,8902.275133,-4426.897100,-1498.930335,5879.402862,6572.262236,6012.731017,11693.181001,10670.164009,13350.272280,1787.424301,13157.041449,0.008000,-0.012000,1.012000,192.000000,0.000000,0.000000,0.000000,0.000000,0.000000,0.000000,0.000000,0.000000,0.000000,1772528406.909036,0.000000
120.000000,7136.532025,6375.455126,5831.972460,-17118.172898,11270.174238,8896.463680,-4438.587062,-1503.601850,5881.392167,6576.017329,6018.631878,11695.192658,10675.126097,13351.725143,1790.620600,13193.117165,0.002000,-0.022000,1.006000,192.000000,0.000000,8.000000,127.500000,40.000000,15.500000,56.000000,0.000000,0.000000,0.000000,1772528406.909046,0.000000
122.000000,7145.338612,6385.491059,5842.768352,-17104.627741,11281.618331,8888.215886,-4429.713420,-1504.473568,5892.031597,6576.889047,6020.174148,11694.008016,10673.740288,13346.628946,1802.467025,13221.749749,0.002000,-0.022000,1.006000,192.000000,0.000000,0.000000,0.000000,0.000000,0.000000,0.000000,0.000000,0.000000,0.000000,1772528406.909057,0.000000
124.000000,7143.282252,6387.703882,5834.431152,-17115.289523,11283.048842,8906.544317,-4438.363545,-1511.626126,5884.543763,6584.153364,6005.176128,11688.800059,10687.061928,13351.635736,1790.866469,13171.324214,0.002000,-0.022000,1.006000,192.000000,0.000000,0.000000,0.000000,0.000000,0.000000,0.000000,0.000000,0.000000,0.000000,1772528406.909068,0.000000
126.000000,7132.039324,6362.848742,5835.794608,-17117.301180,11276.790354,8909.047712,-4439.369373,-1513.704838,5923.815778,6565.154381,6009.154738,11684.933208,10674.030861,13349.333507,1815.051057,13251.969308,0.002000,-0.022000,1.006000,192.000000,0.000000,0.000000,0.000000,0.000000,0.000000,0.000000,0.000000,0.000000,0.000000,1772528406.909078,0.000000
128.000000,7117.600097,6363.675757,5837.448637,-17102.213753,11277.282092,8891.121613,-4432.865016,-1514.397742,5870.618626,6558.940596,6001.152814,11680.373452,10660.798628,13342.158597,1790.911173,13173.805258,0.002000,-0.022000,1.006000,192.000000,0.000000,0.000000,0.000000,0.000000,0.000000,0.000000,0.000000,0.000000,0.000000,1772528406.909089,0.000000
130.000000,7124.171510,6358.087821,5830.340782,-17123.514965,11250.571758,8897.089529,-4444.107943,-1519.896271,5887.293027,6563.321538,6000.594020,11677.691242,10661.200960,13342.672687,1802.467025,13203.197801,-0.002000,-0.014000,1.002000,192.000000,127.500000,120.000000,127.500000,72.000000,15.500000,40.000000,0.000000,0.000000,0.000000,1772528406.909100,0.000000
132.000000,7130.251185,6372.862324,5838.789742,-17111.020340,11262.574644,8893.669712,-4433.602623,-1516.074123,5877.748832,6556.817181,6001.264572,11677.646539,10667.727669,13338.247041,1802.087045,13220.118072,-0.002000,-0.014000,1.002000,192.000000,0.000000,0.000000,0.000000,0.000000,0.000000,0.000000,0.000000,0.000000,0.000000,1772528406.909110,0.000000
134.000000,7122.226908,6362.647577,5835.928719,-17121.771529,11269.280168,8880.705700,-4439.436428,-1515.224757,5879.894600,6554.917282,5999.319971,11680.015824,10667.682966,13331.832091,1792.162870,13152.012307,-0.002000,-0.014000,1.002000,192.000000,0.000000,0.000000,0.000000,0.000000,0.000000,0.000000,0.000000,0.000000,0.000000,1772528406.909121,0.000000
136.000000,7136.777894,6361.909969,5836.375753,-17128.499404,11287.876819,8882.538543,-4441.850417,-1515.604736,5912.326981,6560.885198,6013.133349,11680.284045,10678.724727,13348.484140,1809.284307,13231.808034,-0.002000,-0.014000,1.002000,192.000000,0.000000,0.000000,0.000000,0.000000,0.000000,0.000000,0.000000,0.000000,0.000000,1772528406.909131,0.000000
138.000000,7132.732228,6366.290911,5842.231910,-17108.896924,11280.947778,8899.347055,-4433.312050,-1511.402608,5890.623437,6556.012518,6007.768930,11683.502696,10691.040539,13337.800007,1799.024856,13163.232882,-0.002000,-0.014000,1.002000,192.000000,0.000000,0.000000,0.000000,0.000000,0.000000,0.000000,0.000000,0.000000,0.000000,1772528406.909142,0.000000
140.000000,7125.959650,6352.566940,5837.023954,-17125.213698,11258.998365,8886.785374,-4446.544283,-1518.733981,5904.481519,6551.519817,6011.501671,11676.484248,10673.293254,13333.933155,1810.446597,13198.168659,-0.004000,-0.016000,1.004000,192.000000,127.500000,112.000000,127.500000,64.000000,15.500000,48.000000,0.000000,0.000000,0.000000,1772528406.909153,0.000000
142.000000,7138.364868,6367.944940,5849.742097,-17108.472241,11281.707738,8888.595866,-4431.076876,-1505.121768,5920.842996,6557.979471,6022.811654,11686.341368,10687.821887,13347.970050,1805.238641,13221.615639,-0.004000,-0.016000,1.004000,192.000000,0.000000,0.000000,0.000000,0.000000,0.000000,0.000000,0.000000,0.000000,0.000000,1772528406.909163,0.000000
144.000000,7145.629185,6361.641748,5842.075448,-17114.238991,11290.067290,8892.485069,-4435.435466,-1505.099416,5907.968391,6560.482867,6016.821386,11689.939998,10688.827716,13358.520074,1793.034588,13158.181388,-0.004000,-0.016000,1.004000,192.000000,0.000000,0.000000,0.000000,0.000000,0.000000,0.000000,0.000000,0.000000,0.000000,1772528406.909173,0.000000
146.000000,7129.088894,6357.081992,5846.121114,-17115.401282,11270.017775,8892.239200,-4438.251786,-1509.055675,5926.118007,6550.759858,6023.593965,11687.324844,10689.297103,13351.993364,1810.848929,13244.526177,-0.004000,-0.016000,1.004000,192.000000,0.000000,0.000000,0.000000,0.000000,0.000000,0.000000,0.000000,0.000000,0.000000,1772528406.909186,0.000000
148.000000,7125.311449,6344.520312,5847.462219,-17101.610255,11288.435613,8878.805802,-4431.367449,-1511.983754,5912.215222,6562.874503,6020.889404,11689.314150,10691.688739,13343.723219,1795.694446,13177.247426,-0.004000,-0.016000,1.004000,192.000000,0.000000,0.000000,0.000000,0.000000,0.000000,0.000000,0.000000,0.000000,0.000000,1772528406.909196,0.000000
150.000000,7111.453368,6332.807998,5833.537082,-17116.138889,11274.711642,8905.002046,-4444.487923,-1520.276251,5908.683647,6533.124332,6005.489052,11672.326824,10677.942416,13337.710600,1809.038437,13214.530136,-0.004000,-0.016000,1.004000,192.000000,0.000000,0.000000,127.500000,96.000000,15.500000,48.000000,0.000000,0.000000,0.000000,1772528406.909215,0.000000
152.000000,7120.818749,6347.157818,5845.450562,-17100.246799,11281.908903,8906.030226,-4433.289699,-1512.989582,5911.857594,6550.871617,6015.167357,11682.630978,10690.302931,13352.663917,1798.823690,13236.457197,-0.004000,-0.016000,1.004000,192.000000,0.000000,0.000000,0.000000,0.000000,0.000000,0.000000,0.000000,0.000000,0.000000,1772528406.909226,0.000000
154.000000,7112.459196,6346.844893,5838.834445,-17119.268134,11261.479409,8909.762968,-4441.001051,-1517.839911,5892.389225,6539.740448,6009.668828,11673.958501,10682.211600,13338.604669,1796.342647,13164.998670,-0.004000,-0.016000,1.004000,192.000000,0.000000,0.000000,0.000000,0.000000,0.000000,0.000000,0.000000,0.000000,0.000000,1772528406.909237,0.000000
156.000000,7105.418397,6319.173434,5839.616756,-17130.175785,11265.122743,8888.975845,-4444.219702,-1520.857396,5925.089827,6523.535433,6013.066293,11658.200521,10698.774242,13334.044914,1812.279440,13239.631145,-0.004000,-0.016000,1.004000,192.000000,0.000000,0.000000,0.000000,0.000000,0.000000,0.000000,0.000000,0.000000,0.000000,1772528406.909248,0.000000
158.000000,7123.165682,6339.915853,5850.837332,-17116.295352,11280.277226,8901.828099,-4433.133237,-1510.285021,5900.771129,6528.922204,6017.134311,11670.650443,10684.782050,13337.867062,1799.985981,13156.884987,-0.004000,-0.016000,1.004000,192.000000,0.000000,0.000000,0.000000,0.000000,0.000000,0.000000,0.000000,0.000000,0.000000,1772528406.909259,0.000000
160.000000,7110.983981,6316.893556,5841.047268,-17133.662657,11281.238351,8882.516191,-4445.985490,-1521.595004,5922.653487,6523.691895,6020.732942,11667.968234,10687.307797,13343.209129,1809.038437,13188.177429,-0.004000,-0.013000,1.003000,192.000000,127.500000,112.000000,127.500000,88.000000,15.500000,40.000000,0.000000,0.000000,0.000000,1772528406.909270,0.000000
162.000000,7118.628278,6338.530044,5849.786800,-17118.217602,11311.413206,8899.503517,-4434.675507,-1520.611527,5930.342487,6517.187538,6016.508462,11657.909949,10688.559495,13326.557079,1813.978173,13213.859584,-0.004000,-0.013000,1.003000,192.000000,0.000000,0.000000,0.000000,0.000000,0.000000,0.000000,0.000000,0.000000,0.000000,1772528406.909280,0.000000
164.000000,7115.275516,6318.435826,5840.287309,-17125.459567,11275.002214,8870.982691,-4441.805713,-1524.366620,5909.197737,6537.639384,6012.261631,11656.233568,10693.879210,13336.414198,1797.840214,13156.214435,-0.004000,-0.013000,1.003000,192.000000,0.000000,0.000000,0.000000,0.000000,0.000000,0.000000,0.000000,0.000000,0.000000,1772528406.909291,0.000000
166.000000,7105.597211,6309.852756,5840.488474,-17130.823985,11283.361767,8886.338340,-4444.174998,-1527.428809,5934.835188,6510.034980,6013.312163,11657.217044,10701.769376,13322.980800,1819.364943,13232.009200,-0.004000,-0.013000,1.003000,192.000000,0.000000,0.000000,0.000000,0.000000,0.000000,0.000000,0.000000,0.000000,0.000000,1772528406.909302,0.000000
168.000000,7105.641914,6330.528120,5846.679908,-17114.238991,11282.646511,8917.273154,-4433.893196,-1518.957498,5919.032504,6510.616125,6009.221793,11663.475533,10697.723710,13340.169292,1809.731342,13165.937443,-0.004000,-0.013000,1.003000,192.000000,0.000000,0.000000,0.000000,0.000000,0.000000,0.000000,0.000000,0.000000,0.000000,1772528406.909312,0.000000
170.000000,7098.914039,6312.914945,5836.822788,-17125.884250,11263.424011,8899.838793,-4444.107943,-1526.825312,5908.191908,6516.561689,6012.328686,11661.709745,10690.213524,13339.878719,1807.652629,13191.887819,-0.004000,-0.013500,1.007500,192.000000,127.500000,112.000000,127.500000,72.000000,15.500000,80.000000,0.000000,0.000000,0.000000,1772528406.909323,0.000000
172.000000,7118.315353,6330.997506,5844.377678,-17111.132099,11300.147927,8908.310104,-4433.334402,-1521.080914,5930.811874,6516.137006,6013.893308,11660.055716,10694.639170,13327.406445,1805.730379,13220.140424,-0.004000,-0.013500,1.007500,192.000000,0.000000,0.000000,0.000000,0.000000,0.000000,0.000000,0.000000,0.000000,0.000000,1772528406.909334,0.000000
174.000000,7089.414548,6304.734207,5837.202768,-17124.811366,11298.359787,8902.006912,-4444.085591,-1532.703821,5905.509699,6511.241974,6005.645514,11653.484303,10693.722748,13341.420989,1799.248373,13162.070592,-0.004000,-0.013500,1.007500,192.000000,0.000000,0.000000,0.000000,0.000000,0.000000,0.000000,0.000000,0.000000,0.000000,1772528406.909344,0.000000
176.000000,7095.985960,6309.450425,5840.466123,-17129.572288,11276.499781,8922.436407,-4445.985490,-1525.439504,5919.837167,6497.316837,6012.574555,11653.394896,10691.554629,13326.087693,1815.453388,13248.437732,-0.004000,-0.013500,1.007500,192.000000,0.000000,0.000000,0.000000,0.000000,0.000000,0.000000,0.000000,0.000000,0.000000,1772528406.909354,0.000000
178.000000,7106.044245,6317.005314,5845.942300,-17118.239953,11281.148944,8891.635703,-4437.380068,-1522.623184,5917.490234,6523.088398,6013.312163,11666.649481,10702.730501,13351.792199,1803.629315,13169.804295,-0.004000,-0.013500,1.007500,192.000000,0.000000,0.000000,0.000000,0.000000,0.000000,0.000000,0.000000,0.000000,0.000000,1772528406.909366,0.000000
180.000000,7114.001467,6311.752655,5838.029783,-17141.284602,11262.664051,8853.280110,-4448.399478,-1526.735905,5928.554348,6496.109843,6006.003142,11647.449332,10682.792745,13320.611515,1806.155062,13190.904342,-0.004000,-0.013500,1.007500,192.000000,0.000000,0.000000,127.500000,64.000000,15.500000,72.000000,0.000000,0.000000,0.000000,1772528407.389184,0.000000
182.000000,7115.655496,6347.180169,5850.613815,-17122.598543,11271.895322,8873.083755,-4435.971908,-1520.455065,5939.976089,6517.209890,6021.962288,11661.709745,10700.920010,13324.545422,1807.026780,13201.320255,-0.004000,-0.013500,1.007500,192.000000,0.000000,0.000000,0.000000,0.000000,0.000000,0.000000,0.000000,0.000000,0.000000,1772528407.389242,0.000000
184.000000,7104.010237,6308.779873,5845.361155,-17131.583945,11272.543522,8898.430633,-4442.431562,-1526.892367,5908.057798,6499.797881,6012.842776,11650.667983,10700.092995,13325.685361,1796.744978,13138.154225,-0.004000,-0.013500,1.007500,192.000000,0.000000,0.000000,0.000000,0.000000,0.000000,0.000000,0.000000,0.000000,0.000000,1772528407.389290,0.000000
186.000000,7114.694371,6322.414437,5843.394201,-17127.582982,11269.526037,8900.621104,-4442.699783,-1522.198501,5939.171426,6504.000009,6020.464721,11659.318108,10691.733443,13326.244155,1817.174472,13220.229831,-0.004000,-0.013500,1.007500,192.000000,0.000000,0.000000,0.000000,0.000000,0.000000,0.000000,0.000000,0.000000,0.000000,1772528407.389334,0.000000
188.000000,7106.446577,6320.961573,5846.501094,-17118.843450,11294.962322,8917.206099,-4434.764914,-1519.046905,5916.573813,6516.651096,6021.783474,11673.220894,10703.848088,13341.666858,1791.961705,13159.835417,-0.004000,-0.013500,1.007500,192.000000,0.000000,0.000000,0.000000,0.000000,0.000000,0.000000,0.000000,0.000000,0.000000,1772528407.389368,0.000000
190.000000,7109.374655,6323.733190,5838.767390,-17137.551861,11291.609560,8901.425767,-4448.041850,-1526.512388,5918.361952,6502.636552,6015.949668,11658.178170,10701.724673,13331.697980,1816.235699,13192.357205,-0.004000,-0.013500,1.007500,192.000000,0.000000,0.000000,127.500000,80.000000,15.500000,72.000000,0.000000,0.000000,0.000000,1772528407.389412,0.000000
192.000000,7115.141405,6327.130655,5845.875245,-17116.541221,11293.844735,8881.130383,-4434.496693,-1522.489074,5950.839037,6521.836701,6021.716418,11659.429867,10696.114385,13322.064379,1811.452426,13218.352284,-0.004000,-0.013500,1.007500,192.000000,0.000000,0.000000,0.000000,0.000000,0.000000,0.000000,0.000000,0.000000,0.000000,1772528407.389440,0.000000
194.000000,7133.603946,6325.051942,5838.610928,-17116.474165,11266.195627,8894.921409,-4438.832931,-1522.556129,5914.048065,6504.558802,6006.673694,11654.043097,10693.365120,13332.569698,1796.499109,13160.416563,-0.004000,-0.013500,1.007500,192.000000,0.000000,0.000000,0.000000,0.000000,0.000000,0.000000,0.000000,0.000000,0.000000,1772528407.389457,0.000000
196.000000,7114.917888,6324.001410,5837.336878,-17128.186480,11264.876874,8878.872857,-4443.169170,-1527.138236,5941.831284,6516.561689,6015.882613,11657.105286,10703.177536,13326.646486,1804.746903,13243.028610,-0.004000,-0.013500,1.007500,192.000000,0.000000,0.000000,0.000000,0.000000,0.000000,0.000000,0.000000,0.000000,0.000000,1772528407.389473,0.000000
198.000000,7114.068522,6330.572823,5843.841236,-17116.161241,11274.108145,8895.368444,-4432.417981,-1517.996373,5920.999458,6515.868785,6015.524985,11662.849684,10698.170745,13331.921498,1793.615734,13171.570083,-0.004000,-0.013500,1.007500,192.000000,0.000000,0.000000,0.000000,0.000000,0.000000,0.000000,0.000000,0.000000,0.000000,1772528407.389489,0.000000
200.000000,7108.458234,6323.666134,5839.996736,-17137.864785,11269.213112,8880.370424,-4445.136123,-1523.405495,5916.976144,6510.593773,6020.129445,11664.816638,10689.475917,13332.413236,1799.382484,13198.168659,-0.001000,-0.014750,1.006750,192.000000,0.000000,8.000000,127.500000,64.000000,15.500000,56.000000,0.000000,0.000000,0.000000,1772528407.389506,0.000000
202.000000,7122.249260,6338.597100,5850.904387,-17126.823023,11281.081889,8881.219790,-4432.887367,-1513.056637,5942.032449,6515.309991,6027.907852,11665.308376,10697.410786,13325.707713,1808.390237,13220.051017,-0.001000,-0.014750,1.006750,192.000000,0.000000,0.000000,0.000000,0.000000,0.000000,0.000000,0.000000,0.000000,0.000000,1772528407.389522,0.000000
204.000000,7117.197766,6326.661268,5844.265919,-17134.601430,11279.673729,8865.752383,-4440.755181,-1519.113960,5911.499967,6504.536450,6023.169282,11669.354042,10702.261114,13313.883640,1795.135652,13141.194062,-0.001000,-0.014750,1.006750,192.000000,0.000000,0.000000,0.000000,0.000000,0.000000,0.000000,0.000000,0.000000,0.000000,1772528407.389538,0.000000
206.000000,7134.810941,6344.810885,5843.684774,-17138.557689,11276.879761,8876.771793,-4442.520969,-1519.136312,5943.194740,6508.805634,6027.796093,11663.252016,10702.082300,13315.448262,1819.029667,13216.742959,-0.001000,-0.014750,1.006750,192.000000,0.000000,0.000000,0.000000,0.000000,0.000000,0.000000,0.000000,0.000000,0.000000,1772528407.389554,0.000000
208.000000,7129.915909,6340.675812,5847.663384,-17128.834680,11278.198514,8870.982691,-4433.602623,-1518.331649,5919.524243,6512.068988,6018.274250,11661.240359,10702.372873,13312.430777,1802.891708,13141.149359,-0.001000,-0.014750,1.006750,192.000000,0.000000,0.000000,0.000000,0.000000,0.000000,0.000000,0.000000,0.000000,0.000000,1772528407.389570,0.000000
210.000000,7120.327010,6326.594213,5840.242605,-17142.737465,11269.995424,8873.039052,-4444.376164,-1520.142140,5923.949888,6509.900869,6022.051695,11660.502751,10697.299027,13327.920536,1810.446597,13168.820819,-0.001000,-0.014750,1.006750,192.000000,0.000000,0.000000,127.500000,40.000000,15.500000,48.000000,0.000000,0.000000,0.000000,1772528407.389594,0.000000
212.000000,7136.464970,6342.665117,5851.776105,-17127.694741,11278.958473,8865.573569,-4433.960251,-1513.347210,5943.664127,6512.337209,6029.025439,11669.063469,10703.825737,13330.960373,1818.269708,13201.297903,-0.001000,-0.014750,1.006750,192.000000,0.000000,0.000000,0.000000,0.000000,0.000000,0.000000,0.000000,0.000000,0.000000,1772528407.389610,0.000000
214.000000,7142.343478,6340.988736,5843.058925,-17126.666561,11277.662072,8903.862107,-4439.078801,-1517.526986,5929.448417,6517.545166,6022.386971,11668.683489,10711.514737,13326.758245,1804.545737,13148.123103,-0.001000,-0.014750,1.006750,192.000000,0.000000,0.000000,0.000000,0.000000,0.000000,0.000000,0.000000,0.000000,0.000000,1772528407.389626,0.000000
216.000000,7122.629240,6330.528120,5837.269823,-17126.063064,11282.132421,8910.791148,-4442.498617,-1524.523082,5954.080040,6511.398436,6020.107093,11664.816638,10701.903486,13333.754341,1815.341629,13237.887709,-0.001000,-0.014750,1.006750,192.000000,0.000000,0.000000,0.000000,0.000000,0.000000,0.000000,0.000000,0.000000,0.000000,1772528407.389642,0.000000
218.000000,7124.417379,6350.018841,5844.087105,-17115.423634,11308.172203,8899.391758,-4431.188635,-1514.531853,5935.841016,6512.761892,6017.491939,11663.877864,10695.108556,13335.698943,1797.348475,13164.708098,-0.001000,-0.014750,1.006750,192.000000,0.000000,0.000000,0.000000,0.000000,0.000000,0.000000,0.000000,0.000000,0.000000,1772528407.389658,0.000000
220.000000,7115.029647,6319.084027,5833.827655,-17129.438177,11264.005156,8896.262514,-4444.420867,-1522.757295,5928.286127,6503.195346,6020.442369,11661.888559,10698.953056,13336.995344,1806.311525,13195.844078,-0.001000,-0.014750,1.006750,192.000000,0.000000,0.000000,0.000000,0.000000,0.000000,0.000000,0.000000,0.000000,0.000000,1772528407.389675,0.000000
222.000000,7132.039324,6345.280271,5845.048230,-17115.267171,11267.089697,8898.631799,-4430.339268,-1510.530890,5934.097580,6509.342076,6021.872881,11673.846742,10710.799481,13338.828187,1801.572955,13224.454310,0.004000,-0.012000,1.002000,192.000000,0.000000,16.000000,127.500000,80.000000,15.500000,40.000000,0.000000,0.000000,0.000000,1772528407.389691,0.000000
224.000000,7118.248298,6329.432884,5838.610928,-17127.247706,11269.861313,8864.970072,-4439.347022,-1521.617356,5919.904222,6515.153529,6013.423921,11668.907007,10698.997760,13349.691135,1800.053036,13152.459342,0.004000,-0.012000,1.002000,192.000000,0.000000,0.000000,0.000000,0.000000,0.000000,0.000000,0.000000,0.000000,0.000000,1772528407.389707,0.000000
226.000000,7122.606888,6336.607794,5838.968556,-17133.193270,11265.212150,8886.494802,-4442.275100,-1520.812693,5942.010098,6518.752160,6015.256764,11660.346289,10682.680986,13317.526974,1815.252222,13230.981020,0.004000,-0.012000,1.002000,192.000000,0.000000,0.000000,0.000000,0.000000,0.000000,0.000000,0.000000,0.000000,0.000000,1772528407.389726,0.000000
228.000000,7111.006333,6337.635975,5844.489437,-17121.168032,11267.961415,8910.746445,-4432.417981,-1514.889480,5919.256022,6510.437311,6010.719360,11662.894388,10692.694568,13328.166405,1795.716798,13157.734353,0.004000,-0.012000,1.002000,192.000000,0.000000,0.000000,0.000000,0.000000,0.000000,0.000000,0.000000,0.000000,0.000000,1772528407.389742,0.000000
230.000000,7109.017027,6333.657364,5835.772256,-17141.239898,11270.107182,8891.322779,-4446.745449,-1522.734943,5922.944060,6498.635590,6015.100302,11661.173303,10694.907390,13327.272335,1812.145330,13185.070537,0.004000,-0.012000,1.002000,192.000000,0.000000,0.000000,0.000000,0.000000,0.000000,0.000000,0.000000,0.000000,0.000000,1772528407.389758,0.000000
232.000000,7122.428074,6344.430905,5846.501094,-17124.341980,11278.824363,8880.549238,-4433.446161,-1508.385123,5958.282168,6513.790073,6022.588137,11669.912835,10701.657617,13332.435588,1817.107417,13208.226944,0.002000,-0.012000,1.002000,192.000000,0.000000,8.000000,127.500000,80.000000,15.500000,40.000000,0.000000,0.000000,0.000000,1772528407.389775,0.000000
234.000000,7123.232737,6334.953765,5838.499169,-17133.215622,11275.784525,8872.167334,-4440.151684,-1510.799111,5916.819682,6508.157433,6017.357828,11671.522161,10697.254324,13332.480291,1801.885879,13137.863652,0.002000,-0.012000,1.002000,192.000000,0.000000,0.000000,0.000000,0.000000,0.000000,0.000000,0.000000,0.000000,0.000000,1772528407.389791,0.000000
236.000000,7127.323106,6340.966385,5831.614832,-17131.762759,11277.058575,8887.522982,-4440.889292,-1512.833120,5943.038278,6516.427579,6020.107093,11672.885617,10701.098824,13320.030370,1811.765350,13224.119034,0.002000,-0.012000,1.002000,192.000000,0.000000,0.000000,0.000000,0.000000,0.000000,0.000000,0.000000,0.000000,0.000000,1772528407.389807,0.000000
238.000000,7129.535929,6345.235568,5837.001602,-17120.542183,11291.631912,8872.524962,-4431.054524,-1510.955573,5915.411522,6515.354695,6015.524985,11673.824391,10693.074547,13331.161539,1792.006408,13157.823760,0.002000,-0.012000,1.002000,192.000000,0.000000,0.000000,0.000000,0.000000,0.000000,0.000000,0.000000,0.000000,0.000000,1772528407.389823,0.000000
240.000000,7122.070446,6330.349306,5834.431152,-17134.489672,11273.035261,8854.576511,-4442.543321,-1514.889480,5934.432856,6509.319724,6022.677543,11666.671832,10697.433138,13314.733006,1807.742036,13182.030699,0.002000,-0.012000,1.002000,192.000000,0.000000,0.000000,0.000000,0.000000,0.000000,0.000000,0.000000,0.000000,0.000000,1772528407.389839,0.000000
242.000000,7132.016973,6344.296794,5845.070582,-17114.440157,11280.344281,8898.676503,-4430.585138,-1506.976963,5946.994537,6519.400361,6028.399590,11675.053737,10695.913219,13336.347143,1815.453388,13222.375598,0.002000,-0.012000,1.002000,192.000000,0.000000,0.000000,127.500000,64.000000,15.500000,32.000000,0.000000,0.000000,0.000000,1772528407.389859,0.000000
244.000000,7132.464007,6345.392030,5839.013259,-17121.123328,11270.263644,8895.815479,-4437.447123,-1509.100379,5928.889624,6515.444102,6021.224680,11675.321958,10704.250420,13341.309230,1801.282382,13158.382554,0.002000,-0.012000,1.002000,192.000000,0.000000,0.000000,0.000000,0.000000,0.000000,0.000000,0.000000,0.000000,0.000000,1772528407.389875,0.000000
246.000000,7134.498016,6343.670946,5839.057963,-17118.485822,11255.466790,8924.783340,-4439.101152,-1508.362771,5961.322005,6521.233204,6031.908814,11677.110097,10704.205716,13343.857329,1804.970420,13246.448427,0.002000,-0.012000,1.002000,192.000000,0.000000,0.000000,0.000000,0.000000,0.000000,0.000000,0.000000,0.000000,0.000000,1772528407.389892,0.000000
248.000000,7133.916871,6340.876978,5846.076411,-17118.485822,11283.250008,8882.985578,-4433.334402,-1512.721361,5941.294842,6523.602488,6023.661020,11677.266559,10706.664408,13346.025449,1801.528251,13177.962682,0.002000,-0.012000,1.002000,192.000000,0.000000,0.000000,0.000000,0.000000,0.000000,0.000000,0.000000,0.000000,0.000000,1772528407.389908,0.000000
250.000000,7119.343533,6321.810940,5839.080315,-17143.564480,11266.687365,8876.101241,-4444.443219,-1517.124655,5957.589264,6502.055407,6025.404456,11663.810809,10710.978295,13332.390884,1813.307621,13194.570028,0.002000,-0.012000,1.002000,192.000000,0.000000,0.000000,0.000000,0.000000,0.000000,0.000000,0.000000,0.000000,0.000000,1772528407.389924,0.000000
252.000000,7128.463045,6330.908100,5846.568149,-17123.738482,11266.396793,8896.106052,-4433.647327,-1515.492978,5951.844865,6515.578212,6029.360715,11665.017803,10724.054065,13333.799044,1806.512690,13219.335761,0.002000,-0.012000,1.002000,192.000000,0.000000,0.000000,127.500000,80.000000,15.500000,24.000000,0.000000,0.000000,0.000000,1772528407.389940,0.000000
254.000000,7124.886766,6320.983925,5839.013259,-17134.802596,11267.670842,8880.213962,-4441.001051,-1522.243204,5936.064534,6507.688046,6013.468625,11658.848722,10702.819908,13338.023524,1796.119129,13152.146417,0.002000,-0.012000,1.002000,192.000000,0.000000,0.000000,0.000000,0.000000,0.000000,0.000000,0.000000,0.000000,0.000000,1772528407.389956,0.000000
0.000000,7106.670094,6319.776931,5834.677021,-17134.780244,11274.778697,8886.740671,-4443.370336,-1522.891405,5956.695194,6508.157433,6023.996296,11663.721402,10702.484632,13324.277201,1810.021914,13225.281325,0.002000,-0.012000,1.002000,192.000000,0.000000,0.000000,0.000000,0.000000,0.000000,0.000000,0.000000,0.000000,0.000000,1772528407.389971,0.000000
2.000000,7092.633199,6328.941146,5836.509864,-17118.754043,11288.994406,8880.303369,-4435.167245,-1524.299565,5912.326981,6504.894078,6011.166395,11659.407515,10690.034710,13332.256774,1795.985019,13166.093906,0.002000,-0.012000,1.002000,192.000000,0.000000,0.000000,0.000000,0.000000,0.000000,0.000000,0.000000,0.000000,0.000000,1772528407.389988,0.000000
4.000000,7101.640952,6317.720570,5827.323297,-17131.047503,11274.197552,8880.415127,-4445.203179,-1524.277213,5924.329868,6506.704570,6009.780587,11652.098495,10690.839373,13321.013847,1800.343609,13192.960703,0.002000,-0.012000,1.002000,192.000000,0.000000,0.000000,0.000000,0.000000,0.000000,0.000000,0.000000,0.000000,0.000000,1772528407.390004,0.000000
6.000000,7131.793455,6326.862434,5844.377678,-17123.582020,11266.262682,8851.402563,-4432.976774,-1509.681524,5948.268586,6507.598639,6021.314087,11664.950748,10687.643074,13330.267469,1803.986943,13217.346456,0.002000,-0.012000,1.002000,192.000000,0.000000,0.000000,127.500000,56.000000,15.500000,32.000000,0.000000,0.000000,0.000000,1772528407.390021,0.000000
8.000000,7122.293964,6333.970289,5837.158065,-17127.381817,11262.686403,8906.901945,-4437.268309,-1510.597946,5931.258909,6512.381913,6021.939936,11673.399707,10699.422443,13351.926309,1790.553545,13149.285394,0.002000,-0.012000,1.002000,192.000000,0.000000,0.000000,0.000000,0.000000,0.000000,0.000000,0.000000,0.000000,0.000000,1772528407.390037,0.000000
10.000000,7134.699182,6339.915853,5835.325221,-17126.599506,11266.508551,8885.645436,-4439.011745,-1509.860338,5938.143246,6514.058294,6028.645459,11673.086783,10700.897658,13332.524995,1808.412589,13232.992677,0.002000,-0.012000,1.002000,192.000000,0.000000,0.000000,0.000000,0.000000,0.000000,0.000000,0.000000,0.000000,0.000000,1772528407.390053,0.000000
12.000000,7143.751638,6355.271501,5841.762524,-17113.881363,11270.509514,8905.314971,-4429.266385,-1502.193690,5936.824493,6519.221547,6024.689200,11680.284045,10695.086204,13342.627983,1787.938391,13173.179409,0.002000,-0.012000,1.002000,192.000000,0.000000,0.000000,0.000000,0.000000,0.000000,0.000000,0.000000,0.000000,0.000000,1772528407.390069,0.000000
14.000000,7132.486359,6340.541701,5832.531253,-17136.613087,11284.255837,8878.783450,-4443.750315,-1511.313201,5932.644717,6522.149625,6025.136235,11674.494943,10684.536181,13320.946791,1801.327086,13203.756595,0.002000,-0.012000,1.002000,192.000000,0.000000,0.000000,0.000000,0.000000,0.000000,0.000000,0.000000,0.000000,0.000000,1772528407.390086,0.000000
16.000000,7128.954784,6352.902216,5843.796533,-17121.503308,11271.157714,8883.410261,-4433.021478,-1508.027495,5944.357031,6513.253631,6029.785398,11670.963367,10689.431213,13323.539594,1810.290135,13233.305601,-0.002000,-0.016000,1.000000,192.000000,127.500000,120.000000,127.500000,64.000000,15.500000,32.000000,0.000000,0.000000,0.000000,1772528407.390102,0.000000
18.000000,7132.933394,6348.163646,5839.974384,-17125.303105,11256.092639,8892.686235,-4437.692992,-1507.580460,5920.105388,6521.099093,6022.968116,11674.450239,10701.657617,13337.956469,1793.749844,13163.121124,-0.002000,-0.016000,1.000000,192.000000,0.000000,0.000000,0.000000,0.000000,0.000000,0.000000,0.000000,0.000000,0.000000,1772528407.390121,0.000000
20.000000,7123.344496,6346.062582,5834.408800,-17131.226317,11257.746668,8896.642494,-4443.169170,-1513.123693,5942.814761,6518.014552,6027.550224,11670.672795,10688.335978,13340.862196,1808.412589,13233.395008,-0.002000,-0.016000,1.000000,192.000000,0.000000,0.000000,0.000000,0.000000,0.000000,0.000000,0.000000,0.000000,0.000000,1772528407.390137,0.000000
22.000000,7137.135522,6345.548492,5841.494303,-17110.193325,11254.483313,8866.512342,-4432.328574,-1507.915736,5930.051914,6531.157378,6021.023514,11678.562960,10691.398167,13332.726161,1783.937428,13157.622595,-0.002000,-0.016000,1.000000,192.000000,0.000000,0.000000,0.000000,0.000000,0.000000,0.000000,0.000000,0.000000,0.000000,1772528407.390153,0.000000
24.000000,7118.605926,6330.863396,5830.139617,-17127.717093,11251.152903,8866.020604,-4446.544283,-1519.628050,5936.668031,6502.860070,6014.094474,11667.610606,10677.115402,13313.637771,1799.829519,13180.510781,-0.002000,-0.016000,1.000000,192.000000,0.000000,0.000000,0.000000,0.000000,0.000000,0.000000,0.000000,0.000000,0.000000,1772528407.390170,0.000000
26.000000,7123.366847,6354.690356,5842.209559,-17116.563572,11272.990557,8870.468601,-4431.948594,-1507.334591,5933.672897,6514.885308,6020.375314,11669.555207,10673.226198,13315.917649,1800.701237,13210.059787,-0.006000,-0.014000,0.998000,192.000000,127.500000,104.000000,127.500000,72.000000,15.500000,24.000000,0.000000,0.000000,0.000000,1772528407.390186,0.000000
28.000000,7128.127769,6349.080068,5837.560396,-17124.990180,11260.071249,8889.847563,-4436.441295,-1507.513405,5912.237574,6524.809483,6018.788340,11672.282120,10682.502172,13330.111007,1789.480661,13148.324269,-0.006000,-0.014000,0.998000,192.000000,0.000000,0.000000,0.000000,0.000000,0.000000,0.000000,0.000000,0.000000,0.000000,1772528407.390202,0.000000
30.000000,7117.935374,6330.997506,5836.845140,-17133.461491,11277.147982,8874.693081,-4443.482094,-1515.045943,5945.139342,6507.799805,6018.631878,11667.655309,10676.914236,13304.384149,1817.219176,13232.188014,-0.006000,-0.014000,0.998000,192.000000,0.000000,0.000000,0.000000,0.000000,0.000000,0.000000,0.000000,0.000000,0.000000,1772528407.390218,0.000000
32.000000,7132.553414,6352.410478,5843.036573,-17111.422671,11273.370537,8906.633724,-4430.898062,-1505.345286,5923.167577,6528.765741,6017.447235,11678.250036,10692.225181,13331.653277,1803.606964,13167.435010,-0.006000,-0.014000,0.998000,192.000000,0.000000,0.000000,0.000000,0.000000,0.000000,0.000000,0.000000,0.000000,0.000000,1772528407.390234,0.000000
34.000000,7133.939223,6343.805056,5831.860701,-17130.667523,11264.027508,8886.494802,-4444.174998,-1512.900175,5938.322060,6525.614145,6018.833043,11673.690280,10688.313626,13337.464730,1801.125920,13198.280418,-0.006000,-0.014000,0.998000,192.000000,0.000000,0.000000,0.000000,0.000000,0.000000,0.000000,0.000000,0.000000,0.000000,1772528407.390251,0.000000
36.000000,7130.206481,6352.119905,5840.555530,-17116.652979,11273.772868,8906.969000,-4434.072010,-1508.698047,5940.110199,6524.250689,6024.577442,11676.171324,10693.007492,13334.111969,1798.488414,13230.802206,-0.004000,-0.014000,0.999000,192.000000,127.500000,120.000000,127.500000,72.000000,15.500000,32.000000,0.000000,0.000000,0.000000,1772528407.390267,0.000000
38.000000,7143.751638,6355.182094,5831.748942,-17126.577154,11265.256854,8902.319837,-4442.118638,-1515.135350,5925.670973,6523.691895,6015.077950,11667.007109,10690.504097,13336.481254,1793.392216,13164.573987,-0.004000,-0.014000,0.999000,192.000000,0.000000,0.000000,0.000000,0.000000,0.000000,0.000000,0.000000,0.000000,0.000000,1772528407.390283,0.000000
40.000000,7137.873130,6350.644690,5831.547777,-17129.549936,11278.891418,8894.697892,-4442.208045,-1508.653344,5950.928444,6534.733657,6024.711552,11668.392917,10671.438059,13325.618306,1800.812996,13245.263785,-0.004000,-0.014000,0.999000,192.000000,0.000000,0.000000,0.000000,0.000000,0.000000,0.000000,0.000000,0.000000,0.000000,1772528407.390299,0.000000
42.000000,7142.365830,6370.783612,5844.891768,-17118.485822,11265.972110,8872.301444,-4432.775609,-1501.523137,5934.164635,6523.915413,6027.930203,11678.741774,10688.693606,13342.627983,1791.827594,13173.782906,-0.004000,-0.014000,0.999000,192.000000,0.000000,0.000000,0.000000,0.000000,0.000000,0.000000,0.000000,0.000000,0.000000,1772528407.390315,0.000000
44.000000,7151.105362,6362.558170,5838.901501,-17132.612125,11261.255891,8872.815534,-4442.677431,-1502.171338,5943.507665,6534.197215,6040.603643,11677.221856,10693.275713,13345.824283,1804.143405,13187.752746,-0.004000,-0.014000,0.999000,192.000000,0.000000,0.000000,0.000000,0.000000,0.000000,0.000000,0.000000,0.000000,0.000000,1772528407.868582,0.000000
46.000000,7164.941092,6386.005150,5848.892730,-17113.456680,11263.111086,8884.349034,-4429.735771,-1493.208288,5971.603807,6532.923166,6041.274195,11682.765088,10701.434100,13328.635791,1810.759522,13216.340627,0.000000,-0.014000,1.003500,192.000000,0.000000,16.000000,127.500000,72.000000,15.500000,64.000000,0.000000,0.000000,0.000000,1772528407.868655,0.000000
48.000000,7159.755487,6388.888525,5841.226082,-17120.229259,11265.502723,8906.231392,-4434.943728,-1501.590193,5945.228749,6542.936747,6038.703744,11683.703862,10701.836431,13349.869949,1792.676961,13143.272775,0.000000,-0.014000,1.003500,192.000000,0.000000,0.000000,0.000000,0.000000,0.000000,0.000000,0.000000,0.000000,0.000000,1772528407.868712,0.000000
50.000000,7154.726345,6370.470687,5837.426285,-17122.598543,11259.043069,8902.029264,-4438.609414,-1503.467739,5963.199551,6534.733657,6035.194520,11679.009995,10692.269885,13350.764018,1813.844063,13227.091816,0.000000,-0.014000,1.003500,192.000000,0.000000,0.000000,0.000000,0.000000,0.000000,0.000000,0.000000,0.000000,0.000000,1772528407.868776,0.000000
52.000000,7169.903179,6382.205353,5845.562320,-17113.411977,11263.245197,8890.071081,-4430.071048,-1496.650457,5942.904168,6535.247747,6034.769837,11687.637769,10691.755794,13339.498739,1798.086083,13164.305766,0.000000,-0.014000,1.003500,192.000000,0.000000,0.000000,0.000000,0.000000,0.000000,0.000000,0.000000,0.000000,0.000000,1772528407.868823,0.000000
54.000000,7152.893502,6369.800135,5831.480721,-17130.555765,11261.837037,8879.856334,-4444.979661,-1506.664038,5948.447400,6542.042678,6036.245052,11686.028443,10687.844239,13331.519166,1802.534080,13184.176467,0.000000,-0.014000,1.003500,192.000000,0.000000,0.000000,0.000000,0.000000,0.000000,0.000000,0.000000,0.000000,0.000000,1772528407.868847,0.000000
56.000000,7156.201560,6383.635865,5837.605099,-17110.863878,11282.333586,8904.644418,-4432.797960,-1499.757349,5955.957586,6536.611204,6034.076933,11683.301530,10684.983216,13338.157635,1808.926679,13224.834290,-0.002000,-0.013000,1.006750,192.000000,127.500000,112.000000,127.500000,80.000000,15.500000,72.000000,0.000000,0.000000,0.000000,1772528407.868870,0.000000
58.000000,7162.974139,6381.780670,5836.621623,-17122.419730,11278.757307,8887.478279,-4438.497655,-1502.953649,5945.474618,6539.606338,6032.132331,11684.888504,10698.997760,13351.054591,1790.285324,13160.885949,-0.002000,-0.013000,1.006750,192.000000,0.000000,0.000000,0.000000,0.000000,0.000000,0.000000,0.000000,0.000000,0.000000,1772528407.868894,0.000000
60.000000,7164.158781,6383.859382,5834.855835,-17126.264230,11293.643569,8890.562819,-4442.811542,-1504.719437,5976.632950,6539.204006,6039.262538,11680.351100,10691.599332,13341.555100,1809.150196,13243.386238,-0.002000,-0.013000,1.006750,192.000000,0.000000,0.000000,0.000000,0.000000,0.000000,0.000000,0.000000,0.000000,0.000000,1772528407.868918,0.000000
62.000000,7165.522237,6393.202411,5842.813056,-17115.893020,11280.366633,8907.952476,-4432.462684,-1500.562012,5962.752517,6545.663660,6031.819407,11684.776745,10697.366082,13345.980745,1788.586591,13178.365013,-0.002000,-0.013000,1.006750,192.000000,0.000000,0.000000,0.000000,0.000000,0.000000,0.000000,0.000000,0.000000,0.000000,1772528407.868941,0.000000
64.000000,7158.950825,6379.791365,5831.368963,-17129.460529,11267.626139,8890.071081,-4443.750315,-1506.172300,5956.225807,6539.673393,6033.182863,11681.133411,10709.704245,13356.173141,1798.868394,13192.178391,-0.002000,-0.013000,1.006750,192.000000,0.000000,0.000000,0.000000,0.000000,0.000000,0.000000,0.000000,0.000000,0.000000,1772528407.868966,0.000000
66.000000,7169.254979,6398.902106,5845.092934,-17111.109747,11267.648490,8894.072043,-4431.099228,-1496.426940,5954.929406,6549.530512,6037.161474,11684.799097,10695.510888,13344.237309,1801.729417,13219.358113,-0.002000,-0.013000,1.006750,192.000000,0.000000,0.000000,127.500000,88.000000,15.500000,64.000000,0.000000,0.000000,0.000000,1772528407.868989,0.000000
68.000000,7168.226799,6396.085786,5839.616756,-17118.463471,11276.633892,8900.978732,-4434.206120,-1491.129576,5947.821551,6551.251596,6038.904910,11691.728138,10689.520620,13356.508417,1781.501088,13150.402981,-0.002000,-0.013000,1.006750,192.000000,0.000000,0.000000,0.000000,0.000000,0.000000,0.000000,0.000000,0.000000,0.000000,1772528407.869013,0.000000
70.000000,7158.682604,6382.026539,5836.219291,-17118.910506,11277.527961,8889.244066,-4438.430600,-1501.165509,5971.469697,6542.176788,6045.029288,11691.906952,10691.912257,13354.206187,1809.440769,13228.097645,-0.002000,-0.013000,1.006750,192.000000,0.000000,0.000000,0.000000,0.000000,0.000000,0.000000,0.000000,0.000000,0.000000,1772528407.869036,0.000000
72.000000,7174.328825,6400.891411,5843.796533,-17100.336206,11268.274339,8884.818421,-4427.210024,-1495.421111,5949.386173,6545.238977,6036.043887,11691.549324,10701.299989,13351.389867,1798.019027,13161.936481,-0.002000,-0.013000,1.006750,192.000000,0.000000,0.000000,0.000000,0.000000,0.000000,0.000000,0.000000,0.000000,0.000000,1772528407.869059,0.000000
74.000000,7170.931360,6384.082900,5834.051172,-17124.364331,11288.122688,8876.391813,-4442.006879,-1503.378332,5965.457078,6552.212721,6040.961270,11689.895295,10693.186306,13346.517187,1800.075388,13178.901455,-0.002000,-0.013000,1.006750,192.000000,0.000000,0.000000,0.000000,0.000000,0.000000,0.000000,0.000000,0.000000,0.000000,1772528407.869083,0.000000
76.000000,7174.328825,6400.310266,5844.780009,-17107.734633,11276.477429,8906.007875,-4430.003992,-1498.907983,5971.804973,6547.720021,6034.859244,11688.889466,10692.672216,13341.264527,1810.290135,13219.782796,0.000000,-0.011500,1.007375,192.000000,0.000000,8.000000,127.500000,88.000000,15.500000,64.000000,0.000000,0.000000,0.000000,1772528407.869106,0.000000
78.000000,7168.785592,6402.500737,5842.030745,-17117.792918,11272.007081,8867.138191,-4435.033135,-1501.657248,5953.521246,6552.816218,6034.881596,11693.024539,10695.287370,13347.679478,1797.795510,13150.380629,0.000000,-0.011500,1.007375,192.000000,0.000000,0.000000,0.000000,0.000000,0.000000,0.000000,0.000000,0.000000,0.000000,1772528407.869130,0.000000
80.000000,7170.730194,6395.504641,5838.454466,-17123.380855,11287.519191,8871.720299,-4439.592891,-1506.842852,5971.514400,6553.665585,6041.788285,11685.112022,10705.077434,13334.134321,1812.368847,13233.819691,0.000000,-0.011500,1.007375,192.000000,0.000000,0.000000,0.000000,0.000000,0.000000,0.000000,0.000000,0.000000,0.000000,1772528407.869153,0.000000
82.000000,7170.640787,6405.026484,5842.500131,-17119.737520,11307.345189,8933.567576,-4432.641498,-1504.473568,5955.443496,6556.616015,6037.027363,11688.598894,10693.275713,13363.616271,1796.364998,13172.508856,0.000000,-0.011500,1.007375,192.000000,0.000000,0.000000,0.000000,0.000000,0.000000,0.000000,0.000000,0.000000,0.000000,1772528407.869179,0.000000
84.000000,7175.066432,6401.092577,5837.336878,-17129.818157,11264.385136,8892.485069,-4443.638556,-1506.820501,5965.077098,6547.228282,6037.094419,11680.038176,10698.796594,13353.625042,1810.200728,13199.018025,0.000000,-0.011500,1.007375,192.000000,0.000000,0.000000,0.000000,0.000000,0.000000,0.000000,0.000000,0.000000,0.000000,1772528407.869202,0.000000
86.000000,7187.829278,6415.352990,5850.904387,-17112.763776,11265.256854,8904.510308,-4429.735771,-1495.287001,5983.405528,6558.135934,6048.069125,11685.648463,10724.143472,13343.790274,1810.580708,13228.812901,0.002000,-0.011750,1.007688,192.000000,0.000000,16.000000,127.500000,80.000000,15.500000,64.000000,0.000000,0.000000,0.000000,1772528407.869226,0.000000
88.000000,7177.927456,6412.089635,5844.757658,-17122.755006,11278.444383,8893.870877,-4437.000088,-1504.697085,5966.127630,6553.844399,6040.313070,11677.892408,10701.858783,13344.282012,1795.582687,13151.811141,0.002000,-0.011750,1.007688,192.000000,0.000000,0.000000,0.000000,0.000000,0.000000,0.000000,0.000000,0.000000,0.000000,1772528407.869249,0.000000
90.000000,7174.753508,6397.404539,5846.992832,-17124.677256,11287.094508,8891.166316,-4437.469475,-1500.517309,5990.938066,6551.899797,6042.503541,11679.613492,10698.975408,13352.082771,1815.587499,13228.030590,0.002000,-0.011750,1.007688,192.000000,0.000000,0.000000,0.000000,0.000000,0.000000,0.000000,0.000000,0.000000,0.000000,1772528407.869272,0.000000
92.000000,7176.608703,6396.175193,5855.419440,-17113.300218,11308.865107,8903.526831,-4427.433542,-1490.235506,5964.406546,6553.352660,6048.985547,11688.531838,10717.013266,13352.149827,1797.169661,13157.622595,0.002000,-0.011750,1.007688,192.000000,0.000000,0.000000,0.000000,0.000000,0.000000,0.000000,0.000000,0.000000,0.000000,1772528407.869296,0.000000
94.000000,7164.337595,6378.204391,5842.321317,-17130.935744,11290.648435,8881.242142,-4441.224568,-1504.361809,5968.586322,6543.741410,6047.890311,11682.809792,10712.095882,13354.385001,1804.188109,13184.869371,0.002000,-0.011750,1.007688,192.000000,0.000000,0.000000,0.000000,0.000000,0.000000,0.000000,0.000000,0.000000,0.000000,1772528407.869319,0.000000
96.000000,7158.682604,6389.626132,5849.697393,-17117.502346,11287.899171,8868.322834,-4430.451027,-1506.395818,5972.363767,6540.813332,6042.168265,11671.365699,10700.785899,13334.000210,1813.486435,13215.781834,0.003000,-0.012875,1.010844,192.000000,0.000000,16.000000,127.500000,72.000000,15.500000,88.000000,0.000000,0.000000,0.000000,1772528407.869343,0.000000
98.000000,7151.731211,6373.845801,5837.716858,-17119.111671,11286.043976,8889.802860,-4436.843626,-1509.636821,5943.507665,6528.944555,6024.666849,11671.633920,10713.682856,13351.121646,1795.135652,13148.324269,0.003000,-0.012875,1.010844,192.000000,0.000000,0.000000,0.000000,0.000000,0.000000,0.000000,0.000000,0.000000,0.000000,1772528407.869366,0.000000
100.000000,7158.995528,6376.125679,5837.180416,-17123.492613,11295.901095,8905.650247,-4441.381030,-1511.201443,5962.014909,6535.963003,6031.461779,11672.885617,10690.369986,13332.100312,1809.038437,13232.098607,0.003000,-0.012875,1.010844,192.000000,0.000000,0.000000,0.000000,0.000000,0.000000,0.000000,0.000000,0.000000,0.000000,1772528407.869390,0.000000
102.000000,7144.221025,6365.128620,5844.064754,-17122.352674,11280.992482,8895.636665,-4434.541396,-1511.201443,5949.810857,6537.460570,6023.303392,11669.756373,10690.235876,13346.159559,1803.897536,13166.205664,0.003000,-0.012875,1.010844,192.000000,0.000000,0.000000,0.000000,0.000000,0.000000,0.000000,0.000000,0.000000,0.000000,1772528407.869413,0.000000
