Sample_index,EXG Channel 0,EXG Channel 1,EXG Channel 2,EXG Channel 3,EXG Channel 4,EXG Channel 5,EXG Channel 6,EXG Channel 7,EXG Channel 8,EXG Channel 9,EXG Channel 10,EXG Channel 11,EXG Channel 12,EXG Channel 13,EXG Channel 14,EXG Channel 15,Accel Channel 0,Accel Channel 1,Accel Channel 2,Not Used,Digital Channel 0 (D11),Digital Channel 1 (D12),Digital Channel 2 (D13),Digital Channel 3 (D17),Not Used,Digital Channel 4 (D18),Analog Channel 0,Analog Channel 1,Analog Channel 2,Timestamp,Marker Channel
88.000000,9400.339055,8957.126314,6723.337677,-14071.540722,14437.282316,10910.288800,-1906.626154,-1496.873974,10888.182925,11244.559138,7565.417298,11284.501706,11330.903927,16294.533467,5169.936141,13665.744801,0.002000,-0.004000,1.012000,192.000000,0.000000,0.000000,0.000000,0.000000,0.000000,0.000000,0.000000,0.000000,0.000000,1772527944.814456,101.000000
90.000000,9392.985331,8948.342079,6713.212337,-14085.018824,14445.060723,10915.072073,-1917.019715,-1502.953649,10867.574616,11244.916766,7559.739954,11281.104241,11355.513198,16291.091298,5163.252969,13585.390280,0.002000,-0.004000,1.012000,192.000000,0.000000,0.000000,0.000000,0.000000,0.000000,0.000000,0.000000,0.000000,0.000000,1772527944.814522,0.000000
92.000000,9386.525677,8939.177863,6717.213299,-14091.769051,14424.318305,10919.654181,-1917.846729,-1505.434693,10882.997320,11235.663144,7564.031489,11277.885589,11315.861203,16278.239045,5170.673748,13676.630101,0.002000,-0.004000,1.012000,192.000000,0.000000,0.000000,0.000000,0.000000,0.000000,0.000000,0.000000,0.000000,0.000000,1772527944.814568,0.000000
94.000000,9389.677273,8946.688050,6721.728351,-14076.502809,14418.260982,10911.652256,-1908.503700,-1500.360847,10865.115924,11239.105313,7562.153943,11281.394813,11327.260593,16292.342996,5161.353071,13590.955864,0.004000,-0.008000,1.010000,192.000000,0.000000,16.000000,127.500000,96.000000,15.500000,72.000000,0.000000,0.000000,0.000000,1772527944.814612,0.000000
96.000000,9376.199171,8928.404323,6711.915936,-14093.423080,14408.716787,10896.833050,-1921.646526,-1507.938088,10868.178113,11236.825435,7558.488257,11276.276264,11339.956384,16280.250702,5165.890475,13625.913993,0.004000,-0.008000,1.010000,192.000000,0.000000,0.000000,0.000000,0.000000,0.000000,0.000000,0.000000,0.000000,0.000000,1772527944.814658,0.000000
98.000000,9394.907581,8956.366355,6729.015020,-14072.993585,14423.021903,10914.155652,-1903.005171,-1491.666018,10885.925399,11246.280223,7569.842943,11287.005101,11361.101134,16302.490688,5159.967263,13649.852711,0.004000,-0.008000,1.010000,192.000000,0.000000,0.000000,0.000000,0.000000,0.000000,0.000000,0.000000,0.000000,0.000000,1772527944.814699,0.000000
100.000000,9385.832773,8939.110808,6720.744875,-14083.878885,14419.959714,10887.892352,-1912.974049,-1499.645591,10868.111058,11247.241348,7565.730222,11285.731052,11329.875747,16280.965958,5155.854542,13582.015167,0.004000,-0.008000,1.010000,192.000000,0.000000,0.000000,0.000000,0.000000,0.000000,0.000000,0.000000,0.000000,0.000000,1772527944.814720,0.000000
102.000000,9380.513058,8932.874672,6717.570927,-14090.495001,14436.678819,10921.308210,-1916.326811,-1503.132463,10884.919570,11234.187929,7566.534885,11276.768002,11322.499671,16265.945585,5176.596961,13673.657319,0.004000,-0.008000,1.010000,192.000000,0.000000,0.000000,0.000000,0.000000,0.000000,0.000000,0.000000,0.000000,0.000000,1772527944.814732,0.000000
104.000000,9386.011587,8945.458704,6719.761398,-14078.559170,14434.980087,10915.161480,-1907.497872,-1497.566879,10860.958500,11239.038257,7560.768135,11281.037185,11336.603622,16300.881362,5156.279225,13600.500059,0.004000,-0.010000,1.011000,192.000000,0.000000,16.000000,127.500000,80.000000,15.500000,80.000000,0.000000,0.000000,0.000000,1772527944.814744,0.000000
106.000000,9372.153505,8925.006858,6712.474729,-14101.693225,14407.375682,10906.399597,-1926.005116,-1508.161605,10867.418154,11229.762284,7561.148114,11272.185895,11344.024401,16267.934891,5177.267513,13634.474711,0.004000,-0.010000,1.011000,192.000000,0.000000,0.000000,0.000000,0.000000,0.000000,0.000000,0.000000,0.000000,0.000000,1772527944.814756,0.000000
108.000000,9384.178744,8949.303204,6714.419331,-14075.988719,14445.574814,10926.829091,-1910.001267,-1496.873974,10873.631939,11234.120874,7564.411469,11277.036223,11340.582233,16279.580150,5172.059556,13667.287072,0.004000,-0.010000,1.011000,192.000000,0.000000,0.000000,0.000000,0.000000,0.000000,0.000000,0.000000,0.000000,0.000000,1772527944.814767,0.000000
110.000000,9378.479049,8935.445122,6705.612744,-14095.188867,14458.538825,10915.809681,-1920.059552,-1502.864242,10858.969195,11242.614537,7556.074268,11277.505610,11383.989320,16279.803667,5157.508571,13589.771222,0.004000,-0.010000,1.011000,192.000000,0.000000,0.000000,0.000000,0.000000,0.000000,0.000000,0.000000,0.000000,0.000000,1772527944.814779,0.000000
112.000000,9376.065061,8934.059314,6711.781825,-14095.345330,14418.283334,10914.937963,-1923.792294,-1507.647515,10882.840858,11233.807949,7561.841018,11269.816610,11300.304389,16288.431440,5179.547391,13693.930351,0.004000,-0.010000,1.011000,192.000000,0.000000,0.000000,0.000000,0.000000,0.000000,0.000000,0.000000,0.000000,0.000000,1772527944.814791,0.000000
114.000000,9390.370177,8957.573349,6718.733218,-14077.754507,14450.961584,10926.717332,-1910.962392,-1497.991562,10865.786477,11246.548444,7556.364841,11279.092584,11325.651267,16279.781315,5170.114955,13608.211411,0.004000,-0.011000,1.015500,192.000000,0.000000,16.000000,127.500000,80.000000,15.500000,112.000000,0.000000,0.000000,0.000000,1772527944.814802,0.000000
116.000000,9389.341997,8941.234224,6711.692418,-14097.066414,14410.326113,10918.849518,-1924.351087,-1501.009047,10879.845724,11249.163598,7564.925559,11280.299578,11316.352942,16284.139905,5168.751498,13638.609783,0.004000,-0.011000,1.015500,192.000000,0.000000,0.000000,0.000000,0.000000,0.000000,0.000000,0.000000,0.000000,0.000000,1772527944.814814,0.000000
118.000000,9402.484823,8965.262349,6722.622421,-14074.446449,14412.494232,10911.138166,-1907.542575,-1488.290905,10890.015768,11254.840941,7570.759364,11289.977883,11344.046753,16295.338129,5167.499801,13662.883778,0.004000,-0.011000,1.015500,192.000000,0.000000,0.000000,0.000000,0.000000,0.000000,0.000000,0.000000,0.000000,0.000000,1772527944.814825,0.000000
120.000000,9392.135965,8954.220588,6713.525261,-14085.287045,14419.467976,10908.567716,-1916.505625,-1494.035303,10864.266558,11257.769019,7564.992614,11289.284979,11378.759012,16301.797784,5154.759306,13590.799402,0.004000,-0.011000,1.015500,192.000000,0.000000,0.000000,0.000000,0.000000,0.000000,0.000000,0.000000,0.000000,0.000000,1772527944.814837,0.000000
122.000000,9391.621875,8950.599605,6715.603973,-14084.661196,14437.170558,10926.069132,-1917.913785,-1494.258820,10891.401576,11254.282147,7573.240408,11287.765060,11352.540416,16294.354653,5165.689309,13683.492086,0.004000,-0.011000,1.015500,192.000000,0.000000,0.000000,0.000000,0.000000,0.000000,0.000000,0.000000,0.000000,0.000000,1772527944.814848,0.000000
124.000000,9390.660750,8953.795904,6722.622421,-14069.909044,14434.801273,10938.921385,-1909.934212,-1494.728207,10868.044003,11256.360859,7567.786582,11290.201401,11330.546299,16288.342033,5169.332644,13607.250286,0.005000,-0.012500,1.015750,192.000000,0.000000,24.000000,127.500000,72.000000,15.500000,96.000000,0.000000,0.000000,0.000000,1772527944.814860,0.000000
126.000000,9376.959130,8934.439294,6710.664238,-14087.119888,14422.887793,10938.250832,-1923.144093,-1505.054713,10869.921550,11250.102371,7564.657338,11283.518229,11323.416093,16285.212789,5180.061481,13651.998478,0.005000,-0.012500,1.015750,192.000000,0.000000,0.000000,0.000000,0.000000,0.000000,0.000000,0.000000,0.000000,0.000000,1772527944.814872,0.000000
128.000000,9389.476107,8956.969852,6716.341581,-14071.987757,14462.025697,10946.722143,-1906.849671,-1491.978942,10877.901122,11252.359897,7571.318158,11288.860296,11361.771686,16298.355615,5180.329702,13676.428935,0.005000,-0.012500,1.015750,192.000000,0.000000,0.000000,0.000000,0.000000,0.000000,0.000000,0.000000,0.000000,0.000000,1772527944.814883,0.000000
130.000000,9377.629683,8937.769704,6712.966467,-14087.835144,14437.505834,10933.780483,-1916.192700,-1498.528004,10858.186884,11255.645604,7566.803106,11289.553200,11376.702652,16310.894944,5161.867161,13595.113289,0.005000,-0.012500,1.015750,192.000000,0.000000,0.000000,0.000000,0.000000,0.000000,0.000000,0.000000,0.000000,0.000000,1772527944.814894,0.000000
132.000000,9360.396488,8919.843605,6713.167633,-14096.038234,14418.931534,10922.314039,-1921.802988,-1508.630992,10866.434677,11234.836130,7563.137420,11275.896284,11303.500688,16278.373155,5180.709682,13695.316159,0.005000,-0.012500,1.015750,192.000000,0.000000,0.000000,0.000000,0.000000,0.000000,0.000000,0.000000,0.000000,0.000000,1772527944.814908,0.000000
134.000000,9367.169066,8938.261442,6717.012133,-14075.228760,14410.884906,10925.823262,-1911.744703,-1501.791358,10844.038229,11240.871101,7557.951815,11277.103278,11340.962212,16278.283748,5168.080946,13613.978161,0.005500,-0.012250,1.012875,192.000000,0.000000,24.000000,127.500000,80.000000,15.500000,72.000000,0.000000,0.000000,0.000000,1772527944.814919,0.000000
136.000000,9363.458677,8920.089474,6705.031598,-14097.647559,14434.197776,10922.805777,-1927.905015,-1510.910870,10855.236453,11258.148999,7559.359975,11278.891418,11322.231450,16295.092260,5171.299597,13655.172426,0.005500,-0.012250,1.012875,192.000000,0.000000,0.000000,0.000000,0.000000,0.000000,0.000000,0.000000,0.000000,0.000000,1772527944.814952,0.000000
138.000000,9359.636528,8919.642439,6711.290087,-14081.286082,14446.871215,10951.639527,-1913.197567,-1505.926431,10870.502695,11218.742874,7562.310405,11270.218941,11374.534532,16284.631644,5171.344301,13678.977034,0.005500,-0.012250,1.012875,192.000000,0.000000,0.000000,0.000000,0.000000,0.000000,0.000000,0.000000,0.000000,0.000000,1772527944.814964,0.000000
140.000000,9351.031107,8905.359674,6706.462110,-14090.696167,14433.393113,10942.005925,-1921.333602,-1510.061504,10829.487244,11222.207394,7551.022774,11266.843828,11358.061297,16285.279844,5166.762193,13606.847955,0.005500,-0.012250,1.012875,192.000000,0.000000,0.000000,0.000000,0.000000,0.000000,0.000000,0.000000,0.000000,0.000000,1772527944.814974,0.000000
142.000000,9357.177837,8906.991351,6714.285220,-14094.406556,14412.762453,10946.118646,-1921.959450,-1508.318068,10876.805887,11226.856557,7566.758402,11268.117877,11333.049695,16280.898903,5179.122708,13693.103336,0.005500,-0.012250,1.012875,192.000000,0.000000,0.000000,0.000000,0.000000,0.000000,0.000000,0.000000,0.000000,0.000000,1772527944.814985,0.000000
144.000000,9359.234197,8918.390741,6716.073360,-14078.514466,14429.325095,10949.739629,-1911.878814,-1504.182995,10850.050849,11226.834205,7562.489219,11272.118839,11333.899061,16314.068891,5166.024585,13607.071472,0.003750,-0.015125,1.011437,192.000000,0.000000,8.000000,127.500000,56.000000,15.500000,72.000000,0.000000,0.000000,0.000000,1772527944.814996,0.000000
146.000000,9349.533540,8898.743558,6705.098653,-14094.428908,14442.758494,10944.263452,-1926.161578,-1511.849643,10860.355003,11226.633039,7559.203513,11265.949758,11377.552018,16295.695757,5176.395795,13642.007249,0.003750,-0.015125,1.011437,192.000000,0.000000,0.000000,0.000000,0.000000,0.000000,0.000000,0.000000,0.000000,0.000000,1772527944.815006,0.000000
148.000000,9355.590863,8914.523889,6719.381418,-14076.547513,14452.794427,10947.347992,-1910.470654,-1501.590193,10873.497829,11228.845862,7568.904170,11273.415240,11347.801846,16291.895961,5175.255856,13665.901263,0.003750,-0.015125,1.011437,192.000000,0.000000,0.000000,0.000000,0.000000,0.000000,0.000000,0.000000,0.000000,0.000000,1772527944.815018,0.000000
150.000000,9345.934909,8905.180860,6712.161805,-14088.885676,14425.212374,10945.224577,-1918.517282,-1505.948783,10849.045020,11230.902223,7557.348318,11268.050822,11356.809599,16294.309949,5169.958493,13596.566152,0.003750,-0.015125,1.011437,192.000000,0.000000,0.000000,0.000000,0.000000,0.000000,0.000000,0.000000,0.000000,0.000000,1772527944.815029,0.000000
152.000000,9341.263395,8900.241125,6707.512642,-14090.472649,14471.659299,10949.605519,-1921.266546,-1506.999315,10871.821448,11229.874042,7563.048013,11266.039165,11351.355773,16300.523734,5179.167411,13690.152906,0.003750,-0.015125,1.011437,192.000000,0.000000,0.000000,0.000000,0.000000,0.000000,0.000000,0.000000,0.000000,0.000000,1772527944.815040,0.000000
154.000000,9338.491778,8899.458814,6711.535956,-14081.442545,14442.691439,10927.790216,-1915.566852,-1509.368600,10846.675735,11234.254984,7553.682632,11270.285996,11326.634744,16300.702548,5167.723318,13620.638981,0.004875,-0.015562,1.010719,192.000000,0.000000,24.000000,127.500000,64.000000,15.500000,72.000000,0.000000,0.000000,0.000000,1772527944.815051,0.000000
156.000000,9326.980630,8882.471488,6700.494194,-14095.255923,14426.039389,10957.003946,-1930.676631,-1516.767027,10845.446389,11214.473690,7548.832303,11258.305461,11339.464645,16289.794897,5175.792298,13656.379420,0.004875,-0.015562,1.010719,192.000000,0.000000,0.000000,0.000000,0.000000,0.000000,0.000000,0.000000,0.000000,0.000000,1772527944.815062,0.000000
158.000000,9326.466540,8891.702758,6710.820700,-14080.302606,14422.753682,10950.544292,-1917.086770,-1512.497844,10856.108171,11221.380379,7557.884760,11263.245197,11369.997128,16304.725862,5174.339434,13679.960511,0.004875,-0.015562,1.010719,192.000000,0.000000,0.000000,0.000000,0.000000,0.000000,0.000000,0.000000,0.000000,0.000000,1772527944.815073,0.000000
160.000000,9327.248851,8884.170220,6708.339656,-14090.293835,14416.539898,10941.938870,-1925.043991,-1514.487149,10823.496976,11216.105368,7545.233672,11254.639775,11354.127390,16288.587903,5176.015815,13606.959713,0.004875,-0.015562,1.010719,192.000000,0.000000,0.000000,0.000000,0.000000,0.000000,0.000000,0.000000,0.000000,0.000000,1772527944.815084,0.000000
162.000000,9325.304249,8881.309197,6709.837223,-14095.546495,14436.343543,10945.828074,-1926.049820,-1515.716495,10857.985718,11219.815757,7556.454248,11258.350165,11347.354811,16297.148621,5186.498783,13697.372520,0.004875,-0.015562,1.010719,192.000000,0.000000,0.000000,0.000000,0.000000,0.000000,0.000000,0.000000,0.000000,0.000000,1772527944.815095,0.000000
164.000000,9328.455845,8888.618218,6713.525261,-14085.868190,14436.902337,10942.497664,-1915.768017,-1511.447312,10844.574671,11211.858536,7553.637928,11256.852598,11358.485980,16303.384757,5171.143135,13623.097673,0.004438,-0.014781,1.013359,192.000000,0.000000,16.000000,127.500000,72.000000,15.500000,96.000000,0.000000,0.000000,0.000000,1772527944.815109,0.000000
166.000000,9324.700752,8868.993386,6701.768244,-14099.815679,14433.884851,10953.427667,-1927.525035,-1513.235451,10838.450293,11202.046120,7553.079135,11252.650470,11307.926334,16276.272091,5172.730109,13661.810894,0.004438,-0.014781,1.013359,192.000000,0.000000,0.000000,0.000000,0.000000,0.000000,0.000000,0.000000,0.000000,0.000000,1772527944.815125,0.000000
168.000000,9338.648240,8898.944723,6715.335752,-14080.369661,14462.964471,10942.944699,-1913.085808,-1502.394855,10851.637823,11218.720522,7563.025661,11264.966281,11350.662869,16307.363368,5170.226713,13680.921636,0.004438,-0.014781,1.013359,192.000000,0.000000,0.000000,0.000000,0.000000,0.000000,0.000000,0.000000,0.000000,0.000000,1772527944.815137,0.000000
170.000000,9340.302269,8885.757194,6714.776959,-14090.785574,14414.394130,10950.387830,-1919.232538,-1504.071236,10848.553282,11222.900298,7557.594187,11265.793296,11394.673454,16304.882324,5162.805934,13602.802289,0.004438,-0.014781,1.013359,192.000000,0.000000,0.000000,0.000000,0.000000,0.000000,0.000000,0.000000,0.000000,0.000000,1772527944.815148,0.000000
172.000000,9329.752246,8880.146906,6722.220090,-14091.411423,14423.245421,10946.185702,-1920.484235,-1507.401646,10867.641672,11216.507699,7564.858504,11267.000290,11342.795055,16302.781260,5175.591132,13691.873991,0.004438,-0.014781,1.013359,192.000000,0.000000,0.000000,0.000000,0.000000,0.000000,0.000000,0.000000,0.000000,0.000000,1772527944.815159,0.000000
174.000000,9337.508301,8894.049691,6726.399866,-14075.340518,14436.835281,10951.483065,-1911.051799,-1503.467739,10846.228700,11225.984839,7560.298748,11268.855485,11319.951572,16291.292464,5172.551295,13612.659408,0.004438,-0.014781,1.013359,192.000000,0.000000,0.000000,0.000000,0.000000,0.000000,0.000000,0.000000,0.000000,0.000000,1772527944.815170,0.000000
176.000000,9333.753208,8878.917560,6711.111273,-14094.093632,14468.708869,10949.091428,-1925.803951,-1510.463835,10856.063468,11217.714693,7561.058707,11267.447325,11365.795000,16304.658807,5172.931275,13650.277394,0.004000,-0.012000,1.010000,192.000000,0.000000,16.000000,127.500000,80.000000,15.500000,72.000000,0.000000,0.000000,0.000000,1772527944.815180,0.000000
178.000000,9341.039877,8894.250857,6726.466921,-14075.385222,14440.545671,10951.147789,-1913.175215,-1506.395818,10866.993471,11217.178251,7564.925559,11267.648490,11393.913495,16303.362406,5187.102281,13682.553313,0.004000,-0.012000,1.010000,192.000000,0.000000,0.000000,0.000000,0.000000,0.000000,0.000000,0.000000,0.000000,0.000000,1772527944.815191,0.000000
180.000000,9329.931060,8875.542447,6717.816796,-14086.561094,14431.739084,10946.789199,-1921.847692,-1511.939050,10845.356982,11206.225897,7554.621405,11259.847732,11346.326631,16297.573304,5181.380234,13610.960676,0.004000,-0.012000,1.010000,192.000000,0.000000,0.000000,0.000000,0.000000,0.000000,0.000000,0.000000,0.000000,0.000000,1772527944.815202,0.000000
182.000000,9327.628830,8871.787354,6713.525261,-14095.166516,14455.588395,10945.269280,-1925.960413,-1515.269460,10864.244206,11207.768167,7560.522265,11256.182045,11364.610358,16296.366310,5187.594019,13698.154831,0.004000,-0.012000,1.010000,192.000000,0.000000,0.000000,0.000000,0.000000,0.000000,0.000000,0.000000,0.000000,0.000000,1772527944.815227,0.000000
184.000000,9328.589955,8878.984616,6721.169558,-14085.398803,14443.317287,10925.867966,-1917.846729,-1513.235451,10842.361849,11208.572830,7555.694289,11260.920615,11351.087552,16294.354653,5170.651397,13616.079225,0.004000,-0.012000,1.010000,192.000000,0.000000,0.000000,0.000000,0.000000,0.000000,0.000000,0.000000,0.000000,0.000000,1772527944.815238,0.000000
186.000000,9319.828072,8860.879703,6714.575793,-14105.716539,14432.230822,10925.733855,-1932.822398,-1522.466722,10846.631032,11196.525240,7552.118010,11251.465827,11338.503520,16281.994138,5189.516269,13650.076228,0.002000,-0.008000,1.010000,192.000000,0.000000,8.000000,127.500000,96.000000,15.500000,72.000000,0.000000,0.000000,0.000000,1772527944.815250,0.000000
188.000000,9322.554984,8873.620197,6717.258002,-14084.661196,14448.033505,10939.904861,-1920.305421,-1520.678582,10852.666003,11202.113176,7554.800219,11254.416258,11385.397480,16289.504324,5182.810746,13684.564970,0.002000,-0.008000,1.010000,192.000000,0.000000,0.000000,0.000000,0.000000,0.000000,0.000000,0.000000,0.000000,0.000000,1772527944.815261,0.000000
190.000000,9318.710484,8861.550255,6710.686590,-14093.110155,14433.214299,10950.276071,-1928.486160,-1525.394800,10828.101436,11194.513583,7541.232710,11246.391981,11390.516030,16292.141830,5169.466754,13620.281353,0.002000,-0.008000,1.010000,192.000000,0.000000,0.000000,0.000000,0.000000,0.000000,0.000000,0.000000,0.000000,0.000000,1772527944.815271,0.000000
192.000000,9322.040894,8866.177066,6710.150148,-14097.222876,14442.467921,10962.547179,-1929.335526,-1521.863225,10861.472590,11194.893562,7552.252120,11245.140284,11311.077930,16315.432348,5181.044958,13710.671808,0.002000,-0.008000,1.010000,192.000000,0.000000,0.000000,0.000000,0.000000,0.000000,0.000000,0.000000,0.000000,0.000000,1772527944.815282,0.000000
194.000000,9328.634659,8880.258665,6716.967430,-14087.723385,14439.785712,10952.399487,-1917.310288,-1511.112036,10848.977965,11203.186059,7554.196722,11256.293804,11331.038038,16291.694795,5158.134420,13616.101577,0.002000,-0.008000,1.010000,192.000000,0.000000,0.000000,0.000000,0.000000,0.000000,0.000000,0.000000,0.000000,0.000000,1772527944.815292,0.000000
196.000000,9326.243022,8864.277168,6706.886793,-14098.809850,14418.372741,10915.787329,-1929.693154,-1514.844777,10846.116942,11196.413481,7553.325004,11253.857464,11362.621053,16276.652071,5168.058594,13638.721542,0.004000,-0.016000,1.012000,192.000000,0.000000,16.000000,127.500000,64.000000,15.500000,80.000000,0.000000,0.000000,0.000000,1772527944.815304,0.000000
198.000000,9327.740589,8881.979749,6715.782787,-14083.677719,14426.151148,10925.756207,-1916.259756,-1509.010972,10859.975023,11205.935324,7559.717603,11266.016813,11335.418980,16284.855161,5161.196609,13665.275415,0.004000,-0.016000,1.012000,192.000000,0.000000,0.000000,0.000000,0.000000,0.000000,0.000000,0.000000,0.000000,0.000000,1772527944.815314,0.000000
200.000000,9325.147787,8867.294653,6710.373665,-14089.377414,14434.443645,10947.437399,-1921.825340,-1511.469664,10837.846796,11191.719614,7549.793428,11263.021679,11397.109794,16295.405185,5155.631024,13595.940303,0.004000,-0.016000,1.012000,192.000000,0.000000,0.000000,0.000000,0.000000,0.000000,0.000000,0.000000,0.000000,0.000000,1772527944.815325,0.000000
202.000000,9324.320772,8864.277168,6713.122930,-14097.714615,14433.817796,10932.819358,-1925.759247,-1516.677620,10871.061489,11193.887734,7561.192818,11261.345298,11326.433578,16287.537371,5176.306388,13693.103336,0.004000,-0.016000,1.012000,192.000000,0.000000,0.000000,0.000000,0.000000,0.000000,0.000000,0.000000,0.000000,0.000000,1772527944.815336,0.000000
204.000000,9328.321734,8874.961302,6716.855671,-14082.806001,14445.239537,10935.903899,-1916.527977,-1512.520196,10847.547453,11188.568019,7551.961547,11259.154827,11323.393741,16283.715222,5167.142173,13616.369798,0.004000,-0.016000,1.012000,192.000000,0.000000,0.000000,0.000000,0.000000,0.000000,0.000000,0.000000,0.000000,0.000000,1772527944.815347,0.000000
206.000000,9316.207089,8852.408392,6705.813909,-14101.670873,14419.467976,10918.022504,-1933.157674,-1523.249033,10847.748619,11184.723518,7550.508684,11254.036278,11357.904834,16291.493629,5174.138269,13655.485351,0.006000,-0.016000,1.004000,192.000000,0.000000,24.000000,127.500000,64.000000,15.500000,48.000000,0.000000,0.000000,0.000000,1772527944.815359,0.000000
208.000000,9327.114740,8873.821363,6717.928555,-14086.002301,14436.052970,10941.424780,-1918.919613,-1512.699010,10858.946843,11195.251190,7557.974167,11268.140229,11336.335401,16285.078679,5170.450231,13674.663147,0.006000,-0.016000,1.004000,192.000000,0.000000,0.000000,0.000000,0.000000,0.000000,0.000000,0.000000,0.000000,0.000000,1772527945.295305,0.000000
210.000000,9315.648295,8856.923444,6703.578735,-14099.636865,14426.262906,10932.349972,-1930.564872,-1522.466722,10828.839043,11184.611760,7541.255062,11255.265624,11391.499506,16307.363368,5166.851600,13604.188097,0.006000,-0.016000,1.004000,192.000000,0.000000,0.000000,0.000000,0.000000,0.000000,0.000000,0.000000,0.000000,0.000000,1772527945.295362,0.000000
212.000000,9313.122548,8853.257758,6708.876098,-14097.155821,14413.723578,10928.438417,-1931.011907,-1523.159626,10852.911872,11183.158896,7546.284204,11257.344336,11335.575442,16287.291501,5174.540600,13700.904095,0.006000,-0.016000,1.004000,192.000000,0.000000,0.000000,0.000000,0.000000,0.000000,0.000000,0.000000,0.000000,0.000000,1772527945.295403,0.000000
214.000000,9315.178909,8860.320909,6714.933421,-14089.958559,14446.625346,10943.257623,-1922.004154,-1521.438542,10833.756427,11170.217236,7539.578681,11250.616461,11320.488014,16280.295405,5166.113992,13626.428083,0.006000,-0.016000,1.004000,192.000000,0.000000,0.000000,0.000000,0.000000,0.000000,0.000000,0.000000,0.000000,0.000000,1772527945.295440,0.000000
216.000000,9308.875717,8845.926386,6704.472805,-14101.782632,14449.799293,10930.695943,-1934.476427,-1524.478379,10843.054753,11171.267768,7542.417352,11250.482351,11326.120654,16288.811420,5164.571722,13663.263758,0.004000,-0.020000,1.008000,192.000000,0.000000,16.000000,127.500000,48.000000,15.500000,64.000000,0.000000,0.000000,0.000000,1772527945.295492,0.000000
218.000000,9320.498624,8866.042956,6722.197738,-14084.996472,14413.611819,10911.518146,-1916.125645,-1512.117864,10858.008070,11178.777954,7550.866312,11257.701964,11350.394648,16285.413955,5174.115917,13676.317176,0.004000,-0.020000,1.008000,192.000000,0.000000,0.000000,0.000000,0.000000,0.000000,0.000000,0.000000,0.000000,0.000000,1772527945.295531,0.000000
220.000000,9306.104100,8845.814627,6711.379494,-14094.585370,14410.907258,10920.324733,-1923.859349,-1518.108132,10833.264689,11180.409632,7544.138437,11257.299633,11379.228399,16301.887191,5167.388042,13589.614760,0.004000,-0.020000,1.008000,192.000000,0.000000,0.000000,0.000000,0.000000,0.000000,0.000000,0.000000,0.000000,0.000000,1772527945.295551,0.000000
222.000000,9304.561830,8841.679554,6710.463072,-14098.519277,14423.223069,10930.360667,-1925.625137,-1519.717457,10851.906044,11170.798382,7545.099562,11251.421124,11352.048677,16276.585016,5174.831173,13681.771002,0.004000,-0.020000,1.008000,192.000000,0.000000,0.000000,0.000000,0.000000,0.000000,0.000000,0.000000,0.000000,0.000000,1772527945.295563,0.000000
224.000000,9302.550173,8851.648432,6714.151110,-14084.840010,14453.912014,10949.829036,-1916.326811,-1517.616393,10830.493072,11182.063661,7539.153998,11254.729182,11319.392779,16302.870667,5161.263664,13596.946132,0.004000,-0.020000,1.008000,192.000000,0.000000,0.000000,0.000000,0.000000,0.000000,0.000000,0.000000,0.000000,0.000000,1772527945.295579,0.000000
226.000000,9288.155650,8826.547423,6700.471842,-14105.761243,14459.432895,10928.796044,-1933.023564,-1529.261652,10833.465854,11178.196809,7535.443608,11247.911900,11361.548169,16303.809441,5169.533809,13636.687533,0.006000,-0.014000,1.008000,192.000000,0.000000,24.000000,127.500000,72.000000,15.500000,64.000000,0.000000,0.000000,0.000000,1772527945.295590,0.000000
228.000000,9298.415100,8841.925423,6716.162767,-14084.817658,14436.924688,10954.925234,-1918.405523,-1521.729114,10848.754448,11172.765335,7539.578681,11248.046010,11353.434486,16309.017397,5164.750536,13672.427973,0.006000,-0.014000,1.008000,192.000000,0.000000,0.000000,0.000000,0.000000,0.000000,0.000000,0.000000,0.000000,0.000000,1772527945.295601,0.000000
230.000000,9275.057527,8816.757359,6703.019941,-14093.557190,14422.127834,10955.864007,-1930.050782,-1532.636766,10820.792415,11165.702184,7524.468902,11241.161673,11368.320747,16299.272036,5171.590170,13600.209487,0.006000,-0.014000,1.008000,192.000000,0.000000,0.000000,0.000000,0.000000,0.000000,0.000000,0.000000,0.000000,0.000000,1772527945.295612,0.000000
232.000000,9268.284949,8809.783615,6699.331903,-14100.553286,14456.840093,10946.655088,-1934.342317,-1535.050754,10830.917755,11163.981100,7528.715733,11243.061571,11320.197442,16291.270112,5171.903094,13689.236485,0.006000,-0.014000,1.008000,192.000000,0.000000,0.000000,0.000000,0.000000,0.000000,0.000000,0.000000,0.000000,0.000000,1772527945.295623,0.000000
234.000000,9268.888446,8816.243269,6709.501947,-14095.010054,14429.772130,10928.885451,-1925.066343,-1531.832103,10810.734130,11163.221140,7522.859576,11239.351182,11335.687201,16295.315778,5163.051803,13608.434928,0.006000,-0.014000,1.008000,192.000000,0.000000,0.000000,0.000000,0.000000,0.000000,0.000000,0.000000,0.000000,0.000000,1772527945.295634,0.000000
236.000000,9255.231530,8795.187926,6693.475746,-14109.024597,14431.023828,10919.743588,-1939.885550,-1542.493885,10815.450348,11163.019975,7521.093788,11233.405618,11384.414003,16291.270112,5173.087737,13650.366801,0.006000,-0.014000,1.008000,192.000000,0.000000,0.000000,127.500000,72.000000,15.500000,56.000000,0.000000,0.000000,0.000000,1772527945.295645,0.000000
238.000000,9267.592045,8810.700036,6707.400883,-14084.258864,14447.050029,10944.554024,-1923.032334,-1528.881672,10823.742846,11155.330974,7526.458207,11237.272470,11353.903872,16298.333263,5162.336548,13687.180124,0.006000,-0.014000,1.008000,192.000000,0.000000,0.000000,0.000000,0.000000,0.000000,0.000000,0.000000,0.000000,0.000000,1772527945.295657,0.000000
240.000000,9269.380184,8802.541650,6708.987857,-14090.003263,14428.811005,10936.485045,-1929.179064,-1526.065353,10807.627238,11167.736193,7525.139454,11240.871101,11325.427750,16314.024188,5158.179123,13609.552516,0.006000,-0.014000,1.008000,192.000000,0.000000,0.000000,0.000000,0.000000,0.000000,0.000000,0.000000,0.000000,0.000000,1772527945.295678,0.000000
242.000000,9277.493868,8811.191775,6710.619534,-14096.284103,14430.330924,10944.106989,-1929.894320,-1525.260690,10841.624241,11175.872228,7537.857597,11250.035316,11339.062314,16320.863822,5171.657225,13698.534810,0.006000,-0.014000,1.008000,192.000000,0.000000,0.000000,0.000000,0.000000,0.000000,0.000000,0.000000,0.000000,0.000000,1772527945.295691,0.000000
244.000000,9279.393766,8814.857461,6715.693380,-14083.700071,14434.555404,10944.598728,-1917.623212,-1520.924451,10832.795302,11166.842123,7531.330887,11250.035316,11409.760882,16313.554801,5160.146077,13600.365949,0.006000,-0.014000,1.008000,192.000000,0.000000,0.000000,0.000000,0.000000,0.000000,0.000000,0.000000,0.000000,0.000000,1772527945.295702,0.000000
246.000000,9263.546379,8788.549458,6707.020903,-14097.669911,14437.483482,10929.645411,-1932.732991,-1528.725210,10821.038284,11158.348460,7529.565099,11240.938156,11346.974831,16292.097126,5166.248103,13645.471769,0.001000,-0.015000,1.005000,192.000000,127.500000,112.000000,127.500000,64.000000,15.500000,40.000000,0.000000,0.000000,0.000000,1772527945.295713,0.000000
248.000000,9287.686263,8822.434702,6719.917860,-14079.654405,14450.045162,10962.167199,-1917.354991,-1517.638745,10837.019782,11176.721594,7540.428047,11253.522188,11341.968041,16311.587848,5157.955606,13673.031470,0.001000,-0.015000,1.005000,192.000000,0.000000,0.000000,0.000000,0.000000,0.000000,0.000000,0.000000,0.000000,0.000000,1772527945.295727,0.000000
250.000000,9272.889408,8803.949810,6714.151110,-14089.109193,14425.771168,10922.336390,-1927.614442,-1527.629975,10820.323029,11165.948053,7530.928556,11247.934252,11355.826122,16305.239952,5160.235484,13599.114251,0.001000,-0.015000,1.005000,192.000000,0.000000,0.000000,0.000000,0.000000,0.000000,0.000000,0.000000,0.000000,0.000000,1772527945.295738,0.000000
252.000000,9267.569693,8796.126699,6708.809043,-14096.351158,14435.605936,10942.184739,-1932.554177,-1533.933167,10833.957593,11159.354289,7532.046143,11243.575662,11344.493788,16308.011569,5175.993464,13689.370595,0.001000,-0.015000,1.005000,192.000000,0.000000,0.000000,0.000000,0.000000,0.000000,0.000000,0.000000,0.000000,0.000000,1772527945.295748,0.000000
254.000000,9261.780591,8802.564001,6708.205546,-14083.074222,14435.583584,10947.750324,-1923.546424,-1535.140161,10802.933371,11159.130771,7516.265811,11238.814740,11382.156477,16301.395452,5163.811763,13615.587487,0.001000,-0.015000,1.005000,192.000000,0.000000,0.000000,0.000000,0.000000,0.000000,0.000000,0.000000,0.000000,0.000000,1772527945.295759,0.000000
0.000000,9253.376335,8784.146164,6700.874174,-14110.656275,14455.521340,10926.940850,-1941.137247,-1544.326728,10805.459119,11153.386373,7511.169614,11231.304554,11345.544320,16289.325510,5173.668882,13647.125798,0.001000,-0.015000,1.005000,192.000000,0.000000,0.000000,127.500000,88.000000,15.500000,72.000000,0.000000,0.000000,0.000000,1772527945.295769,0.000000
2.000000,9261.914702,8804.933286,6710.686590,-14093.601894,14438.243441,10926.762036,-1927.435628,-1536.123638,10813.818671,11155.398030,7515.125873,11233.696191,11349.344116,16290.219580,5176.216981,13681.078098,0.001000,-0.015000,1.005000,192.000000,0.000000,0.000000,0.000000,0.000000,0.000000,0.000000,0.000000,0.000000,0.000000,1772527945.295780,0.000000
4.000000,9255.209178,8789.979969,6703.936363,-14100.218010,14411.398996,10940.731876,-1935.571663,-1541.108077,10799.133575,11157.320280,7508.375646,11231.416313,11343.733829,16292.074775,5170.182010,13613.195850,0.001000,-0.015000,1.005000,192.000000,0.000000,0.000000,0.000000,0.000000,0.000000,0.000000,0.000000,0.000000,0.000000,1772527945.295791,0.000000
6.000000,9257.086725,8795.433795,6704.942191,-14099.838030,14425.212374,10946.476274,-1934.923462,-1537.129466,10817.238488,11164.763411,7517.539861,11236.937194,11338.771741,16314.650037,5169.578513,13701.775813,0.001000,-0.015000,1.005000,192.000000,0.000000,0.000000,0.000000,0.000000,0.000000,0.000000,0.000000,0.000000,0.000000,1772527945.295802,0.000000
8.000000,9265.759202,8808.107234,6716.721561,-14082.470725,14425.771168,10943.168216,-1921.244195,-1528.680507,10800.765252,11168.987890,7514.723541,11238.971202,11336.000125,16305.888153,5167.231580,13621.086016,0.001000,-0.015000,1.005000,192.000000,0.000000,0.000000,0.000000,0.000000,0.000000,0.000000,0.000000,0.000000,0.000000,1772527945.295813,0.000000
10.000000,9268.799039,8799.255943,6707.065607,-14096.328806,14432.990781,10935.859196,-1935.102276,-1529.663984,10816.098549,11179.224989,7525.117102,11241.474598,11359.938843,16306.715167,5164.527019,13656.200606,0.001000,-0.015000,1.005000,192.000000,0.000000,0.000000,127.500000,64.000000,15.500000,88.000000,0.000000,0.000000,0.000000,1772527945.295824,0.000000
12.000000,9276.376280,8811.951734,6713.972296,-14080.392013,14447.541767,10948.890263,-1919.634869,-1521.147969,10830.180148,11175.045213,7533.230786,11247.777790,11341.945689,16307.408071,5158.626158,13681.212208,0.001000,-0.015000,1.005000,192.000000,0.000000,0.000000,0.000000,0.000000,0.000000,0.000000,0.000000,0.000000,0.000000,1772527945.295834,0.000000
14.000000,9265.848609,8799.322998,6704.316342,-14094.115984,14423.178366,10924.079826,-1930.207244,-1528.948728,10798.843002,11172.385356,7519.238593,11242.256909,11355.066163,16320.081511,5153.932292,13603.271675,0.001000,-0.015000,1.005000,192.000000,0.000000,0.000000,0.000000,0.000000,0.000000,0.000000,0.000000,0.000000,0.000000,1772527945.295845,0.000000
16.000000,9271.436545,8795.456147,6702.014113,-14099.301588,14427.894584,10931.634716,-1933.202378,-1533.016745,10830.202500,11166.328033,7527.642849,11243.240385,11346.103113,16306.111670,5162.314196,13697.752499,0.001000,-0.015000,1.005000,192.000000,0.000000,0.000000,0.000000,0.000000,0.000000,0.000000,0.000000,0.000000,0.000000,1772527945.295856,0.000000
18.000000,9272.487077,8806.453205,6705.322171,-14088.393937,14418.082168,10923.297515,-1924.373439,-1530.692164,10801.301694,11158.080239,7519.640925,11234.076170,11354.820294,16295.561647,5153.686423,13622.449472,0.001000,-0.015000,1.005000,192.000000,0.000000,0.000000,0.000000,0.000000,0.000000,0.000000,0.000000,0.000000,0.000000,1772527945.295877,0.000000
20.000000,9261.825295,8789.711748,6697.543764,-14109.739853,14411.756624,10928.594879,-1940.310233,-1537.911777,10809.817709,11157.566149,7525.050047,11233.718542,11336.044828,16296.947455,5160.369594,13651.015002,0.001500,-0.012500,1.006500,192.000000,0.000000,8.000000,127.500000,88.000000,15.500000,64.000000,0.000000,0.000000,0.000000,1772527945.295888,0.000000
22.000000,9268.553170,8806.766129,6705.635095,-14090.338539,14417.746892,10933.400504,-1925.602785,-1531.407420,10811.471738,11156.761486,7527.441684,11234.567909,11309.736825,16301.037824,5162.872990,13672.271511,0.001500,-0.012500,1.006500,192.000000,0.000000,0.000000,0.000000,0.000000,0.000000,0.000000,0.000000,0.000000,0.000000,1772527945.295899,0.000000
24.000000,9263.635786,8796.663141,6694.280409,-14098.072243,14411.398996,10924.057475,-1935.638718,-1534.603719,10786.169563,11160.293062,7517.204585,11235.037295,11346.863073,16288.096164,5154.915768,13598.667216,0.001500,-0.012500,1.006500,192.000000,0.000000,0.000000,0.000000,0.000000,0.000000,0.000000,0.000000,0.000000,0.000000,1772527945.295918,0.000000
26.000000,9268.955501,8798.339522,6699.220145,-14099.078071,14419.959714,10939.994268,-1936.242215,-1532.480303,10823.116997,11164.495190,7525.184158,11237.585394,11356.720192,16299.406147,5168.796202,13698.557162,0.001500,-0.012500,1.006500,192.000000,0.000000,0.000000,0.000000,0.000000,0.000000,0.000000,0.000000,0.000000,0.000000,1772527945.295929,0.000000
28.000000,9275.213990,8811.862327,6712.854709,-14085.264693,14437.438779,10939.726047,-1923.836997,-1522.511425,10806.532002,11169.881960,7527.620498,11241.496949,11320.085683,16313.174822,5159.944911,13617.196812,0.001500,-0.012500,1.006500,192.000000,0.000000,0.000000,0.000000,0.000000,0.000000,0.000000,0.000000,0.000000,0.000000,1772527945.295940,0.000000
30.000000,9269.670757,8799.010074,6700.762415,-14100.352120,14442.445569,10942.251795,-1934.275262,-1523.293736,10820.144215,11168.138524,7532.739047,11245.095580,11368.454858,16305.530525,5159.721394,13645.404714,0.001500,-0.012500,1.006500,192.000000,0.000000,0.000000,127.500000,88.000000,15.500000,48.000000,0.000000,0.000000,0.000000,1772527945.295951,0.000000
32.000000,9273.694071,8813.873984,6717.436816,-14082.694242,14437.930517,10933.825187,-1919.031372,-1517.169358,10822.312334,11170.910140,7540.115123,11249.767095,11323.125520,16312.571324,5161.040146,13675.490162,0.001500,-0.012500,1.006500,192.000000,0.000000,0.000000,0.000000,0.000000,0.000000,0.000000,0.000000,0.000000,0.000000,1772527945.295961,0.000000
34.000000,9269.424888,8805.022693,6707.467938,-14086.583446,14426.776996,10936.038010,-1925.915709,-1519.560995,10802.285171,11175.715765,7532.269661,11246.101409,11339.084666,16313.957133,5155.586321,13604.657484,0.001500,-0.012500,1.006500,192.000000,0.000000,0.000000,0.000000,0.000000,0.000000,0.000000,0.000000,0.000000,0.000000,1772527945.295972,0.000000
36.000000,9261.467667,8799.054778,6702.908182,-14097.200524,14439.182215,10932.037047,-1929.626099,-1524.277213,10827.699104,11173.569998,7537.052934,11248.493045,11361.726983,16321.847298,5157.240350,13693.617427,0.001500,-0.012500,1.006500,192.000000,0.000000,0.000000,0.000000,0.000000,0.000000,0.000000,0.000000,0.000000,0.000000,1772527945.295983,0.000000
38.000000,9264.976891,8809.068359,6714.665200,-14087.253998,14437.170558,10934.629850,-1919.456055,-1520.097437,10804.766214,11175.738117,7530.883852,11251.555234,11376.814410,16312.504269,5153.775830,13602.623475,0.001500,-0.012500,1.006500,192.000000,0.000000,0.000000,0.000000,0.000000,0.000000,0.000000,0.000000,0.000000,0.000000,1772527945.295994,0.000000
40.000000,9258.740754,8788.974141,6705.232764,-14108.421100,14432.029656,10919.676533,-1936.197512,-1532.770876,10805.392063,11166.171571,7529.095713,11244.961470,11354.976756,16293.684100,5168.796202,13635.346429,0.001500,-0.012500,1.006500,192.000000,0.000000,0.000000,127.500000,80.000000,15.500000,32.000000,0.000000,0.000000,0.000000,1772527945.296004,0.000000
42.000000,9259.791286,8804.799176,6713.726427,-14084.594141,14420.674970,10940.083675,-1922.272375,-1527.026478,10818.624296,11169.211408,7533.275489,11247.107237,11356.831951,16320.416787,5168.013891,13668.315252,0.001500,-0.012500,1.006500,192.000000,0.000000,0.000000,0.000000,0.000000,0.000000,0.000000,0.000000,0.000000,0.000000,1772527945.296015,0.000000
44.000000,9245.083838,8785.710786,6701.611781,-14093.579542,14403.419424,10935.859196,-1934.185855,-1538.269405,10784.336720,11168.384393,7520.445588,11243.285089,11314.587154,16290.018414,5156.122763,13605.193926,0.001500,-0.012500,1.006500,192.000000,0.000000,0.000000,0.000000,0.000000,0.000000,0.000000,0.000000,0.000000,0.000000,1772527945.296026,0.000000
46.000000,9250.112981,8787.208353,6697.789633,-14099.234533,14425.525299,10946.230405,-1937.784486,-1538.425867,10807.157851,11164.092858,7523.083094,11240.468769,11353.836817,16299.763775,5166.695138,13700.278246,0.001500,-0.012500,1.006500,192.000000,0.000000,0.000000,0.000000,0.000000,0.000000,0.000000,0.000000,0.000000,0.000000,1772527945.296036,0.000000
48.000000,9255.902082,8798.920667,6702.528203,-14093.467783,14444.278412,10931.701771,-1930.319003,-1533.284966,10800.787604,11167.937358,7519.842091,11242.659240,11333.787302,16298.981464,5155.295748,13613.329961,0.001500,-0.012500,1.006500,192.000000,0.000000,0.000000,0.000000,0.000000,0.000000,0.000000,0.000000,0.000000,0.000000,1772527945.296048,0.000000
50.000000,9248.548359,8780.882809,6693.609857,-14109.963371,14428.140453,10913.373341,-1945.562893,-1541.398649,10793.679749,11156.806190,7516.958716,11236.378400,11363.179846,16285.928045,5165.532847,13640.934365,-0.000250,-0.010250,1.007250,192.000000,127.500000,120.000000,127.500000,96.000000,15.500000,64.000000,0.000000,0.000000,0.000000,1772527945.296059,0.000000
52.000000,9269.313129,8809.202469,6712.944116,-14091.031443,14440.769188,10940.776579,-1927.212110,-1527.473513,10823.362866,11167.736193,7529.341582,11249.230653,11355.088515,16305.284656,5169.533809,13666.840037,-0.000250,-0.010250,1.007250,192.000000,0.000000,0.000000,0.000000,0.000000,0.000000,0.000000,0.000000,0.000000,0.000000,1772527945.296070,0.000000
54.000000,9260.081859,8795.880830,6707.602049,-14097.289931,14439.338677,10932.484082,-1931.078962,-1527.071181,10810.801185,11172.675928,7528.000477,11249.789447,11405.491698,16316.438176,5167.656263,13586.127888,-0.000250,-0.010250,1.007250,192.000000,0.000000,0.000000,0.000000,0.000000,0.000000,0.000000,0.000000,0.000000,0.000000,1772527945.296081,0.000000
56.000000,9256.215007,8794.763243,6706.842090,-14088.304530,14423.446587,10947.347992,-1930.766038,-1523.696068,10817.596116,11171.625396,7536.382381,11255.712659,11315.458872,16315.298237,5168.192705,13685.861371,-0.000250,-0.010250,1.007250,192.000000,0.000000,0.000000,0.000000,0.000000,0.000000,0.000000,0.000000,0.000000,0.000000,1772527945.296093,0.000000
58.000000,9260.797114,8807.146109,6712.228860,-14075.206408,14437.058799,10942.743533,-1921.624174,-1520.678582,10808.923639,11188.947998,7532.113198,11264.854522,11357.301337,16341.628592,5156.122763,13614.313437,-0.000250,-0.010250,1.007250,192.000000,0.000000,0.000000,0.000000,0.000000,0.000000,0.000000,0.000000,0.000000,0.000000,1772527945.296103,0.000000
60.000000,9236.500768,8775.071356,6695.554459,-14100.285065,14432.901374,10929.041914,-1940.198474,-1537.598853,10795.691406,11171.714803,7522.703114,11249.677688,11360.274119,16327.681104,5162.023623,13657.809932,-0.000250,-0.010250,1.007250,192.000000,0.000000,0.000000,0.000000,0.000000,0.000000,0.000000,0.000000,0.000000,0.000000,1772527945.296116,0.000000
62.000000,9247.497827,8795.009112,6705.836261,-14079.073260,14482.432840,10942.922347,-1924.865177,-1527.853492,10809.437729,11172.541818,7527.799312,11256.137342,11360.475285,16315.678217,5158.559103,13685.190819,-0.000250,-0.010250,1.007250,192.000000,0.000000,0.000000,127.500000,88.000000,15.500000,56.000000,0.000000,0.000000,0.000000,1772527945.296132,0.000000
64.000000,9233.997373,8776.792440,6705.769206,-14097.580504,14408.135642,10942.430609,-1934.878759,-1536.324803,10773.719641,11168.540855,7511.482538,11247.308403,11376.322672,16310.760833,5162.940045,13602.176440,-0.000250,-0.010250,1.007250,192.000000,0.000000,0.000000,0.000000,0.000000,0.000000,0.000000,0.000000,0.000000,0.000000,1772527945.296144,0.000000
66.000000,9232.052771,8769.461068,6703.422273,-14103.459013,14429.012171,10922.694018,-1937.337451,-1537.777667,10806.241430,11157.208521,7522.680762,11245.408505,11325.070122,16299.674368,5171.210190,13682.508610,-0.000250,-0.010250,1.007250,192.000000,0.000000,0.000000,0.000000,0.000000,0.000000,0.000000,0.000000,0.000000,0.000000,1772527945.296155,0.000000
68.000000,9231.628088,8775.965425,6706.819738,-14086.426984,14410.437871,10937.490873,-1927.972070,-1534.938995,10773.719641,11161.075373,7512.197794,11246.079057,11331.082741,16317.220487,5157.463867,13612.368835,-0.000250,-0.010250,1.007250,192.000000,0.000000,0.000000,0.000000,0.000000,0.000000,0.000000,0.000000,0.000000,0.000000,1772527945.296166,0.000000
70.000000,9221.435692,8758.218140,6693.587505,-14102.810812,14407.263924,10923.610440,-1944.355898,-1544.527894,10773.183200,11156.135637,7510.052027,11242.815702,11330.680410,16318.271019,5161.241312,13652.110237,-0.000250,-0.010250,1.007250,192.000000,0.000000,0.000000,0.000000,0.000000,0.000000,0.000000,0.000000,0.000000,0.000000,1772527945.296178,0.000000
72.000000,9229.884652,8772.858533,6704.383398,-14089.891504,14423.290124,10930.159501,-1929.313174,-1539.208178,10786.147211,11158.929605,7513.851823,11243.173330,11353.501541,16302.289522,5165.398737,13685.347281,-0.000250,-0.010250,1.007250,192.000000,0.000000,0.000000,127.500000,72.000000,15.500000,64.000000,0.000000,0.000000,0.000000,1772527945.775381,0.000000
74.000000,9228.521195,8765.013071,6699.577773,-14103.548420,14454.001421,10904.343236,-1936.175160,-1540.705745,10766.902359,11156.873245,7507.772149,11237.898319,11367.136105,16308.346845,5155.228693,13604.970408,-0.000250,-0.010250,1.007250,192.000000,0.000000,0.000000,0.000000,0.000000,0.000000,0.000000,0.000000,0.000000,0.000000,1772527945.775464,0.000000
76.000000,9231.739847,8767.672928,6705.076302,-14101.357949,14437.192909,10943.883472,-1936.197512,-1535.810713,10804.341531,11150.927681,7520.534995,11237.920670,11354.261500,16307.832755,5168.483277,13692.522191,-0.000250,-0.010250,1.007250,192.000000,0.000000,0.000000,0.000000,0.000000,0.000000,0.000000,0.000000,0.000000,0.000000,1772527945.775530,0.000000
78.000000,9240.926414,8787.722443,6717.481520,-14083.543609,14433.974258,10941.625946,-1922.384134,-1523.092571,10780.760441,11163.914044,7518.500986,11248.291880,11311.726130,16325.937668,5163.834115,13608.367873,-0.000250,-0.010250,1.007250,192.000000,0.000000,0.000000,0.000000,0.000000,0.000000,0.000000,0.000000,0.000000,0.000000,1772527945.775581,0.000000
80.000000,9241.015821,8779.206428,6708.049084,-14095.457088,14435.158901,10942.967050,-1934.878759,-1524.746600,10793.210363,11177.861533,7522.971335,11257.634909,11341.409247,16320.483842,5171.657225,13641.873138,-0.000250,-0.010250,1.007250,192.000000,0.000000,0.000000,0.000000,0.000000,0.000000,0.000000,0.000000,0.000000,0.000000,1772527945.775631,0.000000
82.000000,9248.101324,8793.600952,6717.392113,-14080.213199,14444.725447,10944.241100,-1921.244195,-1518.577518,10809.773005,11177.950940,7530.906204,11264.228673,11364.431544,16319.053330,5167.388042,13681.882761,0.006000,-0.008000,1.010000,192.000000,0.000000,24.000000,127.500000,96.000000,15.500000,72.000000,0.000000,0.000000,0.000000,1772527945.775656,0.000000
84.000000,9259.992452,8796.417272,6709.904279,-14088.416289,14431.359104,10948.420876,-1928.687326,-1517.795207,10787.980054,11182.555399,7524.714771,11263.424011,11382.178829,16324.663618,5164.415260,13610.446585,0.006000,-0.008000,1.010000,192.000000,0.000000,0.000000,0.000000,0.000000,0.000000,0.000000,0.000000,0.000000,0.000000,1772527945.775681,0.000000
86.000000,9255.432696,8784.503792,6710.485424,-14095.255923,14439.092808,10945.090466,-1931.816570,-1520.946803,10821.731189,11172.519466,7536.605899,11264.094563,11379.787192,16334.721903,5162.493010,13704.949761,0.006000,-0.008000,1.010000,192.000000,0.000000,0.000000,0.000000,0.000000,0.000000,0.000000,0.000000,0.000000,0.000000,1772527945.775706,0.000000
88.000000,9254.248053,8792.908048,6713.659372,-14086.292873,14444.189005,10936.015658,-1925.468674,-1523.517254,10794.395005,11168.809076,7530.258004,11260.317118,11345.633727,16321.467319,5158.290882,13622.158900,0.006000,-0.008000,1.010000,192.000000,0.000000,0.000000,0.000000,0.000000,0.000000,0.000000,0.000000,0.000000,0.000000,1772527945.775740,0.000000
90.000000,9244.189768,8776.837144,6699.622476,-14106.543554,14455.722506,10931.545309,-1941.316061,-1532.659117,10793.009197,11167.557379,7523.127797,11252.203435,11376.657948,16322.607258,5157.620330,13652.601976,0.006000,-0.008000,1.010000,192.000000,0.000000,0.000000,0.000000,0.000000,0.000000,0.000000,0.000000,0.000000,0.000000,1772527945.775764,0.000000
92.000000,9246.760219,8789.868211,6712.005342,-14090.852629,14432.901374,10930.494777,-1930.207244,-1534.380202,10812.209345,11175.693414,7527.754608,11256.629080,11325.450102,16316.773452,5159.497876,13678.351185,0.008000,-0.016000,1.008000,192.000000,0.000000,32.000000,127.500000,64.000000,15.500000,64.000000,0.000000,0.000000,0.000000,1772527945.775787,0.000000
94.000000,9235.293774,8771.025690,6703.399921,-14106.208277,14426.128796,10911.495794,-1940.444343,-1542.918568,10778.301749,11158.281405,7510.186137,11241.362839,11352.786285,16312.280752,5164.102335,13600.611818,0.008000,-0.016000,1.008000,192.000000,0.000000,0.000000,0.000000,0.000000,0.000000,0.000000,0.000000,0.000000,0.000000,1772527945.775812,0.000000
96.000000,9233.885614,8767.941149,6699.667180,-14113.293780,14423.267773,10924.616268,-1943.551236,-1545.064335,10802.195764,11155.018050,7520.333829,11238.412409,11327.931145,16308.324493,5168.617388,13688.677691,0.008000,-0.016000,1.008000,192.000000,0.000000,0.000000,0.000000,0.000000,0.000000,0.000000,0.000000,0.000000,0.000000,1772527945.775836,0.000000
98.000000,9243.206292,8785.263751,6710.597183,-14095.591199,14442.669087,10914.960315,-1932.330660,-1537.084763,10779.575798,11155.509788,7513.024809,11240.602880,11332.625012,16303.272999,5154.848713,13607.451452,0.008000,-0.016000,1.008000,192.000000,0.000000,0.000000,0.000000,0.000000,0.000000,0.000000,0.000000,0.000000,0.000000,1772527945.775860,0.000000
100.000000,9240.099399,8774.110231,6699.153089,-14109.695150,14434.443645,10906.801928,-1943.797105,-1540.370469,10791.466927,11160.829504,7516.154053,11243.329792,11386.179791,16288.453792,5168.684443,13642.856615,0.008000,-0.016000,1.008000,192.000000,0.000000,0.000000,0.000000,0.000000,0.000000,0.000000,0.000000,0.000000,0.000000,1772527945.775884,0.000000
102.000000,9253.398687,8792.058681,6713.927593,-14088.081013,14452.548558,10948.487931,-1926.519206,-1530.178074,10811.985828,11163.355251,7525.407675,11251.801104,11349.657041,16313.510098,5162.001271,13673.925540,0.008000,-0.016000,1.008000,192.000000,0.000000,0.000000,127.500000,64.000000,15.500000,64.000000,0.000000,0.000000,0.000000,1772527945.775908,0.000000
104.000000,9250.872940,8787.409519,6706.238592,-14090.539705,14437.639944,10927.656105,-1933.090619,-1530.915681,10782.168601,11167.400917,7519.551518,11252.449304,11350.975794,16311.878420,5157.977957,13607.026769,0.008000,-0.016000,1.008000,192.000000,0.000000,0.000000,0.000000,0.000000,0.000000,0.000000,0.000000,0.000000,0.000000,1772527945.775932,0.000000
106.000000,9250.515312,8781.463955,6707.199717,-14096.708786,14436.164729,10922.336390,-1936.845712,-1533.262614,10812.365808,11166.126867,7532.984916,11254.326851,11320.778587,16334.498386,5163.029452,13707.207287,0.008000,-0.016000,1.008000,192.000000,0.000000,0.000000,0.000000,0.000000,0.000000,0.000000,0.000000,0.000000,0.000000,1772527945.775956,0.000000
108.000000,9250.112981,8790.650522,6707.892622,-14084.974120,14429.638020,10940.910690,-1926.072171,-1527.719382,10786.907171,11162.327071,7519.484463,11251.622290,11348.271233,16306.603409,5148.701984,13630.809025,0.008000,-0.016000,1.008000,192.000000,0.000000,0.000000,0.000000,0.000000,0.000000,0.000000,0.000000,0.000000,0.000000,1772527945.775980,0.000000
110.000000,9256.058545,8781.083975,6699.398959,-14105.157745,14399.664330,10933.065228,-1938.902073,-1528.389934,10786.147211,11167.624434,7522.546652,11250.951737,11340.537529,16308.257438,5149.886626,13660.358031,0.008000,-0.016000,1.008000,192.000000,0.000000,0.000000,0.000000,0.000000,0.000000,0.000000,0.000000,0.000000,0.000000,1772527945.776003,0.000000
112.000000,9259.098382,8794.360911,6711.759473,-14089.109193,14434.935383,10933.400504,-1922.987631,-1521.617356,10808.476604,11174.084088,7533.454303,11257.880778,11362.799867,16334.587793,5148.232597,13678.999386,0.008000,-0.016000,1.008000,192.000000,0.000000,0.000000,127.500000,72.000000,15.500000,56.000000,0.000000,0.000000,0.000000,1772527945.776026,0.000000
114.000000,9251.856417,8781.642769,6703.757549,-14094.563019,14444.032543,10924.057475,-1930.989555,-1526.937071,10785.744880,11164.651652,7521.786692,11252.918691,11323.550203,16316.661694,5140.185969,13604.612780,0.008000,-0.016000,1.008000,192.000000,0.000000,0.000000,0.000000,0.000000,0.000000,0.000000,0.000000,0.000000,0.000000,1772527945.776050,0.000000
116.000000,9244.457989,8773.462030,6701.276505,-14103.034330,14439.852767,10906.734873,-1936.912768,-1534.044925,10811.762310,11160.091896,7526.189986,11249.923557,11329.048732,16312.146641,5151.965338,13690.957569,0.008000,-0.016000,1.008000,192.000000,0.000000,0.000000,0.000000,0.000000,0.000000,0.000000,0.000000,0.000000,0.000000,1772527945.776074,0.000000
118.000000,9249.554187,8789.063548,6702.774072,-14091.500830,14437.572889,10928.058437,-1927.547387,-1529.261652,10791.288113,11162.438829,7517.919841,11249.789447,11377.931998,16301.708377,5147.271472,13606.490327,0.008000,-0.016000,1.008000,192.000000,0.000000,0.000000,0.000000,0.000000,0.000000,0.000000,0.000000,0.000000,0.000000,1772527945.776098,0.000000
120.000000,9232.410399,8759.291024,6694.101595,-14112.913801,14410.057892,10912.948658,-1946.054631,-1544.706708,10786.169563,11159.086068,7510.074378,11243.240385,11355.714364,16313.308932,5156.256873,13644.153016,0.008000,-0.016000,1.008000,192.000000,0.000000,0.000000,0.000000,0.000000,0.000000,0.000000,0.000000,0.000000,0.000000,1772527945.776127,0.000000
122.000000,9245.866149,8778.535876,6709.144319,-14093.713652,14416.249325,10923.565736,-1930.050782,-1532.145027,10802.866316,11147.418457,7514.857652,11242.882758,11326.031247,16302.423632,5166.069289,13681.659243,0.008000,-0.016000,1.008000,192.000000,0.000000,0.000000,127.500000,80.000000,15.500000,56.000000,0.000000,0.000000,0.000000,1772527945.776152,0.000000
124.000000,9243.630975,8773.931417,6707.825566,-14106.342388,14433.303706,10920.905879,-1936.979823,-1532.949690,10780.715737,11152.939338,7515.081169,11247.688383,11310.094453,16309.710301,5156.033356,13601.058853,0.008000,-0.016000,1.008000,192.000000,0.000000,0.000000,0.000000,0.000000,0.000000,0.000000,0.000000,0.000000,0.000000,1772527945.776175,0.000000
126.000000,9248.168379,8778.290007,6708.026732,-14104.733062,14438.913994,10915.608515,-1939.036183,-1532.525007,10803.693331,11157.364983,7526.301745,11247.218996,11354.261500,16324.685970,5168.483277,13690.823459,0.008000,-0.016000,1.008000,192.000000,0.000000,0.000000,0.000000,0.000000,0.000000,0.000000,0.000000,0.000000,0.000000,1772527945.776200,0.000000
128.000000,9259.679527,8791.097556,6712.564136,-14090.405594,14467.144247,10939.994268,-1928.463808,-1524.791303,10795.914924,11166.752716,7521.809044,11254.125685,11363.023384,16314.761795,5154.491085,13623.790577,0.008000,-0.016000,1.008000,192.000000,0.000000,0.000000,0.000000,0.000000,0.000000,0.000000,0.000000,0.000000,0.000000,1772527945.776224,0.000000
130.000000,9240.904062,8767.091783,6695.733273,-14109.292818,14459.499950,10927.454940,-1943.662994,-1534.000222,10791.064595,11159.778972,7518.344524,11249.722391,11351.378125,16314.292409,5159.967263,13661.810894,0.008000,-0.016000,1.008000,192.000000,0.000000,0.000000,0.000000,0.000000,0.000000,0.000000,0.000000,0.000000,0.000000,1772527945.776248,0.000000
132.000000,9252.057582,8788.571809,6714.486386,-14090.338539,14424.541822,10924.750379,-1928.575567,-1527.875844,10799.066520,11171.714803,7520.803216,11257.590205,11365.303262,16322.137871,5164.705833,13684.676729,0.002000,-0.014000,1.007000,192.000000,127.500000,112.000000,127.500000,80.000000,15.500000,56.000000,0.000000,0.000000,0.000000,1772527945.776272,0.000000
134.000000,9246.089667,8770.042213,6699.041331,-14100.195658,14449.642831,10898.129451,-1937.158637,-1534.246091,10781.051014,11159.778972,7511.862518,11248.180121,11325.070122,16320.863822,5157.754440,13613.888754,0.002000,-0.014000,1.007000,192.000000,0.000000,0.000000,0.000000,0.000000,0.000000,0.000000,0.000000,0.000000,0.000000,1772527945.776296,0.000000
136.000000,9242.893367,8767.002376,6702.975238,-14098.876905,14417.165746,10920.525899,-1937.426858,-1532.860283,10806.710816,11151.799399,7516.176404,11249.364763,11364.208026,16313.465394,5154.938120,13702.356959,0.002000,-0.014000,1.007000,192.000000,0.000000,0.000000,0.000000,0.000000,0.000000,0.000000,0.000000,0.000000,0.000000,1772527945.776319,0.000000
138.000000,9253.152818,8784.503792,6708.697284,-14092.618417,14430.420331,10911.875774,-1928.732029,-1528.836969,10791.668092,11160.673041,7512.108387,11253.745705,11345.253747,16305.083490,5153.641719,13614.067568,0.002000,-0.014000,1.007000,192.000000,0.000000,0.000000,0.000000,0.000000,0.000000,0.000000,0.000000,0.000000,0.000000,1772527945.776343,0.000000
140.000000,9234.667925,8758.955748,6696.023845,-14112.779690,14411.354293,10903.046835,-1944.177084,-1535.855417,10798.306560,11154.213387,7511.437835,11244.894415,11389.554905,16304.189420,5159.319062,13646.611708,0.002000,-0.014000,1.007000,192.000000,0.000000,0.000000,0.000000,0.000000,0.000000,0.000000,0.000000,0.000000,0.000000,1772527945.776376,0.000000
142.000000,9236.992507,8767.158838,6708.294953,-14096.373510,14416.383435,10911.316980,-1929.670802,-1528.278175,10802.486337,11147.284346,7518.769207,11247.062534,11297.421014,16310.134984,5156.167466,13677.725336,0.002000,-0.014000,1.007000,192.000000,0.000000,0.000000,127.500000,88.000000,15.500000,64.000000,0.000000,0.000000,0.000000,1772527945.776396,0.000000
144.000000,9235.226719,8763.470800,6700.225973,-14111.505641,14432.588450,10910.624076,-1939.349108,-1533.240263,10774.054918,11145.675021,7509.225012,11242.681592,11338.458817,16305.463470,5149.439591,13600.544763,0.002000,-0.014000,1.007000,192.000000,0.000000,0.000000,0.000000,0.000000,0.000000,0.000000,0.000000,0.000000,0.000000,1772527945.776406,0.000000
146.000000,9248.503655,8767.114135,6704.830433,-14111.416234,14437.997572,10908.947695,-1939.952605,-1527.764085,10808.186031,11150.145370,7519.618573,11244.492083,11374.132201,16315.834679,5164.102335,13689.124726,0.002000,-0.014000,1.007000,192.000000,0.000000,0.000000,0.000000,0.000000,0.000000,0.000000,0.000000,0.000000,0.000000,1772527945.776419,0.000000
148.000000,9258.114905,8787.923609,6716.140415,-14099.368644,14447.497064,10925.689152,-1927.905015,-1520.209196,10798.708892,11158.169646,7523.708942,11251.376420,11373.640463,16325.736502,5151.451248,13607.362045,0.002000,-0.014000,1.007000,192.000000,0.000000,0.000000,0.000000,0.000000,0.000000,0.000000,0.000000,0.000000,0.000000,1772527945.776431,0.000000
150.000000,9245.933204,8772.970292,6706.618572,-14109.985722,14442.244404,10917.664876,-1942.232483,-1528.054658,10805.079139,11160.985966,7526.011172,11253.432781,11320.018628,16314.940609,5159.654338,13644.644754,0.002000,-0.014000,1.007000,192.000000,0.000000,0.000000,0.000000,0.000000,0.000000,0.000000,0.000000,0.000000,0.000000,1772527945.776442,0.000000
152.000000,9249.665946,8788.817679,6715.291049,-14094.026577,14440.836244,10929.913632,-1929.939023,-1524.836007,10811.471738,11168.831428,7523.977163,11258.573682,11341.968041,16316.281714,5164.236446,13675.557217,0.003000,-0.011000,1.007500,192.000000,0.000000,16.000000,127.500000,96.000000,15.500000,64.000000,0.000000,0.000000,0.000000,1772527945.776455,0.000000
154.000000,9251.588196,8780.547533,6708.987857,-14102.117908,14423.804214,10946.811550,-1936.085753,-1527.898196,10794.797336,11161.142428,7514.589431,11252.426952,11363.068087,16327.390531,5162.023623,13606.803251,0.003000,-0.011000,1.007500,192.000000,0.000000,0.000000,0.000000,0.000000,0.000000,0.000000,0.000000,0.000000,0.000000,1772527945.776466,0.000000
156.000000,9242.155760,8773.417327,6704.316342,-14104.598952,14442.445569,10940.217786,-1940.198474,-1531.586234,10814.243354,11160.337765,7520.423236,11253.745705,11383.788155,16333.313743,5169.667920,13702.111089,0.003000,-0.011000,1.007500,192.000000,0.000000,0.000000,0.000000,0.000000,0.000000,0.000000,0.000000,0.000000,0.000000,1772527945.776477,0.000000
158.000000,9254.717440,8791.030501,6714.374627,-14088.058661,14431.224994,10929.086617,-1928.284994,-1523.271385,10787.890647,11165.277501,7511.817814,11254.617423,11419.707408,16320.170918,5166.873952,13625.310496,0.003000,-0.011000,1.007500,192.000000,0.000000,0.000000,0.000000,0.000000,0.000000,0.000000,0.000000,0.000000,0.000000,1772527945.776488,0.000000
160.000000,9248.436600,8776.144239,6702.304685,-14108.421100,14424.586526,10919.207146,-1942.701869,-1529.395763,10801.413453,11164.584597,7519.506814,11254.304499,11305.802918,16330.452720,5161.151905,13657.474656,0.003000,-0.011000,1.007500,192.000000,0.000000,0.000000,0.000000,0.000000,0.000000,0.000000,0.000000,0.000000,0.000000,1772527945.776498,0.000000
162.000000,9248.011917,8782.760356,6702.215278,-14100.374472,14440.389209,10914.893259,-1932.911805,-1532.256786,10802.039302,11160.315414,7518.813910,11252.292842,11329.160491,16311.699606,5158.626158,13680.541656,0.003500,-0.012500,1.007750,192.000000,0.000000,16.000000,127.500000,72.000000,15.500000,64.000000,0.000000,0.000000,0.000000,1772527945.776509,0.000000
164.000000,9243.049829,8775.160763,6688.647770,-14107.415272,14447.809988,10898.129451,-1940.109067,-1536.816542,10773.362014,11152.760524,7502.765358,11247.464865,11330.076913,16313.912429,5140.074210,13594.107460,0.003500,-0.012500,1.007750,192.000000,0.000000,0.000000,0.000000,0.000000,0.000000,0.000000,0.000000,0.000000,0.000000,1772527945.776520,0.000000
166.000000,9239.786475,8766.577693,6691.933476,-14113.204374,14409.454395,10914.200355,-1943.372422,-1540.057545,10795.132613,11143.216329,7507.727445,11242.949813,11362.956329,16289.370214,5152.077097,13677.434764,0.003500,-0.012500,1.007750,192.000000,0.000000,0.000000,0.000000,0.000000,0.000000,0.000000,0.000000,0.000000,0.000000,1772527945.776531,0.000000
168.000000,9256.103248,8787.677740,6704.696322,-14093.601894,14394.970464,10919.855347,-1929.357878,-1527.249995,10781.542752,11151.218254,7506.945134,11248.828322,11366.957291,16312.727787,5151.652414,13600.410652,0.003500,-0.012500,1.007750,192.000000,0.000000,0.000000,0.000000,0.000000,0.000000,0.000000,0.000000,0.000000,0.000000,1772527945.776542,0.000000
170.000000,9258.450181,8776.546571,6703.757549,-14112.623228,14400.737214,10916.882565,-1942.746573,-1528.166417,10798.507726,11149.161893,7516.198756,11251.488179,11311.413206,16316.035845,5158.179123,13627.143339,0.003500,-0.012500,1.007750,192.000000,0.000000,0.000000,0.000000,0.000000,0.000000,0.000000,0.000000,0.000000,0.000000,1772527945.776554,0.000000
172.000000,9273.962292,8801.625228,6718.576755,-14090.986740,14423.334828,10922.716370,-1925.803951,-1516.498806,10817.350247,11160.449524,7532.046143,11261.546464,11338.078837,16351.239842,5160.324891,13656.066496,0.002750,-0.015250,1.008875,192.000000,0.000000,8.000000,127.500000,56.000000,15.500000,72.000000,0.000000,0.000000,0.000000,1772527945.776565,0.000000
174.000000,9270.922455,8799.233591,6706.752683,-14092.149030,14431.940249,10917.240193,-1933.358840,-1519.784512,10799.759424,11170.284292,7527.888719,11265.703889,11364.230378,16312.884249,5151.630062,13587.044309,0.002750,-0.015250,1.008875,192.000000,0.000000,0.000000,0.000000,0.000000,0.000000,0.000000,0.000000,0.000000,0.000000,1772527945.776576,0.000000
176.000000,9274.163458,8799.524164,6706.216241,-14096.351158,14448.726410,10914.960315,-1935.236387,-1520.164492,10828.034380,11175.738117,7535.644774,11270.621272,11380.480096,16317.756929,5159.319062,13688.767098,0.002750,-0.015250,1.008875,192.000000,0.000000,0.000000,0.000000,0.000000,0.000000,0.000000,0.000000,0.000000,0.000000,1772527945.776587,0.000000
178.000000,9270.788344,8804.553307,6715.983953,-14081.978986,14428.006342,10934.160463,-1923.412314,-1516.431751,10812.477566,11177.995643,7533.163730,11271.470639,11366.867884,16324.395397,5150.490123,13607.719673,0.002750,-0.015250,1.008875,192.000000,0.000000,0.000000,0.000000,0.000000,0.000000,0.000000,0.000000,0.000000,0.000000,1772527945.776598,0.000000
180.000000,9264.462801,8789.443527,6704.428101,-14103.190792,14428.006342,10931.768826,-1940.198474,-1525.215986,10808.007217,11174.709937,7532.649640,11264.251025,11325.003067,16347.149473,5168.148001,13634.944097,0.002750,-0.015250,1.008875,192.000000,0.000000,0.000000,0.000000,0.000000,0.000000,0.000000,0.000000,0.000000,0.000000,1772527945.776609,0.000000
182.000000,9276.868019,8808.934249,6711.446549,-14089.690338,14467.881855,10942.520016,-1925.692192,-1516.051771,10826.112130,11177.056870,7534.951870,11267.760249,11362.241073,16327.412883,5163.565894,13668.069383,0.004375,-0.013625,1.008438,192.000000,0.000000,24.000000,127.500000,80.000000,15.500000,64.000000,0.000000,0.000000,0.000000,1772527945.776620,0.000000
184.000000,9265.468629,8784.101460,6703.534031,-14102.855516,14425.435892,10928.103140,-1934.677593,-1524.813655,10808.230735,11160.248358,7530.459169,11261.568816,11343.912642,16316.907563,5146.220940,13593.503963,0.004375,-0.013625,1.008438,192.000000,0.000000,0.000000,0.000000,0.000000,0.000000,0.000000,0.000000,0.000000,0.000000,1772527945.776632,0.000000
186.000000,9259.165437,8779.944036,6702.081168,-14099.994493,14431.381456,10913.798024,-1937.918596,-1527.853492,10830.716590,11150.570053,7531.710867,11257.321984,11380.547152,16316.661694,5161.330719,13687.940083,0.004375,-0.013625,1.008438,192.000000,0.000000,0.000000,0.000000,0.000000,0.000000,0.000000,0.000000,0.000000,0.000000,1772527945.776643,0.000000
188.000000,9259.970100,8786.046062,6705.970371,-14097.938132,14412.807156,10918.715408,-1930.475465,-1528.859321,10799.871182,11156.515617,7522.144320,11256.271452,11348.293584,16321.981409,5148.389059,13603.048158,0.004375,-0.013625,1.008438,192.000000,0.000000,0.000000,0.000000,0.000000,0.000000,0.000000,0.000000,0.000000,0.000000,1772527945.776654,0.000000
190.000000,9249.710649,8764.901312,6694.906258,-14113.852574,14396.199810,10893.994378,-1943.104201,-1535.676603,10798.910057,11138.947146,7519.328000,11244.715601,11343.376201,16325.758854,5151.853580,13633.647696,0.004375,-0.013625,1.008438,192.000000,0.000000,0.000000,0.000000,0.000000,0.000000,0.000000,0.000000,0.000000,0.000000,1772527945.776664,0.000000
192.000000,9263.434620,8792.908048,6706.372703,-14097.178173,14412.762453,10893.010902,-1928.039125,-1527.227643,10813.237526,11147.954899,7525.966469,11251.063496,11326.075950,16316.907563,5151.428896,13658.994574,0.004375,-0.013625,1.008438,192.000000,0.000000,0.000000,0.000000,0.000000,0.000000,0.000000,0.000000,0.000000,0.000000,1772527946.257353,0.000000
194.000000,9265.714498,8779.698167,6699.533069,-14103.794289,14419.602086,10891.468631,-1933.872930,-1525.037172,10792.584514,11148.245472,7519.171538,11251.689345,11371.002957,16299.942589,5149.059611,13575.756678,0.004000,-0.016000,1.004000,192.000000,0.000000,16.000000,127.500000,64.000000,15.500000,48.000000,0.000000,0.000000,0.000000,1772527946.257412,0.000000
196.000000,9273.448202,8786.314283,6704.830433,-14105.649484,14439.115159,10898.554134,-1934.230558,-1519.426885,10827.229718,11148.491341,7535.376553,11260.630043,11376.121506,16314.985313,5158.782620,13666.795333,0.004000,-0.016000,1.004000,192.000000,0.000000,0.000000,0.000000,0.000000,0.000000,0.000000,0.000000,0.000000,0.000000,1772527946.257456,0.000000
198.000000,9284.154687,8805.559135,6712.765302,-14089.377414,14455.901319,10910.042931,-1922.272375,-1511.514367,10815.159776,11151.888806,7534.728352,11264.563950,11345.410209,16317.354598,5149.618405,13594.845068,0.004000,-0.016000,1.004000,192.000000,0.000000,0.000000,0.000000,0.000000,0.000000,0.000000,0.000000,0.000000,0.000000,1772527946.257496,0.000000
200.000000,9278.075013,8788.929437,6707.222069,-14109.292818,14424.385360,10910.713483,-1937.046878,-1518.376353,10825.978020,11165.769239,7540.495102,11264.921578,11351.288718,16315.611162,5160.391946,13624.327019,0.004000,-0.016000,1.004000,192.000000,0.000000,0.000000,0.000000,0.000000,0.000000,0.000000,0.000000,0.000000,0.000000,1772527946.257539,0.000000
202.000000,9290.502583,8806.408501,6718.867328,-14093.534838,14449.441665,10907.427777,-1923.300555,-1511.827291,10838.986735,11153.140504,7546.217149,11264.854522,11340.112846,16320.752063,5175.166449,13654.948909,0.004000,-0.016000,1.004000,192.000000,0.000000,0.000000,0.000000,0.000000,0.000000,0.000000,0.000000,0.000000,0.000000,1772527946.257580,0.000000
204.000000,9283.439432,8796.640789,6705.925668,-14103.101385,14441.618555,10926.315001,-1931.995384,-1517.437579,10816.076197,11152.067620,7536.784713,11262.395830,11372.835800,16311.185516,5163.968225,13584.384451,0.002000,-0.010000,1.006000,192.000000,0.000000,8.000000,127.500000,88.000000,15.500000,56.000000,0.000000,0.000000,0.000000,1772527946.257621,0.000000
206.000000,9284.981702,8796.953714,6701.432967,-14101.939094,14442.400866,10920.235326,-1935.571663,-1519.337478,10835.477511,11153.520483,7538.595204,11260.093601,11407.346893,16324.507156,5172.774812,13675.154886,0.002000,-0.010000,1.006000,192.000000,0.000000,0.000000,0.000000,0.000000,0.000000,0.000000,0.000000,0.000000,0.000000,1772527946.257632,0.000000
208.000000,9279.751394,8802.005208,6703.109348,-14089.243303,14429.123930,10923.945716,-1926.966241,-1520.902100,10815.003313,11160.158951,7531.397942,11262.351127,11376.188561,16325.937668,5153.552312,13603.495193,0.002000,-0.010000,1.006000,192.000000,0.000000,0.000000,0.000000,0.000000,0.000000,0.000000,0.000000,0.000000,0.000000,1772527946.257643,0.000000
210.000000,9268.240245,8781.687472,6691.195868,-14107.795251,14422.217241,10913.909783,-1944.221788,-1530.535702,10812.254049,11150.413591,7522.613707,11253.008098,11335.709552,16314.694740,5154.468734,13640.979068,0.002000,-0.010000,1.006000,192.000000,0.000000,0.000000,0.000000,0.000000,0.000000,0.000000,0.000000,0.000000,0.000000,1772527946.257653,0.000000
212.000000,9284.177039,8806.877888,6697.879040,-14089.176248,14441.864424,10930.070094,-1928.441456,-1516.878786,10822.357037,11153.185207,7526.324096,11262.217016,11360.631747,16324.864784,5151.607710,13672.427973,0.002000,-0.010000,1.006000,192.000000,0.000000,0.000000,0.000000,0.000000,0.000000,0.000000,0.000000,0.000000,0.000000,1772527946.257663,0.000000
214.000000,9290.368472,8805.872060,6695.397996,-14101.514411,14456.437761,10931.142978,-1933.582358,-1515.671792,10804.721511,11155.330974,7523.574832,11263.267548,11353.009802,16315.834679,5134.352164,13579.757640,-0.002000,-0.016000,1.010000,192.000000,127.500000,120.000000,127.500000,64.000000,15.500000,72.000000,0.000000,0.000000,0.000000,1772527946.257673,0.000000
216.000000,9289.183830,8806.967295,6700.963581,-14100.665045,14423.580697,10911.674608,-1933.939986,-1514.442446,10836.863319,11158.236701,7536.136512,11268.006118,11308.798052,16320.394435,5144.946890,13666.594168,-0.002000,-0.016000,1.010000,192.000000,0.000000,0.000000,0.000000,0.000000,0.000000,0.000000,0.000000,0.000000,0.000000,1772527946.257690,0.000000
218.000000,9294.458842,8821.361818,6708.272601,-14087.611626,14426.799348,10892.921495,-1924.127570,-1510.843815,10817.126729,11162.729402,7530.436817,11272.476467,11360.721154,16329.670409,5148.053783,13583.132754,-0.002000,-0.016000,1.010000,192.000000,0.000000,0.000000,0.000000,0.000000,0.000000,0.000000,0.000000,0.000000,0.000000,1772527946.257701,0.000000
220.000000,9285.965179,8801.804042,6693.743967,-14105.090690,14419.244459,10899.045873,-1939.706736,-1519.806864,10823.742846,11162.103553,7531.576756,11266.016813,11349.724096,16329.044560,5158.045013,13614.179327,-0.002000,-0.016000,1.010000,192.000000,0.000000,0.000000,0.000000,0.000000,0.000000,0.000000,0.000000,0.000000,0.000000,1772527946.257711,0.000000
222.000000,9294.682359,8820.244231,6704.428101,-14089.332710,14432.744912,10918.156614,-1924.105218,-1512.274326,10831.342439,11159.644861,7536.874120,11270.464810,11389.890181,16319.746234,5149.663109,13657.273490,-0.002000,-0.016000,1.010000,192.000000,0.000000,0.000000,0.000000,0.000000,0.000000,0.000000,0.000000,0.000000,0.000000,1772527946.257721,0.000000
224.000000,9293.296551,8811.191775,6698.706055,-14100.821507,14431.761435,10926.940850,-1932.867102,-1516.834082,10806.621409,11158.504922,7527.441684,11266.866179,11337.520044,16314.225354,5148.411411,13572.158047,-0.002000,-0.010000,1.010000,192.000000,127.500000,120.000000,127.500000,88.000000,15.500000,72.000000,0.000000,0.000000,0.000000,1772527946.257732,0.000000
226.000000,9292.000150,8811.996438,6701.477671,-14101.357949,14427.715770,10908.791233,-1935.817532,-1517.906966,10831.744770,11160.561283,7534.124855,11269.168409,11340.135198,16320.059159,5160.771926,13669.991633,-0.002000,-0.010000,1.010000,192.000000,0.000000,0.000000,0.000000,0.000000,0.000000,0.000000,0.000000,0.000000,0.000000,1772527946.257742,0.000000
228.000000,9303.354836,8824.468711,6710.641886,-14089.779745,14438.645773,10907.919515,-1923.635831,-1510.866166,10823.988715,11165.255149,7535.868291,11273.169371,11355.222625,16338.074665,5152.255911,13588.094841,-0.002000,-0.010000,1.010000,192.000000,0.000000,0.000000,0.000000,0.000000,0.000000,0.000000,0.000000,0.000000,0.000000,1772527946.257752,0.000000
230.000000,9297.588086,8809.425987,6699.845994,-14103.995455,14441.417389,10910.601724,-1937.538616,-1517.728152,10831.185976,11162.729402,7535.153036,11271.269473,11382.402346,16305.932856,5162.291844,13627.098635,-0.002000,-0.010000,1.010000,192.000000,0.000000,0.000000,0.000000,0.000000,0.000000,0.000000,0.000000,0.000000,0.000000,1772527946.257763,0.000000
232.000000,9308.227516,8829.833130,6714.106406,-14090.025615,14431.783787,10928.304306,-1924.172273,-1508.273364,10845.893424,11168.764373,7541.433876,11273.884627,11352.406305,16336.733560,5156.100411,13659.262795,-0.002000,-0.010000,1.010000,192.000000,0.000000,0.000000,0.000000,0.000000,0.000000,0.000000,0.000000,0.000000,0.000000,1772527946.257773,0.000000
234.000000,9299.644446,8822.121778,6704.383398,-14100.374472,14427.872232,10915.586163,-1933.403544,-1513.615431,10825.843909,11168.071469,7536.158864,11271.113011,11352.741582,16334.856014,5148.433763,13581.746946,-0.002000,-0.014000,1.002000,192.000000,127.500000,120.000000,127.500000,72.000000,15.500000,40.000000,0.000000,0.000000,0.000000,1772527946.257784,0.000000
236.000000,9294.950580,8811.370589,6698.661351,-14103.101385,14416.606953,10908.701826,-1938.455038,-1519.605699,10845.692259,11166.573902,7539.645736,11270.509514,11348.852378,16321.199098,5153.753478,13678.708813,-0.002000,-0.014000,1.002000,192.000000,0.000000,0.000000,0.000000,0.000000,0.000000,0.000000,0.000000,0.000000,0.000000,1772527946.257794,0.000000
238.000000,9300.672627,8828.402618,6702.259982,-14093.087803,14426.151148,10909.014751,-1927.323869,-1514.353039,10824.011066,11169.524332,7530.258004,11269.123706,11343.242090,16344.467264,5141.370611,13597.370815,-0.002000,-0.014000,1.002000,192.000000,0.000000,0.000000,0.000000,0.000000,0.000000,0.000000,0.000000,0.000000,0.000000,1772527946.257804,0.000000
240.000000,9290.681397,8802.318132,6687.194906,-14115.193679,14424.564174,10897.727120,-1943.126552,-1522.958460,10826.961497,11163.109382,7529.542748,11260.808857,11389.666663,16307.341016,5145.908015,13616.638019,-0.002000,-0.014000,1.002000,192.000000,0.000000,0.000000,0.000000,0.000000,0.000000,0.000000,0.000000,0.000000,0.000000,1772527946.257815,0.000000
242.000000,9318.017580,8833.968202,6709.211374,-14094.741833,14455.476636,10928.349010,-1922.965279,-1502.730131,10846.228700,11170.172533,7541.947966,11269.995424,11345.253747,16312.213697,5140.610652,13638.229804,-0.002000,-0.014000,1.002000,192.000000,0.000000,0.000000,0.000000,0.000000,0.000000,0.000000,0.000000,0.000000,0.000000,1772527946.257825,0.000000
244.000000,9310.529746,8827.240327,6703.288162,-14103.727234,14464.394982,10911.764015,-1932.107142,-1509.569765,10829.755465,11176.453373,7540.226882,11270.665976,11336.536567,16311.811365,5139.515417,13564.714916,-0.004000,-0.012000,1.006000,192.000000,127.500000,112.000000,127.500000,80.000000,15.500000,56.000000,0.000000,0.000000,0.000000,1772527946.257835,0.000000
246.000000,9317.391731,8833.476464,6709.993685,-14107.147051,14435.829453,10902.286876,-1933.269433,-1506.887556,10857.985718,11178.509733,7549.815780,11271.761211,11354.909701,16331.883232,5163.096507,13657.452304,-0.004000,-0.012000,1.006000,192.000000,0.000000,0.000000,0.000000,0.000000,0.000000,0.000000,0.000000,0.000000,0.000000,1772527946.257845,0.000000
248.000000,9328.120569,8848.027450,6713.480558,-14092.707824,14429.012171,10923.856309,-1923.345259,-1502.238393,10845.356982,11186.712824,7547.379440,11274.957511,11384.548114,16351.977450,5156.368632,13584.451507,-0.004000,-0.012000,1.006000,192.000000,0.000000,0.000000,0.000000,0.000000,0.000000,0.000000,0.000000,0.000000,0.000000,1772527946.257858,0.000000
250.000000,9316.899993,8828.112045,6698.549592,-14107.169403,14427.715770,10884.494887,-1941.427820,-1515.582385,10849.447352,11185.952864,7542.640870,11273.929331,11411.437262,16312.303103,5158.290882,13614.693417,-0.004000,-0.012000,1.006000,192.000000,0.000000,0.000000,0.000000,0.000000,0.000000,0.000000,0.000000,0.000000,0.000000,1772527946.257868,0.000000
252.000000,9319.403388,8836.449246,6709.054912,-14090.159725,14437.751703,10919.095387,-1926.742724,-1510.061504,10853.761238,11177.638015,7545.121914,11273.281130,11360.922320,16311.565496,5160.861333,13653.294880,-0.004000,-0.012000,1.006000,192.000000,0.000000,0.000000,0.000000,0.000000,0.000000,0.000000,0.000000,0.000000,0.000000,1772527946.257879,0.000000
254.000000,9312.854327,8824.848691,6701.589430,-14096.194696,14426.553479,10911.696960,-1933.224730,-1512.766065,10829.755465,11183.225952,7538.617556,11272.342357,11340.135198,16333.358447,5152.524132,13581.791649,-0.004000,-0.010000,1.010000,192.000000,127.500000,112.000000,127.500000,88.000000,15.500000,72.000000,0.000000,0.000000,0.000000,1772527946.257890,0.000000
0.000000,9309.970952,8818.858423,6700.918877,-14098.653388,14442.937308,10937.624984,-1934.744648,-1511.067332,10855.079991,11176.185152,7545.971280,11273.392889,11335.687201,16314.113595,5155.720431,13674.059650,-0.004000,-0.010000,1.010000,192.000000,0.000000,0.000000,0.000000,0.000000,0.000000,0.000000,0.000000,0.000000,0.000000,1772527946.257900,0.000000
2.000000,9303.287781,8818.903127,6704.428101,-14087.544571,14445.463055,10943.369382,-1924.954584,-1509.860338,10830.962459,11178.532085,7539.176350,11273.728165,11397.378015,16337.068836,5146.623271,13594.420385,-0.004000,-0.010000,1.010000,192.000000,0.000000,0.000000,0.000000,0.000000,0.000000,0.000000,0.000000,0.000000,0.000000,1772527946.257910,0.000000
4.000000,9293.408310,8798.674798,6693.632209,-14102.788461,14457.980032,10923.185757,-1938.008003,-1513.883652,10829.911927,11172.407707,7537.902300,11268.699022,11380.927131,16319.768586,5154.558141,13629.736141,-0.004000,-0.010000,1.010000,192.000000,0.000000,0.000000,0.000000,0.000000,0.000000,0.000000,0.000000,0.000000,0.000000,1772527946.257920,0.000000
6.000000,9300.985551,8815.125682,6707.602049,-14088.796269,14442.847901,10921.330562,-1923.278203,-1509.078027,10843.993526,11181.258998,7546.954757,11276.052746,11363.313957,16328.329304,5146.735030,13658.994574,-0.004000,-0.010000,1.010000,192.000000,0.000000,0.000000,0.000000,0.000000,0.000000,0.000000,0.000000,0.000000,0.000000,1772527946.257930,0.000000
8.000000,9284.109984,8787.923609,6698.706055,-14102.229667,14436.432950,10914.379169,-1933.604709,-1521.595004,10827.542642,11158.974309,7536.270623,11262.753458,11339.241128,16315.901734,5155.385155,13579.042385,-0.005000,-0.012000,1.008000,192.000000,127.500000,104.000000,127.500000,72.000000,15.500000,56.000000,0.000000,0.000000,0.000000,1772527946.257940,0.000000
10.000000,9269.491943,8778.111193,6692.671084,-14110.611571,14450.380439,10918.469539,-1938.633852,-1527.384106,10832.482378,11146.300870,7534.884815,11256.383211,11336.022477,16307.542182,5163.409431,13672.539732,-0.005000,-0.012000,1.008000,192.000000,0.000000,0.000000,0.000000,0.000000,0.000000,0.000000,0.000000,0.000000,0.000000,1772527946.257950,0.000000
12.000000,9276.666853,8788.236533,6704.696322,-14097.289931,14424.184194,10898.643541,-1926.519206,-1521.438542,10810.220040,11149.318355,7527.195815,11255.757362,11381.597684,16321.579077,5151.786524,13583.602140,-0.005000,-0.012000,1.008000,192.000000,0.000000,0.000000,0.000000,0.000000,0.000000,0.000000,0.000000,0.000000,0.000000,1772527946.257969,0.000000
14.000000,9268.709632,8775.518391,6699.331903,-14115.685417,14409.879078,10892.832088,-1939.684384,-1524.858358,10811.985828,11146.010297,7527.531091,11254.528016,11364.140971,16307.586885,5157.955606,13610.915972,-0.005000,-0.012000,1.008000,192.000000,0.000000,0.000000,0.000000,0.000000,0.000000,0.000000,0.000000,0.000000,0.000000,1772527946.257979,0.000000
16.000000,9283.238266,8792.528068,6712.228860,-14091.478478,14436.209433,10917.575469,-1923.859349,-1514.397742,10834.315221,11151.128847,7540.025716,11259.043069,11344.359677,16323.054293,5154.960472,13646.790522,-0.005000,-0.012000,1.008000,192.000000,0.000000,0.000000,0.000000,0.000000,0.000000,0.000000,0.000000,0.000000,0.000000,1772527946.257989,0.000000
18.000000,9258.874864,8769.818696,6699.466014,-14103.436661,14441.372686,10908.344198,-1935.057573,-1528.501693,10810.331799,11146.949070,7529.028658,11254.818589,11356.317861,16307.139851,5151.764173,13572.493323,-0.001500,-0.012000,1.008000,192.000000,0.000000,8.000000,127.500000,80.000000,15.500000,64.000000,0.000000,0.000000,0.000000,1772527946.258000,0.000000
20.000000,9263.613434,8769.796344,6700.114214,-14104.956580,14444.636040,10915.250887,-1937.762134,-1528.412286,10824.458101,11144.557434,7529.565099,11251.845807,11365.683242,16313.577153,5167.566856,13678.194723,-0.001500,-0.012000,1.008000,192.000000,0.000000,0.000000,0.000000,0.000000,0.000000,0.000000,0.000000,0.000000,0.000000,1772527946.258010,0.000000
22.000000,9258.427830,8772.903236,6706.685627,-14090.517353,14438.712828,10920.749416,-1927.010945,-1525.461856,10815.897383,11141.919928,7525.385323,11254.595072,11363.537474,16328.999857,5149.976033,13604.031635,-0.001500,-0.012000,1.008000,192.000000,0.000000,0.000000,0.000000,0.000000,0.000000,0.000000,0.000000,0.000000,0.000000,1772527946.258020,0.000000
24.000000,9245.910853,8749.679774,6692.201697,-14115.663065,14449.039334,10917.955448,-1945.719355,-1539.208178,10805.369712,11137.226061,7520.803216,11246.391981,11349.366468,16318.181612,5159.408469,13638.855653,-0.001500,-0.012000,1.008000,192.000000,0.000000,0.000000,0.000000,0.000000,0.000000,0.000000,0.000000,0.000000,0.000000,1772527946.258032,0.000000
26.000000,9255.142123,8768.209370,6703.623438,-14100.061548,14444.479578,10921.934059,-1931.213073,-1529.887501,10819.294848,11132.219271,7526.257041,11248.403638,11370.488867,16320.260325,5161.397774,13671.668014,-0.001500,-0.012000,1.008000,192.000000,0.000000,0.000000,0.000000,0.000000,0.000000,0.000000,0.000000,0.000000,0.000000,1772527946.258042,0.000000
28.000000,9254.225702,8765.795382,6697.499060,-14102.855516,14430.420331,10902.286876,-1937.069230,-1530.111018,10798.172450,11142.746942,7520.199718,11250.348240,11374.378070,16310.894944,5153.529960,13591.425251,0.001250,-0.014000,1.009000,192.000000,0.000000,16.000000,127.500000,64.000000,15.500000,72.000000,0.000000,0.000000,0.000000,1772527946.258053,0.000000
30.000000,9248.257786,8762.800248,6692.827546,-14101.827336,14447.005325,10909.774710,-1938.902073,-1528.591100,10817.529061,11137.918966,7524.245384,11255.891473,11339.464645,16306.782223,5151.652414,13686.822496,0.001250,-0.014000,1.009000,192.000000,0.000000,0.000000,0.000000,0.000000,0.000000,0.000000,0.000000,0.000000,0.000000,1772527946.258063,0.000000
32.000000,9264.373394,8777.798269,6706.909145,-14093.579542,14438.466959,10923.968068,-1928.217939,-1521.125617,10803.045130,11146.323221,7519.953849,11258.148999,11362.956329,16335.571269,5144.924539,13611.363007,0.001250,-0.014000,1.009000,192.000000,0.000000,0.000000,0.000000,0.000000,0.000000,0.000000,0.000000,0.000000,0.000000,1772527946.258074,0.000000
34.000000,9246.268481,8752.697260,6690.190040,-14113.584353,14428.363970,10915.943791,-1947.440439,-1535.207216,10808.633066,11136.488454,7521.920803,11248.940080,11388.906704,16323.322513,5157.106239,13640.487330,0.001250,-0.014000,1.009000,192.000000,0.000000,0.000000,0.000000,0.000000,0.000000,0.000000,0.000000,0.000000,0.000000,1772527946.258084,0.000000
36.000000,9254.918606,8769.863399,6703.601087,-14097.692263,14428.252212,10923.699847,-1931.637756,-1525.059524,10814.980962,11134.588556,7524.692419,11252.449304,11359.760029,16321.042636,5152.255911,13671.310386,0.001250,-0.014000,1.009000,192.000000,0.000000,0.000000,0.000000,0.000000,0.000000,0.000000,0.000000,0.000000,0.000000,1772527946.258095,0.000000
38.000000,9256.662042,8765.437754,6696.470880,-14108.644618,14424.966505,10899.023521,-1939.214997,-1528.926376,10794.752633,11141.204672,7515.371742,11249.454170,11383.229361,16315.521755,5156.927425,13581.031690,-0.000375,-0.017000,1.008500,192.000000,127.500000,120.000000,127.500000,48.000000,15.500000,64.000000,0.000000,0.000000,0.000000,1772527946.258105,0.000000
40.000000,9265.960367,8766.063603,6699.510717,-14108.331693,14431.470863,10918.961277,-1937.203340,-1523.606661,10824.860433,11137.807207,7529.118065,11250.571758,11318.386950,16322.406092,5153.440553,13665.990670,-0.000375,-0.017000,1.008500,192.000000,0.000000,0.000000,0.000000,0.000000,0.000000,0.000000,0.000000,0.000000,0.000000,1772527946.258115,0.000000
42.000000,9264.060469,8778.737042,6703.109348,-14095.144164,14442.669087,10905.125547,-1926.385096,-1519.158664,10806.554354,11138.455407,7524.535957,11257.098467,11356.675489,16327.479938,5142.555254,13592.296969,-0.000375,-0.017000,1.008500,192.000000,0.000000,0.000000,0.000000,0.000000,0.000000,0.000000,0.000000,0.000000,0.000000,1772527946.258126,0.000000
44.000000,9251.543492,8756.184132,6694.593334,-14112.444414,14412.985970,10900.722253,-1942.388945,-1530.580405,10804.699159,11141.182320,7525.184158,11253.991575,11370.265349,16318.583944,5154.088754,13628.149167,-0.000375,-0.017000,1.008500,192.000000,0.000000,0.000000,0.000000,0.000000,0.000000,0.000000,0.000000,0.000000,0.000000,1772527946.258137,0.000000
46.000000,9255.700917,8775.741908,6702.483499,-14098.787498,14434.488348,10909.037102,-1930.319003,-1526.087704,10811.359979,11139.572995,7523.977163,11252.225787,11363.984509,16342.187386,5159.833152,13667.711755,-0.000375,-0.017000,1.008500,192.000000,0.000000,0.000000,0.000000,0.000000,0.000000,0.000000,0.000000,0.000000,0.000000,1772527946.258147,0.000000
48.000000,9256.036193,8770.377489,6696.046197,-14102.855516,14435.114197,10912.076940,-1937.382154,-1528.009954,10785.633121,11150.011259,7517.875137,11251.666993,11322.477320,16324.730673,5148.411411,13587.089013,-0.000375,-0.017000,1.008500,192.000000,0.000000,0.000000,127.500000,72.000000,15.500000,48.000000,0.000000,0.000000,0.000000,1772527946.258157,0.000000
50.000000,9251.744658,8761.772068,6689.497136,-14108.354045,14441.372686,10919.810643,-1941.450172,-1531.608585,10816.590287,11141.271727,7525.094751,11252.583415,11365.303262,16326.630572,5159.430821,13680.899284,-0.000375,-0.017000,1.008500,192.000000,0.000000,0.000000,0.000000,0.000000,0.000000,0.000000,0.000000,0.000000,0.000000,1772527946.258168,0.000000
52.000000,9258.450181,8777.418289,6697.387302,-14094.294798,14461.221035,10918.581297,-1930.274299,-1524.880710,10788.047110,11142.970460,7514.544727,11254.416258,11359.916491,16329.491595,5148.523170,13602.176440,-0.000375,-0.017000,1.008500,192.000000,0.000000,0.000000,0.000000,0.000000,0.000000,0.000000,0.000000,0.000000,0.000000,1772527946.258178,0.000000
54.000000,9250.403553,8758.911044,6688.737177,-14107.907010,14417.255153,10924.996248,-1945.652300,-1531.876806,10798.463023,11144.088047,7518.948021,11254.952700,11342.884462,16323.411920,5144.790428,13634.206490,-0.000375,-0.017000,1.008500,192.000000,0.000000,0.000000,0.000000,0.000000,0.000000,0.000000,0.000000,0.000000,0.000000,1772527946.258188,0.000000
56.000000,9252.258748,8768.321129,6702.662313,-14097.491097,14423.513642,10908.657123,-1934.387020,-1531.228606,10810.085930,11141.674059,7520.982030,11253.097505,11367.739602,16326.228240,5161.598940,13670.885702,-0.000375,-0.017000,1.008500,192.000000,0.000000,0.000000,0.000000,0.000000,0.000000,0.000000,0.000000,0.000000,0.000000,1772527946.258200,0.000000
58.000000,9249.822408,8763.269635,6697.320246,-14104.733062,14422.463110,10901.951599,-1941.226654,-1531.742696,10790.371691,11138.567166,7516.221108,11248.247176,11323.706665,16323.501327,5150.557178,13586.261998,0.000813,-0.017500,1.009250,192.000000,0.000000,8.000000,127.500000,56.000000,15.500000,72.000000,0.000000,0.000000,0.000000,1772527946.737952,0.000000
60.000000,9254.203350,8767.181190,6697.476709,-14107.191754,14425.771168,10905.639637,-1941.785448,-1529.127542,10813.572802,11141.517596,7522.837224,11251.130551,11349.254709,16313.308932,5162.381251,13673.813781,0.000813,-0.017500,1.009250,192.000000,0.000000,0.000000,0.000000,0.000000,0.000000,0.000000,0.000000,0.000000,0.000000,1772527946.738013,0.000000
62.000000,9268.821391,8787.007187,6702.259982,-14092.394899,14450.000459,10910.467614,-1929.290823,-1519.695106,10807.716645,11152.067620,7523.954812,11259.288938,11365.638538,16335.347752,5142.376440,13592.766356,0.000813,-0.017500,1.009250,192.000000,0.000000,0.000000,0.000000,0.000000,0.000000,0.000000,0.000000,0.000000,0.000000,1772527946.738061,0.000000
64.000000,9260.484190,8773.752603,6686.881982,-14111.125661,14435.561232,10922.023466,-1942.724221,-1524.210158,10813.483395,11145.809131,7522.412541,11256.606729,11427.999905,16322.316685,5156.547446,13621.689513,0.000813,-0.017500,1.009250,192.000000,0.000000,0.000000,0.000000,0.000000,0.000000,0.000000,0.000000,0.000000,0.000000,1772527946.738110,0.000000
66.000000,9276.599798,8790.874039,6709.501947,-14088.773917,14428.632191,10921.755245,-1926.027468,-1512.900175,10823.429921,11156.627376,7531.688515,11265.860351,11343.197387,16338.186424,5155.049879,13650.702077,0.000813,-0.017500,1.009250,192.000000,0.000000,0.000000,0.000000,0.000000,0.000000,0.000000,0.000000,0.000000,0.000000,1772527946.738157,0.000000
68.000000,9267.167362,8785.174344,6703.534031,-14094.942998,14446.044200,10916.301419,-1931.011907,-1516.632917,10805.414415,11154.168684,7528.849844,11265.368612,11313.737787,16331.704418,5147.070306,13578.304777,0.000813,-0.017500,1.009250,192.000000,0.000000,0.000000,127.500000,88.000000,15.500000,56.000000,0.000000,0.000000,0.000000,1772527946.738182,0.000000
70.000000,9270.564827,8786.850725,6702.259982,-14101.134431,14438.645773,10916.457882,-1935.750477,-1517.929318,10824.703971,11153.632242,7535.533015,11266.039165,11342.839759,16330.296258,5157.463867,13680.228732,0.000813,-0.017500,1.009250,192.000000,0.000000,0.000000,0.000000,0.000000,0.000000,0.000000,0.000000,0.000000,0.000000,1772527946.738206,0.000000
72.000000,9276.622150,8799.054778,6707.512642,-14085.421155,14435.941212,10917.463710,-1926.049820,-1513.280155,10823.742846,11163.645823,7535.153036,11272.342357,11371.964082,16327.122310,5151.294786,13603.070510,0.000813,-0.017500,1.009250,192.000000,0.000000,0.000000,0.000000,0.000000,0.000000,0.000000,0.000000,0.000000,0.000000,1772527946.738230,0.000000
74.000000,9266.496809,8780.480478,6691.128813,-14103.973103,14437.550537,10920.637658,-1943.886512,-1524.813655,10806.241430,11158.750791,7526.167634,11264.720412,11380.793021,16345.361334,5158.246178,13639.012115,0.000813,-0.017500,1.009250,192.000000,0.000000,0.000000,0.000000,0.000000,0.000000,0.000000,0.000000,0.000000,0.000000,1772527946.738253,0.000000
76.000000,9272.934112,8789.532934,6702.416444,-14091.612588,14430.934421,10906.779576,-1931.548349,-1523.450199,10828.392008,11154.436905,7529.855672,11262.753458,11377.462611,16332.553784,5163.141210,13675.870141,0.000813,-0.017500,1.009250,192.000000,0.000000,0.000000,0.000000,0.000000,0.000000,0.000000,0.000000,0.000000,0.000000,1772527946.738277,0.000000
78.000000,9265.111001,8779.765222,6689.966522,-14102.296722,14445.619517,10925.420931,-1940.779619,-1530.647460,10799.200630,11143.931585,7515.192928,11249.297708,11353.412134,16326.652923,5149.104315,13599.874210,0.000813,-0.017500,1.009250,192.000000,0.000000,0.000000,0.000000,0.000000,0.000000,0.000000,0.000000,0.000000,0.000000,1772527946.738296,0.000000
80.000000,9257.042021,8770.802173,6689.653598,-14105.805946,14414.282371,10915.384998,-1944.691175,-1535.386030,10818.557241,11147.552567,7522.412541,11252.136380,11334.010820,16337.135892,5150.400716,13698.579514,0.002000,-0.010000,1.008000,192.000000,0.000000,8.000000,127.500000,88.000000,15.500000,64.000000,0.000000,0.000000,0.000000,1772527946.738307,0.000000
82.000000,9249.643594,8769.930454,6694.280409,-14098.899257,14426.732293,10900.677550,-1935.415201,-1538.179998,10798.261857,11141.919928,7511.281372,11248.828322,11320.510366,16315.342941,5142.197626,13616.839184,0.002000,-0.010000,1.008000,192.000000,0.000000,0.000000,0.000000,0.000000,0.000000,0.000000,0.000000,0.000000,0.000000,1772527946.738320,0.000000
84.000000,9241.753428,8754.708917,6683.909200,-14118.792310,14436.634116,10911.316980,-1948.513323,-1543.879693,10795.356130,11134.253279,7507.414521,11239.150016,11333.496730,16321.534374,5150.713641,13637.089865,0.002000,-0.010000,1.008000,192.000000,0.000000,0.000000,0.000000,0.000000,0.000000,0.000000,0.000000,0.000000,0.000000,1772527946.738333,0.000000
86.000000,9252.772838,8774.870190,6695.397996,-14095.792365,14447.854691,10920.972934,-1931.257776,-1532.189731,10815.003313,11146.904367,7514.388265,11250.236481,11369.661852,16321.199098,5149.238425,13663.308461,0.002000,-0.010000,1.008000,192.000000,0.000000,0.000000,0.000000,0.000000,0.000000,0.000000,0.000000,0.000000,0.000000,1772527946.738344,0.000000
88.000000,9247.631937,8761.213274,6692.984008,-14108.465804,14419.803252,10917.217841,-1935.616366,-1532.100324,10794.238543,11138.835387,7506.900431,11247.263699,11350.394648,16323.233107,5142.510550,13580.338786,0.002000,-0.010000,1.008000,192.000000,0.000000,0.000000,0.000000,0.000000,0.000000,0.000000,0.000000,0.000000,0.000000,1772527946.738374,0.000000
90.000000,9246.402591,8762.912007,6690.972351,-14104.554248,14408.470918,10910.646428,-1937.002174,-1529.775742,10809.884764,11138.187187,7518.948021,11251.532883,11347.757143,16343.483787,5151.183027,13675.110182,0.004000,-0.008000,1.010000,192.000000,0.000000,16.000000,127.500000,96.000000,15.500000,72.000000,0.000000,0.000000,0.000000,1772527946.738384,0.000000
92.000000,9253.443391,8783.185039,6696.627342,-14088.438641,14423.915973,10913.350989,-1926.988593,-1524.076047,10792.830383,11149.273652,7515.930535,11258.283109,11356.496675,16343.126159,5140.253024,13604.746891,0.004000,-0.008000,1.010000,192.000000,0.000000,0.000000,0.000000,0.000000,0.000000,0.000000,0.000000,0.000000,0.000000,1772527946.738396,0.000000
94.000000,9247.363716,8758.195789,6683.708034,-14108.868135,14418.797424,10899.157631,-1943.595939,-1534.402553,10797.546601,11149.228948,7513.449492,11257.321984,11377.484963,16329.491595,5143.471675,13635.413484,0.004000,-0.008000,1.010000,192.000000,0.000000,0.000000,0.000000,0.000000,0.000000,0.000000,0.000000,0.000000,0.000000,1772527946.738407,0.000000
96.000000,9250.247091,8775.093707,6695.442700,-14093.803059,14449.419314,10934.339277,-1929.134360,-1526.110056,10809.907116,11134.677963,7512.577774,11257.724316,11318.074026,16328.306953,5146.243292,13670.528075,0.004000,-0.008000,1.010000,192.000000,0.000000,0.000000,0.000000,0.000000,0.000000,0.000000,0.000000,0.000000,0.000000,1772527946.738418,0.000000
98.000000,9253.376335,8770.466896,6689.117156,-14107.527030,14428.878060,10908.344198,-1937.225692,-1530.066315,10780.983958,11143.037515,7505.894602,11258.819551,11365.370317,16318.516888,5137.369649,13579.578826,0.004000,-0.008000,1.010000,192.000000,0.000000,0.000000,0.000000,0.000000,0.000000,0.000000,0.000000,0.000000,0.000000,1772527946.738429,0.000000
100.000000,9253.108114,8766.108306,6685.809098,-14109.382225,14431.783787,10890.842782,-1941.673689,-1533.642594,10810.398854,11137.114303,7513.114216,11255.220920,11351.713401,16333.470205,5160.727222,13680.921636,0.006000,-0.014000,1.012000,192.000000,0.000000,24.000000,127.500000,72.000000,15.500000,80.000000,0.000000,0.000000,0.000000,1772527946.738441,0.000000
102.000000,9249.308318,8772.635016,6692.805194,-14096.664083,14406.213392,10910.199393,-1932.621233,-1534.871940,10791.891610,11137.293117,7507.861556,11258.461923,11314.006008,16321.422615,5141.191797,13610.088958,0.006000,-0.014000,1.012000,192.000000,0.000000,0.000000,0.000000,0.000000,0.000000,0.000000,0.000000,0.000000,0.000000,1772527946.738452,0.000000
104.000000,9239.898233,8754.172475,6678.231857,-14117.004170,14405.811060,10910.534669,-1951.083774,-1546.919530,10786.907171,11129.470006,7498.809099,11244.022696,11344.069105,16329.581002,5146.690327,13648.489255,0.006000,-0.014000,1.012000,192.000000,0.000000,0.000000,0.000000,0.000000,0.000000,0.000000,0.000000,0.000000,0.000000,1772527946.738463,0.000000
106.000000,9248.905986,8768.455239,6690.458261,-14100.441527,14423.334828,10920.905879,-1936.689250,-1537.040059,10808.275438,11130.431131,7506.051064,11247.196644,11321.605602,16328.306953,5147.874969,13686.688386,0.006000,-0.014000,1.012000,192.000000,0.000000,0.000000,0.000000,0.000000,0.000000,0.000000,0.000000,0.000000,0.000000,1772527946.738474,0.000000
108.000000,9244.256824,8760.498018,6683.708034,-14110.611571,14423.312476,10898.777652,-1944.311195,-1538.828199,10784.895514,11127.659515,7498.853803,11246.816665,11351.489884,16310.582019,5137.235539,13597.035539,0.006000,-0.014000,1.012000,192.000000,0.000000,0.000000,0.000000,0.000000,0.000000,0.000000,0.000000,0.000000,0.000000,1772527946.738485,0.000000
110.000000,9247.140199,8764.744850,6683.439813,-14115.685417,14429.079226,10902.420986,-1945.071154,-1536.347155,10806.822575,11133.068637,7504.329980,11249.431819,11393.511163,16324.082473,5148.076135,13680.407546,0.008000,-0.010000,1.018000,192.000000,0.000000,32.000000,127.500000,88.000000,15.500000,104.000000,0.000000,0.000000,0.000000,1772527946.738495,0.000000
112.000000,9251.498789,8774.624321,6699.421310,-14100.910914,14430.129758,10913.641562,-1931.548349,-1530.133370,10794.864392,11141.450541,7506.632210,11256.606729,11321.583250,16333.827833,5141.236501,13590.821754,0.008000,-0.010000,1.018000,192.000000,0.000000,0.000000,0.000000,0.000000,0.000000,0.000000,0.000000,0.000000,0.000000,1772527946.738506,0.000000
114.000000,9239.719419,8752.272576,6683.775089,-14113.852574,14431.023828,10908.165384,-1947.328680,-1538.649385,10803.112185,11127.123073,7504.084111,11249.029487,11377.350852,16327.167014,5145.840960,13620.750740,0.008000,-0.010000,1.018000,192.000000,0.000000,0.000000,0.000000,0.000000,0.000000,0.000000,0.000000,0.000000,0.000000,1772527946.738517,0.000000
116.000000,9240.658193,8767.874094,6694.839203,-14096.239399,14435.225956,10927.700809,-1932.598881,-1530.111018,10800.228810,11131.660477,7504.844070,11253.432781,11345.410209,16344.444912,5151.741821,13660.223920,0.008000,-0.010000,1.018000,192.000000,0.000000,0.000000,0.000000,0.000000,0.000000,0.000000,0.000000,0.000000,0.000000,1772527946.738528,0.000000
118.000000,9247.341364,8772.143277,6689.787708,-14100.285065,14427.313438,10914.937963,-1937.426858,-1528.389934,10783.532057,11147.664326,7500.619590,11259.020717,11365.191503,16338.052313,5146.511513,13587.647806,0.008000,-0.010000,1.018000,192.000000,0.000000,0.000000,0.000000,0.000000,0.000000,0.000000,0.000000,0.000000,0.000000,1772527946.738539,0.000000
120.000000,9242.356925,8762.509675,6688.647770,-14106.811775,14428.788653,10903.069187,-1941.651337,-1532.212082,10812.477566,11141.249375,7513.695361,11260.093601,11346.572500,16334.319572,5151.741821,13681.592188,0.002000,-0.014000,1.016000,192.000000,0.000000,8.000000,127.500000,72.000000,15.500000,96.000000,0.000000,0.000000,0.000000,1772527946.738551,0.000000
122.000000,9251.230568,8775.339577,6693.073415,-14095.881772,14436.656468,10903.180945,-1930.743686,-1526.557091,10800.675845,11143.082219,7507.570983,11263.781639,11361.056430,16341.628592,5141.884701,13604.948056,0.002000,-0.014000,1.016000,192.000000,0.000000,0.000000,0.000000,0.000000,0.000000,0.000000,0.000000,0.000000,0.000000,1772527946.738562,0.000000
124.000000,9236.120789,8751.445562,6685.742043,-14117.272391,14416.785767,10900.543439,-1946.971053,-1538.001184,10797.345435,11128.218308,7502.094805,11252.203435,11347.019535,16336.152415,5157.463867,13630.227879,0.002000,-0.014000,1.016000,192.000000,0.000000,0.000000,0.000000,0.000000,0.000000,0.000000,0.000000,0.000000,0.000000,1772527946.738573,0.000000
126.000000,9242.513388,8776.032481,6689.631246,-14103.950751,14441.395037,10919.721236,-1934.834055,-1533.463780,10806.889630,11137.918966,7505.805195,11256.629080,11355.736715,16345.942479,5149.841923,13666.661223,0.002000,-0.014000,1.016000,192.000000,0.000000,0.000000,0.000000,0.000000,0.000000,0.000000,0.000000,0.000000,0.000000,1772527946.738583,0.000000
128.000000,9251.521141,8778.602931,6682.456336,-14103.727234,14449.642831,10884.785460,-1941.338413,-1531.318013,10785.588418,11150.570053,7494.517564,11255.936176,11366.309090,16331.793825,5143.918710,13595.225047,0.002000,-0.014000,1.016000,192.000000,0.000000,0.000000,0.000000,0.000000,0.000000,0.000000,0.000000,0.000000,0.000000,1772527946.738594,0.000000
130.000000,9249.017745,8767.829391,6690.860592,-14107.795251,14417.076339,10930.561832,-1944.512361,-1532.010917,10827.676753,11150.882977,7509.582640,11263.938101,11352.607471,16337.180595,5155.251045,13700.010026,-0.002000,-0.010000,1.006000,192.000000,127.500000,120.000000,127.500000,88.000000,15.500000,56.000000,0.000000,0.000000,0.000000,1772527946.738613,0.000000
132.000000,9250.023574,8778.982911,6692.134642,-14096.753490,14428.632191,10916.591992,-1936.398677,-1531.206254,10804.386235,11145.317393,7500.932515,11261.121781,11349.545282,16333.067874,5147.584396,13624.885812,-0.002000,-0.010000,1.006000,192.000000,0.000000,0.000000,0.000000,0.000000,0.000000,0.000000,0.000000,0.000000,0.000000,1772527946.738625,0.000000
134.000000,9237.327783,8753.680736,6679.282389,-14123.776749,14420.920839,10918.022504,-1953.631872,-1542.963271,10806.844927,11137.337820,7498.116195,11253.656298,11383.676396,16338.432293,5149.081963,13642.454284,-0.002000,-0.010000,1.006000,192.000000,0.000000,0.000000,0.000000,0.000000,0.000000,0.000000,0.000000,0.000000,0.000000,1772527946.738636,0.000000
136.000000,9245.240300,8771.137449,6691.777014,-14105.493022,14452.995593,10909.752358,-1938.008003,-1534.268443,10816.456177,11130.319372,7503.346503,11252.069325,11385.688053,16342.992049,5150.378364,13668.918749,-0.002000,-0.010000,1.006000,192.000000,0.000000,0.000000,0.000000,0.000000,0.000000,0.000000,0.000000,0.000000,0.000000,1772527946.738647,0.000000
138.000000,9246.469646,8765.929492,6691.665255,-14105.045987,14435.538880,10921.911707,-1940.958433,-1531.161550,10792.942142,11139.215367,7497.579753,11254.170388,11343.934994,16313.867726,5141.370611,13590.642940,-0.002000,-0.010000,1.006000,192.000000,0.000000,0.000000,0.000000,0.000000,0.000000,0.000000,0.000000,0.000000,0.000000,1772527946.738657,0.000000
140.000000,9253.622204,8769.773992,6694.861554,-14110.209240,14444.010191,10914.021541,-1942.344241,-1528.255824,10831.789474,11143.372791,7514.187099,11260.562987,11341.990392,16334.140758,5151.428896,13680.631063,-0.002000,-0.010000,1.006000,192.000000,0.000000,0.000000,127.500000,96.000000,15.500000,64.000000,0.000000,0.000000,0.000000,1772527946.738668,0.000000
142.000000,9260.730059,8786.917780,6701.298857,-14094.473612,14443.965488,10928.326658,-1931.436590,-1520.142140,10819.116034,11145.540910,7512.443663,11263.200493,11353.210968,16343.103807,5147.740859,13607.272638,-0.002000,-0.010000,1.006000,192.000000,0.000000,0.000000,0.000000,0.000000,0.000000,0.000000,0.000000,0.000000,0.000000,1772527946.738679,0.000000
144.000000,9242.044001,8760.922701,6681.718729,-14112.824394,14451.900357,10919.430664,-1948.714489,-1534.111981,10812.835194,11144.199806,7507.168651,11258.640737,11389.353739,16342.321496,5148.992556,13640.532034,-0.002000,-0.010000,1.006000,192.000000,0.000000,0.000000,0.000000,0.000000,0.000000,0.000000,0.000000,0.000000,0.000000,1772527946.738720,0.000000
146.000000,9255.611510,8782.000396,6696.783805,-14098.563981,14448.815816,10935.903899,-1933.738820,-1523.897233,10822.669962,11151.866454,7511.147262,11261.166484,11368.790134,16354.950232,5152.635891,13674.953720,-0.002000,-0.010000,1.006000,192.000000,0.000000,0.000000,0.000000,0.000000,0.000000,0.000000,0.000000,0.000000,0.000000,1772527946.738732,0.000000
148.000000,9248.838931,8766.063603,6690.122985,-14107.281161,14442.177348,10915.854384,-1942.523055,-1529.216949,10803.156889,11139.595346,7503.704131,11257.254929,11386.358605,16344.556671,5144.008117,13598.197830,-0.002000,-0.010000,1.006000,192.000000,0.000000,0.000000,0.000000,0.000000,0.000000,0.000000,0.000000,0.000000,0.000000,1772527946.738742,0.000000
150.000000,9237.439542,8754.574806,6688.983046,-14111.595048,14432.990781,10917.039027,-1947.440439,-1535.587196,10825.240412,11132.711009,7508.979143,11254.975051,11347.354811,16325.177708,5162.984748,13692.119860,-0.002000,-0.010000,1.006000,192.000000,0.000000,0.000000,127.500000,88.000000,15.500000,48.000000,0.000000,0.000000,0.000000,1772527946.738753,0.000000
152.000000,9236.634879,8768.343481,6691.419386,-14097.334635,14435.471825,10918.894222,-1939.125590,-1535.184864,10799.178278,11140.400009,7497.043311,11257.567854,11353.859169,16327.591697,5152.725298,13621.533051,-0.002000,-0.010000,1.006000,192.000000,0.000000,0.000000,0.000000,0.000000,0.000000,0.000000,0.000000,0.000000,0.000000,1772527946.738765,0.000000
154.000000,9218.149986,8737.654535,6674.454412,-14124.335542,14428.565136,10919.207146,-1959.309215,-1551.926321,10791.958665,11134.610907,7487.968503,11244.246214,11367.471381,16338.320534,5151.250082,13647.997516,-0.002000,-0.010000,1.006000,192.000000,0.000000,0.000000,0.000000,0.000000,0.000000,0.000000,0.000000,0.000000,0.000000,1772527946.738776,0.000000
156.000000,9227.962402,8753.770143,6684.311531,-14109.449280,14454.515511,10927.723161,-1946.032279,-1543.432658,10805.235601,11121.065750,7491.947114,11239.865272,11353.322727,16319.030979,5151.205379,13678.775868,-0.002000,-0.010000,1.006000,192.000000,0.000000,0.000000,0.000000,0.000000,0.000000,0.000000,0.000000,0.000000,0.000000,1772527946.738788,0.000000
158.000000,9225.526062,8749.456257,6680.712900,-14113.807871,14418.573906,10903.583277,-1951.173180,-1542.292719,10777.988825,11129.246489,7482.537029,11240.558176,11327.148834,16318.963923,5136.050896,13594.487440,-0.002000,-0.010000,1.006000,192.000000,0.000000,0.000000,0.000000,0.000000,0.000000,0.000000,0.000000,0.000000,0.000000,1772527946.738798,0.000000
160.000000,9233.773855,8757.771106,6683.395110,-14114.545478,14432.946078,10917.374303,-1950.726146,-1534.782533,10815.830328,11140.467064,7497.758567,11250.169426,11406.966914,16349.876386,5151.317138,13680.452249,-0.003000,-0.011000,1.005000,192.000000,127.500000,112.000000,127.500000,80.000000,15.500000,48.000000,0.000000,0.000000,0.000000,1772527946.738810,0.000000
162.000000,9239.831178,8763.716670,6691.151165,-14104.800118,14438.846938,10908.098329,-1938.477390,-1528.456989,10799.938238,11136.220233,7497.982085,11250.236481,11351.176959,16348.378819,5139.090733,13605.864478,-0.003000,-0.011000,1.005000,192.000000,0.000000,0.000000,0.000000,0.000000,0.000000,0.000000,0.000000,0.000000,0.000000,1772527946.738820,0.000000
164.000000,9233.684448,8745.142370,6685.809098,-14118.769958,14430.129758,10905.594934,-1951.866085,-1533.374373,10804.252124,11131.302849,7502.541840,11248.515397,11348.762971,16319.656827,5139.940100,13630.227879,-0.003000,-0.011000,1.005000,192.000000,0.000000,0.000000,0.000000,0.000000,0.000000,0.000000,0.000000,0.000000,0.000000,1772527946.738831,0.000000
166.000000,9254.650385,8775.406632,6700.829470,-14102.475536,14440.366857,10927.052608,-1935.482256,-1519.181015,10819.607773,11124.530271,7512.063684,11253.455133,11338.324706,16331.123272,5147.673803,13663.733144,-0.003000,-0.011000,1.005000,192.000000,0.000000,0.000000,0.000000,0.000000,0.000000,0.000000,0.000000,0.000000,0.000000,1772527946.738842,0.000000
168.000000,9243.698030,8756.675870,6691.799365,-14109.717501,14439.204566,10924.370399,-1942.344241,-1525.215986,10799.468851,11142.545777,7503.100634,11256.629080,11368.767782,16325.557688,5142.488199,13580.383489,-0.003000,-0.011000,1.005000,192.000000,0.000000,0.000000,0.000000,0.000000,0.000000,0.000000,0.000000,0.000000,0.000000,1772527946.738853,0.000000
170.000000,9240.479379,8755.558283,6691.017054,-14110.700978,14424.966505,10924.213937,-1946.367555,-1528.881672,10816.836156,11140.511768,7510.968448,11257.321984,11374.668643,16336.398284,5148.456114,13683.357976,-0.004500,-0.012500,1.005500,192.000000,127.500000,104.000000,127.500000,72.000000,15.500000,56.000000,0.000000,0.000000,0.000000,1772527946.738863,0.000000
172.000000,9238.244204,8756.787629,6693.386339,-14099.681568,14432.543747,10920.257678,-1937.426858,-1531.988565,10790.416395,11136.108474,7501.714826,11251.801104,11366.242035,16333.783130,5144.902187,13618.023827,-0.004500,-0.012500,1.005500,192.000000,0.000000,0.000000,0.000000,0.000000,0.000000,0.000000,0.000000,0.000000,0.000000,1772527946.738874,0.000000
174.000000,9228.364733,8733.787684,6677.695415,-14122.681513,14431.269697,10910.646428,-1956.984634,-1547.299510,10790.997540,11121.468082,7493.802308,11238.680630,11348.092419,16352.402133,5147.807914,13644.175368,-0.004500,-0.012500,1.005500,192.000000,0.000000,0.000000,0.000000,0.000000,0.000000,0.000000,0.000000,0.000000,0.000000,1772527946.738885,0.000000
176.000000,9224.877861,8744.561225,6688.983046,-14107.728196,14426.955810,10926.918498,-1945.495837,-1543.432658,10795.601999,11124.709085,7490.047215,11235.953717,11345.164340,16346.054238,5149.998385,13686.017833,-0.004500,-0.012500,1.005500,192.000000,0.000000,0.000000,0.000000,0.000000,0.000000,0.000000,0.000000,0.000000,0.000000,1772527946.738896,0.000000
178.000000,9216.674771,8732.759503,6677.024862,-14120.044007,14461.533959,10923.990419,-1955.218846,-1549.467629,10772.937330,11108.414663,7482.827602,11230.410484,11380.770669,16306.022263,5148.232597,13604.523373,-0.004500,-0.012500,1.005500,192.000000,0.000000,0.000000,0.000000,0.000000,0.000000,0.000000,0.000000,0.000000,0.000000,1772527947.217740,0.000000
180.000000,9223.559108,8738.749771,6682.881019,-14125.341371,14445.261889,10912.971009,-1956.269378,-1546.427792,10796.429014,11106.112433,7488.817869,11229.359952,11334.614317,16295.673406,5148.947853,13699.719453,-0.005250,-0.011250,1.004750,192.000000,127.500000,104.000000,127.500000,88.000000,15.500000,48.000000,0.000000,0.000000,0.000000,1772527947.217821,0.000000
182.000000,9227.291850,8746.282309,6690.793537,-14115.506603,14422.507813,10886.663006,-1945.786410,-1542.739754,10786.281322,11117.131843,7490.471898,11231.840996,11337.721209,16340.376895,5149.618405,13606.445623,-0.005250,-0.011250,1.004750,192.000000,0.000000,0.000000,0.000000,0.000000,0.000000,0.000000,0.000000,0.000000,0.000000,1772527947.217878,0.000000
184.000000,9217.658248,8728.959707,6677.494249,-14126.078978,14417.813947,10909.215916,-1958.549256,-1547.612434,10785.543714,11114.136709,7487.052081,11231.706885,11352.361602,16313.152470,5146.444457,13629.020885,-0.005250,-0.011250,1.004750,192.000000,0.000000,0.000000,0.000000,0.000000,0.000000,0.000000,0.000000,0.000000,0.000000,1772527947.217931,0.000000
186.000000,9230.041114,8754.440696,6689.586543,-14103.056682,14426.620534,10932.282917,-1941.830151,-1535.386030,10797.412491,11118.249430,7490.024863,11239.284127,11383.631692,16314.091243,5141.392963,13663.107295,-0.005250,-0.011250,1.004750,192.000000,0.000000,0.000000,0.000000,0.000000,0.000000,0.000000,0.000000,0.000000,0.000000,1772527947.217983,0.000000
188.000000,9232.723323,8751.624376,6689.899467,-14111.080958,14427.156976,10918.447187,-1947.194570,-1534.022574,10779.329929,11138.701277,7490.851878,11247.554272,11324.466625,16349.965793,5127.423123,13581.679890,-0.005250,-0.011250,1.004750,192.000000,0.000000,0.000000,0.000000,0.000000,0.000000,0.000000,0.000000,0.000000,0.000000,1772527947.218008,0.000000
190.000000,9232.432751,8748.942166,6689.743005,-14113.182022,14432.275526,10927.097312,-1949.630910,-1531.988565,10808.521308,11127.637163,7500.798404,11244.536787,11352.115733,16325.736502,5152.099449,13676.920673,-0.003625,-0.013625,1.004375,192.000000,127.500000,120.000000,127.500000,64.000000,15.500000,48.000000,0.000000,0.000000,0.000000,1772527947.218032,0.000000
192.000000,9239.272385,8762.554379,6697.677874,-14099.547458,14452.190930,10926.359704,-1935.325794,-1522.220853,10796.585476,11132.174567,7501.088977,11256.360859,11396.416890,16347.015363,5137.839036,13601.304722,-0.003625,-0.013625,1.004375,192.000000,0.000000,0.000000,0.000000,0.000000,0.000000,0.000000,0.000000,0.000000,0.000000,1772527947.218057,0.000000
194.000000,9235.830216,8750.372678,6684.289179,-14114.031388,14459.611709,10918.067207,-1949.876779,-1529.686335,10793.903267,11130.207614,7500.440776,11249.767095,11339.285831,16334.386627,5139.805989,13632.418350,-0.003625,-0.013625,1.004375,192.000000,0.000000,0.000000,0.000000,0.000000,0.000000,0.000000,0.000000,0.000000,0.000000,1772527947.218081,0.000000
196.000000,9240.613489,8769.841048,6697.521412,-14100.642693,14443.607860,10919.788291,-1938.499741,-1526.445332,10814.444520,11149.944204,7507.973314,11261.680575,11371.002957,16340.287488,5136.587338,13665.141304,-0.003625,-0.013625,1.004375,192.000000,0.000000,0.000000,0.000000,0.000000,0.000000,0.000000,0.000000,0.000000,0.000000,1772527947.218105,0.000000
198.000000,9229.258803,8748.450428,6685.786746,-14112.377359,14419.892659,10910.020579,-1948.535675,-1536.391859,10784.359072,11133.694486,7494.092881,11248.113066,11372.835800,16337.314706,5143.471675,13591.693472,-0.003625,-0.013625,1.004375,192.000000,0.000000,0.000000,0.000000,0.000000,0.000000,0.000000,0.000000,0.000000,0.000000,1772527947.218129,0.000000
200.000000,9223.089722,8740.917890,6683.193944,-14114.098443,14449.016982,10918.380132,-1952.670747,-1540.303414,10800.966418,11118.450596,7498.116195,11241.184025,11357.055468,16330.028037,5146.891492,13688.185953,-0.002812,-0.013813,1.004188,192.000000,127.500000,120.000000,127.500000,72.000000,15.500000,48.000000,0.000000,0.000000,0.000000,1772527947.218154,0.000000
202.000000,9223.290887,8750.864416,6689.743005,-14103.414309,14439.048104,10913.798024,-1945.227616,-1541.309242,10778.301749,11129.648820,7492.617666,11247.218996,11331.216852,16330.184499,5126.976088,13620.393112,-0.002812,-0.013813,1.004188,192.000000,0.000000,0.000000,0.000000,0.000000,0.000000,0.000000,0.000000,0.000000,0.000000,1772527947.218178,0.000000
204.000000,9214.596059,8730.345515,6682.881019,-14124.067321,14409.007360,10911.987533,-1961.633797,-1549.579388,10778.614673,11116.863622,7484.459279,11235.350220,11356.451971,16311.543144,5154.647548,13654.099542,-0.002812,-0.013813,1.004188,192.000000,0.000000,0.000000,0.000000,0.000000,0.000000,0.000000,0.000000,0.000000,0.000000,1772527947.218201,0.000000
206.000000,9224.989620,8748.718649,6693.118118,-14111.460937,14422.552517,10917.039027,-1946.814590,-1539.789324,10795.467889,11113.823785,7490.226029,11238.948851,11342.504483,16309.330321,5152.837056,13690.130554,-0.002812,-0.013813,1.004188,192.000000,0.000000,0.000000,0.000000,0.000000,0.000000,0.000000,0.000000,0.000000,0.000000,1772527947.218225,0.000000
208.000000,9222.150948,8745.365887,6686.434947,-14115.707769,14430.241517,10901.236344,-1950.167352,-1540.102248,10778.100583,11122.719779,7486.225067,11239.462941,11357.837779,16342.746179,5138.062553,13596.543800,-0.002812,-0.013813,1.004188,192.000000,0.000000,0.000000,0.000000,0.000000,0.000000,0.000000,0.000000,0.000000,0.000000,1772527947.218243,0.000000
210.000000,9229.862300,8748.338669,6683.730386,-14120.580449,14416.986932,10902.800966,-1952.804858,-1538.001184,10801.145232,11120.529308,7494.629323,11241.519301,11364.923282,16326.697627,5140.208321,13678.909979,0.000594,-0.013906,1.006094,192.000000,0.000000,16.000000,127.500000,72.000000,15.500000,64.000000,0.000000,0.000000,0.000000,1772527947.218255,0.000000
212.000000,9244.010954,8769.394013,6691.933476,-14107.012940,14464.238520,10904.477346,-1938.969128,-1524.053696,10788.851772,11136.846082,7496.618628,11252.315194,11360.542340,16344.489615,5122.438684,13594.152164,0.000594,-0.013906,1.006094,192.000000,0.000000,0.000000,0.000000,0.000000,0.000000,0.000000,0.000000,0.000000,0.000000,1772527947.218266,0.000000
214.000000,9235.718457,8750.171512,6680.332921,-14121.049836,14418.439796,10911.853422,-1951.910788,-1530.982736,10795.154964,11136.533157,7497.780919,11251.577586,11378.066108,16336.755912,5131.871120,13618.828490,0.000594,-0.013906,1.006094,192.000000,0.000000,0.000000,0.000000,0.000000,0.000000,0.000000,0.000000,0.000000,0.000000,1772527947.218277,0.000000
216.000000,9246.737867,8772.724423,6694.503927,-14096.619379,14430.174462,10910.177041,-1937.560968,-1521.729114,10809.884764,11131.101684,7502.564192,11255.735011,11346.572500,16330.318610,5133.279280,13663.844903,0.000594,-0.013906,1.006094,192.000000,0.000000,0.000000,0.000000,0.000000,0.000000,0.000000,0.000000,0.000000,0.000000,1772527947.218288,0.000000
218.000000,9245.083838,8766.398879,6691.352331,-14108.622266,14417.948057,10908.813585,-1944.266491,-1526.244167,10788.762365,11136.421399,7495.389282,11252.717525,11348.360640,16354.369087,5133.949832,13591.335844,0.000594,-0.013906,1.006094,192.000000,0.000000,0.000000,0.000000,0.000000,0.000000,0.000000,0.000000,0.000000,0.000000,1772527947.218298,0.000000
220.000000,9245.039135,8756.988794,6689.944171,-14111.013903,14421.122005,10905.572582,-1947.708660,-1525.171283,10814.466872,11134.409742,7505.648733,11254.013926,11333.899061,16335.884194,5141.504722,13691.762232,0.000594,-0.013906,1.006094,192.000000,0.000000,0.000000,0.000000,0.000000,0.000000,0.000000,0.000000,0.000000,0.000000,1772527947.218310,0.000000
222.000000,9246.380239,8766.868265,6697.275543,-14098.362815,14426.978162,10903.627980,-1937.404506,-1523.003164,10794.059729,11136.086123,7499.390244,11259.132476,11342.482131,16344.690781,5135.827379,13613.575830,0.004000,-0.014000,1.006000,192.000000,0.000000,16.000000,127.500000,72.000000,15.500000,56.000000,0.000000,0.000000,0.000000,1772527947.218320,0.000000
224.000000,9234.422056,8748.763352,6683.417461,-14116.355969,14438.690476,10914.267411,-1953.587169,-1534.760181,10796.786642,11134.208576,7497.222125,11252.873987,11371.114715,16329.446891,5139.671879,13635.525243,0.004000,-0.014000,1.006000,192.000000,0.000000,0.000000,0.000000,0.000000,0.000000,0.000000,0.000000,0.000000,0.000000,1772527947.218331,0.000000
226.000000,9240.389972,8760.743888,6691.754662,-14103.079033,14442.423218,10926.985553,-1942.701869,-1533.955518,10802.329874,11136.533157,7495.031654,11252.426952,11380.569503,16344.802540,5147.316175,13672.204455,0.004000,-0.014000,1.006000,192.000000,0.000000,0.000000,0.000000,0.000000,0.000000,0.000000,0.000000,0.000000,0.000000,1772527947.218342,0.000000
228.000000,9228.320030,8741.856663,6689.608895,-14118.837013,14426.844052,10914.982666,-1950.524980,-1541.309242,10780.223999,11118.651762,7486.917971,11239.619403,11365.862056,16359.219415,5142.667013,13594.062757,0.004000,-0.014000,1.006000,192.000000,0.000000,0.000000,0.000000,0.000000,0.000000,0.000000,0.000000,0.000000,0.000000,1772527947.218352,0.000000
230.000000,9227.045980,8740.515559,6685.339711,-14121.139243,14412.896563,10902.219820,-1953.877742,-1542.002146,10799.692368,11113.734378,7495.054006,11237.764208,11326.075950,16319.030979,5152.702946,13689.683520,0.004000,-0.014000,1.006000,192.000000,0.000000,0.000000,0.000000,0.000000,0.000000,0.000000,0.000000,0.000000,0.000000,1772527947.218363,0.000000
