Sample_index,EXG Channel 0,EXG Channel 1,EXG Channel 2,EXG Channel 3,EXG Channel 4,EXG Channel 5,EXG Channel 6,EXG Channel 7,EXG Channel 8,EXG Channel 9,EXG Channel 10,EXG Channel 11,EXG Channel 12,EXG Channel 13,EXG Channel 14,EXG Channel 15,Accel Channel 0,Accel Channel 1,Accel Channel 2,Not Used,Digital Channel 0 (D11),Digital Channel 1 (D12),Digital Channel 2 (D13),Digital Channel 3 (D17),Not Used,Digital Channel 4 (D18),Analog Channel 0,Analog Channel 1,Analog Channel 2,Timestamp,Marker Channel
90.000000,6353.550417,7440.225177,7594.027530,-18551.322049,8932.427637,7480.167744,-3764.771374,-952.899570,5093.157899,5346.201998,8780.681644,8579.471240,13028.831843,12493.731081,3045.849865,10672.756812,0.004000,-0.008000,1.006000,192.000000,0.000000,0.000000,0.000000,0.000000,0.000000,0.000000,0.000000,0.000000,0.000000,1772529560.658601,101.000000
92.000000,6357.372565,7449.769372,7596.486222,-18538.492148,8930.863015,7498.719692,-3757.171781,-943.087154,5106.233669,5359.344823,8790.069376,8585.237990,13072.529503,12535.662953,3063.284226,10686.905466,0.004000,-0.008000,1.006000,192.000000,0.000000,0.000000,0.000000,0.000000,0.000000,0.000000,0.000000,0.000000,0.000000,1772529560.658660,0.000000
94.000000,6361.597045,7451.602215,7592.775833,-18525.215212,8915.708532,7476.166782,-3754.020185,-939.354412,5099.796367,5356.059117,8784.481440,8593.530487,13111.287428,12492.077052,3019.921842,10662.810285,0.002000,-0.012000,1.002000,192.000000,0.000000,8.000000,127.500000,80.000000,15.500000,40.000000,0.000000,0.000000,0.000000,1772529560.658705,0.000000
96.000000,6365.195676,7452.093953,7592.820536,-18532.211308,8911.148776,7479.430137,-3752.768487,-939.555578,5119.555309,5370.945379,8797.937190,8600.392473,13143.988030,12527.191642,3038.451438,10690.168821,0.002000,-0.012000,1.002000,192.000000,0.000000,0.000000,0.000000,0.000000,0.000000,0.000000,0.000000,0.000000,0.000000,1772529560.658752,0.000000
98.000000,6368.190809,7455.826694,7597.849679,-18535.765235,8977.309940,7496.529221,-3751.181513,-939.332061,5113.252117,5361.177666,8793.578600,8597.151470,13080.754945,12547.665840,3010.198833,10664.017280,0.002000,-0.012000,1.002000,192.000000,0.000000,0.000000,0.000000,0.000000,0.000000,0.000000,0.000000,0.000000,0.000000,1772529560.658798,0.000000
100.000000,6367.699071,7449.612910,7606.298638,-18543.253069,8902.923334,7487.566172,-3756.948263,-943.981224,5120.449379,5364.418669,8799.904144,8588.546048,13007.977665,12558.841712,3027.432028,10662.229140,0.002000,-0.012000,1.002000,192.000000,0.000000,0.000000,0.000000,0.000000,0.000000,0.000000,0.000000,0.000000,0.000000,1772529560.658839,0.000000
102.000000,6362.066431,7447.355383,7605.471624,-18527.115110,8928.940765,7474.490401,-3753.796667,-940.851979,5113.632096,5361.736460,8799.680626,8594.536316,13032.341067,12477.235493,3050.119048,10689.319454,0.002000,-0.012000,1.002000,192.000000,0.000000,0.000000,0.000000,0.000000,0.000000,0.000000,0.000000,0.000000,0.000000,1772529560.658852,0.000000
104.000000,6368.280216,7448.897654,7599.637818,-18534.245316,8968.749221,7484.861611,-3756.814153,-940.583758,5107.440663,5351.566416,8789.220010,8596.525621,13086.789916,12495.250999,3026.828531,10657.982309,0.002000,-0.012000,1.002000,192.000000,0.000000,0.000000,127.500000,96.000000,15.500000,56.000000,0.000000,0.000000,0.000000,1772529560.658864,0.000000
106.000000,6360.635920,7444.337898,7587.657283,-18546.382314,8964.234169,7477.373776,-3761.887999,-947.088116,5115.219070,5352.818114,8791.365777,8592.077624,13182.388327,12506.136299,3052.443630,10684.111498,0.002000,-0.012000,1.002000,192.000000,0.000000,0.000000,0.000000,0.000000,0.000000,0.000000,0.000000,0.000000,0.000000,1772529560.658877,0.000000
108.000000,6348.968309,7437.386505,7601.336551,-18544.996505,8895.010816,7454.932625,-3760.390432,-951.916093,5098.254096,5348.392468,8782.983873,8583.896885,13037.437265,12511.008979,3043.391173,10673.025033,0.002000,-0.012000,1.002000,192.000000,0.000000,0.000000,0.000000,0.000000,0.000000,0.000000,0.000000,0.000000,0.000000,1772529560.658889,0.000000
110.000000,6360.278292,7440.694563,7590.205382,-18548.684543,8945.391648,7466.689642,-3766.648920,-955.447668,5098.634076,5344.212692,8780.838106,8579.985330,13005.608381,12494.468688,3037.691478,10676.556608,0.002000,-0.012000,1.002000,192.000000,0.000000,0.000000,0.000000,0.000000,0.000000,0.000000,0.000000,0.000000,0.000000,1772529560.658901,0.000000
112.000000,6355.874998,7444.784933,7594.988655,-18550.025648,8936.093323,7476.345596,-3763.340862,-951.089078,5101.137471,5350.672346,8784.682606,8581.617007,13024.652067,12512.819471,3049.716717,10697.388434,0.002000,-0.012000,1.002000,192.000000,0.000000,0.000000,0.000000,0.000000,0.000000,0.000000,0.000000,0.000000,0.000000,1772529560.658913,0.000000
114.000000,6367.319091,7458.397145,7590.205382,-18540.950840,8972.146687,7482.000587,-3758.892865,-940.472000,5097.091806,5359.993024,8782.313321,8585.506211,13086.655806,12525.962296,3039.501970,10653.713125,0.000000,-0.012000,1.003000,192.000000,127.500000,120.000000,127.500000,80.000000,15.500000,48.000000,0.000000,0.000000,0.000000,1772529560.658924,0.000000
116.000000,6386.116908,7476.390299,7593.245219,-18534.915869,8923.464587,7470.869418,-3754.534275,-930.726639,5112.536861,5377.561495,8796.640789,8604.348732,13124.944344,12525.939944,3046.855694,10681.071661,0.000000,-0.012000,1.003000,192.000000,0.000000,0.000000,0.000000,0.000000,0.000000,0.000000,0.000000,0.000000,0.000000,1772529560.658936,0.000000
118.000000,6386.988626,7477.552590,7604.622257,-18525.729302,8887.567686,7457.704241,-3747.068792,-924.177578,5120.225861,5378.768489,8802.407539,8612.462415,13053.888149,12528.488043,3024.772170,10654.271919,0.000000,-0.012000,1.003000,192.000000,0.000000,0.000000,0.000000,0.000000,0.000000,0.000000,0.000000,0.000000,0.000000,1772529560.658948,0.000000
120.000000,6383.948789,7471.092936,7596.262705,-18532.546584,8907.214869,7468.656596,-3751.695603,-928.469113,5124.360934,5371.481821,8803.279257,8606.338037,13049.641317,12514.227630,3027.007345,10658.585806,0.000000,-0.012000,1.003000,192.000000,0.000000,0.000000,0.000000,0.000000,0.000000,0.000000,0.000000,0.000000,0.000000,1772529560.658960,0.000000
122.000000,6383.300589,7477.753756,7597.022664,-18529.707912,8934.282831,7483.140526,-3750.332147,-927.887968,5117.968335,5378.522620,8803.346312,8607.992066,13067.254492,12526.208165,3035.635118,10679.283521,0.000000,-0.012000,1.003000,192.000000,0.000000,0.000000,0.000000,0.000000,0.000000,0.000000,0.000000,0.000000,0.000000,1772529560.658972,0.000000
124.000000,6387.301551,7478.178439,7595.748615,-18538.380389,8907.639552,7496.752739,-3753.148467,-931.061915,5109.497024,5378.164992,8793.466841,8602.649999,13092.802536,12561.300404,3009.595336,10647.566396,0.001000,-0.012000,1.003500,192.000000,0.000000,8.000000,127.500000,80.000000,15.500000,48.000000,0.000000,0.000000,0.000000,1772529560.658984,0.000000
126.000000,6382.048891,7468.388375,7590.875934,-18540.459101,8916.535546,7483.945189,-3756.881208,-937.789790,5129.323021,5378.388510,8801.155841,8600.012493,13161.824723,12548.895186,3036.618595,10683.128021,0.001000,-0.012000,1.003500,192.000000,0.000000,0.000000,0.000000,0.000000,0.000000,0.000000,0.000000,0.000000,0.000000,1772529560.658996,0.000000
128.000000,6379.344330,7475.183305,7597.067368,-18529.551450,8924.403360,7460.408802,-3754.042537,-935.599319,5107.977105,5365.648015,8792.729234,8600.794804,12976.618168,12491.518258,3015.339734,10668.845256,0.001000,-0.012000,1.003500,192.000000,0.000000,0.000000,0.000000,0.000000,0.000000,0.000000,0.000000,0.000000,0.000000,1772529560.659008,0.000000
130.000000,6400.444377,7478.916046,7592.395853,-18546.739941,8909.964133,7463.158067,-3763.094993,-950.195009,5130.708829,5374.052271,8789.421176,8590.669464,13000.579238,12490.467726,3028.013173,10668.264111,0.001000,-0.012000,1.003500,192.000000,0.000000,0.000000,0.000000,0.000000,0.000000,0.000000,0.000000,0.000000,0.000000,1772529560.659019,0.000000
132.000000,6378.427908,7483.073471,7594.988655,-18548.684543,8912.758102,7452.026898,-3761.619778,-949.323291,5138.330774,5370.498344,8782.805059,8572.184571,13046.981459,12515.121700,3056.355185,10692.314588,0.001000,-0.012000,1.003500,192.000000,0.000000,0.000000,0.000000,0.000000,0.000000,0.000000,0.000000,0.000000,0.000000,1772529560.659031,0.000000
134.000000,6379.277275,7473.216352,7591.971170,-18551.456160,8948.878521,7452.719802,-3761.530371,-940.717869,5101.651561,5378.232047,8785.755490,8580.901752,13133.303897,12527.348104,3037.713830,10643.431323,0.001000,-0.012000,1.003500,192.000000,0.000000,0.000000,127.500000,56.000000,15.500000,80.000000,0.000000,0.000000,0.000000,1772529560.659043,0.000000
136.000000,6394.409406,7489.399015,7593.602847,-18544.549470,8961.529608,7470.712956,-3760.211618,-934.571139,5115.129663,5387.083338,8801.759339,8598.336112,13043.405180,12515.769901,3050.990766,10671.102783,0.001000,-0.012000,1.003500,192.000000,0.000000,0.000000,0.000000,0.000000,0.000000,0.000000,0.000000,0.000000,0.000000,1772529560.659056,0.000000
138.000000,6396.689283,7507.682742,7598.475528,-18527.740959,8916.066160,7475.473878,-3751.785010,-925.250462,5127.289012,5399.332094,8801.491118,8608.193232,13114.729597,12543.329602,3032.550577,10659.725745,0.001000,-0.012000,1.003500,192.000000,0.000000,0.000000,0.000000,0.000000,0.000000,0.000000,0.000000,0.000000,0.000000,1772529560.659067,0.000000
140.000000,6404.311228,7506.654561,7598.587286,-18532.881860,8917.831948,7472.925779,-3753.148467,-925.451627,5128.138379,5404.875327,8807.839013,8617.379799,13053.374058,12545.855349,3026.895586,10660.642166,0.001000,-0.012000,1.003500,192.000000,0.000000,0.000000,0.000000,0.000000,0.000000,0.000000,0.000000,0.000000,0.000000,1772529560.659079,0.000000
142.000000,6404.914725,7508.666218,7597.872030,-18527.338627,8925.923279,7488.482593,-3749.862760,-925.295165,5135.559158,5400.561440,8813.181080,8622.341886,13065.868684,12516.105177,3033.869330,10675.416669,0.001000,-0.012000,1.003500,192.000000,0.000000,0.000000,0.000000,0.000000,0.000000,0.000000,0.000000,0.000000,0.000000,1772529560.659091,0.000000
144.000000,6407.731045,7510.186137,7602.364731,-18530.825499,8906.387854,7475.563285,-3750.175685,-922.970584,5113.185062,5397.543955,8802.653408,8615.189328,13129.593507,12538.948660,3012.031676,10640.682058,0.003500,-0.013000,1.007750,192.000000,0.000000,24.000000,127.500000,72.000000,15.500000,80.000000,0.000000,0.000000,0.000000,1772529560.659102,0.000000
146.000000,6406.211127,7506.051064,7601.940048,-18538.469796,8905.762006,7473.372814,-3753.841371,-930.950157,5133.368687,5399.197984,8818.254926,8617.469206,13021.120491,12534.254793,3037.892644,10658.563454,0.003500,-0.013000,1.007750,192.000000,0.000000,0.000000,0.000000,0.000000,0.000000,0.000000,0.000000,0.000000,0.000000,1772529560.659114,0.000000
148.000000,6394.364702,7501.267791,7593.781661,-18538.514499,8944.341116,7475.295064,-3754.288406,-938.683860,5118.840053,5387.686835,8799.278295,8605.041636,13083.928893,12555.041916,3017.060818,10650.807399,0.003500,-0.013000,1.007750,192.000000,0.000000,0.000000,0.000000,0.000000,0.000000,0.000000,0.000000,0.000000,0.000000,1772529560.659126,0.000000
150.000000,6397.203374,7494.606971,7590.786527,-18547.656363,8918.949535,7472.389337,-3759.809287,-943.534189,5117.007210,5379.126117,8792.393958,8594.670426,13046.892053,12519.636753,3018.156054,10656.954128,0.003500,-0.013000,1.007750,192.000000,0.000000,0.000000,0.000000,0.000000,0.000000,0.000000,0.000000,0.000000,0.000000,1772529560.659137,0.000000
152.000000,6392.129528,7494.808137,7593.379330,-18542.671924,8897.581267,7465.996738,-3758.624644,-944.696479,5126.104370,5381.182478,8801.804042,8598.783147,13046.869701,12517.736854,3036.305670,10681.630454,0.003500,-0.013000,1.007750,192.000000,0.000000,0.000000,0.000000,0.000000,0.000000,0.000000,0.000000,0.000000,0.000000,1772529560.659149,0.000000
154.000000,6392.420100,7495.031654,7592.306446,-18547.656363,8953.907663,7454.820866,-3760.435135,-943.198913,5095.571887,5376.645073,8787.543629,8592.815231,13058.179683,12510.293723,3017.686667,10646.739381,0.004750,-0.011500,1.006875,192.000000,0.000000,24.000000,127.500000,88.000000,15.500000,56.000000,0.000000,0.000000,0.000000,1772529560.659161,0.000000
156.000000,6389.961408,7484.883962,7591.300618,-18560.709782,8908.824195,7475.831506,-3765.285464,-949.233884,5120.337620,5371.839448,8800.284123,8590.803574,13142.266946,12512.685360,3046.632176,10663.212617,0.004750,-0.011500,1.006875,192.000000,0.000000,0.000000,0.000000,0.000000,0.000000,0.000000,0.000000,0.000000,0.000000,1772529560.659173,0.000000
158.000000,6392.710673,7497.065663,7600.777757,-18542.023723,8940.876596,7469.304796,-3758.468182,-939.510875,5107.552422,5377.896771,8794.047987,8592.636417,13045.305079,12509.757282,3040.507798,10657.557625,0.004750,-0.011500,1.006875,192.000000,0.000000,0.000000,0.000000,0.000000,0.000000,0.000000,0.000000,0.000000,0.000000,1772529560.659185,0.000000
160.000000,6396.666932,7493.467032,7599.436653,-18549.064523,8929.901890,7463.292177,-3760.144563,-940.315537,5110.100521,5379.841373,8798.831260,8595.340979,13010.011674,12549.074000,3041.379516,10657.624681,0.004750,-0.011500,1.006875,192.000000,0.000000,0.000000,0.000000,0.000000,0.000000,0.000000,0.000000,0.000000,0.000000,1772529560.659196,0.000000
162.000000,6395.884621,7499.949038,7595.279228,-18535.787587,8955.382878,7466.354366,-3755.785973,-935.420505,5126.014963,5379.550800,8805.693246,8600.213659,13057.442076,12546.414142,3052.644795,10682.189248,0.004750,-0.011500,1.006875,192.000000,0.000000,0.000000,0.000000,0.000000,0.000000,0.000000,0.000000,0.000000,0.000000,1772529560.659208,0.000000
164.000000,6395.035254,7500.217259,7598.028493,-18539.252107,8907.796014,7468.947168,-3755.450696,-931.576005,5105.719579,5388.312684,8794.629132,8607.321514,13102.525544,12511.791290,3024.571004,10638.782160,0.008375,-0.012750,1.006438,192.000000,0.000000,48.000000,127.500000,72.000000,15.500000,56.000000,0.000000,0.000000,0.000000,1772529560.659220,0.000000
166.000000,6402.456034,7503.525317,7594.161641,-18537.776892,8926.325610,7466.957863,-3754.668385,-928.357354,5119.197681,5387.597428,8806.654371,8609.713150,13072.797724,12500.324845,3046.118086,10667.191227,0.008375,-0.012750,1.006438,192.000000,0.000000,0.000000,0.000000,0.000000,0.000000,0.000000,0.000000,0.000000,0.000000,1772529560.659231,0.000000
168.000000,6393.470632,7500.485480,7594.496917,-18530.981962,8887.277113,7454.820866,-3752.187342,-928.267947,5120.158806,5392.067777,8804.732121,8611.568345,13081.760774,12524.710599,3013.126911,10650.695640,0.008375,-0.012750,1.006438,192.000000,0.000000,0.000000,0.000000,0.000000,0.000000,0.000000,0.000000,0.000000,0.000000,1772529560.659243,0.000000
170.000000,6397.806871,7499.345541,7595.793318,-18539.006238,8881.867991,7465.303834,-3755.473048,-931.039564,5112.469806,5386.256324,8801.334655,8607.120348,13011.911572,12533.696000,3024.123970,10648.192245,0.008375,-0.012750,1.006438,192.000000,0.000000,0.000000,0.000000,0.000000,0.000000,0.000000,0.000000,0.000000,0.000000,1772529560.659255,0.000000
172.000000,6391.548382,7498.295009,7595.703911,-18535.497014,8905.359674,7473.238703,-3755.338938,-934.325270,5124.405637,5390.145527,8807.794310,8606.606258,13040.655916,12554.796047,3034.495179,10669.493457,0.008375,-0.012750,1.006438,192.000000,0.000000,0.000000,0.000000,0.000000,0.000000,0.000000,0.000000,0.000000,0.000000,1772529560.659267,0.000000
174.000000,6392.867135,7500.463128,7594.139289,-18536.011104,8917.094340,7473.350462,-3757.887037,-936.515741,5102.500928,5391.643094,8794.875001,8598.671388,13089.092146,12566.977747,3011.227013,10641.486721,0.010188,-0.012375,1.010219,192.000000,0.000000,48.000000,127.500000,80.000000,15.500000,88.000000,0.000000,0.000000,0.000000,1772529560.659291,0.000000
176.000000,6394.543516,7494.852840,7595.100414,-18541.599040,8914.926221,7479.810116,-3761.709185,-940.472000,5116.582527,5390.011417,8806.162632,8601.443005,13048.680192,12519.189718,3035.277490,10681.876323,0.010188,-0.012375,1.010219,192.000000,0.000000,0.000000,0.000000,0.000000,0.000000,0.000000,0.000000,0.000000,0.000000,1772529560.659302,0.000000
178.000000,6390.810775,7495.903372,7592.552315,-18535.184090,8945.928090,7481.151221,-3759.876342,-938.728564,5120.002344,5383.887039,8798.898315,8598.894906,13085.337053,12538.546328,3030.024830,10665.380736,0.010188,-0.012375,1.010219,192.000000,0.000000,0.000000,0.000000,0.000000,0.000000,0.000000,0.000000,0.000000,0.000000,1772529560.659314,0.000000
180.000000,6401.025522,7501.915992,7593.111109,-18546.628183,8950.219625,7486.381529,-3763.922008,-939.577930,5124.673858,5390.771376,8795.009112,8598.872554,13084.107707,12532.600764,3037.780885,10667.302986,0.010188,-0.012375,1.010219,192.000000,0.000000,0.000000,0.000000,0.000000,0.000000,0.000000,0.000000,0.000000,0.000000,1772529560.659326,0.000000
182.000000,6393.940019,7500.776053,7597.134423,-18539.185052,8918.346038,7478.200791,-3760.748060,-939.734392,5131.357030,5399.354446,8806.274391,8602.225316,13027.177814,12541.697924,3042.161827,10674.924931,0.010188,-0.012375,1.010219,192.000000,0.000000,0.000000,0.000000,0.000000,0.000000,0.000000,0.000000,0.000000,0.000000,1772529560.659338,0.000000
184.000000,6398.969161,7512.890698,7598.050844,-18535.876994,8904.040921,7471.003529,-3758.579941,-935.085229,5113.453283,5393.118309,8790.002321,8598.313761,13072.663614,12554.728991,3033.332888,10645.197111,0.010188,-0.012375,1.010219,192.000000,0.000000,0.000000,0.000000,0.000000,0.000000,0.000000,0.000000,0.000000,0.000000,1772529560.659349,0.000000
186.000000,6416.314115,7511.057855,7601.269496,-18539.900308,8921.542337,7482.939360,-3756.702394,-929.541997,5146.042126,5416.878214,8810.610629,8607.701493,13063.320585,12562.686212,3049.694365,10672.980329,0.010000,-0.010000,1.008000,192.000000,0.000000,40.000000,127.500000,88.000000,15.500000,64.000000,0.000000,0.000000,0.000000,1772529560.659361,0.000000
188.000000,6407.105196,7518.836262,7598.453176,-18525.706950,8947.537416,7476.882038,-3751.874417,-925.295165,5139.984803,5406.037617,8808.151938,8608.908487,13098.524582,12556.114800,3034.852807,10660.239835,0.010000,-0.010000,1.008000,192.000000,0.000000,0.000000,0.000000,0.000000,0.000000,0.000000,0.000000,0.000000,0.000000,1772529560.659373,0.000000
190.000000,6412.782539,7514.187099,7601.627124,-18527.360979,8923.129311,7480.167744,-3753.215522,-921.920052,5122.461036,5407.713998,8806.386150,8615.234031,13122.373894,12549.699849,3030.896548,10664.441963,0.010000,-0.010000,1.008000,192.000000,0.000000,0.000000,0.000000,0.000000,0.000000,0.000000,0.000000,0.000000,0.000000,1772529560.659385,0.000000
192.000000,6409.675647,7514.701189,7604.264629,-18519.023778,8923.621049,7495.545744,-3748.968691,-915.795674,5148.299652,5416.900565,8827.016810,8632.444874,13029.278878,12545.520073,3043.212359,10681.183419,0.010000,-0.010000,1.008000,192.000000,0.000000,0.000000,0.000000,0.000000,0.000000,0.000000,0.000000,0.000000,0.000000,1772529560.659397,0.000000
194.000000,6418.146958,7517.495157,7599.548411,-18524.030569,8922.525814,7508.465053,-3750.332147,-915.080418,5137.034373,5412.765493,8810.096539,8626.164034,13098.211658,12601.108861,3015.205624,10654.473085,0.010000,-0.010000,1.008000,192.000000,0.000000,0.000000,0.000000,0.000000,0.000000,0.000000,0.000000,0.000000,0.000000,1772529560.659408,0.000000
196.000000,6410.949696,7514.745893,7598.810804,-18525.416377,8942.262404,7509.940268,-3753.461391,-917.673220,5138.151960,5423.650792,8822.188833,8631.193177,13061.443038,12560.607500,3035.992746,10679.775259,0.008000,-0.006000,1.006000,192.000000,0.000000,32.000000,127.500000,104.000000,15.500000,56.000000,0.000000,0.000000,0.000000,1772529560.659420,0.000000
198.000000,6396.018731,7498.049140,7595.480394,-18524.857584,8911.037017,7487.342654,-3751.561493,-925.541034,5133.078114,5401.366103,8811.147071,8622.163072,13123.916164,12547.464674,3015.876176,10656.104762,0.008000,-0.006000,1.006000,192.000000,0.000000,0.000000,0.000000,0.000000,0.000000,0.000000,0.000000,0.000000,0.000000,1772529560.659432,0.000000
200.000000,6401.181984,7499.233782,7599.682522,-18534.625296,8916.379084,7481.710015,-3755.853028,-930.190197,5129.881815,5391.397225,8805.916763,8610.987200,13080.352614,12538.389866,3026.537958,10663.816114,0.008000,-0.006000,1.006000,192.000000,0.000000,0.000000,0.000000,0.000000,0.000000,0.000000,0.000000,0.000000,0.000000,1772529560.659444,0.000000
202.000000,6386.206315,7488.907276,7592.664074,-18535.966401,8930.952422,7479.005453,-3757.060022,-938.750915,5133.346335,5394.995856,8811.705865,8609.646095,12992.890238,12554.974861,3036.886816,10683.709166,0.008000,-0.006000,1.006000,192.000000,0.000000,0.000000,0.000000,0.000000,0.000000,0.000000,0.000000,0.000000,0.000000,1772529560.659456,0.000000
204.000000,6384.194658,7477.865515,7593.647551,-18541.397875,8918.949535,7485.509811,-3760.211618,-942.506008,5111.933364,5379.953132,8789.197658,8595.296275,13080.263207,12552.650279,3019.228938,10661.804457,0.008000,-0.006000,1.006000,192.000000,0.000000,0.000000,0.000000,0.000000,0.000000,0.000000,0.000000,0.000000,0.000000,1772529560.659468,0.000000
206.000000,6388.888525,7479.050157,7597.246182,-18547.835177,8947.805637,7499.166727,-3759.652824,-938.147418,5132.251100,5373.985216,8800.798214,8592.502307,13047.540253,12539.261584,3053.672976,10691.197001,0.014000,-0.010000,1.004000,192.000000,0.000000,56.000000,127.500000,88.000000,15.500000,48.000000,0.000000,0.000000,0.000000,1772529560.659480,0.000000
208.000000,6394.454109,7497.423291,7593.938123,-18527.718607,8967.452820,7493.556439,-3753.439039,-929.921976,5127.937213,5393.587696,8799.568868,8608.930839,13105.364216,12535.193567,3022.469940,10654.629547,0.014000,-0.010000,1.004000,192.000000,0.000000,0.000000,0.000000,0.000000,0.000000,0.000000,0.000000,0.000000,0.000000,1772529560.659491,0.000000
210.000000,6400.869060,7494.986951,7600.129557,-18536.860470,8921.743503,7495.411634,-3756.076545,-931.106619,5130.440608,5395.979332,8799.993551,8609.668447,13101.095033,12563.759096,3038.451438,10663.793762,0.014000,-0.010000,1.004000,192.000000,0.000000,0.000000,0.000000,0.000000,0.000000,0.000000,0.000000,0.000000,0.000000,1772529561.139664,0.000000
212.000000,6397.963333,7498.317361,7600.062501,-18525.751653,8933.701686,7482.112346,-3753.550798,-930.011383,5143.516379,5396.962809,8807.973124,8614.429368,13113.299085,12562.216826,3054.991729,10684.178553,0.014000,-0.010000,1.004000,192.000000,0.000000,0.000000,0.000000,0.000000,0.000000,0.000000,0.000000,0.000000,0.000000,1772529561.139724,0.000000
214.000000,6386.966275,7492.125927,7594.072234,-18526.511613,8952.119524,7482.335863,-3755.540103,-931.710116,5117.096617,5389.139699,8794.696187,8613.445892,13008.894087,12549.364573,3029.220167,10650.226253,0.014000,-0.010000,1.004000,192.000000,0.000000,0.000000,0.000000,0.000000,0.000000,0.000000,0.000000,0.000000,0.000000,1772529561.139768,0.000000
216.000000,6396.733987,7501.580715,7587.813745,-18535.899345,8939.401381,7498.831451,-3757.551760,-932.090096,5127.132550,5398.862707,8801.714635,8616.575136,13070.048460,12594.649207,3036.104505,10684.759698,0.004000,-0.008000,1.004000,192.000000,0.000000,16.000000,127.500000,96.000000,15.500000,48.000000,0.000000,0.000000,0.000000,1772529561.139814,0.000000
218.000000,6396.376359,7498.987913,7601.493013,-18524.075273,8907.773663,7487.767337,-3752.075583,-929.027907,5124.159768,5398.102748,8797.356045,8612.887098,13171.301862,12574.778506,3027.364973,10670.432230,0.004000,-0.008000,1.004000,192.000000,0.000000,0.000000,0.000000,0.000000,0.000000,0.000000,0.000000,0.000000,0.000000,1772529561.139863,0.000000
220.000000,6396.957504,7495.031654,7598.766100,-18528.143290,8954.868788,7480.190096,-3755.540103,-929.251424,5127.758399,5395.107614,8802.876926,8618.117406,12990.431546,12510.114909,3023.498121,10665.671309,0.004000,-0.008000,1.004000,192.000000,0.000000,0.000000,0.000000,0.000000,0.000000,0.000000,0.000000,0.000000,0.000000,1772529561.139909,0.000000
222.000000,6394.297647,7495.568096,7602.521193,-18529.439691,8925.565651,7490.941285,-3752.992005,-930.592529,5133.636908,5398.214507,8811.214126,8619.704380,13050.490683,12540.893262,3039.569025,10680.892847,0.004000,-0.008000,1.004000,192.000000,0.000000,0.000000,0.000000,0.000000,0.000000,0.000000,0.000000,0.000000,0.000000,1772529561.139936,0.000000
224.000000,6393.180060,7494.495212,7594.832193,-18536.748712,8949.102038,7497.535050,-3755.517752,-934.817008,5121.656373,5394.548821,8798.294818,8610.182537,13119.289353,12583.719204,3023.296955,10644.459503,0.004000,-0.008000,1.004000,192.000000,0.000000,0.000000,0.000000,0.000000,0.000000,0.000000,0.000000,0.000000,0.000000,1772529561.139949,0.000000
226.000000,6381.132469,7483.565209,7593.848716,-18533.820633,8930.237166,7481.084166,-3759.853990,-943.064802,5126.372591,5388.245629,8801.669932,8608.461453,13089.516829,12532.690171,3048.286205,10687.687777,0.002000,-0.010000,1.008000,192.000000,0.000000,8.000000,127.500000,88.000000,15.500000,64.000000,0.000000,0.000000,0.000000,1772529561.139961,0.000000
228.000000,6383.278237,7489.175497,7598.810804,-18525.818709,8934.305183,7487.990855,-3756.925912,-938.750915,5121.030524,5392.380702,8793.623304,8607.477976,13039.650087,12556.584186,3031.209473,10678.478858,0.002000,-0.010000,1.008000,192.000000,0.000000,0.000000,0.000000,0.000000,0.000000,0.000000,0.000000,0.000000,0.000000,1772529561.139974,0.000000
230.000000,6388.709711,7487.365006,7593.356978,-18535.541717,8918.167224,7496.663332,-3762.558551,-941.164904,5119.197681,5391.464280,8793.131565,8603.029979,13056.100971,12574.711451,3033.958737,10681.652806,0.002000,-0.010000,1.008000,192.000000,0.000000,0.000000,0.000000,0.000000,0.000000,0.000000,0.000000,0.000000,0.000000,1772529561.139986,0.000000
232.000000,6397.136318,7500.261962,7592.641722,-18523.650589,8930.259517,7501.178384,-3758.043499,-935.040526,5139.649527,5401.947248,8801.401711,8611.568345,13181.136630,12562.932082,3051.504857,10692.962789,0.002000,-0.010000,1.008000,192.000000,0.000000,0.000000,0.000000,0.000000,0.000000,0.000000,0.000000,0.000000,0.000000,1772529561.139998,0.000000
234.000000,6396.219897,7496.663332,7599.593115,-18525.796357,8942.888253,7493.824660,-3756.233007,-929.452590,5128.048972,5394.548821,8797.624266,8610.227240,13037.236099,12579.539428,3027.141455,10656.931777,0.002000,-0.010000,1.008000,192.000000,0.000000,0.000000,0.000000,0.000000,0.000000,0.000000,0.000000,0.000000,0.000000,1772529561.140011,0.000000
236.000000,6402.724254,7504.128814,7597.872030,-18524.857584,8959.473247,7512.287201,-3755.785973,-926.323345,5141.370611,5405.165899,8813.024618,8616.418674,13067.589768,12558.461733,3041.178351,10681.876323,0.006000,-0.010000,1.004000,192.000000,0.000000,24.000000,127.500000,88.000000,15.500000,48.000000,0.000000,0.000000,0.000000,1772529561.140023,0.000000
238.000000,6395.281124,7500.507832,7598.855507,-18521.281305,8915.015628,7509.582640,-3753.215522,-926.613918,5140.521245,5412.094940,8809.381283,8622.207775,13074.049422,12589.351844,3023.073438,10657.915253,0.006000,-0.010000,1.004000,192.000000,0.000000,0.000000,0.000000,0.000000,0.000000,0.000000,0.000000,0.000000,0.000000,1772529561.140036,0.000000
240.000000,6396.801042,7496.283352,7593.960475,-18527.897421,8937.680297,7491.209506,-3755.942435,-928.066782,5127.356068,5394.817042,8802.675760,8611.970676,13078.542123,12592.391681,3022.112313,10662.586768,0.006000,-0.010000,1.004000,192.000000,0.000000,0.000000,0.000000,0.000000,0.000000,0.000000,0.000000,0.000000,0.000000,1772529561.140058,0.000000
242.000000,6396.130490,7497.020959,7599.637818,-18525.349322,8879.632816,7487.812041,-3753.774316,-928.066782,5148.612577,5399.175632,8814.388074,8619.056179,13070.875474,12576.745460,3043.860560,10676.824829,0.006000,-0.010000,1.004000,192.000000,0.000000,0.000000,0.000000,0.000000,0.000000,0.000000,0.000000,0.000000,0.000000,1772529561.140071,0.000000
244.000000,6385.915743,7488.393186,7592.351150,-18531.473700,8888.148831,7469.148334,-3755.718917,-929.832569,5118.370666,5392.313646,8794.293856,8611.389531,13118.529393,12558.685250,3017.776074,10651.410896,0.006000,-0.010000,1.004000,192.000000,0.000000,0.000000,0.000000,0.000000,0.000000,0.000000,0.000000,0.000000,0.000000,1772529561.140084,0.000000
246.000000,6386.072205,7484.056948,7591.971170,-18534.155909,8928.225509,7473.104593,-3758.915217,-932.179503,5119.532957,5386.301027,8803.972161,8612.954153,13092.869591,12541.094427,3033.712868,10672.667405,0.002000,-0.010000,1.004000,192.000000,0.000000,8.000000,127.500000,88.000000,15.500000,48.000000,0.000000,0.000000,0.000000,1772529561.140096,0.000000
248.000000,6380.797193,7485.643922,7593.625199,-18531.183127,8916.066160,7476.010320,-3759.518714,-936.292223,5123.712733,5382.702396,8797.199583,8610.204889,13063.767620,12575.516114,3025.889757,10656.596500,0.002000,-0.010000,1.004000,192.000000,0.000000,0.000000,0.000000,0.000000,0.000000,0.000000,0.000000,0.000000,0.000000,1772529561.140108,0.000000
250.000000,6385.379301,7482.827602,7587.925504,-18535.228793,8888.148831,7476.770279,-3764.167877,-939.555578,5112.492158,5382.165954,8792.997455,8604.773415,13048.121398,12547.151750,3029.734257,10668.018242,0.002000,-0.010000,1.004000,192.000000,0.000000,0.000000,0.000000,0.000000,0.000000,0.000000,0.000000,0.000000,0.000000,1772529561.140121,0.000000
252.000000,6388.977932,7493.109404,7592.172336,-18530.981962,8915.440311,7493.914067,-3761.955054,-939.868503,5121.723428,5400.829661,8799.635923,8615.412845,13092.534315,12572.453925,3045.626348,10694.035672,0.002000,-0.010000,1.004000,192.000000,0.000000,0.000000,0.000000,0.000000,0.000000,0.000000,0.000000,0.000000,0.000000,1772529561.140133,0.000000
254.000000,6377.958522,7477.016148,7597.492051,-18530.289058,8900.464642,7487.432061,-3763.385566,-946.596378,5114.369704,5385.049329,8787.096594,8601.174784,13039.583032,12566.262491,3032.952909,10662.162085,0.002000,-0.010000,1.004000,192.000000,0.000000,0.000000,0.000000,0.000000,0.000000,0.000000,0.000000,0.000000,0.000000,1772529561.140146,0.000000
0.000000,6395.214068,7493.332922,7595.905077,-18530.758444,8912.378122,7494.517564,-3762.916179,-940.114372,5124.316230,5392.268943,8801.759339,8607.790900,13080.978463,12572.744497,3056.131668,10684.960864,0.004000,-0.010000,1.007000,192.000000,0.000000,24.000000,127.500000,88.000000,15.500000,72.000000,0.000000,0.000000,0.000000,1772529561.140157,0.000000
2.000000,6399.885583,7507.705093,7600.420129,-18522.600057,8944.341116,7500.619590,-3756.121249,-928.983203,5127.087847,5402.483690,8800.150013,8617.782130,13152.302879,12602.271152,3035.009269,10660.731573,0.004000,-0.010000,1.007000,192.000000,0.000000,0.000000,0.000000,0.000000,0.000000,0.000000,0.000000,0.000000,0.000000,1772529561.140169,0.000000
4.000000,6401.718426,7502.988875,7593.155812,-18527.785662,8928.337267,7508.152128,-3759.026976,-929.631404,5128.875986,5411.625554,8803.927458,8618.251517,13129.347638,12594.917428,3032.394115,10654.517788,0.004000,-0.010000,1.007000,192.000000,0.000000,0.000000,0.000000,0.000000,0.000000,0.000000,0.000000,0.000000,0.000000,1772529561.140180,0.000000
6.000000,6407.216955,7516.422274,7601.425958,-18515.089871,8932.025305,7509.649695,-3753.059060,-921.674183,5134.039239,5421.259155,8812.063493,8626.767531,13034.039799,12602.919352,3032.505874,10684.893809,0.004000,-0.010000,1.007000,192.000000,0.000000,0.000000,0.000000,0.000000,0.000000,0.000000,0.000000,0.000000,0.000000,1772529561.140192,0.000000
8.000000,6402.388978,7502.139509,7603.772891,-18520.096662,8899.347055,7510.789634,-3753.260225,-922.456494,5128.898338,5409.524490,8809.291876,8622.923031,13058.380849,12572.766849,3015.160920,10647.119361,0.004000,-0.010000,1.007000,192.000000,0.000000,0.000000,0.000000,0.000000,0.000000,0.000000,0.000000,0.000000,0.000000,1772529561.140204,0.000000
10.000000,6388.977932,7488.773166,7597.313237,-18532.233659,8907.393683,7491.813003,-3757.551760,-932.403020,5129.948870,5396.180498,8816.109159,8617.290392,13070.942530,12569.838771,3031.947080,10674.209675,0.004000,-0.010000,1.007000,192.000000,0.000000,0.000000,127.500000,80.000000,15.500000,32.000000,0.000000,0.000000,0.000000,1772529561.140216,0.000000
12.000000,6389.402615,7488.750814,7598.699045,-18529.149119,8904.130328,7493.467032,-3755.808324,-930.704287,5118.214204,5382.635341,8803.458071,8609.467281,13094.277751,12586.960207,3023.878100,10657.132942,0.004000,-0.010000,1.007000,192.000000,0.000000,0.000000,0.000000,0.000000,0.000000,0.000000,0.000000,0.000000,0.000000,1772529561.140228,0.000000
14.000000,6389.223801,7485.241590,7593.379330,-18532.479528,8898.654151,7484.883962,-3760.926874,-936.538093,5121.946945,5387.865649,8800.686455,8607.366217,13121.256306,12587.943684,3028.415505,10664.464315,0.004000,-0.010000,1.007000,192.000000,0.000000,0.000000,0.000000,0.000000,0.000000,0.000000,0.000000,0.000000,0.000000,1772529561.140241,0.000000
16.000000,6393.850612,7492.505907,7597.894382,-18533.753578,8946.643346,7491.433023,-3758.334071,-934.101753,5134.083943,5391.084300,8807.280219,8610.517813,13057.531483,12581.104050,3037.155037,10683.977387,0.004000,-0.010000,1.007000,192.000000,0.000000,0.000000,0.000000,0.000000,0.000000,0.000000,0.000000,0.000000,0.000000,1772529561.140258,0.000000
18.000000,6385.647522,7484.347520,7593.871068,-18533.708874,8935.154549,7483.073471,-3760.949226,-936.962776,5118.884756,5384.088204,8795.389091,8605.175746,13061.554797,12578.041861,3010.578812,10650.293309,0.004000,-0.010000,1.007000,192.000000,0.000000,0.000000,0.000000,0.000000,0.000000,0.000000,0.000000,0.000000,0.000000,1772529561.140272,0.000000
20.000000,6389.648484,7486.783861,7598.296714,-18536.994581,8911.551107,7486.314474,-3763.229103,-939.354412,5126.327887,5388.111518,8802.005208,8609.556688,13096.468222,12556.830055,3052.533037,10694.058024,0.005000,-0.009000,1.004500,192.000000,0.000000,24.000000,127.500000,96.000000,15.500000,40.000000,0.000000,0.000000,0.000000,1772529561.140285,0.000000
22.000000,6389.044987,7495.232820,7598.497879,-18530.154947,8930.594794,7516.042294,-3758.579941,-932.738296,5122.215166,5388.715015,8797.512507,8608.193232,13138.914184,12596.459698,3041.670089,10669.068774,0.005000,-0.009000,1.004500,192.000000,0.000000,0.000000,0.000000,0.000000,0.000000,0.000000,0.000000,0.000000,0.000000,1772529561.140298,0.000000
24.000000,6400.399673,7503.033579,7603.415263,-18532.546584,8931.824140,7502.810061,-3760.010452,-928.357354,5123.355105,5405.881155,8803.569830,8614.675237,13079.547951,12578.824172,3047.816819,10655.568320,0.005000,-0.009000,1.004500,192.000000,0.000000,0.000000,0.000000,0.000000,0.000000,0.000000,0.000000,0.000000,0.000000,1772529561.140312,0.000000
26.000000,6402.545441,7505.268753,7606.790377,-18522.778871,8925.610355,7505.961657,-3755.964787,-922.702363,5147.092658,5402.349580,8816.265621,8624.040618,13068.081506,12595.453870,3055.058784,10678.255341,0.005000,-0.009000,1.004500,192.000000,0.000000,0.000000,0.000000,0.000000,0.000000,0.000000,0.000000,0.000000,0.000000,1772529561.140325,0.000000
28.000000,6399.282086,7501.938343,7600.643647,-18516.922714,8927.197328,7490.494250,-3755.204827,-921.294203,5131.692306,5399.533260,8806.475557,8620.576098,13073.065945,12574.532637,3030.404810,10646.828788,0.005000,-0.009000,1.004500,192.000000,0.000000,0.000000,0.000000,0.000000,0.000000,0.000000,0.000000,0.000000,0.000000,1772529561.140337,0.000000
30.000000,6407.686342,7507.950963,7592.552315,-18523.069444,8950.309032,7491.298913,-3755.495400,-920.780113,5138.241367,5403.020132,8815.863289,8627.661601,13109.342827,12584.903846,3033.444647,10685.094975,0.006500,-0.008500,1.007250,192.000000,0.000000,32.000000,127.500000,96.000000,15.500000,72.000000,0.000000,0.000000,0.000000,1772529561.140348,0.000000
32.000000,6393.761205,7497.311532,7598.743749,-18524.254087,8904.286790,7513.225974,-3754.154295,-924.982241,5134.061591,5394.682931,8810.297705,8624.554709,13106.772376,12576.343128,3016.926708,10664.821942,0.006500,-0.008500,1.007250,192.000000,0.000000,0.000000,0.000000,0.000000,0.000000,0.000000,0.000000,0.000000,0.000000,1772529561.140360,0.000000
34.000000,6393.649446,7494.562268,7588.707815,-18532.121901,8976.773498,7496.976256,-3759.496362,-930.234901,5119.711771,5386.591600,8805.536783,8613.714112,13044.075733,12616.263344,3020.458283,10663.212617,0.006500,-0.008500,1.007250,192.000000,0.000000,0.000000,0.000000,0.000000,0.000000,0.000000,0.000000,0.000000,0.000000,1772529561.140373,0.000000
36.000000,6389.313208,7495.948076,7595.614504,-18530.244354,8916.535546,7486.336826,-3757.797630,-931.196026,5126.484350,5399.823832,8807.213164,8618.407979,13075.345823,12585.797916,3037.512664,10686.346672,0.006500,-0.008500,1.007250,192.000000,0.000000,0.000000,0.000000,0.000000,0.000000,0.000000,0.000000,0.000000,0.000000,1772529561.140384,0.000000
38.000000,6389.559077,7488.884925,7587.947856,-18526.958648,8927.420846,7489.331959,-3758.937569,-931.754819,5109.407617,5386.032806,8793.533897,8611.791862,13100.424480,12554.058439,3021.017077,10651.053268,0.006500,-0.008500,1.007250,192.000000,0.000000,0.000000,0.000000,0.000000,0.000000,0.000000,0.000000,0.000000,0.000000,1772529561.140396,0.000000
40.000000,6386.206315,7481.285331,7595.502746,-18536.681656,8890.965151,7475.540933,-3762.647958,-941.299014,5130.239443,5386.479841,8806.207336,8612.417711,13118.685856,12556.830055,3039.278452,10683.485649,0.007250,-0.010250,1.005625,192.000000,0.000000,32.000000,127.500000,80.000000,15.500000,48.000000,0.000000,0.000000,0.000000,1772529561.140408,0.000000
42.000000,6372.191772,7479.430137,7594.742786,-18530.669037,8899.324703,7476.367948,-3760.703356,-940.159075,5106.457187,5370.185419,8794.271504,8598.716092,13029.234174,12569.950529,3039.412563,10672.689756,0.007250,-0.010250,1.005625,192.000000,0.000000,0.000000,0.000000,0.000000,0.000000,0.000000,0.000000,0.000000,0.000000,1772529561.140419,0.000000
44.000000,6386.608647,7488.303779,7584.729205,-18541.353171,8984.328387,7490.941285,-3763.318510,-936.046354,5099.550497,5377.181515,8792.058681,8604.952229,13113.522603,12587.206076,3034.204606,10659.681041,0.007250,-0.010250,1.005625,192.000000,0.000000,0.000000,0.000000,0.000000,0.000000,0.000000,0.000000,0.000000,0.000000,1772529561.140431,0.000000
46.000000,6392.800080,7496.350407,7599.794281,-18533.261840,8953.013593,7513.762416,-3757.395298,-927.977375,5129.144207,5390.324341,8808.800138,8612.350656,13051.496512,12591.944646,3050.722545,10683.083318,0.007250,-0.010250,1.005625,192.000000,0.000000,0.000000,0.000000,0.000000,0.000000,0.000000,0.000000,0.000000,0.000000,1772529561.140443,0.000000
48.000000,6396.264600,7500.463128,7603.147042,-18522.756520,8905.694950,7503.078282,-3756.903560,-923.641136,5122.617498,5392.514812,8802.295780,8616.239860,13030.463520,12561.635680,3028.504911,10647.789913,0.007250,-0.010250,1.005625,192.000000,0.000000,0.000000,0.000000,0.000000,0.000000,0.000000,0.000000,0.000000,0.000000,1772529561.140454,0.000000
50.000000,6398.946810,7497.602105,7598.363769,-18522.309485,8904.845584,7490.628361,-3758.825810,-925.630441,5138.196664,5398.281562,8813.404597,8622.453645,13098.681044,12574.487933,3056.668109,10685.497306,0.006625,-0.012125,1.005812,192.000000,0.000000,24.000000,127.500000,72.000000,15.500000,56.000000,0.000000,0.000000,0.000000,1772529561.140465,0.000000
52.000000,6391.883658,7496.842146,7599.816632,-18521.415415,8923.017552,7508.330942,-3755.249531,-923.104694,5126.976088,5396.426367,8806.766129,8620.307877,13133.147434,12599.030149,3032.416467,10665.447791,0.006625,-0.012125,1.005812,192.000000,0.000000,0.000000,0.000000,0.000000,0.000000,0.000000,0.000000,0.000000,0.000000,1772529561.140477,0.000000
54.000000,6390.386092,7491.544782,7592.194687,-18533.373598,8930.147759,7513.449492,-3760.703356,-932.134799,5118.594184,5393.498289,8805.715597,8612.864746,13057.710297,12617.805614,3027.946118,10666.006585,0.006625,-0.012125,1.005812,192.000000,0.000000,0.000000,0.000000,0.000000,0.000000,0.000000,0.000000,0.000000,0.000000,1772529561.140489,0.000000
56.000000,6387.435661,7491.365968,7593.960475,-18533.060674,8932.226471,7519.618573,-3757.350595,-932.760648,5129.546539,5388.245629,8811.214126,8614.407017,13058.671422,12569.347032,3036.842112,10683.083318,0.006625,-0.012125,1.005812,192.000000,0.000000,0.000000,0.000000,0.000000,0.000000,0.000000,0.000000,0.000000,0.000000,1772529561.140517,0.000000
58.000000,6380.081937,7489.086090,7582.114051,-18528.344456,8988.083480,7486.448584,-3760.546894,-938.169770,5103.104425,5384.579943,8791.857516,8607.612086,13114.416673,12572.006890,2999.201775,10658.362288,0.006625,-0.012125,1.005812,192.000000,0.000000,0.000000,0.000000,0.000000,0.000000,0.000000,0.000000,0.000000,0.000000,1772529561.140530,0.000000
60.000000,6371.990606,7470.958825,7592.664074,-18544.817691,8887.388872,7474.691567,-3762.759717,-945.702308,5114.503815,5378.433213,8798.920667,8603.141737,13098.211658,12566.933044,3039.412563,10681.116364,0.006313,-0.012063,1.005906,192.000000,0.000000,24.000000,127.500000,80.000000,15.500000,56.000000,0.000000,0.000000,0.000000,1772529561.140541,0.000000
62.000000,6368.324920,7469.908293,7592.597019,-18545.398837,8887.724148,7479.117212,-3764.346691,-950.396174,5107.932402,5356.595559,8789.868211,8591.809403,13007.374168,12538.188700,3035.456304,10664.084335,0.006313,-0.012063,1.005906,192.000000,0.000000,0.000000,0.000000,0.000000,0.000000,0.000000,0.000000,0.000000,0.000000,1772529561.140553,0.000000
64.000000,6362.222894,7462.487514,7576.324949,-18552.707857,8968.928035,7496.752739,-3768.794688,-954.017157,5100.310457,5357.959015,8784.906123,8584.075699,13043.472236,12584.568570,3028.750781,10668.331166,0.006313,-0.012063,1.005906,192.000000,0.000000,0.000000,0.000000,0.000000,0.000000,0.000000,0.000000,0.000000,0.000000,1772529561.140564,0.000000
66.000000,6355.383260,7460.162933,7583.432804,-18545.600002,8891.032206,7487.499116,-3767.811211,-958.196933,5094.342541,5357.243759,8782.581542,8588.702510,13079.078565,12530.611459,3048.062688,10697.142565,0.006313,-0.012063,1.005906,192.000000,0.000000,0.000000,0.000000,0.000000,0.000000,0.000000,0.000000,0.000000,0.000000,1772529561.140576,0.000000
68.000000,6373.510524,7475.004491,7588.327836,-18545.957630,8952.499503,7480.391262,-3764.056118,-949.390346,5097.963524,5358.048422,8777.485344,8585.461507,13110.259248,12559.556968,3033.377592,10648.862797,0.006313,-0.012063,1.005906,192.000000,0.000000,0.000000,0.000000,0.000000,0.000000,0.000000,0.000000,0.000000,0.000000,1772529561.140588,0.000000
70.000000,6378.897295,7477.574942,7593.602847,-18537.687485,8902.163375,7499.278486,-3761.731537,-944.607072,5115.822567,5362.764640,8796.797251,8596.123290,13044.433361,12558.819361,3052.398926,10678.389451,0.006313,-0.012063,1.005906,192.000000,0.000000,0.000000,0.000000,0.000000,0.000000,0.000000,0.000000,0.000000,0.000000,1772529561.140600,0.000000
72.000000,6384.731100,7490.963637,7596.106243,-18526.533964,8917.273154,7509.806157,-3755.920083,-935.487561,5112.693323,5380.444870,8797.043121,8606.449796,13100.379777,12588.323663,3038.764362,10661.245663,0.008000,-0.012000,1.008000,192.000000,0.000000,32.000000,127.500000,80.000000,15.500000,64.000000,0.000000,0.000000,0.000000,1772529561.140612,0.000000
74.000000,6386.340426,7487.275599,7588.327836,-18535.429959,8938.641422,7525.430027,-3759.652824,-937.856846,5110.212280,5374.901637,8797.668969,8605.645133,13099.418652,12592.235219,3034.718696,10664.888998,0.008000,-0.012000,1.008000,192.000000,0.000000,0.000000,0.000000,0.000000,0.000000,0.000000,0.000000,0.000000,0.000000,1772529561.620882,0.000000
76.000000,6385.781632,7495.232820,7590.898286,-18534.826462,8958.869750,7534.884815,-3757.574112,-936.448686,5117.744817,5386.189268,8804.665065,8608.550860,13089.159201,12595.140945,3038.116162,10691.465222,0.008000,-0.012000,1.008000,192.000000,0.000000,0.000000,0.000000,0.000000,0.000000,0.000000,0.000000,0.000000,0.000000,1772529561.620978,0.000000
78.000000,6380.819545,7485.889791,7589.758347,-18528.769139,8905.940819,7508.263887,-3756.344766,-936.068706,5105.026675,5376.600370,8793.019807,8601.174784,13007.195354,12569.928178,3015.876176,10657.132942,0.008000,-0.012000,1.008000,192.000000,0.000000,0.000000,0.000000,0.000000,0.000000,0.000000,0.000000,0.000000,0.000000,1772529561.621060,0.000000
80.000000,6388.575600,7492.952942,7592.284094,-18536.100511,8905.918468,7495.054006,-3756.925912,-933.788828,5115.531995,5380.891905,8804.486251,8610.808386,13059.721954,12558.260567,3038.697307,10679.015300,0.008000,-0.012000,1.008000,192.000000,0.000000,0.000000,0.000000,0.000000,0.000000,0.000000,0.000000,0.000000,0.000000,1772529561.621142,0.000000
82.000000,6384.887562,7492.304741,7590.563010,-18525.975171,8914.188613,7474.021014,-3753.215522,-933.967642,5117.409541,5379.260228,8802.787519,8612.037732,13094.076585,12556.785352,3021.620574,10661.044498,0.006000,-0.014000,1.006000,192.000000,0.000000,24.000000,127.500000,72.000000,15.500000,56.000000,0.000000,0.000000,0.000000,1772529561.621197,0.000000
84.000000,6381.713615,7485.219238,7583.030472,-18537.083988,8917.630782,7495.389282,-3760.390432,-942.841285,5101.025713,5370.453640,8793.466841,8604.907525,13114.819004,12579.941759,3023.632231,10663.100858,0.006000,-0.014000,1.006000,192.000000,0.000000,0.000000,0.000000,0.000000,0.000000,0.000000,0.000000,0.000000,0.000000,1772529561.621238,0.000000
86.000000,6372.303530,7485.822736,7581.085870,-18534.759406,8899.503517,7498.071491,-3761.999758,-948.049241,5109.720541,5372.934684,8798.160708,8604.348732,13046.355611,12561.501570,3035.523359,10688.581847,0.006000,-0.014000,1.006000,192.000000,0.000000,0.000000,0.000000,0.000000,0.000000,0.000000,0.000000,0.000000,0.000000,1772529561.621279,0.000000
88.000000,6371.431812,7479.206619,7585.042129,-18542.426055,8909.382988,7491.365968,-3763.989063,-950.373822,5085.960637,5362.764640,8780.927513,8590.982388,13043.405180,12573.057422,3020.726504,10663.816114,0.006000,-0.014000,1.006000,192.000000,0.000000,0.000000,0.000000,0.000000,0.000000,0.000000,0.000000,0.000000,0.000000,1772529561.621290,0.000000
90.000000,6380.238400,7487.834393,7584.550391,-18545.152968,8909.405340,7507.123948,-3764.525505,-946.037584,5103.774977,5370.788916,8793.668007,8599.476051,13089.762698,12577.438364,3050.253159,10689.945303,0.006000,-0.014000,1.006000,192.000000,0.000000,0.000000,0.000000,0.000000,0.000000,0.000000,0.000000,0.000000,0.000000,1772529561.621309,0.000000
92.000000,6383.300589,7496.886849,7595.770967,-18532.658342,8911.215831,7497.803271,-3759.451659,-940.315537,5105.674875,5375.818059,8792.885696,8604.438139,13068.014451,12557.299442,3038.049106,10670.208713,0.006000,-0.014000,1.008000,192.000000,0.000000,24.000000,127.500000,72.000000,15.500000,64.000000,0.000000,0.000000,0.000000,1772529561.621320,0.000000
94.000000,6397.382188,7506.565154,7593.401682,-18535.295848,8938.484959,7515.707018,-3762.267978,-937.812142,5116.180195,5380.444870,8796.529030,8610.003723,13064.549931,12565.904864,3046.676880,10663.458486,0.006000,-0.014000,1.008000,192.000000,0.000000,0.000000,0.000000,0.000000,0.000000,0.000000,0.000000,0.000000,0.000000,1772529561.621332,0.000000
96.000000,6389.894353,7505.760492,7594.563972,-18527.964476,8929.588965,7510.901393,-3757.328243,-935.733430,5128.317193,5388.826774,8807.704903,8618.050351,13078.408012,12595.744442,3054.209418,10684.871457,0.006000,-0.014000,1.008000,192.000000,0.000000,0.000000,0.000000,0.000000,0.000000,0.000000,0.000000,0.000000,0.000000,1772529561.621344,0.000000
98.000000,6389.335560,7506.028713,7587.925504,-18531.361941,8984.618960,7524.021867,-3757.596464,-936.895721,5107.127739,5387.150393,8791.656350,8613.267078,13068.640300,12586.312006,3024.079266,10654.249567,0.006000,-0.014000,1.008000,192.000000,0.000000,0.000000,0.000000,0.000000,0.000000,0.000000,0.000000,0.000000,0.000000,1772529561.621356,0.000000
100.000000,6392.442452,7507.660390,7583.611618,-18530.847851,8949.929053,7515.751721,-3760.658653,-940.002613,5118.124797,5393.408882,8802.586353,8614.764644,13104.447794,12576.276073,3032.729391,10685.340844,0.006000,-0.014000,1.008000,192.000000,0.000000,0.000000,0.000000,0.000000,0.000000,0.000000,0.000000,0.000000,0.000000,1772529561.621367,0.000000
102.000000,6389.022635,7500.351369,7595.055711,-18532.144252,8894.809651,7504.911125,-3757.372946,-941.053145,5113.095655,5386.703358,8796.037292,8609.109653,13119.065835,12581.618140,3029.264871,10670.812210,0.006000,-0.012000,1.010000,192.000000,0.000000,24.000000,127.500000,80.000000,15.500000,72.000000,0.000000,0.000000,0.000000,1772529561.621401,0.000000
104.000000,6386.787461,7490.851878,7590.339493,-18548.796302,8906.231392,7519.328000,-3760.010452,-943.467133,5112.805082,5367.078527,8797.758376,8598.559630,13058.716125,12577.170143,3031.030659,10656.372983,0.006000,-0.012000,1.010000,192.000000,0.000000,0.000000,0.000000,0.000000,0.000000,0.000000,0.000000,0.000000,0.000000,1772529561.621413,0.000000
106.000000,6385.446356,7495.791614,7593.222868,-18532.859508,8899.101186,7496.395111,-3756.858856,-941.500180,5118.728294,5371.280655,8803.927458,8602.717054,13125.324324,12611.077739,3043.592339,10682.971559,0.006000,-0.012000,1.010000,192.000000,0.000000,0.000000,0.000000,0.000000,0.000000,0.000000,0.000000,0.000000,0.000000,1772529561.621425,0.000000
108.000000,6382.138298,7487.655579,7588.931333,-18532.971267,8912.534584,7492.751776,-3760.949226,-946.842247,5107.015980,5369.336053,8792.751586,8599.319589,12999.752223,12554.438419,3009.148301,10657.691736,0.006000,-0.012000,1.010000,192.000000,0.000000,0.000000,0.000000,0.000000,0.000000,0.000000,0.000000,0.000000,0.000000,1772529561.621436,0.000000
110.000000,6371.275350,7477.418480,7577.196667,-18540.302639,8925.498596,7502.966524,-3764.905484,-951.916093,5104.825509,5361.222370,8792.461013,8597.129118,13075.770506,12527.325753,3033.914034,10684.513829,0.006000,-0.012000,1.010000,192.000000,0.000000,0.000000,0.000000,0.000000,0.000000,0.000000,0.000000,0.000000,0.000000,1772529561.621447,0.000000
112.000000,6370.381280,7483.118174,7585.913847,-18536.502842,8889.847563,7487.297951,-3764.167877,-954.240674,5089.805137,5369.716033,8779.564056,8595.698606,13087.639283,12548.626965,3021.575871,10669.426402,0.006000,-0.012000,1.012000,192.000000,0.000000,24.000000,127.500000,80.000000,15.500000,80.000000,0.000000,0.000000,0.000000,1772529561.621459,0.000000
114.000000,6380.640731,7482.045291,7588.819574,-18555.233604,8910.567631,7492.818832,-3766.805383,-951.714927,5095.102500,5361.714108,8781.128678,8586.646150,13027.937773,12577.281902,3034.562234,10660.217483,0.006000,-0.012000,1.012000,192.000000,0.000000,0.000000,0.000000,0.000000,0.000000,0.000000,0.000000,0.000000,0.000000,1772529561.621470,0.000000
116.000000,6384.574638,7492.237686,7588.081966,-18540.056770,8920.424750,7505.335808,-3761.128039,-941.857808,5113.833262,5360.328300,8796.059644,8593.776356,13078.229198,12590.715300,3051.035470,10676.087222,0.006000,-0.012000,1.012000,192.000000,0.000000,0.000000,0.000000,0.000000,0.000000,0.000000,0.000000,0.000000,0.000000,1772529561.621481,0.000000
118.000000,6393.560039,7502.474785,7587.813745,-18532.390122,8923.911622,7505.715788,-3759.071679,-933.878235,5105.384303,5378.232047,8788.348292,8605.376912,13108.627571,12585.753213,3011.495234,10643.654840,0.006000,-0.012000,1.012000,192.000000,0.000000,0.000000,0.000000,0.000000,0.000000,0.000000,0.000000,0.000000,0.000000,1772529561.621493,0.000000
120.000000,6401.003170,7504.553497,7593.200516,-18542.403703,8942.418866,7507.503928,-3760.256321,-931.620709,5121.321097,5383.462356,8804.821528,8611.143662,13097.384643,12580.277035,3042.675917,10674.544951,0.006000,-0.012000,1.012000,192.000000,0.000000,0.000000,0.000000,0.000000,0.000000,0.000000,0.000000,0.000000,0.000000,1772529561.621504,0.000000
122.000000,6399.170327,7507.570983,7596.776795,-18528.165642,8921.430578,7494.919896,-3755.405993,-926.859787,5121.119931,5382.076547,8803.815699,8612.373008,13090.254437,12573.817381,3031.902377,10662.542064,0.006000,-0.012000,1.008000,192.000000,0.000000,24.000000,127.500000,80.000000,15.500000,64.000000,0.000000,0.000000,0.000000,1772529561.621517,0.000000
124.000000,6399.796176,7503.257096,7590.048920,-18539.743845,8928.583137,7511.683704,-3759.406955,-930.234901,5111.195756,5386.122213,8802.362836,8613.200022,13072.797724,12565.524884,3024.950984,10656.283576,0.006000,-0.012000,1.008000,192.000000,0.000000,0.000000,0.000000,0.000000,0.000000,0.000000,0.000000,0.000000,0.000000,1772529561.621529,0.000000
126.000000,6398.231554,7502.966524,7587.970208,-18533.597116,8930.795959,7499.189079,-3757.037670,-930.793694,5124.137416,5383.641170,8808.353103,8612.104787,13043.762808,12580.724070,3032.349412,10682.882152,0.006000,-0.012000,1.008000,192.000000,0.000000,0.000000,0.000000,0.000000,0.000000,0.000000,0.000000,0.000000,0.000000,1772529561.621541,0.000000
128.000000,6391.190754,7492.483555,7585.176240,-18533.865337,8877.442345,7502.832413,-3759.965749,-937.230997,5103.305591,5374.275789,8794.539725,8607.299162,13070.227274,12605.243934,3002.286315,10650.628585,0.006000,-0.012000,1.008000,192.000000,0.000000,0.000000,0.000000,0.000000,0.000000,0.000000,0.000000,0.000000,0.000000,1772529561.621552,0.000000
130.000000,6378.718481,7477.574942,7582.292865,-18539.341514,8895.390796,7494.763433,-3764.950188,-947.557503,5105.250192,5357.310815,8795.411443,8597.822022,13073.110649,12561.725087,3036.775057,10683.485649,0.006000,-0.012000,1.008000,192.000000,0.000000,0.000000,0.000000,0.000000,0.000000,0.000000,0.000000,0.000000,0.000000,1772529561.621564,0.000000
132.000000,6372.638806,7482.581733,7583.589266,-18536.324029,8900.643456,7482.537029,-3762.446792,-945.590549,5089.603971,5357.154352,8785.442565,8598.738444,13083.414803,12536.802892,3015.362086,10668.979367,0.008000,-0.012000,1.008000,192.000000,0.000000,32.000000,127.500000,80.000000,15.500000,64.000000,0.000000,0.000000,0.000000,1772529561.621575,0.000000
134.000000,6378.047929,7483.095823,7586.986731,-18548.572784,8879.476354,7487.186192,-3764.681967,-945.702308,5088.128756,5360.194190,8785.531972,8592.926990,12992.644369,12585.283826,3019.430103,10664.576073,0.008000,-0.012000,1.008000,192.000000,0.000000,0.000000,0.000000,0.000000,0.000000,0.000000,0.000000,0.000000,0.000000,1772529561.621586,0.000000
136.000000,6386.005150,7490.315436,7587.612580,-18545.175319,8911.618163,7515.841128,-3761.217446,-941.209607,5104.467881,5358.674271,8797.020769,8599.051368,13051.563567,12556.070096,3034.830455,10684.089146,0.008000,-0.012000,1.008000,192.000000,0.000000,0.000000,0.000000,0.000000,0.000000,0.000000,0.000000,0.000000,0.000000,1772529561.621617,0.000000
138.000000,6388.888525,7496.596276,7583.477507,-18546.605831,8974.471268,7520.847919,-3761.642130,-937.029831,5099.997532,5370.408937,8787.275408,8597.240877,13137.818949,12603.008759,3012.322248,10642.090218,0.008000,-0.012000,1.008000,192.000000,0.000000,0.000000,0.000000,0.000000,0.000000,0.000000,0.000000,0.000000,0.000000,1772529561.621630,0.000000
140.000000,6392.464804,7496.797442,7591.278266,-18532.233659,8917.764892,7491.813003,-3761.798592,-933.855883,5107.485367,5370.699509,8799.770033,8608.126176,13048.993116,12562.797971,3039.144342,10675.394318,0.008000,-0.012000,1.008000,192.000000,0.000000,0.000000,0.000000,0.000000,0.000000,0.000000,0.000000,0.000000,0.000000,1772529561.621641,0.000000
142.000000,6389.067339,7497.110366,7593.647551,-18525.706950,8909.003008,7490.963637,-3758.646996,-932.358316,5115.308477,5370.632454,8797.892487,8611.814214,13103.151393,12570.866951,3035.053973,10663.793762,0.005000,-0.012000,1.009000,192.000000,0.000000,8.000000,127.500000,80.000000,15.500000,72.000000,0.000000,0.000000,0.000000,1772529561.621653,0.000000
144.000000,6395.437586,7502.094805,7588.283132,-18538.827424,8902.521003,7513.024809,-3762.402089,-933.118276,5100.779843,5378.410861,8797.132527,8607.857955,13016.627791,12590.447079,3028.951946,10663.860817,0.005000,-0.012000,1.009000,192.000000,0.000000,0.000000,0.000000,0.000000,0.000000,0.000000,0.000000,0.000000,0.000000,1772529561.621664,0.000000
146.000000,6395.281124,7499.993742,7589.735995,-18531.697217,8905.225564,7509.381474,-3756.858856,-929.139665,5116.560175,5380.131946,8807.995475,8614.585831,13131.761626,12569.503494,3038.116162,10683.440946,0.005000,-0.012000,1.009000,192.000000,0.000000,0.000000,0.000000,0.000000,0.000000,0.000000,0.000000,0.000000,0.000000,1772529561.621675,0.000000
148.000000,6391.347217,7493.176459,7590.406548,-18531.741921,8899.369407,7488.750814,-3757.194132,-929.631404,5097.516489,5365.603312,8795.813775,8609.199060,13043.293422,12550.660974,3007.740141,10648.214596,0.005000,-0.012000,1.009000,192.000000,0.000000,0.000000,0.000000,0.000000,0.000000,0.000000,0.000000,0.000000,0.000000,1772529561.621687,0.000000
150.000000,6397.292781,7498.004436,7590.451251,-18535.497014,8885.712491,7487.297951,-3759.809287,-930.704287,5118.169501,5372.778222,8811.527051,8613.736464,13044.902747,12584.233294,3024.950984,10684.133850,0.005000,-0.012000,1.009000,192.000000,0.000000,0.000000,0.000000,0.000000,0.000000,0.000000,0.000000,0.000000,0.000000,1772529561.621698,0.000000
152.000000,6388.240324,7493.712901,7586.651455,-18533.775930,8901.537526,7467.717823,-3758.848162,-933.364145,5105.607820,5360.529466,8799.524164,8608.863784,13084.979425,12562.529750,3014.065685,10663.614948,0.005500,-0.009000,1.008500,192.000000,0.000000,24.000000,127.500000,104.000000,15.500000,64.000000,0.000000,0.000000,0.000000,1772529561.621710,0.000000
154.000000,6387.279199,7486.627398,7573.061594,-18545.801168,8957.886274,7503.033579,-3764.681967,-940.650814,5094.186079,5360.015376,8793.846821,8603.789938,13112.449719,12586.110841,3008.231879,10662.206788,0.005500,-0.009000,1.008500,192.000000,0.000000,0.000000,0.000000,0.000000,0.000000,0.000000,0.000000,0.000000,0.000000,1772529561.621724,0.000000
156.000000,6383.278237,7482.961712,7585.153888,-18549.220985,8900.464642,7506.967486,-3763.787897,-942.975395,5109.318210,5356.193227,8800.664103,8598.961961,13019.913497,12554.550177,3019.944193,10680.401108,0.005500,-0.009000,1.008500,192.000000,0.000000,0.000000,0.000000,0.000000,0.000000,0.000000,0.000000,0.000000,0.000000,1772529561.621735,0.000000
158.000000,6378.941998,7480.860648,7583.879838,-18539.699142,8868.635758,7470.020052,-3764.883133,-944.987052,5087.704073,5346.984309,8783.989702,8591.183554,13047.160273,12545.922404,3016.837301,10655.523617,0.005500,-0.009000,1.008500,192.000000,0.000000,0.000000,0.000000,0.000000,0.000000,0.000000,0.000000,0.000000,0.000000,1772529561.621746,0.000000
160.000000,6391.324865,7491.187154,7586.249123,-18544.951802,8873.106107,7485.196887,-3765.844258,-940.248482,5094.029617,5361.200018,8795.657312,8599.543107,13030.195299,12583.406279,3038.093810,10683.508001,0.005500,-0.009000,1.008500,192.000000,0.000000,0.000000,0.000000,0.000000,0.000000,0.000000,0.000000,0.000000,0.000000,1772529561.621758,0.000000
162.000000,6399.930286,7500.150204,7592.015873,-18538.693313,8914.076854,7503.860593,-3759.585769,-932.067744,5111.396922,5362.384661,8799.904144,8604.192269,13067.410954,12580.902884,3025.398019,10662.296195,0.004750,-0.009500,1.006250,192.000000,0.000000,16.000000,127.500000,88.000000,15.500000,48.000000,0.000000,0.000000,0.000000,1772529561.621769,0.000000
164.000000,6400.533783,7501.312494,7585.332702,-18537.709837,8956.388707,7506.453396,-3761.798592,-932.201854,5118.661239,5375.236914,8801.602876,8611.054255,13117.031827,12571.805724,3026.962641,10656.596500,0.004750,-0.009500,1.006250,192.000000,0.000000,0.000000,0.000000,0.000000,0.000000,0.000000,0.000000,0.000000,0.000000,1772529561.621781,0.000000
166.000000,6400.422025,7505.514622,7593.133461,-18535.698180,8929.432503,7518.478634,-3757.752926,-927.999726,5117.275431,5378.008530,8806.363798,8614.943458,13124.631420,12602.852297,3044.754630,10680.825791,0.004750,-0.009500,1.006250,192.000000,0.000000,0.000000,0.000000,0.000000,0.000000,0.000000,0.000000,0.000000,0.000000,1772529561.621792,0.000000
168.000000,6396.577525,7500.507832,7592.038225,-18528.433863,8904.331494,7514.634134,-3758.021147,-928.178540,5112.000419,5379.729614,8800.082958,8614.854051,13067.679175,12574.465582,3017.217281,10643.945413,0.004750,-0.009500,1.006250,192.000000,0.000000,0.000000,0.000000,0.000000,0.000000,0.000000,0.000000,0.000000,0.000000,1772529561.621804,0.000000
170.000000,6395.281124,7499.792576,7585.109184,-18532.144252,8901.805747,7506.788672,-3760.613949,-929.854921,5118.527129,5376.846239,8806.989647,8616.664543,13036.386733,12563.602634,3037.780885,10681.518696,0.004750,-0.009500,1.006250,192.000000,0.000000,0.000000,0.000000,0.000000,0.000000,0.000000,0.000000,0.000000,0.000000,1772529561.621816,0.000000
172.000000,6394.096481,7503.257096,7583.075176,-18523.695293,8942.083590,7498.607933,-3756.881208,-926.435104,5113.229765,5378.723786,8799.591219,8619.793787,13064.907559,12604.260457,3014.624478,10659.211655,0.003375,-0.006750,1.005125,192.000000,0.000000,8.000000,127.500000,112.000000,15.500000,48.000000,0.000000,0.000000,0.000000,1772529561.621828,0.000000
174.000000,6393.492984,7498.339712,7583.633969,-18533.753578,8925.498596,7500.038445,-3761.463316,-931.352488,5113.654448,5372.957036,8793.355083,8613.110615,13079.927931,12593.129288,3008.701266,10664.106687,0.003375,-0.006750,1.005125,192.000000,0.000000,0.000000,0.000000,0.000000,0.000000,0.000000,0.000000,0.000000,0.000000,1772529561.621840,0.000000
176.000000,6384.865211,7501.334846,7586.986731,-18529.953781,8883.678482,7504.218221,-3759.742231,-932.268909,5111.508681,5379.573152,8800.708807,8617.648020,13051.295346,12574.644396,3034.361069,10681.697509,0.003375,-0.006750,1.005125,192.000000,0.000000,0.000000,0.000000,0.000000,0.000000,0.000000,0.000000,0.000000,0.000000,1772529561.621852,0.000000
178.000000,6378.293798,7487.566172,7581.354091,-18543.320125,8898.832965,7488.460241,-3763.609083,-939.913206,5092.666160,5368.665501,8782.872115,8603.097034,13078.720937,12593.017530,3012.143435,10656.842370,0.003375,-0.006750,1.005125,192.000000,0.000000,0.000000,0.000000,0.000000,0.000000,0.000000,0.000000,0.000000,0.000000,1772529561.621864,0.000000
180.000000,6378.427908,7480.659483,7574.380347,-18547.857529,8920.961192,7504.374683,-3766.715976,-943.377726,5098.701131,5355.410916,8788.035367,8595.899772,13132.096902,12565.279015,3036.193912,10688.112460,0.003375,-0.006750,1.005125,192.000000,0.000000,0.000000,0.000000,0.000000,0.000000,0.000000,0.000000,0.000000,0.000000,1772529561.621876,0.000000
182.000000,6385.155783,7492.528259,7581.756423,-18528.635028,8924.649230,7496.819794,-3760.926874,-935.688726,5098.745835,5356.215579,8785.420213,8602.225316,13053.888149,12569.950529,3014.915051,10674.790820,0.004687,-0.008375,1.004563,192.000000,0.000000,24.000000,127.500000,88.000000,15.500000,48.000000,0.000000,0.000000,0.000000,1772529561.621887,0.000000
184.000000,6390.810775,7489.510773,7590.875934,-18542.783683,8870.468601,7482.827602,-3763.162048,-935.845189,5110.033466,5363.234027,8793.802118,8603.029979,13070.495495,12585.999082,3027.633193,10662.854989,0.004687,-0.008375,1.004563,192.000000,0.000000,0.000000,0.000000,0.000000,0.000000,0.000000,0.000000,0.000000,0.000000,1772529561.621898,0.000000
186.000000,6399.460900,7504.039407,7593.491089,-18530.445520,8919.485977,7501.558364,-3758.378775,-927.105657,5122.975126,5363.993986,8806.140281,8605.712188,13032.653991,12585.552047,3045.961624,10685.139678,0.004687,-0.008375,1.004563,192.000000,0.000000,0.000000,0.000000,0.000000,0.000000,0.000000,0.000000,0.000000,0.000000,1772529561.621912,0.000000
188.000000,6397.426891,7501.044274,7592.261743,-18529.394988,8905.337322,7510.119082,-3757.685871,-925.921014,5107.798291,5372.957036,8797.490155,8611.590697,13060.839541,12576.119611,3018.267813,10654.651899,0.004687,-0.008375,1.004563,192.000000,0.000000,0.000000,0.000000,0.000000,0.000000,0.000000,0.000000,0.000000,0.000000,1772529561.621923,0.000000
190.000000,6404.490042,7506.229878,7591.077100,-18536.413436,8913.607468,7522.278431,-3758.535237,-924.669316,5118.504777,5379.707262,8808.509565,8614.876403,13107.644094,12609.043730,3044.352298,10680.468164,0.004687,-0.008375,1.004563,192.000000,0.000000,0.000000,0.000000,0.000000,0.000000,0.000000,0.000000,0.000000,0.000000,1772529561.621935,0.000000
192.000000,6394.342350,7498.607933,7588.730167,-18534.602944,8915.261497,7513.717713,-3758.356423,-929.899625,5120.784655,5378.343806,8803.592182,8611.993028,13119.714036,12596.862030,3029.086057,10661.200960,0.006344,-0.006188,1.007281,192.000000,0.000000,32.000000,127.500000,112.000000,15.500000,72.000000,0.000000,0.000000,0.000000,1772529561.621946,0.000000
194.000000,6392.844783,7492.595314,7588.618408,-18535.474662,8896.798956,7500.239611,-3760.792763,-932.514779,5108.871175,5371.124193,8794.696187,8606.226278,13053.709335,12588.703643,3025.353316,10661.960919,0.006344,-0.006188,1.007281,192.000000,0.000000,0.000000,0.000000,0.000000,0.000000,0.000000,0.000000,0.000000,0.000000,1772529562.101095,0.000000
196.000000,6399.080920,7500.664294,7595.279228,-18532.099549,8902.923334,7502.474785,-3756.903560,-929.832569,5136.922614,5370.766565,8807.459033,8610.070778,13081.693719,12565.189608,3045.715755,10685.318492,0.006344,-0.006188,1.007281,192.000000,0.000000,0.000000,0.000000,0.000000,0.000000,0.000000,0.000000,0.000000,0.000000,1772529562.101165,0.000000
198.000000,6384.038196,7491.589486,7586.785565,-18534.781758,8924.246898,7491.164802,-3760.569246,-936.113410,5106.367780,5369.246646,8790.806984,8609.668447,13068.617948,12571.693965,3014.982106,10650.717992,0.006344,-0.006188,1.007281,192.000000,0.000000,0.000000,0.000000,0.000000,0.000000,0.000000,0.000000,0.000000,0.000000,1772529562.101211,0.000000
200.000000,6386.116908,7488.437890,7581.912885,-18544.191843,8945.346945,7505.179346,-3765.173705,-940.047317,5114.257945,5365.223332,8797.646618,8605.332208,13102.838469,12588.837753,3035.433952,10680.043480,0.006344,-0.006188,1.007281,192.000000,0.000000,0.000000,0.000000,0.000000,0.000000,0.000000,0.000000,0.000000,0.000000,1772529562.101252,0.000000
202.000000,6385.424004,7494.629323,7585.645626,-18539.408569,8925.744465,7501.513660,-3762.335034,-939.667337,5114.861442,5364.396318,8789.220010,8603.678179,13129.101769,12578.243027,3024.503949,10670.365175,0.006172,-0.006094,1.011641,192.000000,0.000000,24.000000,127.500000,104.000000,15.500000,96.000000,0.000000,0.000000,0.000000,1772529562.101298,0.000000
204.000000,6390.386092,7492.416500,7590.160679,-18542.224889,8894.139098,7497.579753,-3763.385566,-936.627500,5112.581564,5364.038690,8790.538763,8599.319589,13055.542178,12622.119501,3028.974298,10669.761678,0.006172,-0.006094,1.011641,192.000000,0.000000,0.000000,0.000000,0.000000,0.000000,0.000000,0.000000,0.000000,0.000000,1772529562.101344,0.000000
206.000000,6390.833126,7495.612800,7589.557182,-18536.011104,8923.285773,7503.838242,-3761.172743,-935.532264,5121.052876,5367.078527,8799.412405,8607.835604,13068.595596,12566.910692,3045.603996,10689.073585,0.006172,-0.006094,1.011641,192.000000,0.000000,0.000000,0.000000,0.000000,0.000000,0.000000,0.000000,0.000000,0.000000,1772529562.101368,0.000000
208.000000,6394.476461,7501.334846,7589.534830,-18534.669999,8924.224546,7505.581678,-3760.613949,-932.425372,5117.454245,5367.056175,8792.997455,8608.752025,13075.882265,12565.189608,3020.815911,10654.651899,0.006172,-0.006094,1.011641,192.000000,0.000000,0.000000,0.000000,0.000000,0.000000,0.000000,0.000000,0.000000,0.000000,1772529562.101380,0.000000
210.000000,6401.517260,7503.324151,7592.976998,-18540.481453,8913.182785,7507.325114,-3761.396260,-930.637232,5124.182120,5376.041576,8803.346312,8613.289429,13104.961885,12604.148698,3050.901359,10685.854934,0.006172,-0.006094,1.011641,192.000000,0.000000,0.000000,0.000000,0.000000,0.000000,0.000000,0.000000,0.000000,0.000000,1772529562.101393,0.000000
212.000000,6407.485176,7517.539861,7596.307408,-18525.326970,8934.215776,7505.358160,-3755.696566,-920.310726,5134.553329,5381.763623,8805.089749,8621.313706,13123.469129,12602.248800,3034.718696,10663.324376,0.006172,-0.006094,1.011641,192.000000,0.000000,0.000000,0.000000,0.000000,0.000000,0.000000,0.000000,0.000000,0.000000,1772529562.101405,0.000000
214.000000,6395.951676,7505.425215,7590.026568,-18534.133558,8925.118616,7516.601088,-3761.329205,-926.725677,5117.521300,5383.127079,8803.905106,8622.677162,13087.952207,12572.722146,3036.037449,10651.947338,0.008000,-0.004000,1.018000,192.000000,0.000000,32.000000,127.500000,112.000000,15.500000,104.000000,0.000000,0.000000,0.000000,1772529562.101417,0.000000
216.000000,6397.449243,7507.570983,7595.212173,-18532.479528,8912.758102,7507.727445,-3759.183438,-926.949194,5121.410504,5375.259265,8806.676722,8616.172804,13116.070702,12610.630704,3051.706022,10684.469126,0.008000,-0.004000,1.018000,192.000000,0.000000,0.000000,0.000000,0.000000,0.000000,0.000000,0.000000,0.000000,0.000000,1772529562.101429,0.000000
218.000000,6401.360798,7513.583602,7587.590228,-18531.607810,8972.951349,7523.440721,-3759.764583,-924.266985,5116.604878,5380.780146,8800.038254,8615.882232,13063.924082,12612.530603,3017.485501,10656.060059,0.008000,-0.004000,1.018000,192.000000,0.000000,0.000000,0.000000,0.000000,0.000000,0.000000,0.000000,0.000000,0.000000,1772529562.101450,0.000000
220.000000,6404.959429,7513.650657,7592.328798,-18532.434825,8919.240107,7518.545689,-3761.999758,-927.284470,5124.606803,5383.037672,8808.286048,8619.659677,13123.871460,12577.304253,3038.473790,10684.692643,0.008000,-0.004000,1.018000,192.000000,0.000000,0.000000,0.000000,0.000000,0.000000,0.000000,0.000000,0.000000,0.000000,1772529562.101462,0.000000
222.000000,6399.058568,7509.582640,7593.446385,-18520.051959,8923.375180,7506.006361,-3759.474010,-929.452590,5130.798236,5386.569248,8806.788481,8624.621764,13093.428384,12580.724070,3020.413580,10670.543989,0.008000,-0.004000,1.018000,192.000000,0.000000,0.000000,0.000000,0.000000,0.000000,0.000000,0.000000,0.000000,0.000000,1772529562.101474,0.000000
224.000000,6397.225725,7504.061759,7593.513440,-18532.010142,8913.585116,7495.612800,-3764.883133,-935.420505,5128.943041,5376.063928,8799.747682,8615.345790,13069.556721,12589.329492,3032.327060,10676.601312,0.006000,-0.002000,1.012000,192.000000,0.000000,24.000000,127.500000,120.000000,15.500000,80.000000,0.000000,0.000000,0.000000,1772529562.101487,0.000000
226.000000,6383.077071,7497.199773,7590.384196,-18538.715665,8935.445122,7495.143413,-3764.190228,-940.695517,5128.048972,5376.130983,8804.285086,8614.675237,13068.752059,12608.753158,3048.576778,10689.252399,0.006000,-0.002000,1.012000,192.000000,0.000000,0.000000,0.000000,0.000000,0.000000,0.000000,0.000000,0.000000,0.000000,1772529562.101499,0.000000
228.000000,6391.056644,7502.474785,7587.187897,-18537.419264,8951.896006,7505.984009,-3764.950188,-940.963738,5111.307515,5363.658710,8786.448394,8602.337075,13105.610085,12594.515096,3027.990821,10661.066849,0.006000,-0.002000,1.012000,192.000000,0.000000,0.000000,0.000000,0.000000,0.000000,0.000000,0.000000,0.000000,0.000000,1772529562.101512,0.000000
230.000000,6384.440527,7498.406768,7588.797222,-18537.240450,8918.390741,7500.843108,-3765.732499,-939.466171,5124.070361,5374.298140,8798.786557,8613.468243,13111.578001,12562.149771,3040.060763,10675.729594,0.006000,-0.002000,1.012000,192.000000,0.000000,0.000000,0.000000,0.000000,0.000000,0.000000,0.000000,0.000000,0.000000,1772529562.101524,0.000000
232.000000,6392.844783,7511.326076,7590.272437,-18530.534927,8985.043643,7524.021867,-3760.904522,-930.637232,5114.190890,5376.533315,8793.757414,8616.061046,13103.218449,12604.953361,3028.884891,10663.123210,0.006000,-0.002000,1.012000,192.000000,0.000000,0.000000,0.000000,0.000000,0.000000,0.000000,0.000000,0.000000,0.000000,1772529562.101536,0.000000
234.000000,6389.581429,7503.033579,7590.048920,-18541.509633,8921.162357,7514.209451,-3764.458449,-934.817008,5119.331791,5376.645073,8793.936228,8615.837528,13176.845095,12617.224469,3030.985955,10661.133905,0.004000,-0.008000,1.008000,192.000000,0.000000,16.000000,127.500000,96.000000,15.500000,64.000000,0.000000,0.000000,0.000000,1772529562.101549,0.000000
236.000000,6382.406519,7501.021922,7594.116937,-18539.542680,8941.368334,7511.817814,-3762.849124,-934.995822,5130.619422,5375.303969,8805.760301,8616.083397,13064.035841,12591.497611,3043.368822,10675.349614,0.004000,-0.008000,1.008000,192.000000,0.000000,0.000000,0.000000,0.000000,0.000000,0.000000,0.000000,0.000000,0.000000,1772529562.101561,0.000000
238.000000,6376.103327,7494.897544,7592.775833,-18529.573802,8901.559878,7498.317361,-3765.129002,-939.332061,5098.835242,5367.860838,8784.794365,8610.406054,13086.298178,12576.611349,3038.004403,10656.752963,0.004000,-0.008000,1.008000,192.000000,0.000000,0.000000,0.000000,0.000000,0.000000,0.000000,0.000000,0.000000,0.000000,1772529562.101573,0.000000
240.000000,6382.361815,7500.597239,7586.830269,-18529.059712,8971.386727,7525.944117,-3764.547856,-934.079401,5113.743855,5384.334074,8798.272466,8617.670371,13081.291387,12592.414033,3048.599130,10685.273789,0.004000,-0.008000,1.008000,192.000000,0.000000,0.000000,0.000000,0.000000,0.000000,0.000000,0.000000,0.000000,0.000000,1772529562.101586,0.000000
242.000000,6373.175248,7499.032616,7589.266609,-18523.181203,8941.077762,7518.098655,-3760.613949,-933.878235,5100.735140,5379.237876,8788.795327,8624.018267,13087.460469,12588.256608,3014.535071,10671.639224,0.004000,-0.008000,1.008000,192.000000,0.000000,0.000000,0.000000,0.000000,0.000000,0.000000,0.000000,0.000000,0.000000,1772529562.101598,0.000000
244.000000,6370.157763,7491.142451,7586.807917,-18540.861433,8886.293636,7515.952887,-3764.458449,-938.281529,5102.053893,5373.314664,8789.577638,8617.983296,13095.127117,12601.175916,3029.197816,10658.764620,0.006000,-0.004000,1.010000,192.000000,0.000000,24.000000,127.500000,112.000000,15.500000,72.000000,0.000000,0.000000,0.000000,1772529562.101611,0.000000
246.000000,6360.032423,7484.951017,7580.437670,-18533.731226,8948.163265,7516.511681,-3763.787897,-939.734392,5102.769149,5363.457544,8791.298722,8613.401188,13123.849109,12603.746367,3037.356202,10680.512867,0.006000,-0.004000,1.010000,192.000000,0.000000,0.000000,0.000000,0.000000,0.000000,0.000000,0.000000,0.000000,0.000000,1772529562.101623,0.000000
248.000000,6354.958577,7477.373776,7576.861391,-18534.625296,8890.585171,7506.922782,-3768.146487,-948.071593,5084.060739,5359.456582,8774.780783,8608.349694,13101.452661,12603.187573,3005.147339,10648.013431,0.006000,-0.004000,1.010000,192.000000,0.000000,0.000000,0.000000,0.000000,0.000000,0.000000,0.000000,0.000000,0.000000,1772529562.101635,0.000000
250.000000,6345.950824,7466.644939,7575.542638,-18541.755502,8889.355825,7500.396073,-3772.326263,-956.118221,5080.216239,5355.746192,8775.943074,8601.733577,13083.995948,12580.254684,3041.245406,10686.547838,0.006000,-0.004000,1.010000,192.000000,0.000000,0.000000,0.000000,0.000000,0.000000,0.000000,0.000000,0.000000,0.000000,1772529562.101649,0.000000
252.000000,6348.454219,7472.612855,7578.426013,-18530.870203,8934.104018,7487.677930,-3769.398185,-952.944273,5079.255114,5355.746192,8771.025690,8602.225316,13072.194227,12584.657977,3033.176426,10683.597408,0.006000,-0.004000,1.010000,192.000000,0.000000,0.000000,0.000000,0.000000,0.000000,0.000000,0.000000,0.000000,0.000000,1772529562.101661,0.000000
254.000000,6349.661213,7469.081279,7576.704928,-18544.303601,8937.926166,7496.305704,-3771.208676,-952.497238,5077.109346,5356.662614,8771.003338,8600.839508,13040.253584,12586.490820,3020.905318,10670.119306,0.002000,-0.006000,1.004000,192.000000,0.000000,8.000000,127.500000,104.000000,15.500000,48.000000,0.000000,0.000000,0.000000,1772529562.101672,0.000000
0.000000,6357.841952,7480.503020,7585.600923,-18538.603906,8910.522927,7524.535957,-3766.470106,-945.098811,5087.704073,5366.251512,8781.732176,8605.980409,13080.263207,12602.561724,3048.330909,10681.764565,0.002000,-0.006000,1.004000,192.000000,0.000000,0.000000,0.000000,0.000000,0.000000,0.000000,0.000000,0.000000,0.000000,1772529562.101684,0.000000
2.000000,6358.490152,7480.704186,7587.143193,-18529.462043,8919.128349,7497.691512,-3764.637263,-943.020099,5086.765300,5366.922065,8776.948902,8607.477976,13118.484690,12589.016567,3025.465074,10643.856006,0.002000,-0.006000,1.004000,192.000000,0.000000,0.000000,0.000000,0.000000,0.000000,0.000000,0.000000,0.000000,0.000000,1772529562.101696,0.000000
4.000000,6355.673832,7482.291160,7581.197629,-18535.049979,8933.098189,7516.936364,-3768.548819,-944.629424,5092.420291,5369.939550,8781.396899,8610.696627,13117.858841,12602.338207,3048.599130,10677.249512,0.002000,-0.006000,1.004000,192.000000,0.000000,0.000000,0.000000,0.000000,0.000000,0.000000,0.000000,0.000000,0.000000,1772529562.101708,0.000000
6.000000,6355.517370,7485.107480,7590.674769,-18532.323066,8949.794942,7531.107370,-3765.017243,-940.069668,5084.530125,5381.160126,8779.295835,8615.368142,13092.355501,12614.162280,3037.222092,10662.273844,0.002000,-0.006000,1.004000,192.000000,0.000000,0.000000,0.000000,0.000000,0.000000,0.000000,0.000000,0.000000,0.000000,1772529562.101721,0.000000
8.000000,6354.980928,7475.205657,7584.863315,-18539.945011,8974.694785,7531.867329,-3769.219371,-944.428258,5089.402805,5367.212637,8781.083975,8608.394397,13075.479934,12605.646265,3024.280432,10668.711146,0.004000,-0.006000,1.008000,192.000000,0.000000,16.000000,127.500000,104.000000,15.500000,64.000000,0.000000,0.000000,0.000000,1772529562.101734,0.000000
10.000000,6346.531969,7474.535105,7587.746690,-18538.000409,8933.724038,7534.817759,-3766.738327,-944.696479,5092.822622,5364.373966,8787.990664,8607.522679,13060.727782,12629.137949,3051.929540,10689.475917,0.004000,-0.006000,1.008000,192.000000,0.000000,0.000000,0.000000,0.000000,0.000000,0.000000,0.000000,0.000000,0.000000,1772529562.101746,0.000000
12.000000,6348.364812,7477.843163,7583.924542,-18528.344456,8912.869860,7505.469919,-3764.547856,-942.863636,5071.275541,5367.860838,8770.869228,8605.823947,13104.201925,12605.534507,3021.285298,10664.956053,0.004000,-0.006000,1.008000,192.000000,0.000000,0.000000,0.000000,0.000000,0.000000,0.000000,0.000000,0.000000,0.000000,1772529562.101758,0.000000
14.000000,6349.348289,7474.579808,7586.427937,-18538.916831,8905.560840,7511.571945,-3766.872438,-944.137686,5088.329922,5368.263169,8781.039271,8611.076607,13096.110594,12586.513172,3045.805162,10681.026957,0.004000,-0.006000,1.008000,192.000000,0.000000,0.000000,0.000000,0.000000,0.000000,0.000000,0.000000,0.000000,0.000000,1772529562.101770,0.000000
16.000000,6346.353155,7478.021977,7577.956626,-18528.769139,8971.386727,7510.923745,-3766.134830,-944.405907,5079.322169,5367.570265,8773.238513,8610.182537,13091.908466,12584.859143,3017.753722,10674.097916,0.004000,-0.006000,1.008000,192.000000,0.000000,0.000000,0.000000,0.000000,0.000000,0.000000,0.000000,0.000000,0.000000,1772529562.101782,0.000000
18.000000,6341.569882,7461.057003,7586.182068,-18544.035380,8894.429671,7497.244477,-3771.968636,-954.732413,5074.471840,5351.454657,8767.628225,8597.844374,13079.816172,12598.426652,3029.331926,10671.147486,0.004000,-0.006000,1.008000,192.000000,0.000000,0.000000,127.500000,72.000000,15.500000,80.000000,0.000000,0.000000,0.000000,1772529562.101793,0.000000
20.000000,6340.698164,7467.002567,7583.790431,-18540.235584,8921.072950,7504.642904,-3770.381662,-952.988977,5081.222067,5357.936663,8776.591274,8600.504232,13079.749117,12595.587980,3051.907188,10696.717882,0.004000,-0.006000,1.008000,192.000000,0.000000,0.000000,0.000000,0.000000,0.000000,0.000000,0.000000,0.000000,0.000000,1772529562.101805,0.000000
22.000000,6345.012050,7466.555532,7584.595094,-18541.196709,8941.971832,7514.678838,-3770.202848,-952.497238,5068.146297,5357.377870,8764.051946,8593.843412,13097.809326,12579.360614,3033.757571,10665.112515,0.004000,-0.006000,1.008000,192.000000,0.000000,0.000000,0.000000,0.000000,0.000000,0.000000,0.000000,0.000000,0.000000,1772529562.101817,0.000000
24.000000,6351.851684,7469.885942,7583.812783,-18547.254032,8975.611207,7518.590393,-3771.476897,-950.038546,5086.519430,5357.757849,8782.246266,8604.035807,13045.841521,12602.874649,3041.670089,10679.641149,0.004000,-0.006000,1.008000,192.000000,0.000000,0.000000,0.000000,0.000000,0.000000,0.000000,0.000000,0.000000,0.000000,1772529562.101829,0.000000
26.000000,6357.461972,7482.157049,7594.429862,-18536.435787,8903.035093,7526.569966,-3765.911313,-942.818933,5093.113195,5365.066870,8782.000396,8604.169918,13124.206737,12592.726957,3042.944138,10659.703393,0.004000,-0.006000,1.008000,192.000000,0.000000,0.000000,0.000000,0.000000,0.000000,0.000000,0.000000,0.000000,0.000000,1772529562.101842,0.000000
28.000000,6363.385184,7486.359177,7587.679635,-18535.809938,8927.309087,7514.030637,-3767.431231,-939.399116,5093.604933,5370.252475,8786.850725,8609.690798,13086.544047,12610.317780,3038.317327,10656.238873,-0.002000,-0.013000,1.009000,192.000000,127.500000,96.000000,127.500000,48.000000,15.500000,72.000000,0.000000,0.000000,0.000000,1772529562.101854,0.000000
30.000000,6363.809867,7494.495212,7588.260780,-18526.131633,8930.639497,7517.338695,-3764.592560,-937.499218,5102.299762,5389.385568,8796.529030,8623.325363,13089.606236,12593.732785,3044.240540,10675.774297,-0.002000,-0.013000,1.009000,192.000000,0.000000,0.000000,0.000000,0.000000,0.000000,0.000000,0.000000,0.000000,0.000000,1772529562.101866,0.000000
32.000000,6366.179152,7487.767337,7589.110147,-18531.674866,8914.099206,7521.183195,-3763.765545,-935.554616,5087.033521,5380.020187,8782.067452,8613.982333,13117.009475,12614.430501,3028.057877,10655.545968,-0.002000,-0.013000,1.009000,192.000000,0.000000,0.000000,0.000000,0.000000,0.000000,0.000000,0.000000,0.000000,0.000000,1772529562.101879,0.000000
34.000000,6369.643673,7489.019035,7576.190838,-18539.274459,9002.992094,7533.901338,-3766.335996,-935.062878,5099.952829,5369.604274,8794.807946,8614.965810,13081.604312,12611.748291,3035.098676,10685.609065,-0.002000,-0.013000,1.009000,192.000000,0.000000,0.000000,0.000000,0.000000,0.000000,0.000000,0.000000,0.000000,0.000000,1772529562.101891,0.000000
36.000000,6357.081992,7481.687663,7592.507612,-18531.339590,8874.268398,7495.098709,-3761.642130,-937.655680,5082.540820,5367.547913,8782.380376,8611.635400,13092.690777,12616.039826,3019.810083,10682.435117,-0.002000,-0.013000,1.009000,192.000000,0.000000,0.000000,0.000000,0.000000,0.000000,0.000000,0.000000,0.000000,0.000000,1772529562.101903,0.000000
38.000000,6360.546513,7478.759584,7582.270513,-18537.016933,8925.208023,7512.108387,-3766.961845,-942.394250,5093.135547,5368.576094,8783.967350,8612.238897,13089.650940,12591.251742,3028.214339,10666.185399,-0.005000,-0.014500,1.010500,192.000000,127.500000,96.000000,127.500000,64.000000,15.500000,80.000000,0.000000,0.000000,0.000000,1772529562.101915,0.000000
40.000000,6349.303585,7471.785840,7581.622312,-18536.927526,8920.648267,7507.146300,-3769.018205,-949.971491,5088.061701,5366.407975,8781.441603,8609.668447,13025.255564,12578.846524,3020.950022,10691.755794,-0.005000,-0.014500,1.010500,192.000000,0.000000,0.000000,0.000000,0.000000,0.000000,0.000000,0.000000,0.000000,0.000000,1772529562.101928,0.000000
42.000000,6347.917777,7470.221218,7585.913847,-18541.822558,8891.076909,7490.561305,-3771.454545,-952.318424,5072.482535,5349.040669,8765.616568,8594.759833,13099.351597,12579.941759,3024.481597,10655.367155,-0.005000,-0.014500,1.010500,192.000000,0.000000,0.000000,0.000000,0.000000,0.000000,0.000000,0.000000,0.000000,0.000000,1772529562.101940,0.000000
44.000000,6355.964405,7475.317416,7584.460984,-18544.549470,8916.535546,7504.039407,-3772.169801,-949.770325,5090.430986,5360.775335,8781.441603,8601.688874,13086.476992,12592.414033,3043.033545,10676.757774,-0.005000,-0.014500,1.010500,192.000000,0.000000,0.000000,0.000000,0.000000,0.000000,0.000000,0.000000,0.000000,0.000000,1772529562.101952,0.000000
46.000000,6357.506675,7483.364044,7590.630065,-18534.222965,8909.494747,7506.140471,-3768.235894,-947.378689,5097.516489,5361.736460,8778.446469,8601.778281,13085.381756,12629.897908,3035.344545,10668.845256,-0.005000,-0.014500,1.010500,192.000000,0.000000,0.000000,0.000000,0.000000,0.000000,0.000000,0.000000,0.000000,0.000000,1772529562.101964,0.000000
48.000000,6356.634957,7481.642959,7579.878876,-18539.743845,8956.925149,7521.876099,-3771.320435,-951.692575,5084.083090,5366.184457,8776.255998,8604.572249,13065.444000,12582.825134,3031.053010,10658.608157,-0.003500,-0.011250,1.010250,192.000000,127.500000,120.000000,127.500000,96.000000,15.500000,72.000000,0.000000,0.000000,0.000000,1772529562.101976,0.000000
50.000000,6361.328824,7488.996683,7586.405586,-18538.380389,8923.531642,7529.453341,-3767.431231,-951.066727,5100.489271,5373.135850,8780.949865,8607.589735,13107.532335,12638.168053,3045.648699,10689.900600,-0.003500,-0.011250,1.010250,192.000000,0.000000,0.000000,0.000000,0.000000,0.000000,0.000000,0.000000,0.000000,0.000000,1772529562.101988,0.000000
52.000000,6361.351175,7491.522430,7578.314254,-18526.668075,8979.232190,7507.012189,-3767.565342,-949.949139,5089.246343,5371.258303,8771.293911,8607.410921,13082.587788,12583.450983,3024.816874,10656.216521,-0.003500,-0.011250,1.010250,192.000000,0.000000,0.000000,0.000000,0.000000,0.000000,0.000000,0.000000,0.000000,0.000000,1772529562.102000,0.000000
54.000000,6358.579559,7486.560343,7587.478469,-18537.285154,8905.113805,7505.894602,-3768.280598,-949.099773,5091.995608,5375.683948,8783.095632,8614.429368,13099.105728,12594.895076,3035.098676,10680.065832,-0.003500,-0.011250,1.010250,192.000000,0.000000,0.000000,0.000000,0.000000,0.000000,0.000000,0.000000,0.000000,0.000000,1772529562.102013,0.000000
56.000000,6356.254978,7491.075395,7587.210248,-18534.424130,8911.864032,7498.250305,-3767.207714,-950.753802,5092.956733,5371.794745,8779.876981,8610.070778,13084.420631,12599.231315,3041.960662,10668.241759,-0.003500,-0.011250,1.010250,192.000000,0.000000,0.000000,0.000000,0.000000,0.000000,0.000000,0.000000,0.000000,0.000000,1772529562.102024,0.000000
58.000000,6358.467800,7486.985026,7577.442536,-18541.911965,8916.401436,7499.144375,-3770.761641,-954.128916,5082.987855,5366.542085,8773.551437,8603.387607,13095.752966,12607.434405,3035.165731,10660.083373,-0.003500,-0.011250,1.010250,192.000000,0.000000,0.000000,127.500000,88.000000,15.500000,64.000000,0.000000,0.000000,0.000000,1772529562.581868,0.000000
60.000000,6359.205408,7491.477727,7580.057690,-18534.021799,8916.423788,7506.453396,-3766.134830,-949.859732,5097.225916,5367.749079,8782.089803,8607.656790,13117.255344,12622.477129,3035.813932,10696.382606,-0.003500,-0.011250,1.010250,192.000000,0.000000,0.000000,0.000000,0.000000,0.000000,0.000000,0.000000,0.000000,0.000000,1772529562.581930,0.000000
62.000000,6350.912911,7485.196887,7582.896362,-18538.067465,8897.536564,7494.271695,-3766.872438,-951.670224,5074.471840,5364.172800,8772.232684,8605.980409,13064.080544,12574.554989,3011.852862,10656.127114,-0.003500,-0.011250,1.010250,192.000000,0.000000,0.000000,0.000000,0.000000,0.000000,0.000000,0.000000,0.000000,0.000000,1772529562.581976,0.000000
64.000000,6353.706879,7486.135660,7579.856524,-18542.448407,8912.221660,7491.433023,-3771.655711,-955.313558,5083.948980,5366.855009,8778.155896,8606.606258,13044.679230,12584.277998,3037.065630,10682.457469,-0.003500,-0.011250,1.010250,192.000000,0.000000,0.000000,0.000000,0.000000,0.000000,0.000000,0.000000,0.000000,0.000000,1772529562.582018,0.000000
66.000000,6339.222948,7478.446660,7582.158754,-18537.642781,8909.919430,7508.755625,-3769.912275,-956.207628,5076.863477,5365.715070,8771.092745,8605.466319,13054.670460,12605.825079,3020.368877,10668.487629,-0.003500,-0.011250,1.010250,192.000000,0.000000,0.000000,0.000000,0.000000,0.000000,0.000000,0.000000,0.000000,0.000000,1772529562.582060,0.000000
68.000000,6341.793399,7474.825677,7575.229713,-18545.421189,8912.244011,7511.795463,-3774.404976,-959.068651,5055.383450,5357.087297,8760.766239,8598.693740,13078.005681,12581.416974,3023.252252,10656.484742,0.001250,-0.009625,1.007125,192.000000,0.000000,24.000000,127.500000,96.000000,15.500000,48.000000,0.000000,0.000000,0.000000,1772529562.582104,0.000000
70.000000,6348.521274,7480.637131,7580.616484,-18543.923622,8978.829858,7506.073416,-3771.923932,-956.229980,5080.260942,5365.066870,8773.171457,8600.615990,13102.100861,12601.466489,3039.926653,10673.829695,0.001250,-0.009625,1.007125,192.000000,0.000000,0.000000,0.000000,0.000000,0.000000,0.000000,0.000000,0.000000,0.000000,1772529562.582146,0.000000
72.000000,6348.342460,7484.571038,7590.272437,-18535.340552,8891.635703,7500.999570,-3768.749984,-951.692575,5075.857648,5368.352576,8768.723460,8600.392473,13035.872643,12601.488841,3032.952909,10647.186416,0.001250,-0.009625,1.007125,192.000000,0.000000,0.000000,0.000000,0.000000,0.000000,0.000000,0.000000,0.000000,0.000000,1772529562.582158,0.000000
74.000000,6359.563036,7494.674026,7577.487240,-18537.396912,8974.672434,7521.809044,-3769.465240,-947.266930,5085.826526,5381.629513,8780.167553,8614.630534,13104.537201,12639.933841,3047.526246,10672.086259,0.001250,-0.009625,1.007125,192.000000,0.000000,0.000000,0.000000,0.000000,0.000000,0.000000,0.000000,0.000000,0.000000,1772529562.582177,0.000000
76.000000,6360.501809,7502.295971,7584.550391,-18522.443595,8901.403415,7521.205547,-3764.033766,-943.444782,5075.544724,5387.508021,8774.467859,8619.525566,13087.192248,12574.420878,3029.711906,10670.812210,0.001250,-0.009625,1.007125,192.000000,0.000000,0.000000,0.000000,0.000000,0.000000,0.000000,0.000000,0.000000,0.000000,1772529562.582189,0.000000
78.000000,6359.428925,7493.847012,7585.176240,-18526.601020,8882.873819,7512.153090,-3768.213542,-947.333985,5083.725462,5388.335036,8774.892542,8617.960944,13061.532445,12600.728881,3033.422295,10670.164009,0.003625,-0.009813,1.006563,192.000000,0.000000,24.000000,127.500000,88.000000,15.500000,56.000000,0.000000,0.000000,0.000000,1772529562.582201,0.000000
80.000000,6363.787516,7501.536012,7587.925504,-18525.259915,8921.765855,7502.452433,-3767.028900,-947.333985,5091.392111,5394.213545,8785.375510,8618.944421,13049.686021,12627.282754,3047.123915,10696.561420,0.003625,-0.009813,1.006563,192.000000,0.000000,0.000000,0.000000,0.000000,0.000000,0.000000,0.000000,0.000000,0.000000,1772529562.582214,0.000000
82.000000,6359.406574,7496.506869,7584.729205,-18534.468834,8918.211927,7518.746855,-3768.012377,-949.837381,5077.712843,5391.598391,8771.986815,8615.278735,13065.756925,12617.380931,3018.401923,10654.830713,0.003625,-0.009813,1.006563,192.000000,0.000000,0.000000,0.000000,0.000000,0.000000,0.000000,0.000000,0.000000,0.000000,1772529562.582226,0.000000
84.000000,6367.252036,7504.285276,7577.487240,-18534.804110,8964.167114,7518.568041,-3770.538124,-951.245541,5083.323131,5389.094995,8778.245303,8616.865708,13111.555649,12644.694763,3037.199740,10685.631417,0.003625,-0.009813,1.006563,192.000000,0.000000,0.000000,0.000000,0.000000,0.000000,0.000000,0.000000,0.000000,0.000000,1772529562.582238,0.000000
86.000000,6362.938149,7504.978181,7580.527077,-18527.115110,8946.777457,7509.873213,-3765.754851,-948.719793,5079.389224,5397.968638,8772.702071,8623.012438,13098.613989,12604.729844,3013.775112,10672.846219,0.003625,-0.009813,1.006563,192.000000,0.000000,0.000000,0.000000,0.000000,0.000000,0.000000,0.000000,0.000000,0.000000,1772529562.582250,0.000000
88.000000,6357.260806,7493.422329,7580.996463,-18540.280287,8906.186689,7495.255172,-3772.370967,-958.420450,5072.594294,5391.084300,8772.255036,8616.128101,13046.243852,12621.828928,3024.571004,10656.484742,0.004812,-0.007906,1.008281,192.000000,0.000000,24.000000,127.500000,104.000000,15.500000,72.000000,0.000000,0.000000,0.000000,1772529562.582262,0.000000
90.000000,6357.126696,7495.992779,7582.315216,-18538.492148,8873.687252,7501.066625,-3771.387490,-961.013253,5078.137526,5383.998797,8769.773992,8611.054255,13091.237914,12583.115707,3048.353261,10693.275713,0.004812,-0.007906,1.008281,192.000000,0.000000,0.000000,0.000000,0.000000,0.000000,0.000000,0.000000,0.000000,0.000000,1772529562.582280,0.000000
92.000000,6346.330803,7484.839259,7582.695196,-18546.538776,8899.436462,7491.500079,-3771.141621,-960.923846,5067.632206,5380.199001,8764.096649,8603.320551,13045.416837,12608.261419,3025.062743,10645.286518,0.004812,-0.007906,1.008281,192.000000,0.000000,0.000000,0.000000,0.000000,0.000000,0.000000,0.000000,0.000000,0.000000,1772529562.582292,0.000000
94.000000,6359.183056,7493.981122,7577.084908,-18554.272479,8960.255559,7506.498099,-3772.683891,-956.699366,5064.838238,5378.433213,8770.153972,8606.248630,13057.151503,12594.738614,3041.513627,10667.660614,0.004812,-0.007906,1.008281,192.000000,0.000000,0.000000,0.000000,0.000000,0.000000,0.000000,0.000000,0.000000,0.000000,1772529562.582304,0.000000
96.000000,6360.077126,7502.988875,7581.018815,-18536.391084,8917.295506,7491.231858,-3766.805383,-949.144477,5073.398956,5387.128042,8768.432888,8612.127139,13138.042466,12622.141853,3023.252252,10655.076582,0.004812,-0.007906,1.008281,192.000000,0.000000,0.000000,0.000000,0.000000,0.000000,0.000000,0.000000,0.000000,0.000000,1772529562.582316,0.000000
98.000000,6370.291873,7510.499061,7585.712681,-18534.491185,8877.755270,7492.483555,-3766.693624,-944.115334,5080.663273,5397.611010,8778.468821,8620.307877,13031.938735,12601.578248,3027.141455,10644.772428,0.004812,-0.007906,1.008281,192.000000,0.000000,0.000000,0.000000,0.000000,0.000000,0.000000,0.000000,0.000000,0.000000,1772529562.582328,0.000000
100.000000,6365.083917,7508.800329,7582.851658,-18527.763310,8914.233317,7501.491308,-3763.117345,-942.595415,5080.886791,5402.863670,8783.609722,8626.722828,13046.914404,12625.293449,3040.083115,10678.411803,0.004000,-0.008000,1.010000,192.000000,0.000000,16.000000,127.500000,96.000000,15.500000,72.000000,0.000000,0.000000,0.000000,1772529562.582340,0.000000
102.000000,6367.095574,7510.275544,7579.767117,-18524.969342,8952.074820,7517.003419,-3762.871476,-942.416601,5072.616645,5406.462301,8772.880885,8627.214566,13069.802591,12611.256553,3004.700304,10656.216521,0.004000,-0.008000,1.010000,192.000000,0.000000,0.000000,0.000000,0.000000,0.000000,0.000000,0.000000,0.000000,0.000000,1772529562.582351,0.000000
104.000000,6370.962426,7506.654561,7584.773908,-18538.849776,8927.309087,7526.167634,-3764.972540,-944.383555,5086.430023,5395.621705,8782.626245,8623.034790,13087.281655,12606.093300,3038.496141,10678.545914,0.004000,-0.008000,1.010000,192.000000,0.000000,0.000000,0.000000,0.000000,0.000000,0.000000,0.000000,0.000000,0.000000,1772529562.582362,0.000000
106.000000,6363.541646,7503.502965,7584.282170,-18543.029552,8903.683293,7500.306666,-3764.346691,-947.512799,5085.982989,5391.643094,8780.838106,8617.089226,13121.301010,12636.268155,3024.347487,10663.682003,0.004000,-0.008000,1.010000,192.000000,0.000000,0.000000,0.000000,0.000000,0.000000,0.000000,0.000000,0.000000,0.000000,1772529562.582374,0.000000
108.000000,6357.506675,7493.310570,7580.817649,-18538.648610,8889.042901,7476.882038,-3768.034729,-950.373822,5067.408689,5386.658655,8771.919760,8608.796729,13071.970710,12622.566536,3029.555443,10669.515809,0.004000,-0.008000,1.010000,192.000000,0.000000,0.000000,0.000000,0.000000,0.000000,0.000000,0.000000,0.000000,0.000000,1772529562.582386,0.000000
110.000000,6361.731155,7501.759529,7578.873048,-18533.731226,8930.036000,7493.936419,-3764.726670,-945.076459,5069.643863,5388.625609,8780.771051,8618.653848,13047.093218,12580.701718,3028.974298,10691.219353,0.008000,-0.012000,1.012000,192.000000,0.000000,32.000000,127.500000,80.000000,15.500000,80.000000,0.000000,0.000000,0.000000,1772529562.582398,0.000000
112.000000,6358.467800,7499.166727,7581.152926,-18532.635991,8891.345130,7479.117212,-3766.224237,-945.903474,5066.514619,5380.154297,8771.517428,8616.105749,13069.512018,12582.467506,3007.896603,10645.532387,0.008000,-0.012000,1.012000,192.000000,0.000000,0.000000,0.000000,0.000000,0.000000,0.000000,0.000000,0.000000,0.000000,1772529562.582410,0.000000
114.000000,6358.937187,7499.412596,7574.849734,-18538.335686,8922.816387,7500.060797,-3772.236856,-951.536113,5063.854762,5383.909390,8774.266693,8616.686894,13011.486889,12619.772568,3036.685650,10680.155239,0.008000,-0.012000,1.012000,192.000000,0.000000,0.000000,0.000000,0.000000,0.000000,0.000000,0.000000,0.000000,0.000000,1772529562.582422,0.000000
116.000000,6361.977024,7502.005399,7584.304522,-18538.581555,8910.835852,7497.289180,-3768.325301,-950.217360,5072.549590,5389.206754,8770.310434,8616.373970,13062.582977,12600.751233,3015.004458,10670.253416,0.008000,-0.012000,1.012000,192.000000,0.000000,0.000000,0.000000,0.000000,0.000000,0.000000,0.000000,0.000000,0.000000,1772529562.582434,0.000000
118.000000,6370.157763,7503.257096,7586.584400,-18548.237508,8869.820400,7488.504945,-3770.851048,-950.083250,5078.763375,5374.029919,8775.741908,8604.952229,13037.101988,12622.946515,3040.396040,10653.064925,0.008000,-0.012000,1.012000,192.000000,0.000000,0.000000,0.000000,0.000000,0.000000,0.000000,0.000000,0.000000,0.000000,1772529562.582446,0.000000
120.000000,6379.433737,7518.545689,7583.186934,-18529.842023,8901.559878,7495.277523,-3763.944359,-938.169770,5093.470823,5396.135795,8786.806022,8622.297182,13110.862745,12599.320722,3047.280377,10673.427364,0.006000,-0.014000,1.002000,192.000000,0.000000,24.000000,127.500000,72.000000,15.500000,40.000000,0.000000,0.000000,0.000000,1772529562.582458,0.000000
122.000000,6384.887562,7523.105445,7579.297731,-18534.088854,8934.841625,7502.139509,-3761.865647,-934.638194,5083.032558,5401.075530,8780.189905,8628.846243,13091.975521,12602.226448,3004.432083,10640.480893,0.006000,-0.014000,1.002000,192.000000,0.000000,0.000000,0.000000,0.000000,0.000000,0.000000,0.000000,0.000000,0.000000,1772529562.582471,0.000000
124.000000,6382.630036,7515.595259,7586.986731,-18542.001372,8877.934084,7483.922837,-3762.603255,-937.543921,5092.330884,5393.095957,8790.695225,8623.682991,13053.999907,12641.878443,3028.840188,10669.515809,0.006000,-0.014000,1.002000,192.000000,0.000000,0.000000,0.000000,0.000000,0.000000,0.000000,0.000000,0.000000,0.000000,1772529562.582483,0.000000
126.000000,6378.629074,7517.137530,7588.037263,-18527.629200,8880.258665,7483.945189,-3758.244664,-936.247520,5090.363931,5392.872440,8789.778804,8627.326325,13024.048570,12594.023358,3020.480635,10655.389506,0.006000,-0.014000,1.002000,192.000000,0.000000,0.000000,0.000000,0.000000,0.000000,0.000000,0.000000,0.000000,0.000000,1772529562.582495,0.000000
128.000000,6380.216048,7514.745893,7578.783641,-18534.267668,8912.892212,7509.761454,-3764.950188,-940.829628,5081.914971,5389.586734,8782.402728,8625.158206,13046.646183,12588.301312,3009.617687,10662.810285,0.006000,-0.014000,1.002000,192.000000,0.000000,0.000000,0.000000,0.000000,0.000000,0.000000,0.000000,0.000000,0.000000,1772529562.582507,0.000000
130.000000,6374.672815,7513.002457,7579.141269,-18532.278363,8881.644473,7499.904335,-3764.681967,-943.556540,5090.475689,5390.033768,8787.431870,8625.694648,13123.312667,12606.272114,3033.154074,10690.593504,0.010000,-0.014000,1.012000,192.000000,0.000000,40.000000,127.500000,72.000000,15.500000,80.000000,0.000000,0.000000,0.000000,1772529562.582519,0.000000
132.000000,6379.210219,7516.422274,7574.313292,-18532.859508,8891.613351,7512.980105,-3764.905484,-942.148381,5075.410613,5382.769451,8774.266693,8619.927897,13094.165992,12604.193402,3006.577850,10660.798628,0.010000,-0.014000,1.012000,192.000000,0.000000,0.000000,0.000000,0.000000,0.000000,0.000000,0.000000,0.000000,0.000000,1772529562.582531,0.000000
134.000000,6379.791365,7512.644829,7579.297731,-18544.571822,8906.521965,7499.010265,-3769.197019,-945.210570,5083.569000,5380.780146,8782.045100,8619.100883,13036.297326,12624.935821,3021.061781,10686.883114,0.010000,-0.014000,1.012000,192.000000,0.000000,0.000000,0.000000,0.000000,0.000000,0.000000,0.000000,0.000000,0.000000,1772529562.582543,0.000000
136.000000,6370.895370,7510.700227,7580.057690,-18539.341514,8907.617200,7496.059834,-3767.744156,-947.602206,5081.825564,5382.411824,8779.765222,8617.469206,13038.353686,12614.072873,3020.927670,10669.001719,0.010000,-0.014000,1.012000,192.000000,0.000000,0.000000,0.000000,0.000000,0.000000,0.000000,0.000000,0.000000,0.000000,1772529562.582555,0.000000
138.000000,6376.572713,7509.582640,7581.242333,-18550.048000,8883.097337,7498.160898,-3771.611008,-948.250407,5073.041329,5376.689777,8771.048042,8610.406054,13055.966861,12598.672521,3028.393153,10661.402126,0.010000,-0.014000,1.012000,192.000000,0.000000,0.000000,0.000000,0.000000,0.000000,0.000000,0.000000,0.000000,0.000000,1772529562.582567,0.000000
140.000000,6391.280161,7525.787655,7585.556219,-18544.035380,8929.387799,7505.514622,-3766.045423,-937.298052,5094.767224,5383.909390,8790.047024,8621.090188,13016.583087,12576.678404,3036.350374,10680.468164,0.006000,-0.018000,1.008000,192.000000,0.000000,24.000000,127.500000,56.000000,15.500000,64.000000,0.000000,0.000000,0.000000,1772529562.582578,0.000000
142.000000,6392.978894,7527.262870,7585.891495,-18541.576688,8912.691046,7491.321265,-3763.363214,-933.520607,5090.051006,5391.866611,8783.766184,8625.649944,13029.882375,12588.189553,3002.755702,10640.190320,0.006000,-0.018000,1.008000,192.000000,0.000000,0.000000,0.000000,0.000000,0.000000,0.000000,0.000000,0.000000,0.000000,1772529562.582590,0.000000
144.000000,6395.683455,7526.212338,7585.109184,-18542.023723,8878.850505,7478.804288,-3765.017243,-934.481732,5096.130681,5390.100824,8793.623304,8621.961906,13076.977501,12627.282754,3033.511702,10662.653823,0.006000,-0.018000,1.008000,192.000000,0.000000,0.000000,0.000000,0.000000,0.000000,0.000000,0.000000,0.000000,0.000000,1772529562.582601,0.000000
146.000000,6393.470632,7530.794445,7585.623275,-18526.913944,8905.762006,7484.436927,-3762.089165,-931.665412,5094.588410,5395.554649,8787.878905,8631.908432,13086.365233,12580.746422,3020.771208,10656.887073,0.006000,-0.018000,1.008000,192.000000,0.000000,0.000000,0.000000,0.000000,0.000000,0.000000,0.000000,0.000000,0.000000,1772529562.582613,0.000000
148.000000,6401.427853,7536.650602,7586.807917,-18527.875069,8904.197383,7481.151221,-3764.547856,-930.480770,5094.186079,5396.538126,8790.449356,8631.729619,13012.559773,12591.944646,3012.210490,10652.081448,0.006000,-0.018000,1.008000,192.000000,0.000000,0.000000,0.000000,0.000000,0.000000,0.000000,0.000000,0.000000,0.000000,1772529562.582625,0.000000
150.000000,6401.718426,7542.059725,7594.362807,-18532.926563,8899.749386,7482.939360,-3763.810249,-929.698459,5108.982934,5404.517699,8798.786557,8634.657697,13093.629550,12604.282809,3038.786714,10682.211600,0.002000,-0.018000,1.000000,192.000000,0.000000,8.000000,127.500000,56.000000,15.500000,32.000000,0.000000,0.000000,0.000000,1772529562.582636,0.000000
152.000000,6399.840879,7539.310460,7590.317141,-18528.702084,8915.596773,7486.426233,-3765.397223,-931.352488,5099.304628,5405.724693,8790.270542,8634.501235,13078.765640,12617.179765,3021.665278,10649.421590,0.002000,-0.018000,1.000000,192.000000,0.000000,0.000000,0.000000,0.000000,0.000000,0.000000,0.000000,0.000000,0.000000,1772529562.582649,0.000000
154.000000,6399.282086,7532.046143,7590.317141,-18538.156872,8886.114822,7497.266829,-3767.274769,-934.593491,5095.080149,5393.721806,8793.779766,8629.807368,13036.543195,12609.311951,3045.514589,10677.093050,0.002000,-0.018000,1.000000,192.000000,0.000000,0.000000,0.000000,0.000000,0.000000,0.000000,0.000000,0.000000,0.000000,1772529562.582663,0.000000
156.000000,6397.471595,7539.533977,7585.779737,-18530.624334,8889.109956,7493.578791,-3765.129002,-934.057049,5099.952829,5395.107614,8790.628170,8632.087246,13060.168989,12603.724015,3029.041353,10665.738364,0.002000,-0.018000,1.000000,192.000000,0.000000,0.000000,0.000000,0.000000,0.000000,0.000000,0.000000,0.000000,0.000000,1772529562.582675,0.000000
158.000000,6399.349141,7538.394038,7575.162658,-18539.833252,8922.883442,7495.433986,-3769.487592,-937.566273,5091.503869,5397.789824,8782.425080,8628.600374,13075.815210,12610.764815,3019.810083,10660.508056,0.002000,-0.018000,1.000000,192.000000,0.000000,0.000000,0.000000,0.000000,0.000000,0.000000,0.000000,0.000000,0.000000,1772529562.582686,0.000000
160.000000,6407.038141,7549.659318,7574.894437,-18537.888651,8939.624898,7508.129776,-3767.386528,-932.000689,5097.315323,5405.434120,8791.276370,8631.237880,13118.171766,12624.667600,3030.449513,10682.122193,0.010000,-0.012000,1.006000,192.000000,0.000000,40.000000,127.500000,80.000000,15.500000,56.000000,0.000000,0.000000,0.000000,1772529562.582698,0.000000
162.000000,6421.142092,7563.584454,7589.132498,-18525.304619,8905.113805,7490.985988,-3763.407917,-925.406924,5100.668085,5422.823778,8789.912914,8638.882177,13113.030864,12625.606373,3007.382513,10655.657727,0.010000,-0.012000,1.006000,192.000000,0.000000,0.000000,0.000000,0.000000,0.000000,0.000000,0.000000,0.000000,0.000000,1772529562.582710,0.000000
164.000000,6427.154711,7559.762306,7592.529964,-18531.607810,8927.174977,7506.565154,-3762.536199,-919.640174,5118.124797,5415.693571,8810.297705,8642.324345,12997.919380,12621.694818,3023.475769,10667.347690,0.010000,-0.012000,1.006000,192.000000,0.000000,0.000000,0.000000,0.000000,0.000000,0.000000,0.000000,0.000000,0.000000,1772529562.582722,0.000000
166.000000,6425.075999,7567.026623,7594.318103,-18530.132595,8871.586188,7494.428157,-3760.524542,-920.064857,5123.690381,5421.750894,8810.141243,8647.733468,13061.018355,12615.682198,3015.786769,10660.820980,0.010000,-0.012000,1.006000,192.000000,0.000000,0.000000,0.000000,0.000000,0.000000,0.000000,0.000000,0.000000,0.000000,1772529562.582748,0.000000
168.000000,6422.282031,7557.102449,7589.333664,-18538.268630,8888.193534,7499.725521,-3763.385566,-925.026944,5114.682628,5407.445777,8800.753510,8637.026982,13140.814083,12633.563594,3029.175464,10641.084390,0.010000,-0.012000,1.006000,192.000000,0.000000,0.000000,0.000000,0.000000,0.000000,0.000000,0.000000,0.000000,0.000000,1772529562.582760,0.000000
170.000000,6425.768903,7565.752574,7582.248161,-18534.625296,9015.665533,7521.138492,-3761.172743,-919.818988,5126.037315,5410.150338,8810.923554,8645.073610,13059.341974,12610.496594,3026.403848,10665.224274,0.010000,-0.013000,1.011000,192.000000,0.000000,40.000000,127.500000,72.000000,15.500000,96.000000,0.000000,0.000000,0.000000,1772529562.582772,0.000000
172.000000,6422.125569,7559.494085,7598.050844,-18522.845927,8854.509456,7497.177422,-3762.312682,-925.384572,5121.254041,5408.295144,8799.121833,8642.391401,13044.634526,12605.847431,3012.501062,10641.039686,0.010000,-0.013000,1.011000,192.000000,0.000000,0.000000,0.000000,0.000000,0.000000,0.000000,0.000000,0.000000,0.000000,1772529562.582784,0.000000
174.000000,6422.662011,7557.527132,7591.948818,-18525.483432,8886.606561,7487.521468,-3766.090127,-927.463284,5128.294841,5408.719827,8806.274391,8642.704325,13087.840448,12622.208908,3051.147229,10684.647940,0.010000,-0.013000,1.011000,192.000000,0.000000,0.000000,0.000000,0.000000,0.000000,0.000000,0.000000,0.000000,0.000000,1772529562.582795,0.000000
176.000000,6419.935098,7561.617501,7590.048920,-18521.616581,8919.977715,7501.915992,-3763.072641,-925.429276,5124.740913,5410.776187,8802.519298,8644.827741,13112.986161,12614.139928,3036.797409,10680.155239,0.010000,-0.013000,1.011000,192.000000,0.000000,0.000000,0.000000,0.000000,0.000000,0.000000,0.000000,0.000000,0.000000,1772529562.582807,0.000000
178.000000,6417.118778,7552.006251,7581.041167,-18539.296811,8980.774460,7512.913050,-3768.928798,-931.106619,5115.867271,5405.925859,8796.171402,8634.031848,13111.287428,12639.822082,3029.242519,10667.928835,0.010000,-0.013000,1.011000,192.000000,0.000000,0.000000,0.000000,0.000000,0.000000,0.000000,0.000000,0.000000,0.000000,1772529563.062736,0.000000
180.000000,6409.809757,7548.340565,7587.925504,-18532.948915,8901.895154,7503.346503,-3768.504115,-936.314575,5125.925556,5404.562402,8803.703940,8636.021153,13109.566344,12609.803690,3047.481543,10691.331111,0.009000,-0.012500,1.011500,192.000000,0.000000,32.000000,127.500000,80.000000,15.500000,80.000000,0.000000,0.000000,0.000000,1772529563.062800,0.000000
182.000000,6413.810720,7547.222978,7590.406548,-18542.157834,8882.650302,7511.773111,-3768.682929,-934.548787,5112.670971,5405.210603,8787.834202,8627.371028,13061.554797,12659.357507,3021.866443,10664.710184,0.009000,-0.012500,1.011500,192.000000,0.000000,0.000000,0.000000,0.000000,0.000000,0.000000,0.000000,0.000000,0.000000,1772529563.062846,0.000000
184.000000,6417.632868,7545.613652,7588.439594,-18539.028590,8898.408282,7506.676913,-3768.638226,-932.827703,5126.283184,5399.510908,8803.927458,8634.188310,13040.857082,12593.017530,3037.669127,10688.023053,0.009000,-0.012500,1.011500,192.000000,0.000000,0.000000,0.000000,0.000000,0.000000,0.000000,0.000000,0.000000,0.000000,1772529563.062889,0.000000
186.000000,6422.773769,7555.738992,7588.953684,-18526.377502,8937.479131,7496.886849,-3762.782069,-924.714020,5130.753533,5401.321399,8804.732121,8639.820950,13103.374911,12586.423765,3012.903394,10668.845256,0.009000,-0.012500,1.011500,192.000000,0.000000,0.000000,0.000000,0.000000,0.000000,0.000000,0.000000,0.000000,0.000000,1772529563.062944,0.000000
188.000000,6427.981726,7557.102449,7591.524135,-18538.782720,8919.553032,7480.503020,-3764.704319,-924.088171,5129.077152,5409.256269,8806.944943,8641.027944,13138.064818,12618.878498,3018.133702,10651.008564,0.009000,-0.012500,1.011500,192.000000,0.000000,0.000000,0.000000,0.000000,0.000000,0.000000,0.000000,0.000000,0.000000,1772529563.062991,0.000000
190.000000,6426.640621,7554.174370,7596.888554,-18531.764273,8919.083645,7488.057910,-3759.563417,-921.808293,5141.080039,5410.485615,8817.852595,8647.040563,13094.121289,12628.109768,3036.842112,10661.111553,0.009500,-0.012250,1.012750,192.000000,0.000000,40.000000,127.500000,80.000000,15.500000,88.000000,0.000000,0.000000,0.000000,1772529563.063046,0.000000
192.000000,6417.185833,7543.825512,7591.412376,-18535.876994,8930.952422,7489.019035,-3762.245627,-929.676107,5126.797274,5396.694588,8803.346312,8639.150398,13041.639393,12608.395530,3007.650734,10626.779273,0.009500,-0.012250,1.012750,192.000000,0.000000,0.000000,0.000000,0.000000,0.000000,0.000000,0.000000,0.000000,0.000000,1772529563.063058,0.000000
194.000000,6416.045894,7540.495102,7592.418205,-18542.828386,8888.327645,7486.627398,-3765.620740,-935.867540,5127.713695,5395.420539,8806.207336,8635.216491,13068.528541,12618.476167,3035.724525,10656.864721,0.009500,-0.012250,1.012750,192.000000,0.000000,0.000000,0.000000,0.000000,0.000000,0.000000,0.000000,0.000000,0.000000,1772529563.063070,0.000000
196.000000,6414.816548,7550.396925,7593.088757,-18525.885764,8905.337322,7496.864497,-3761.195095,-929.787866,5121.745780,5399.533260,8799.546516,8639.128046,13133.862690,12613.491728,3033.176426,10652.170855,0.009500,-0.012250,1.012750,192.000000,0.000000,0.000000,0.000000,0.000000,0.000000,0.000000,0.000000,0.000000,0.000000,1772529563.063082,0.000000
198.000000,6413.609554,7542.774980,7585.735033,-18533.150081,8924.895099,7518.746855,-3765.486630,-932.805351,5116.403713,5404.495347,8794.718539,8640.603261,13084.308873,12587.697814,3029.868368,10661.625643,0.009500,-0.012250,1.012750,192.000000,0.000000,0.000000,0.000000,0.000000,0.000000,0.000000,0.000000,0.000000,0.000000,1772529563.063094,0.000000
200.000000,6416.180005,7547.491198,7585.936199,-18527.517441,8920.558860,7509.739102,-3764.860781,-931.330136,5134.486274,5407.155205,8806.296743,8643.106656,13036.252622,12640.358524,3043.167656,10686.167858,0.007750,-0.011125,1.009375,192.000000,0.000000,24.000000,127.500000,88.000000,15.500000,56.000000,0.000000,0.000000,0.000000,1772529563.063106,0.000000
202.000000,6410.189737,7543.356126,7580.460022,-18528.165642,8929.946593,7502.184212,-3766.850086,-935.800485,5114.839091,5400.024998,8787.118946,8636.222319,13076.530466,12614.899887,3011.070551,10666.230102,0.007750,-0.011125,1.009375,192.000000,0.000000,0.000000,0.000000,0.000000,0.000000,0.000000,0.000000,0.000000,0.000000,1772529563.063118,0.000000
204.000000,6401.092577,7529.006306,7585.690330,-18552.193767,8934.595756,7511.840166,-3772.214505,-946.663433,5119.197681,5401.142585,8795.187926,8627.840415,13081.537256,12677.261254,3044.084077,10683.306835,0.007750,-0.011125,1.009375,192.000000,0.000000,0.000000,0.000000,0.000000,0.000000,0.000000,0.000000,0.000000,0.000000,1772529563.063129,0.000000
206.000000,6404.937077,7539.578681,7581.711719,-18534.088854,8961.708422,7522.479596,-3766.537162,-940.539055,5116.068437,5394.727635,8786.694263,8623.370066,13127.961830,12594.760966,3026.381496,10666.453620,0.007750,-0.011125,1.009375,192.000000,0.000000,0.000000,0.000000,0.000000,0.000000,0.000000,0.000000,0.000000,0.000000,1772529563.063141,0.000000
208.000000,6398.700940,7528.469864,7587.143193,-18531.227831,8905.605543,7485.442756,-3768.951150,-942.796581,5114.906146,5394.168841,8786.738966,8630.500273,13044.902747,12582.445154,3016.814949,10664.844294,0.007750,-0.011125,1.009375,192.000000,0.000000,0.000000,0.000000,0.000000,0.000000,0.000000,0.000000,0.000000,0.000000,1772529563.063152,0.000000
210.000000,6404.668856,7532.224957,7591.971170,-18531.317238,8882.851467,7483.341692,-3764.883133,-938.013308,5129.345373,5382.791803,8798.786557,8631.349639,13072.574207,12593.196344,3045.514589,10690.235876,0.008875,-0.009562,1.008687,192.000000,0.000000,40.000000,127.500000,96.000000,15.500000,64.000000,0.000000,0.000000,0.000000,1772529563.063164,0.000000
212.000000,6400.869060,7530.302707,7587.076138,-18536.346380,8893.625008,7483.095823,-3766.090127,-939.488523,5116.359009,5384.982274,8788.907086,8626.812235,13071.322509,12622.477129,3012.545766,10650.963861,0.008875,-0.009562,1.008687,192.000000,0.000000,0.000000,0.000000,0.000000,0.000000,0.000000,0.000000,0.000000,0.000000,1772529563.063175,0.000000
214.000000,6407.976914,7534.594242,7585.511516,-18543.186014,8914.434482,7495.098709,-3768.213542,-939.130895,5112.983896,5390.056120,8794.092690,8626.834586,13106.750024,12604.394568,3043.637042,10671.996852,0.008875,-0.009562,1.008687,192.000000,0.000000,0.000000,0.000000,0.000000,0.000000,0.000000,0.000000,0.000000,0.000000,1772529563.063186,0.000000
216.000000,6409.474481,7535.488312,7591.814708,-18540.749674,8937.769704,7484.325169,-3764.816077,-935.666375,5120.583489,5388.379739,8795.590257,8629.494444,13095.752966,12607.926143,3029.443685,10657.423515,0.008875,-0.009562,1.008687,192.000000,0.000000,0.000000,0.000000,0.000000,0.000000,0.000000,0.000000,0.000000,0.000000,1772529563.063198,0.000000
218.000000,6412.670781,7536.136512,7586.405586,-18546.024686,8928.583137,7503.055931,-3768.101784,-935.107581,5117.789521,5390.458452,8798.026597,8626.946345,13036.744361,12605.489803,3021.397057,10642.380791,0.008875,-0.009562,1.008687,192.000000,0.000000,0.000000,0.000000,0.000000,0.000000,0.000000,0.000000,0.000000,0.000000,1772529563.063218,0.000000
220.000000,6399.840879,7529.319230,7585.355054,-18540.235584,8884.192572,7496.797442,-3768.101784,-944.003575,5119.912937,5388.983236,8798.563039,8630.187348,13106.571210,12616.509213,3039.569025,10674.254379,0.007438,-0.010781,1.004344,192.000000,0.000000,24.000000,127.500000,80.000000,15.500000,32.000000,0.000000,0.000000,0.000000,1772529563.063229,0.000000
222.000000,6392.800080,7524.580660,7576.436708,-18532.323066,8908.041883,7499.636114,-3769.152316,-946.998709,5097.136509,5383.238838,8779.675815,8619.570270,13071.389564,12624.622896,3015.764417,10657.915253,0.007438,-0.010781,1.004344,192.000000,0.000000,0.000000,0.000000,0.000000,0.000000,0.000000,0.000000,0.000000,0.000000,1772529563.063240,0.000000
224.000000,6405.473519,7531.643812,7575.542638,-18540.369694,8944.877558,7526.100579,-3771.387490,-944.562369,5104.378474,5390.011417,8785.956655,8627.795711,13051.250643,12589.173030,3026.537958,10688.067757,0.007438,-0.010781,1.004344,192.000000,0.000000,0.000000,0.000000,0.000000,0.000000,0.000000,0.000000,0.000000,0.000000,1772529563.063252,0.000000
226.000000,6404.959429,7534.437780,7576.973149,-18527.472738,8947.716230,7504.508794,-3767.542990,-940.315537,5114.414408,5395.062911,8787.945961,8630.053238,13085.582922,12597.689044,3006.980182,10676.623663,0.007438,-0.010781,1.004344,192.000000,0.000000,0.000000,0.000000,0.000000,0.000000,0.000000,0.000000,0.000000,0.000000,1772529563.063263,0.000000
228.000000,6402.411330,7528.335753,7586.807917,-18536.346380,8880.526886,7500.284314,-3770.404013,-942.528360,5105.898393,5386.882172,8783.900295,8624.375895,13059.252567,12616.352751,3024.883929,10668.018242,0.007438,-0.010781,1.004344,192.000000,0.000000,0.000000,0.000000,0.000000,0.000000,0.000000,0.000000,0.000000,0.000000,1772529563.063275,0.000000
230.000000,6404.467691,7533.163730,7583.566914,-18535.385255,8897.536564,7502.787710,-3768.995854,-940.896683,5118.147149,5389.832603,8793.869173,8628.332153,13121.993914,12617.760911,3046.386307,10689.632379,0.007719,-0.009391,1.002172,192.000000,0.000000,32.000000,127.500000,96.000000,15.500000,32.000000,0.000000,0.000000,0.000000,1772529563.063286,0.000000
232.000000,6398.946810,7528.581623,7586.159716,-18540.459101,8941.882425,7516.891660,-3769.264074,-941.746049,5105.093730,5386.032806,8781.463955,8617.983296,13047.249680,12648.516911,3010.958792,10659.837503,0.007719,-0.009391,1.002172,192.000000,0.000000,0.000000,0.000000,0.000000,0.000000,0.000000,0.000000,0.000000,0.000000,1772529563.063298,0.000000
234.000000,6395.929324,7525.295916,7583.276341,-18533.932392,8894.764947,7508.308590,-3771.163973,-946.059936,5107.530070,5386.032806,8789.220010,8624.018267,13045.640355,12579.114745,3035.970394,10690.481745,0.007719,-0.009391,1.002172,192.000000,0.000000,0.000000,0.000000,0.000000,0.000000,0.000000,0.000000,0.000000,0.000000,1772529563.063309,0.000000
236.000000,6399.840879,7534.594242,7591.077100,-18525.237563,8894.720244,7498.406768,-3766.045423,-937.655680,5110.346390,5382.523582,8784.772013,8627.303973,13114.573135,12597.197306,3027.566138,10677.428326,0.007719,-0.009391,1.002172,192.000000,0.000000,0.000000,0.000000,0.000000,0.000000,0.000000,0.000000,0.000000,0.000000,1772529563.063321,0.000000
238.000000,6421.276202,7548.608786,7593.669903,-18535.675828,8925.006858,7508.196832,-3767.252417,-931.061915,5118.996515,5400.337923,8794.249152,8636.781113,13087.326358,12600.952399,3021.441760,10656.618852,0.007719,-0.009391,1.002172,192.000000,0.000000,0.000000,0.000000,0.000000,0.000000,0.000000,0.000000,0.000000,0.000000,1772529563.063332,0.000000
240.000000,6413.564851,7542.707925,7592.507612,-18542.560165,8949.593776,7510.074378,-3765.888961,-930.704287,5139.358954,5399.153280,8807.973124,8636.579947,13054.916329,12617.000951,3047.056859,10665.201922,0.007719,-0.009391,1.002172,192.000000,0.000000,0.000000,0.000000,0.000000,0.000000,0.000000,0.000000,0.000000,0.000000,1772529563.063344,0.000000
242.000000,6408.848632,7541.389172,7586.204420,-18533.999447,8972.258445,7495.433986,-3766.961845,-933.319441,5113.699152,5389.810251,8791.186963,8630.634383,13069.959053,12629.942611,3013.372780,10637.597518,0.008000,-0.010000,0.998000,192.000000,0.000000,32.000000,127.500000,88.000000,15.500000,24.000000,0.000000,0.000000,0.000000,1772529563.063356,0.000000
244.000000,6409.072150,7537.365858,7587.992559,-18539.609735,8902.833927,7507.570983,-3770.940455,-939.577930,5120.315268,5393.677103,8798.808908,8633.003668,13083.325396,12606.450928,3046.654528,10668.152352,0.008000,-0.010000,0.998000,192.000000,0.000000,0.000000,0.000000,0.000000,0.000000,0.000000,0.000000,0.000000,0.000000,1772529563.063368,0.000000
