Sample_index,EXG Channel 0,EXG Channel 1,EXG Channel 2,EXG Channel 3,EXG Channel 4,EXG Channel 5,EXG Channel 6,EXG Channel 7,EXG Channel 8,EXG Channel 9,EXG Channel 10,EXG Channel 11,EXG Channel 12,EXG Channel 13,EXG Channel 14,EXG Channel 15,Accel Channel 0,Accel Channel 1,Accel Channel 2,Not Used,Digital Channel 0 (D11),Digital Channel 1 (D12),Digital Channel 2 (D13),Digital Channel 3 (D17),Not Used,Digital Channel 4 (D18),Analog Channel 0,Analog Channel 1,Analog Channel 2,Timestamp,Marker Channel
210.000000,3972.329673,6109.715236,8048.885530,-17616.750910,10254.913301,7952.147180,-3573.529848,183.954857,4021.391752,5866.215332,9816.237964,7931.583575,14485.182105,14625.506356,5057.797439,10882.706747,0.006000,-0.010000,1.004000,192.000000,0.000000,0.000000,0.000000,0.000000,0.000000,0.000000,0.000000,0.000000,0.000000,1772530564.266603,101.000000
212.000000,3974.654254,6110.296382,8055.635757,-17610.738291,10237.434237,7960.104401,-3571.562895,184.066616,4021.749380,5864.606007,9814.360418,7932.991735,14507.198573,14635.810511,5052.880055,10880.963311,0.006000,-0.010000,1.004000,192.000000,0.000000,0.000000,0.000000,0.000000,0.000000,0.000000,0.000000,0.000000,0.000000,1772530564.266705,0.000000
214.000000,3969.982740,6102.741492,8052.573568,-17622.361198,10261.708231,7956.349308,-3577.374348,180.088005,4028.276089,5855.374736,9813.421644,7927.828482,14434.913031,14637.978630,5064.368852,10889.233457,0.006000,-0.010000,1.004000,192.000000,0.000000,0.000000,0.000000,0.000000,0.000000,0.000000,0.000000,0.000000,0.000000,1772530564.266782,0.000000
216.000000,3981.560943,6118.387713,8061.134286,-17620.036616,10250.398248,7934.690468,-3570.221790,190.123938,4023.537519,5870.819792,9818.629601,7930.443636,14445.641869,14636.749284,5056.970424,10880.784497,0.006000,-0.006000,1.008000,192.000000,0.000000,24.000000,127.500000,104.000000,15.500000,64.000000,0.000000,0.000000,0.000000,1772530564.266869,0.000000
218.000000,3969.781574,6104.060245,8053.042955,-17623.568192,10248.699516,7955.209369,-3576.167354,183.999560,4027.449075,5861.432059,9817.891993,7932.455293,14495.955646,14626.132205,5054.623491,10871.329709,0.006000,-0.006000,1.008000,192.000000,0.000000,0.000000,0.000000,0.000000,0.000000,0.000000,0.000000,0.000000,0.000000,1772530564.266961,0.000000
220.000000,3967.524048,6104.730797,8051.076001,-17623.389378,10234.841434,7963.591273,-3577.016720,179.708025,4015.803816,5856.291158,9812.281705,7929.102532,14532.724265,14625.215784,5067.542799,10879.979835,0.006000,-0.006000,1.008000,192.000000,0.000000,0.000000,0.000000,0.000000,0.000000,0.000000,0.000000,0.000000,0.000000,1772530564.267056,0.000000
222.000000,3968.552228,6106.541289,8054.942853,-17624.149337,10284.551714,7952.661270,-3573.082813,182.054959,4012.965144,5858.593387,9809.241868,7926.822654,14437.304668,14623.405292,5057.283349,10863.640709,0.006000,-0.006000,1.008000,192.000000,0.000000,0.000000,0.000000,0.000000,0.000000,0.000000,0.000000,0.000000,0.000000,1772530564.267144,0.000000
224.000000,3958.404536,6094.650161,8048.416143,-17628.731445,10252.320499,7934.086971,-3577.776680,178.143403,4013.456883,5853.385431,9811.164118,7929.884843,14459.768171,14617.593839,5054.735250,10857.918663,0.006000,-0.006000,1.008000,192.000000,0.000000,0.000000,0.000000,0.000000,0.000000,0.000000,0.000000,0.000000,0.000000,1772530564.267191,0.000000
226.000000,3971.748527,6112.866832,8053.579396,-17619.142547,10240.943461,7975.258884,-3570.199438,189.207517,4011.936964,5858.638091,9813.153423,7932.321183,14442.982011,14618.286743,5052.857703,10864.110096,0.006000,-0.008000,1.008000,192.000000,0.000000,24.000000,127.500000,96.000000,15.500000,64.000000,0.000000,0.000000,0.000000,1772530564.267214,0.000000
228.000000,3986.478327,6118.253603,8049.354917,-17621.534183,10280.349586,7946.738058,-3572.479316,193.342590,4019.067171,5866.461201,9815.299191,7936.858587,14483.125744,14639.252679,5038.932567,10861.405535,0.006000,-0.008000,1.008000,192.000000,0.000000,0.000000,0.000000,0.000000,0.000000,0.000000,0.000000,0.000000,0.000000,1772530564.267237,0.000000
230.000000,3973.268446,6103.143824,8048.304385,-17614.448680,10249.012440,7945.396953,-3571.719357,190.995656,4041.418915,5865.924760,9824.128130,7937.685601,14485.293863,14625.238135,5047.873264,10873.631939,0.006000,-0.008000,1.008000,192.000000,0.000000,0.000000,0.000000,0.000000,0.000000,0.000000,0.000000,0.000000,0.000000,1772530564.267260,0.000000
232.000000,3972.307321,6107.569469,8059.457905,-17610.179497,10230.974583,7938.132636,-3568.366595,193.342590,4012.205185,5851.820809,9817.310848,7936.210386,14478.431878,14630.200223,5043.469971,10868.781611,0.006000,-0.008000,1.008000,192.000000,0.000000,0.000000,0.000000,0.000000,0.000000,0.000000,0.000000,0.000000,0.000000,1772530564.267282,0.000000
234.000000,3973.044929,6104.954315,8052.908844,-17617.019131,10259.651871,7955.142314,-3572.702834,191.576802,4028.343144,5858.682794,9822.541156,7938.758485,14479.035375,14619.806662,5048.476761,10873.810753,0.006000,-0.008000,1.008000,192.000000,0.000000,0.000000,0.000000,0.000000,0.000000,0.000000,0.000000,0.000000,0.000000,1772530564.267305,0.000000
236.000000,3972.329673,6107.211841,8058.943815,-17611.252381,10228.426484,7962.987776,-3567.651339,193.387293,4022.263470,5861.432059,9823.904613,7937.149160,14478.878913,14629.283801,5051.002509,10878.526971,0.004000,-0.006000,1.006000,192.000000,0.000000,16.000000,127.500000,104.000000,15.500000,56.000000,0.000000,0.000000,0.000000,1772530564.267328,0.000000
238.000000,3965.065356,6093.487870,8053.869969,-17618.963733,10239.311783,7972.286102,-3574.222752,182.837270,4010.931136,5856.760544,9812.572278,7928.879014,14485.338567,14632.636563,5051.717764,10882.170306,0.004000,-0.006000,1.006000,192.000000,0.000000,0.000000,0.000000,0.000000,0.000000,0.000000,0.000000,0.000000,0.000000,1772530564.267351,0.000000
240.000000,3966.808792,6100.193393,8054.115838,-17617.935552,10256.656737,7970.520314,-3572.613427,184.871278,4023.783389,5857.766373,9817.981400,7929.191939,14478.588340,14639.923232,5062.871285,10885.701881,0.004000,-0.006000,1.006000,192.000000,0.000000,0.000000,0.000000,0.000000,0.000000,0.000000,0.000000,0.000000,0.000000,1772530564.267374,0.000000
242.000000,3973.804888,6106.697751,8056.686289,-17618.986084,10308.535136,7967.905160,-3569.439479,188.916944,4014.730932,5859.219236,9814.293362,7932.634107,14471.726355,14638.000982,5046.867436,10875.330672,0.004000,-0.006000,1.006000,192.000000,0.000000,0.000000,0.000000,0.000000,0.000000,0.000000,0.000000,0.000000,0.000000,1772530564.267397,0.000000
244.000000,3968.239304,6096.885335,8054.942853,-17628.396169,10252.454609,7957.556302,-3574.535677,183.194898,4028.007868,5850.256187,9819.568374,7929.728380,14497.207343,14627.428606,5060.814924,10872.313186,0.004000,-0.006000,1.006000,192.000000,0.000000,0.000000,0.000000,0.000000,0.000000,0.000000,0.000000,0.000000,0.000000,1772530564.267420,0.000000
246.000000,3954.761202,6093.532573,8055.635757,-17622.137680,10239.065914,7950.515503,-3572.680482,178.232810,4013.233365,5847.439867,9813.309886,7926.062694,14449.531072,14606.060339,5069.643863,10862.076087,0.004000,-0.007000,1.006000,192.000000,0.000000,16.000000,127.500000,96.000000,15.500000,56.000000,0.000000,0.000000,0.000000,1772530564.267443,0.000000
248.000000,3957.599873,6094.761919,8046.292728,-17628.642038,10262.781115,7963.948901,-3574.893305,180.378578,3999.934077,5845.048230,9807.006694,7922.911098,14447.295898,14617.795005,5050.935453,10863.908930,0.004000,-0.007000,1.006000,192.000000,0.000000,0.000000,0.000000,0.000000,0.000000,0.000000,0.000000,0.000000,0.000000,1772530564.267467,0.000000
250.000000,3955.387051,6096.170079,8044.236367,-17621.712997,10229.767588,7939.071410,-3574.178049,181.719682,4004.806758,5856.224103,9810.426511,7928.588441,14461.891587,14628.613249,5052.433020,10864.624186,0.004000,-0.007000,1.006000,192.000000,0.000000,0.000000,0.000000,0.000000,0.000000,0.000000,0.000000,0.000000,0.000000,1772530564.267490,0.000000
252.000000,3957.756335,6096.818280,8049.556082,-17616.862669,10225.118426,7923.872223,-3571.272322,182.166717,4001.051664,5856.604082,9804.771519,7928.431979,14485.405622,14621.930077,5041.659479,10866.121753,0.004000,-0.007000,1.006000,192.000000,0.000000,0.000000,0.000000,0.000000,0.000000,0.000000,0.000000,0.000000,0.000000,1772530564.267513,0.000000
254.000000,3957.063431,6094.404291,8046.918577,-17623.255268,10244.989126,7920.094779,-3573.060462,183.329008,4007.667781,5843.036573,9812.728740,7928.946069,14434.555404,14588.335405,5047.627395,10860.958500,0.004000,-0.007000,1.006000,192.000000,0.000000,0.000000,0.000000,0.000000,0.000000,0.000000,0.000000,0.000000,0.000000,1772530564.267535,0.000000
0.000000,3964.372452,6110.788120,8053.624100,-17612.638189,10291.860734,7937.640898,-3564.298578,193.744921,4009.455920,5863.533123,9813.466348,7937.842064,14512.048902,14616.655066,5046.062773,10861.182017,0.004000,-0.011500,1.002000,192.000000,0.000000,16.000000,127.500000,64.000000,15.500000,24.000000,0.000000,0.000000,0.000000,1772530564.267558,0.000000
2.000000,3965.087708,6102.495623,8052.484161,-17615.186288,10248.967737,7988.111137,-3567.718395,191.263877,4008.070112,5865.902408,9815.813281,7940.457218,14465.199645,14628.233269,5040.363078,10864.825352,0.004000,-0.011500,1.002000,192.000000,0.000000,0.000000,0.000000,0.000000,0.000000,0.000000,0.000000,0.000000,0.000000,1772530564.267581,0.000000
4.000000,3961.019690,6096.326541,8053.355879,-17611.520602,10222.838548,7957.891578,-3568.724223,185.005389,4013.166310,5854.525370,9819.009580,7933.975212,14465.713735,14638.738589,5051.918930,10877.275273,0.004000,-0.011500,1.002000,192.000000,0.000000,0.000000,0.000000,0.000000,0.000000,0.000000,0.000000,0.000000,0.000000,1772530564.267603,0.000000
6.000000,3974.788365,6113.559736,8059.703774,-17612.012340,10242.642193,7967.547532,-3566.533752,189.118110,4011.244060,5858.772201,9814.785101,7933.461122,14433.974258,14640.772598,5048.365003,10879.689262,0.004000,-0.011500,1.002000,192.000000,0.000000,0.000000,0.000000,0.000000,0.000000,0.000000,0.000000,0.000000,0.000000,1772530564.267625,0.000000
8.000000,3980.890391,6112.285687,8056.596882,-17616.303875,10249.705344,7979.461012,-3570.802935,185.117148,4028.030220,5860.537989,9822.384694,7934.265785,14474.721488,14638.425665,5059.473820,10882.103250,0.004000,-0.011500,1.002000,192.000000,0.000000,0.000000,0.000000,0.000000,0.000000,0.000000,0.000000,0.000000,0.000000,1772530564.267647,0.000000
10.000000,3976.285932,6117.895975,8056.730992,-17605.329168,10274.180505,7983.819602,-3566.064366,188.045226,4018.754246,5868.584617,9820.171871,7939.026706,14481.002329,14631.183700,5051.002509,10892.630922,0.004000,-0.011500,1.002000,192.000000,0.000000,0.000000,127.500000,88.000000,15.500000,48.000000,0.000000,0.000000,0.000000,1772530564.267669,0.000000
12.000000,3974.229571,6116.957202,8055.680460,-17613.420500,10265.552731,7973.023709,-3573.485145,181.742034,4010.461749,5868.472858,9813.086368,7935.226910,14459.924633,14628.143862,5056.188113,10880.739794,0.004000,-0.011500,1.002000,192.000000,0.000000,0.000000,0.000000,0.000000,0.000000,0.000000,0.000000,0.000000,0.000000,1772530564.267692,0.000000
14.000000,3985.383092,6123.327449,8061.447210,-17622.584715,10288.440918,7983.551381,-3572.367558,186.949991,4022.554043,5867.645844,9819.836595,7931.896500,14483.103392,14639.833825,5076.014111,10873.855457,0.004000,-0.011500,1.002000,192.000000,0.000000,0.000000,0.000000,0.000000,0.000000,0.000000,0.000000,0.000000,0.000000,1772530564.267714,0.000000
16.000000,3985.696016,6127.998963,8056.529827,-17610.313607,10268.301996,7953.331823,-3569.439479,190.325104,4031.092409,5880.095766,9820.529499,7940.881901,14559.412248,14631.228403,5057.216293,10870.167419,0.004000,-0.011500,1.002000,192.000000,0.000000,0.000000,0.000000,0.000000,0.000000,0.000000,0.000000,0.000000,0.000000,1772530564.267736,0.000000
18.000000,3982.387958,6117.739513,8057.736821,-17621.824756,10249.839455,7956.863398,-3573.775717,184.938334,4028.991345,5878.128812,9823.591688,7937.327974,14462.293918,14635.162310,5067.855724,10862.612529,0.004000,-0.011500,1.002000,192.000000,0.000000,0.000000,0.000000,0.000000,0.000000,0.000000,0.000000,0.000000,0.000000,1772530564.267758,0.000000
20.000000,3983.952580,6120.712295,8059.122629,-17608.369006,10253.214568,7969.648596,-3567.740746,190.325104,4024.319830,5862.773164,9821.714142,7935.025744,14458.918805,14639.811473,5052.522427,10865.138276,0.001000,-0.011750,1.002000,192.000000,127.500000,120.000000,127.500000,80.000000,15.500000,40.000000,0.000000,0.000000,0.000000,1772530564.267781,0.000000
22.000000,3977.269408,6111.905707,8058.720298,-17617.957904,10220.983353,7937.238567,-3572.591075,184.200726,4027.113799,5866.461201,9818.540194,7932.097665,14441.953831,14643.655973,5048.923796,10867.462858,0.001000,-0.011750,1.002000,192.000000,0.000000,0.000000,0.000000,0.000000,0.000000,0.000000,0.000000,0.000000,0.000000,1772530564.267803,0.000000
24.000000,3984.712539,6126.233176,8055.166370,-17611.095919,10248.766571,7983.484326,-3570.512363,190.325104,4023.872796,5864.471896,9818.003752,7934.891633,14467.188950,14611.201240,5058.892674,10871.754393,0.001000,-0.011750,1.002000,192.000000,0.000000,0.000000,0.000000,0.000000,0.000000,0.000000,0.000000,0.000000,0.000000,1772530564.267825,0.000000
26.000000,3990.076958,6133.028106,8049.936062,-17605.485631,10281.243656,7989.653407,-3568.008967,193.186127,4023.448112,5881.213353,9818.271973,7945.888692,14484.444497,14643.387752,5045.347517,10871.732041,0.001000,-0.011750,1.002000,192.000000,0.000000,0.000000,0.000000,0.000000,0.000000,0.000000,0.000000,0.000000,0.000000,1772530564.267848,0.000000
28.000000,3989.540516,6125.406161,8048.416143,-17608.234895,10253.035754,7985.004244,-3571.205267,190.995656,4030.153636,5878.709957,9819.635429,7948.392087,14534.959440,14645.958203,5037.278537,10875.285968,0.001000,-0.011750,1.002000,192.000000,0.000000,0.000000,0.000000,0.000000,0.000000,0.000000,0.000000,0.000000,0.000000,1772530564.267870,0.000000
30.000000,3981.203315,6120.377018,8054.920501,-17614.783956,10269.039603,7994.749605,-3568.880685,188.894592,4021.950546,5859.822733,9818.696656,7940.300756,14449.799293,14641.890185,5051.360136,10877.923474,0.001000,-0.011750,1.002000,192.000000,0.000000,0.000000,127.500000,72.000000,15.500000,48.000000,0.000000,0.000000,0.000000,1772530564.267892,0.000000
32.000000,3981.002150,6119.929984,8050.897187,-17615.275695,10259.428353,7942.535930,-3573.842773,184.111319,4018.240156,5868.875190,9813.980438,7938.579671,14496.805012,14634.849386,5049.884921,10875.442430,0.001000,-0.011750,1.002000,192.000000,0.000000,0.000000,0.000000,0.000000,0.000000,0.000000,0.000000,0.000000,0.000000,1772530564.267914,0.000000
34.000000,3976.889429,6114.967896,8051.567739,-17613.554610,10226.280716,7947.028631,-3574.289808,181.451461,4023.202243,5857.364041,9818.361380,7931.762389,14392.712938,14625.439301,5060.814924,10890.172230,0.001000,-0.011750,1.002000,192.000000,0.000000,0.000000,0.000000,0.000000,0.000000,0.000000,0.000000,0.000000,0.000000,1772530564.267937,0.000000
36.000000,3980.756281,6117.918327,8051.970071,-17615.230991,10238.775341,7977.561114,-3572.836944,183.083139,4016.809644,5860.001547,9811.857022,7934.623412,14471.458134,14614.866926,5055.606968,10880.650387,0.001000,-0.011750,1.002000,192.000000,0.000000,0.000000,0.000000,0.000000,0.000000,0.000000,0.000000,0.000000,0.000000,1772530564.267963,0.000000
38.000000,3992.066263,6127.015487,8047.522074,-17623.858765,10274.404022,7962.272520,-3576.033244,184.513650,4025.191548,5856.492323,9818.942525,7931.360058,14455.878968,14640.124397,5063.608892,10872.246131,0.001000,-0.011750,1.002000,192.000000,0.000000,0.000000,0.000000,0.000000,0.000000,0.000000,0.000000,0.000000,0.000000,1772530564.267997,0.000000
40.000000,3990.054606,6131.776408,8055.926330,-17615.499212,10280.886028,7972.822544,-3569.350072,190.615677,4020.005944,5873.300835,9818.271973,7937.082104,14525.079969,14625.036970,5055.852837,10861.718459,0.001500,-0.011875,1.002000,192.000000,0.000000,8.000000,127.500000,80.000000,15.500000,40.000000,0.000000,0.000000,0.000000,1772530564.268019,0.000000
42.000000,4002.459824,6137.520806,8062.520094,-17612.817003,10228.158263,7956.304605,-3568.232485,196.941220,4035.115723,5875.692472,9829.157272,7945.933395,14471.569892,14622.801795,5047.023898,10853.224796,0.001500,-0.011875,1.002000,192.000000,0.000000,0.000000,0.000000,0.000000,0.000000,0.000000,0.000000,0.000000,0.000000,1772530564.268042,0.000000
44.000000,4003.666819,6141.991155,8062.251873,-17615.521564,10278.963778,7962.138410,-3565.796145,200.003409,4046.984499,5869.858667,9838.522653,7943.452352,14422.686627,14641.756075,5061.999567,10858.879788,0.001500,-0.011875,1.002000,192.000000,0.000000,0.000000,0.000000,0.000000,0.000000,0.000000,0.000000,0.000000,0.000000,1772530564.268064,0.000000
46.000000,3995.955467,6139.241891,8062.318929,-17609.061910,10247.917205,7966.698166,-3563.493915,200.875127,4035.965089,5881.660388,9834.164063,7949.040288,14464.327927,14623.941734,5039.916043,10853.224796,0.001500,-0.011875,1.002000,192.000000,0.000000,0.000000,0.000000,0.000000,0.000000,0.000000,0.000000,0.000000,0.000000,1772530564.268087,0.000000
48.000000,3998.056531,6139.219539,8055.032260,-17618.226125,10226.168957,7968.978044,-3568.970092,196.628296,4030.198339,5870.909199,9830.096046,7944.480532,14515.356960,14608.608438,5054.779953,10862.657233,0.001500,-0.011875,1.002000,192.000000,0.000000,0.000000,0.000000,0.000000,0.000000,0.000000,0.000000,0.000000,0.000000,1772530564.268110,0.000000
50.000000,3999.576449,6138.861911,8059.815533,-17609.933628,10269.643100,7942.468875,-3564.812668,199.221098,4042.469447,5874.776050,9829.872528,7946.514540,14531.025533,14623.561755,5053.416497,10863.506599,0.003750,-0.011938,1.005000,192.000000,0.000000,24.000000,127.500000,80.000000,15.500000,64.000000,0.000000,0.000000,0.000000,1772530564.268132,0.000000
52.000000,4001.230478,6138.258414,8063.391812,-17613.554610,10236.964850,7949.353212,-3566.377290,200.495148,4048.973805,5870.909199,9834.521691,7946.536892,14441.596203,14623.740569,5041.793590,10856.599910,0.003750,-0.011938,1.005000,192.000000,0.000000,0.000000,0.000000,0.000000,0.000000,0.000000,0.000000,0.000000,0.000000,1772530564.268155,0.000000
54.000000,3987.886487,6128.468350,8057.692117,-17614.873363,10240.429370,7951.923663,-3567.338415,196.293020,4031.494740,5864.382489,9833.158235,7944.592290,14430.822662,14610.731853,5049.080258,10862.366660,0.003750,-0.011938,1.005000,192.000000,0.000000,0.000000,0.000000,0.000000,0.000000,0.000000,0.000000,0.000000,0.000000,1772530564.268178,0.000000
56.000000,3996.514260,6142.013507,8060.150809,-17613.979294,10256.388516,7957.466895,-3565.483220,201.456273,4031.673554,5868.852838,9830.856005,7945.218139,14474.632081,14617.124452,5047.336822,10855.884654,0.003750,-0.011938,1.005000,192.000000,0.000000,0.000000,0.000000,0.000000,0.000000,0.000000,0.000000,0.000000,0.000000,1772530564.268200,0.000000
58.000000,3990.367531,6128.423647,8056.485123,-17626.071587,10269.196066,7965.468820,-3569.886514,196.762406,4034.311060,5867.623492,9833.202938,7945.016974,14460.528131,14626.087502,5047.135657,10867.418154,0.003750,-0.011938,1.005000,192.000000,0.000000,0.000000,0.000000,0.000000,0.000000,0.000000,0.000000,0.000000,0.000000,1772530564.268223,0.000000
60.000000,3990.144013,6130.100027,8059.189684,-17618.784919,10261.819990,7966.586407,-3566.578456,192.806148,4037.552063,5858.705146,9829.604307,7934.355192,14476.308462,14621.259525,5058.110363,10860.533817,0.003750,-0.011938,1.005000,192.000000,0.000000,0.000000,0.000000,0.000000,0.000000,0.000000,0.000000,0.000000,0.000000,1772530564.268245,0.000000
62.000000,3974.609551,6115.034952,8051.366574,-17623.299971,10234.662620,7949.017936,-3571.786412,181.518517,4027.180854,5862.057908,9817.266144,7931.807093,14482.991634,14602.752281,5057.596273,10853.604776,0.008000,-0.014000,1.004000,192.000000,0.000000,32.000000,127.500000,72.000000,15.500000,48.000000,0.000000,0.000000,0.000000,1772530564.268268,0.000000
64.000000,3980.577467,6115.727856,8055.054612,-17635.056989,10241.144626,7942.245357,-3570.914694,184.379540,4015.602650,5852.357251,9813.399293,7927.157930,14500.157774,14602.595818,5070.627340,10847.748619,0.008000,-0.014000,1.004000,192.000000,0.000000,0.000000,0.000000,0.000000,0.000000,0.000000,0.000000,0.000000,0.000000,1772530564.268306,0.000000
66.000000,3993.429720,6129.183606,8061.603673,-17622.003570,10239.267080,7941.843026,-3565.438517,192.515575,4036.367421,5856.089992,9822.384694,7931.538872,14435.024790,14636.972801,5055.025823,10837.690334,0.008000,-0.014000,1.004000,192.000000,0.000000,0.000000,0.000000,0.000000,0.000000,0.000000,0.000000,0.000000,0.000000,1772530564.268328,0.000000
68.000000,3987.238286,6123.461559,8054.764039,-17625.222221,10258.467228,7955.924625,-3568.411299,193.499052,4038.692002,5856.961710,9830.654839,7937.260918,14457.331831,14597.656083,5056.702203,10835.075180,0.008000,-0.014000,1.004000,192.000000,0.000000,0.000000,0.000000,0.000000,0.000000,0.000000,0.000000,0.000000,0.000000,1772530564.268351,0.000000
70.000000,3998.749435,6141.164141,8050.874835,-17617.533221,10296.711063,7963.144238,-3563.963302,197.879994,4035.786275,5874.194905,9828.687886,7943.452352,14529.997352,14628.479138,5044.140523,10851.928395,0.008000,-0.014000,1.004000,192.000000,0.000000,0.000000,0.000000,0.000000,0.000000,0.000000,0.000000,0.000000,0.000000,1772530564.268368,0.000000
72.000000,3998.771787,6133.184568,8059.122629,-17623.568192,10262.870522,7965.804096,-3568.254837,193.633162,4042.961185,5866.103574,9825.536290,7938.378506,14471.458134,14614.576353,5046.621567,10847.614509,0.012000,-0.012000,1.002000,192.000000,0.000000,48.000000,127.500000,80.000000,15.500000,40.000000,0.000000,0.000000,0.000000,1772530564.268378,0.000000
74.000000,3997.855365,6136.738495,8057.736821,-17611.811174,10262.468190,7951.163703,-3568.165430,192.649685,4048.683232,5867.981120,9828.643182,7937.730305,14474.743840,14614.777519,5067.408689,10859.080953,0.012000,-0.012000,1.002000,192.000000,0.000000,0.000000,0.000000,0.000000,0.000000,0.000000,0.000000,0.000000,0.000000,1772530564.746635,0.000000
76.000000,4000.068188,6141.074734,8059.994347,-17606.804384,10257.036717,7974.856552,-3566.444345,193.342590,4040.927177,5885.326074,9823.859909,7944.972270,14473.827419,14634.022371,5042.061811,10867.708727,0.012000,-0.012000,1.002000,192.000000,0.000000,0.000000,0.000000,0.000000,0.000000,0.000000,0.000000,0.000000,0.000000,1772530564.746698,0.000000
78.000000,3996.044874,6129.116551,8050.919539,-17617.779090,10241.725772,7969.514486,-3573.149869,186.614714,4040.569549,5864.695414,9826.363304,7938.087933,14460.706945,14634.514109,5051.918930,10873.386070,0.012000,-0.012000,1.002000,192.000000,0.000000,0.000000,0.000000,0.000000,0.000000,0.000000,0.000000,0.000000,0.000000,1772530564.746746,0.000000
80.000000,4003.175080,6142.348783,8057.468600,-17612.235858,10256.030888,7958.852703,-3568.903037,189.006351,4036.657993,5866.438850,9820.842424,7932.857625,14480.979977,14617.035045,5063.407727,10882.192657,0.012000,-0.012000,1.002000,192.000000,0.000000,0.000000,0.000000,0.000000,0.000000,0.000000,0.000000,0.000000,0.000000,1772530564.746797,0.000000
82.000000,3999.285877,6140.180664,8044.683402,-17612.459375,10286.764537,7973.314282,-3572.635779,185.698293,4035.473351,5873.546704,9819.143691,7939.473741,14475.727317,14628.412083,5050.466067,10874.123678,0.006000,-0.012000,0.998000,192.000000,0.000000,24.000000,127.500000,80.000000,15.500000,24.000000,0.000000,0.000000,0.000000,1772530564.746852,0.000000
84.000000,4003.264487,6141.588824,8046.985632,-17611.699416,10307.976342,7978.812811,-3570.467659,189.542793,4044.302290,5867.779954,9822.384694,7939.071410,14533.908908,14622.064188,5049.080258,10883.176134,0.006000,-0.012000,0.998000,192.000000,0.000000,0.000000,0.000000,0.000000,0.000000,0.000000,0.000000,0.000000,0.000000,1772530564.746876,0.000000
86.000000,4016.228499,6157.011528,8071.304330,-17616.639151,10251.962871,7999.465823,-3564.387985,200.942183,4047.409182,5873.971388,9824.932793,7940.904253,14526.599887,14663.951357,5056.478686,10862.880750,0.006000,-0.012000,0.998000,192.000000,0.000000,0.000000,0.000000,0.000000,0.000000,0.000000,0.000000,0.000000,0.000000,1772530564.746900,0.000000
88.000000,4006.326676,6142.818170,8062.520094,-17608.436061,10259.830685,7953.734154,-3569.260665,196.650648,4054.315872,5879.201696,9839.260261,7946.223968,14391.058909,14609.748377,5072.415480,10854.252977,0.006000,-0.012000,0.998000,192.000000,0.000000,0.000000,0.000000,0.000000,0.000000,0.000000,0.000000,0.000000,0.000000,1772530564.746923,0.000000
90.000000,4013.658048,6153.278786,8062.877722,-17604.524506,10243.066876,7963.904198,-3563.538619,203.959668,4046.269244,5879.224048,9836.935680,7949.755543,14449.665183,14616.453900,5056.344575,10876.917646,0.006000,-0.012000,0.998000,192.000000,0.000000,0.000000,0.000000,0.000000,0.000000,0.000000,0.000000,0.000000,0.000000,1772530564.746947,0.000000
92.000000,4010.417045,6146.617966,8059.189684,-17619.120195,10222.749141,7950.649613,-3569.484183,197.924697,4043.967014,5872.317359,9832.442979,7948.213273,14484.153924,14630.513147,5055.226988,10863.081916,0.006000,-0.014000,1.002000,192.000000,0.000000,24.000000,127.500000,72.000000,15.500000,40.000000,0.000000,0.000000,0.000000,1772530564.746970,0.000000
94.000000,4004.024446,6141.499417,8051.098353,-17620.863631,10237.478940,7955.388183,-3572.389909,192.381465,4040.681307,5864.471896,9832.442979,7940.300756,14506.572724,14621.036008,5059.920855,10864.668890,0.006000,-0.014000,1.002000,192.000000,0.000000,0.000000,0.000000,0.000000,0.000000,0.000000,0.000000,0.000000,0.000000,1772530564.746993,0.000000
96.000000,4007.243098,6146.193283,8058.273263,-17616.259172,10265.195103,7944.502883,-3568.612465,197.544717,4036.725049,5867.198809,9825.938621,7938.289099,14512.585343,14633.374170,5044.319337,10864.199503,0.006000,-0.014000,1.002000,192.000000,0.000000,0.000000,0.000000,0.000000,0.000000,0.000000,0.000000,0.000000,0.000000,1772530564.747016,0.000000
98.000000,4013.032200,6150.306004,8049.086696,-17611.699416,10263.965757,7951.700145,-3571.071156,200.808072,4043.028241,5875.625417,9833.582918,7946.447485,14430.934421,14621.147766,5040.161912,10861.696108,0.006000,-0.014000,1.002000,192.000000,0.000000,0.000000,0.000000,0.000000,0.000000,0.000000,0.000000,0.000000,0.000000,1772530564.747040,0.000000
100.000000,4020.072999,6159.917254,8068.331548,-17605.217410,10243.491559,7976.577637,-3563.113935,208.251203,4052.572435,5884.163783,9838.254432,7955.723459,14470.228788,14644.035953,5053.662366,10870.837971,0.006000,-0.014000,1.002000,192.000000,0.000000,0.000000,0.000000,0.000000,0.000000,0.000000,0.000000,0.000000,0.000000,1772530564.747063,0.000000
102.000000,4012.965144,6149.031955,8057.915635,-17616.527392,10267.922016,7977.449355,-3567.718395,200.025761,4044.212883,5872.965559,9834.097008,7949.062639,14521.503689,14649.623889,5050.644881,10867.172285,0.010000,-0.012000,1.008000,192.000000,0.000000,40.000000,127.500000,80.000000,15.500000,64.000000,0.000000,0.000000,0.000000,1772530564.747086,0.000000
104.000000,4015.423836,6151.311833,8054.339356,-17619.701340,10313.541927,7966.094669,-3569.528886,198.751712,4045.151656,5872.384414,9834.499339,7946.291023,14460.170503,14592.023443,5053.505904,10879.644558,0.010000,-0.012000,1.008000,192.000000,0.000000,0.000000,0.000000,0.000000,0.000000,0.000000,0.000000,0.000000,0.000000,1772530564.747109,0.000000
106.000000,4016.921403,6160.610159,8060.866065,-17605.865610,10246.218472,7968.508657,-3567.025491,200.808072,4043.207055,5876.117155,9830.319563,7944.368773,14474.609730,14605.389786,5049.571997,10876.381204,0.010000,-0.012000,1.008000,192.000000,0.000000,0.000000,0.000000,0.000000,0.000000,0.000000,0.000000,0.000000,0.000000,1772530564.747132,0.000000
108.000000,4021.704676,6160.431345,8057.714469,-17611.095919,10245.592623,7969.045099,-3572.054633,199.422264,4049.890226,5904.593278,9835.236947,7955.745811,14474.117991,14639.252679,5062.044270,10880.583332,0.010000,-0.012000,1.008000,192.000000,0.000000,0.000000,0.000000,0.000000,0.000000,0.000000,0.000000,0.000000,0.000000,1772530564.747155,0.000000
110.000000,4019.245984,6152.004737,8059.212036,-17611.855878,10267.542036,7983.931361,-3568.523058,201.277459,4050.471371,5868.830486,9833.538214,7943.251186,14516.966285,14624.724045,5065.195866,10883.734928,0.010000,-0.012000,1.008000,192.000000,0.000000,0.000000,0.000000,0.000000,0.000000,0.000000,0.000000,0.000000,0.000000,1772530564.747178,0.000000
112.000000,4016.563775,6148.383754,8063.011833,-17614.538087,10264.613958,7970.207390,-3570.512363,199.578726,4054.919369,5868.495210,9832.845310,7944.502883,14508.807899,14630.222574,5058.423288,10862.858398,0.006000,-0.010000,1.000000,192.000000,0.000000,24.000000,127.500000,88.000000,15.500000,32.000000,0.000000,0.000000,0.000000,1772530564.747202,0.000000
114.000000,4020.654144,6151.982385,8066.990443,-17612.593485,10266.044470,7980.735061,-3570.467659,200.293982,4057.154543,5872.071489,9836.466293,7943.295889,14433.728389,14647.455769,5068.168648,10878.325805,0.006000,-0.010000,1.000000,192.000000,0.000000,0.000000,0.000000,0.000000,0.000000,0.000000,0.000000,0.000000,0.000000,1772530564.747228,0.000000
116.000000,4019.581261,6150.864798,8065.559931,-17613.174631,10259.204836,7967.189904,-3568.120726,200.763369,4059.814401,5866.170629,9833.091180,7944.569939,14499.442518,14621.058359,5058.691509,10868.491038,0.006000,-0.010000,1.000000,192.000000,0.000000,0.000000,0.000000,0.000000,0.000000,0.000000,0.000000,0.000000,0.000000,1772530564.747251,0.000000
118.000000,4023.559871,6155.446906,8059.524960,-17617.175593,10273.197028,7963.568922,-3570.959398,201.277459,4063.234218,5873.233780,9837.561528,7945.665174,14507.153870,14613.861098,5059.630282,10856.734020,0.006000,-0.010000,1.000000,192.000000,0.000000,0.000000,0.000000,0.000000,0.000000,0.000000,0.000000,0.000000,0.000000,1772530564.747274,0.000000
120.000000,4018.016639,6152.787048,8062.095411,-17609.486593,10276.058051,7961.043174,-3567.628988,201.948011,4063.524790,5880.676911,9838.209729,7948.325032,14460.058744,14634.648220,5048.163837,10870.435640,0.006000,-0.010000,1.000000,192.000000,0.000000,0.000000,0.000000,0.000000,0.000000,0.000000,0.000000,0.000000,0.000000,1772530564.747294,0.000000
122.000000,4017.368438,6146.372097,8057.356841,-17616.907372,10261.797638,7966.854628,-3571.697005,197.924697,4055.299348,5866.036518,9830.140749,7941.463046,14568.442353,14623.427644,5047.560340,10868.111058,0.004000,-0.012000,1.002000,192.000000,0.000000,16.000000,127.500000,80.000000,15.500000,40.000000,0.000000,0.000000,0.000000,1772530564.747305,0.000000
124.000000,4016.675534,6142.393487,8068.488010,-17613.800480,10235.087304,7968.709823,-3569.886514,199.623430,4069.336244,5865.544780,9839.439075,7940.926604,14438.869290,14625.774577,5066.872247,10875.934169,0.004000,-0.012000,1.002000,192.000000,0.000000,0.000000,0.000000,0.000000,0.000000,0.000000,0.000000,0.000000,0.000000,1772530564.747317,0.000000
126.000000,4024.968031,6152.183551,8064.397641,-17612.414671,10282.160077,7964.708860,-3568.143078,200.293982,4074.097165,5870.685681,9840.355496,7948.079163,14498.682558,14632.435397,5045.235758,10869.340404,0.004000,-0.012000,1.002000,192.000000,0.000000,0.000000,0.000000,0.000000,0.000000,0.000000,0.000000,0.000000,0.000000,1772530564.747329,0.000000
128.000000,4013.121606,6138.347821,8058.675594,-17618.404939,10264.390441,7987.731157,-3574.446270,189.833366,4069.135078,5864.516600,9831.683020,7937.305622,14539.921527,14634.335295,5061.843105,10875.867114,0.004000,-0.012000,1.002000,192.000000,0.000000,0.000000,0.000000,0.000000,0.000000,0.000000,0.000000,0.000000,0.000000,1772530564.747340,0.000000
130.000000,4015.647354,6145.276862,8067.392775,-17609.777166,10267.944368,7976.287064,-3570.221790,193.588459,4071.258494,5874.418423,9831.928889,7941.105418,14472.821590,14617.683246,5065.285273,10876.202390,0.004000,-0.012000,1.002000,192.000000,0.000000,0.000000,0.000000,0.000000,0.000000,0.000000,0.000000,0.000000,0.000000,1772530564.747351,0.000000
132.000000,4007.399560,6136.313812,8059.033222,-17617.488517,10311.552621,7984.981893,-3573.127517,186.972342,4069.090375,5861.007376,9827.883223,7938.333802,14513.702931,14641.800778,5051.717764,10880.225704,0.007000,-0.013000,1.005000,192.000000,0.000000,40.000000,127.500000,72.000000,15.500000,64.000000,0.000000,0.000000,0.000000,1772530564.747361,0.000000
134.000000,4007.868947,6125.227347,8066.006966,-17615.499212,10256.880254,7948.280328,-3573.261627,186.055921,4069.403299,5848.423344,9825.290421,7933.796398,14473.022756,14600.740624,5065.128811,10884.092556,0.007000,-0.013000,1.005000,192.000000,0.000000,0.000000,0.000000,0.000000,0.000000,0.000000,0.000000,0.000000,0.000000,1772530564.747372,0.000000
136.000000,4008.695961,6130.211786,8065.694042,-17613.934590,10250.979394,7942.759447,-3567.718395,192.090892,4069.626816,5848.400992,9824.776331,7935.785703,14494.994521,14611.491813,5061.619587,10869.966253,0.007000,-0.013000,1.005000,192.000000,0.000000,0.000000,0.000000,0.000000,0.000000,0.000000,0.000000,0.000000,0.000000,1772530564.747383,0.000000
138.000000,4005.276144,6121.338144,8060.776658,-17621.198907,10256.455571,7950.090820,-3571.495840,190.101587,4076.913485,5844.936472,9829.649011,7933.908157,14537.529890,14628.032104,5063.430078,10863.260730,0.007000,-0.013000,1.005000,192.000000,0.000000,0.000000,0.000000,0.000000,0.000000,0.000000,0.000000,0.000000,0.000000,1772530564.747394,0.000000
140.000000,4014.730932,6134.302155,8072.511324,-17610.738291,10260.098906,7960.394974,-3564.835020,198.997581,4081.361482,5855.307681,9831.705371,7939.674907,14496.447384,14598.393690,5063.452430,10871.217951,0.007000,-0.013000,1.005000,192.000000,0.000000,0.000000,0.000000,0.000000,0.000000,0.000000,0.000000,0.000000,0.000000,1772530564.747404,0.000000
142.000000,4012.629868,6130.480007,8069.203266,-17615.633323,10266.089173,7970.229741,-3567.338415,197.723531,4082.210849,5849.250358,9834.007601,7941.865378,14485.003291,14617.303266,5046.532160,10860.220892,0.008500,-0.011500,1.001500,192.000000,0.000000,40.000000,127.500000,88.000000,15.500000,24.000000,0.000000,0.000000,0.000000,1772530564.747415,0.000000
144.000000,4016.161444,6130.234138,8070.589074,-17622.361198,10261.730583,7975.191829,-3566.936084,199.243450,4092.962038,5842.455428,9839.528482,7938.311450,14492.938160,14617.012694,5065.128811,10863.640709,0.008500,-0.011500,1.001500,192.000000,0.000000,0.000000,0.000000,0.000000,0.000000,0.000000,0.000000,0.000000,0.000000,1772530564.747425,0.000000
146.000000,4008.852423,6122.768655,8068.599769,-17619.299009,10281.467173,7966.564055,-3567.763098,192.023837,4094.481956,5837.426285,9837.472121,7938.132636,14527.516309,14611.335350,5042.911177,10864.758297,0.008500,-0.011500,1.001500,192.000000,0.000000,0.000000,0.000000,0.000000,0.000000,0.000000,0.000000,0.000000,0.000000,1772530564.747438,0.000000
148.000000,4013.032200,6122.567489,8068.689176,-17621.824756,10257.528455,7964.865323,-3572.747537,188.022874,4092.447948,5823.925832,9832.599441,7928.387276,14515.580477,14606.417967,5055.361099,10868.446334,0.008500,-0.011500,1.001500,192.000000,0.000000,0.000000,0.000000,0.000000,0.000000,0.000000,0.000000,0.000000,0.000000,1772530564.747448,0.000000
150.000000,4010.573508,6120.868757,8068.510362,-17625.982180,10313.296057,7978.924570,-3571.071156,186.570011,4111.424579,5834.967594,9835.974555,7929.102532,14523.470643,14610.217763,5064.257093,10865.987643,0.008500,-0.011500,1.001500,192.000000,0.000000,0.000000,0.000000,0.000000,0.000000,0.000000,0.000000,0.000000,0.000000,1772530564.747459,0.000000
152.000000,4009.768845,6116.264298,8068.465658,-17620.885983,10283.076499,7959.836180,-3575.742671,182.345531,4099.667561,5808.681942,9825.625697,7921.167662,14546.068257,14596.873772,5053.505904,10870.882675,0.007250,-0.009750,1.002750,192.000000,0.000000,24.000000,127.500000,96.000000,15.500000,48.000000,0.000000,0.000000,0.000000,1772530564.747469,0.000000
154.000000,4011.489929,6118.521824,8067.236312,-17623.434081,10291.011368,7988.379358,-3575.228581,182.166717,4114.576175,5824.775198,9835.683982,7924.743941,14445.865386,14627.585069,5074.315378,10885.903047,0.007250,-0.009750,1.002750,192.000000,0.000000,0.000000,0.000000,0.000000,0.000000,0.000000,0.000000,0.000000,0.000000,1772530564.747480,0.000000
156.000000,4009.679438,6117.404236,8069.873818,-17622.338846,10278.427336,7986.457108,-3573.753366,180.065653,4102.014494,5822.137692,9828.777293,7921.748808,14566.587158,14608.362568,5060.122020,10876.470611,0.007250,-0.009750,1.002750,192.000000,0.000000,0.000000,0.000000,0.000000,0.000000,0.000000,0.000000,0.000000,0.000000,1772530564.747490,0.000000
158.000000,3998.950600,6096.594762,8069.404432,-17635.325210,10264.725717,7955.656404,-3582.090566,168.040415,4103.065026,5801.507032,9826.832691,7910.930563,14468.463000,14591.442298,5075.164744,10889.769899,0.007250,-0.009750,1.002750,192.000000,0.000000,0.000000,0.000000,0.000000,0.000000,0.000000,0.000000,0.000000,0.000000,1772530564.747501,0.000000
160.000000,4003.979743,6107.524765,8071.371385,-17630.854861,10263.697536,7952.728325,-3579.229543,170.856735,4110.843433,5802.915192,9825.022200,7907.935430,14518.665018,14583.887408,5086.541782,10884.539590,0.007250,-0.009750,1.002750,192.000000,0.000000,0.000000,0.000000,0.000000,0.000000,0.000000,0.000000,0.000000,0.000000,1772530564.747512,0.000000
162.000000,3997.587144,6097.354722,8064.375289,-17633.514718,10286.250447,7964.015956,-3581.576476,169.873258,4107.088340,5805.284477,9821.960011,7909.701217,14543.475454,14581.473420,5073.108384,10873.944864,0.009625,-0.008875,1.001375,192.000000,0.000000,48.000000,127.500000,96.000000,15.500000,32.000000,0.000000,0.000000,0.000000,1772530564.747522,0.000000
164.000000,4010.327638,6112.375094,8071.013757,-17629.223183,10293.671226,7966.698166,-3577.106127,179.573915,4110.910488,5807.162023,9828.933755,7911.265839,14504.248143,14616.722121,5075.254151,10875.397727,0.009625,-0.008875,1.001375,192.000000,0.000000,0.000000,0.000000,0.000000,0.000000,0.000000,0.000000,0.000000,0.000000,1772530564.747533,0.000000
166.000000,4005.544365,6111.458672,8072.779545,-17620.997741,10267.184409,7956.550474,-3572.725185,183.284305,4117.817178,5817.555585,9833.627621,7922.262898,14509.500803,14583.529780,5057.350404,10864.601834,0.009625,-0.008875,1.001375,192.000000,0.000000,0.000000,0.000000,0.000000,0.000000,0.000000,0.000000,0.000000,0.000000,1772530564.747543,0.000000
168.000000,4004.426778,6108.307076,8065.023490,-17632.888869,10288.776194,7949.464971,-3577.731976,177.249334,4110.865785,5813.129939,9831.057171,7918.574860,14523.247126,14597.566676,5054.668195,10870.614454,0.009625,-0.008875,1.001375,192.000000,0.000000,0.000000,0.000000,0.000000,0.000000,0.000000,0.000000,0.000000,0.000000,1772530564.747554,0.000000
170.000000,4010.394694,6116.376056,8072.086641,-17627.189175,10281.020138,7956.192846,-3572.568723,179.976246,4117.705419,5817.354419,9830.543081,7914.953877,14500.336587,14590.123545,5061.887808,10868.021651,0.009625,-0.008875,1.001375,192.000000,0.000000,0.000000,0.000000,0.000000,0.000000,0.000000,0.000000,0.000000,0.000000,1772530564.747577,0.000000
172.000000,3999.464691,6103.568507,8066.856333,-17632.151262,10281.534229,7961.624320,-3577.664921,174.969456,4115.760817,5811.386503,9827.860871,7914.126863,14511.199535,14603.512240,5059.384413,10858.924491,0.009813,-0.012438,0.999687,192.000000,0.000000,40.000000,127.500000,64.000000,15.500000,24.000000,0.000000,0.000000,0.000000,1772530564.747588,0.000000
174.000000,3999.487042,6102.808547,8062.877722,-17630.005494,10294.833516,7945.419305,-3580.235372,173.404833,4105.009628,5808.637239,9822.675267,7911.109377,14570.096382,14588.380109,5079.568038,10872.134372,0.009813,-0.012438,0.999687,192.000000,0.000000,0.000000,0.000000,0.000000,0.000000,0.000000,0.000000,0.000000,0.000000,1772530564.747598,0.000000
176.000000,3997.229516,6102.182699,8072.377214,-17623.009398,10282.651816,7975.616512,-3575.005063,180.400929,4112.184538,5801.752901,9824.128130,7913.232793,14477.157828,14586.882542,5054.288215,10878.236398,0.009813,-0.012438,0.999687,192.000000,0.000000,0.000000,0.000000,0.000000,0.000000,0.000000,0.000000,0.000000,0.000000,1772530564.747610,0.000000
178.000000,4003.577412,6107.994152,8065.247007,-17631.547765,10294.811165,7971.928474,-3579.788337,177.003464,4109.949363,5799.182451,9825.849214,7911.556412,14557.668812,14607.557906,5074.427137,10878.750489,0.009813,-0.012438,0.999687,192.000000,0.000000,0.000000,0.000000,0.000000,0.000000,0.000000,0.000000,0.000000,0.000000,1772530564.747622,0.000000
180.000000,4003.331542,6111.682190,8075.037071,-17618.851974,10256.299109,7979.192791,-3573.216924,182.636104,4109.189404,5820.416608,9827.167967,7919.893613,14551.678544,14600.159478,5073.287198,10881.209180,0.009813,-0.012438,0.999687,192.000000,0.000000,0.000000,0.000000,0.000000,0.000000,0.000000,0.000000,0.000000,0.000000,1772530564.747633,0.000000
182.000000,3998.704731,6102.316809,8072.332510,-17619.187250,10252.722830,7974.275407,-3576.435575,180.177412,4111.849262,5812.973477,9830.386618,7922.665229,14456.013078,14605.635656,5065.978177,10880.091593,0.007906,-0.014219,1.001844,192.000000,0.000000,24.000000,127.500000,64.000000,15.500000,48.000000,0.000000,0.000000,0.000000,1772530564.747644,0.000000
184.000000,4000.895202,6104.797853,8067.973920,-17631.436006,10313.407816,7982.143221,-3578.156659,179.752729,4109.278811,5806.424416,9830.565432,7916.384389,14462.159808,14585.452030,5078.361044,10889.233457,0.007906,-0.014219,1.001844,192.000000,0.000000,0.000000,0.000000,0.000000,0.000000,0.000000,0.000000,0.000000,0.000000,1772530564.747654,0.000000
186.000000,4001.901031,6110.855175,8068.756231,-17625.110462,10291.883086,7961.825485,-3575.161526,180.870316,4110.396398,5818.762579,9829.380790,7921.212366,14508.472622,14602.573467,5061.932512,10864.847704,0.007906,-0.014219,1.001844,192.000000,0.000000,0.000000,0.000000,0.000000,0.000000,0.000000,0.000000,0.000000,0.000000,1772530564.747665,0.000000
188.000000,3995.351970,6101.378036,8064.196475,-17634.118215,10259.182484,7954.628224,-3578.581343,178.456328,4100.338113,5805.105663,9823.435226,7914.462139,14530.869070,14600.315940,5076.125869,10867.082878,0.007906,-0.014219,1.001844,192.000000,0.000000,0.000000,0.000000,0.000000,0.000000,0.000000,0.000000,0.000000,0.000000,1772530564.747675,0.000000
190.000000,4008.561851,6117.538347,8069.382080,-17620.058968,10239.289431,7955.388183,-3571.071156,188.961648,4111.201061,5815.812149,9828.665534,7922.262898,14567.481228,14609.077824,5056.769259,10868.289872,0.007906,-0.014219,1.001844,192.000000,0.000000,0.000000,0.000000,0.000000,0.000000,0.000000,0.000000,0.000000,0.000000,1772530564.747686,0.000000
192.000000,3997.117757,6109.447015,8066.722222,-17630.743102,10237.054257,7928.744904,-3576.770851,180.646799,4113.369180,5809.732474,9828.889052,7922.374656,14469.401773,14575.013766,5047.135657,10854.230625,0.006953,-0.015109,1.005922,192.000000,0.000000,24.000000,127.500000,64.000000,15.500000,72.000000,0.000000,0.000000,0.000000,1772530564.747696,0.000000
194.000000,4000.962257,6106.206013,8065.582283,-17626.630381,10260.970624,7951.744849,-3576.435575,183.597229,4107.803596,5797.528422,9826.519767,7916.429092,14498.816669,14577.293644,5057.886846,10868.178113,0.006953,-0.015109,1.005922,192.000000,0.000000,0.000000,0.000000,0.000000,0.000000,0.000000,0.000000,0.000000,0.000000,1772530565.228403,0.000000
196.000000,4008.047760,6117.180719,8067.616292,-17620.126023,10269.263121,7959.679718,-3575.586209,185.810052,4118.398323,5813.889899,9827.436188,7925.146273,14517.748596,14581.540475,5040.474837,10869.742736,0.006953,-0.015109,1.005922,192.000000,0.000000,0.000000,0.000000,0.000000,0.000000,0.000000,0.000000,0.000000,0.000000,1772530565.228451,0.000000
198.000000,3999.397635,6104.797853,8066.476353,-17629.401997,10252.365202,7949.532026,-3580.011854,182.278476,4105.322552,5813.599326,9827.033857,7920.810034,14517.726245,14590.972911,5061.440773,10869.899198,0.006953,-0.015109,1.005922,192.000000,0.000000,0.000000,0.000000,0.000000,0.000000,0.000000,0.000000,0.000000,0.000000,1772530565.228489,0.000000
200.000000,4002.526880,6113.850309,8067.660995,-17619.969561,10272.951159,7964.865323,-3575.385043,186.234735,4103.266192,5804.368055,9828.374961,7919.804206,14493.519305,14610.955371,5063.988872,10875.308320,0.006953,-0.015109,1.005922,192.000000,0.000000,0.000000,0.000000,0.000000,0.000000,0.000000,0.000000,0.000000,0.000000,1772530565.228526,0.000000
202.000000,4012.160481,6122.299269,8065.448173,-17625.088111,10340.341668,7973.627207,-3576.614389,187.084101,4107.334209,5817.890861,9829.671363,7926.353267,14507.667960,14614.732816,5053.796477,10878.862247,0.006953,-0.015109,1.005922,192.000000,0.000000,0.000000,0.000000,0.000000,0.000000,0.000000,0.000000,0.000000,0.000000,1772530565.228566,0.000000
204.000000,4001.409292,6111.033989,8073.226580,-17626.943305,10260.791810,7950.761372,-3578.603694,178.702197,4113.011552,5814.895727,9835.594575,7922.419360,14522.442463,14590.324711,5071.208486,10883.712576,0.010000,-0.010000,1.008000,192.000000,0.000000,40.000000,127.500000,88.000000,15.500000,64.000000,0.000000,0.000000,0.000000,1772530565.228636,0.000000
206.000000,4002.526880,6114.811434,8069.247969,-17627.122119,10263.205798,7962.965424,-3576.994369,178.992770,4104.227317,5808.369018,9830.498377,7921.145311,14492.602884,14572.644481,5072.460183,10872.871980,0.010000,-0.010000,1.008000,192.000000,0.000000,0.000000,0.000000,0.000000,0.000000,0.000000,0.000000,0.000000,0.000000,1772530565.228649,0.000000
208.000000,3989.294647,6099.276972,8055.881626,-17633.157090,10298.163926,7952.348346,-3584.191630,168.398043,4099.645209,5804.055131,9823.815206,7914.931526,14532.076065,14576.980719,5066.402860,10882.304416,0.010000,-0.010000,1.008000,192.000000,0.000000,0.000000,0.000000,0.000000,0.000000,0.000000,0.000000,0.000000,0.000000,1772530565.228660,0.000000
210.000000,3985.025464,6102.585030,8065.314062,-17622.607067,10249.325365,7952.705974,-3578.089604,171.929618,4088.178764,5806.066788,9818.517842,7912.428130,14468.530055,14590.950559,5068.548628,10881.566808,0.010000,-0.010000,1.008000,192.000000,0.000000,0.000000,0.000000,0.000000,0.000000,0.000000,0.000000,0.000000,0.000000,1772530565.228678,0.000000
212.000000,3992.580353,6110.206975,8066.744574,-17627.077416,10244.050353,7938.266747,-3578.715453,173.784813,4089.631628,5805.440939,9821.110644,7915.244450,14480.689404,14600.785327,5062.781878,10874.324843,0.010000,-0.010000,1.008000,192.000000,0.000000,0.000000,0.000000,0.000000,0.000000,0.000000,0.000000,0.000000,0.000000,1772530565.228689,0.000000
214.000000,3993.273257,6115.772559,8060.933120,-17626.384512,10242.351620,7953.778857,-3576.189706,179.417453,4090.749215,5821.154215,9824.888089,7921.681752,14500.470698,14580.132315,5068.392166,10870.815619,0.008000,-0.008000,1.006000,192.000000,0.000000,32.000000,127.500000,96.000000,15.500000,56.000000,0.000000,0.000000,0.000000,1772530565.228700,0.000000
216.000000,3997.073054,6119.840577,8064.487048,-17629.871384,10256.656737,7962.317224,-3573.261627,182.501993,4083.171974,5817.019143,9818.875470,7920.452406,14574.834952,14628.546194,5044.676965,10860.556169,0.008000,-0.008000,1.006000,192.000000,0.000000,0.000000,0.000000,0.000000,0.000000,0.000000,0.000000,0.000000,0.000000,1772530565.228710,0.000000
218.000000,3999.665856,6117.605402,8062.587149,-17626.272753,10267.810257,7956.259901,-3575.541505,181.607924,4094.169032,5817.957916,9826.273897,7925.347438,14471.972224,14598.192525,5047.716802,10858.656270,0.008000,-0.008000,1.006000,192.000000,0.000000,0.000000,0.000000,0.000000,0.000000,0.000000,0.000000,0.000000,0.000000,1772530565.228721,0.000000
220.000000,4005.566717,6126.032010,8070.298501,-17624.261096,10244.609147,7956.550474,-3571.495840,184.647761,4101.321590,5819.388428,9829.380790,7929.258994,14462.740953,14559.233434,5052.209503,10863.327785,0.008000,-0.008000,1.006000,192.000000,0.000000,0.000000,0.000000,0.000000,0.000000,0.000000,0.000000,0.000000,0.000000,1772530565.228732,0.000000
222.000000,4001.699865,6121.986344,8066.945740,-17625.065759,10257.282586,7936.813883,-3573.418090,185.273610,4097.991180,5819.231965,9825.849214,7925.302735,14471.011099,14593.677472,5050.778991,10864.244206,0.008000,-0.008000,1.006000,192.000000,0.000000,0.000000,0.000000,0.000000,0.000000,0.000000,0.000000,0.000000,0.000000,1772530565.228744,0.000000
224.000000,4000.492871,6120.980516,8060.866065,-17621.712997,10274.962816,7941.395991,-3576.301465,183.485470,4087.821136,5817.019143,9823.681095,7929.683677,14532.411341,14580.869923,5065.642901,10878.482268,0.006000,-0.010000,0.996000,192.000000,0.000000,24.000000,127.500000,88.000000,15.500000,16.000000,0.000000,0.000000,0.000000,1772530565.228754,0.000000
226.000000,4002.325714,6125.361458,8065.403469,-17617.980256,10302.388406,7959.724421,-3573.731014,185.742996,4092.738520,5816.616811,9820.328333,7930.220119,14575.550208,14598.773670,5056.903369,10880.695090,0.006000,-0.010000,0.996000,192.000000,0.000000,0.000000,0.000000,0.000000,0.000000,0.000000,0.000000,0.000000,0.000000,1772530565.228765,0.000000
228.000000,4001.744569,6124.534443,8063.525923,-17624.283448,10264.725717,7961.356099,-3580.369482,180.646799,4096.001875,5821.578899,9824.955145,7929.884843,14444.636040,14600.070071,5057.752735,10885.210143,0.006000,-0.010000,0.996000,192.000000,0.000000,0.000000,0.000000,0.000000,0.000000,0.000000,0.000000,0.000000,0.000000,1772530565.228776,0.000000
230.000000,3986.813603,6109.581126,8068.353900,-17624.819890,10255.136818,7956.259901,-3577.776680,177.428147,4084.714244,5816.817977,9819.344857,7920.541813,14464.640852,14589.765917,5076.148221,10893.077957,0.006000,-0.010000,0.996000,192.000000,0.000000,0.000000,0.000000,0.000000,0.000000,0.000000,0.000000,0.000000,0.000000,1772530565.228787,0.000000
232.000000,3985.338388,6104.641390,8059.279091,-17633.045332,10254.510969,7945.352250,-3580.905924,176.310560,4077.829907,5796.857869,9813.891031,7915.624430,14479.527113,14578.075955,5065.642901,10884.427832,0.006000,-0.010000,0.996000,192.000000,0.000000,0.000000,0.000000,0.000000,0.000000,0.000000,0.000000,0.000000,0.000000,1772530565.228797,0.000000
234.000000,3994.346141,6115.929021,8054.652280,-17628.552631,10299.661493,7965.982910,-3578.961322,182.680807,4073.806593,5798.578954,9814.986266,7918.150177,14491.060614,14569.470533,5061.463125,10885.098384,0.006000,-0.010000,0.996000,192.000000,0.000000,0.000000,127.500000,96.000000,15.500000,48.000000,0.000000,0.000000,0.000000,1772530565.228808,0.000000
236.000000,3996.760130,6120.131149,8064.732917,-17619.813099,10235.824911,7946.983927,-3572.121688,188.671075,4085.094224,5823.389390,9817.959049,7930.354229,14553.980774,14598.751318,5055.808134,10877.945826,0.006000,-0.010000,0.996000,192.000000,0.000000,0.000000,0.000000,0.000000,0.000000,0.000000,0.000000,0.000000,0.000000,1772530565.228819,0.000000
238.000000,4003.063321,6122.299269,8057.692117,-17624.037579,10308.892764,7962.540741,-3573.731014,188.648723,4092.157375,5820.103683,9825.513938,7931.047133,14507.690311,14593.297493,5050.175494,10873.877808,0.006000,-0.010000,0.996000,192.000000,0.000000,0.000000,0.000000,0.000000,0.000000,0.000000,0.000000,0.000000,0.000000,1772530565.228829,0.000000
240.000000,4002.996266,6128.267184,8069.806763,-17615.990951,10244.273871,7964.910026,-3568.254837,191.800319,4088.312875,5828.038553,9823.994020,7931.695334,14456.013078,14605.590952,5045.615738,10882.974968,0.006000,-0.010000,0.996000,192.000000,0.000000,0.000000,0.000000,0.000000,0.000000,0.000000,0.000000,0.000000,0.000000,1772530565.228840,0.000000
242.000000,3994.435548,6113.000943,8070.298501,-17621.936515,10227.957097,7946.156913,-3572.076985,184.468947,4082.546125,5812.705256,9823.792854,7930.577747,14531.807844,14579.484115,5053.014166,10869.854494,0.006000,-0.010000,0.996000,192.000000,0.000000,0.000000,0.000000,0.000000,0.000000,0.000000,0.000000,0.000000,0.000000,1772530565.228853,0.000000
244.000000,3991.686284,6112.017466,8069.002100,-17627.613858,10252.342850,7943.295889,-3575.563857,177.919886,4086.100052,5804.457462,9822.697618,7922.709933,14499.308407,14582.680414,5072.773108,10880.113945,0.010000,-0.006000,1.006000,192.000000,0.000000,40.000000,127.500000,104.000000,15.500000,56.000000,0.000000,0.000000,0.000000,1772530565.228863,0.000000
246.000000,3999.911726,6121.092274,8069.359728,-17623.881116,10261.864693,7944.033497,-3571.317026,184.312485,4085.474203,5816.661515,9817.512014,7923.626354,14471.413430,14602.931095,5057.573921,10877.096460,0.010000,-0.006000,1.006000,192.000000,0.000000,0.000000,0.000000,0.000000,0.000000,0.000000,0.000000,0.000000,0.000000,1772530565.228873,0.000000
248.000000,3995.463728,6114.274992,8062.542446,-17633.827643,10271.140667,7938.803189,-3577.061424,178.433976,4087.172936,5813.152291,9820.618906,7925.436845,14548.884576,14586.167286,5055.539913,10871.642634,0.010000,-0.006000,1.006000,192.000000,0.000000,0.000000,0.000000,0.000000,0.000000,0.000000,0.000000,0.000000,0.000000,1772530565.228884,0.000000
250.000000,4005.723179,6127.037838,8074.165353,-17622.718826,10259.540112,7955.701107,-3570.490011,187.061749,4091.933857,5813.867547,9820.730665,7920.273593,14461.042221,14591.643464,5071.521410,10882.662044,0.010000,-0.006000,1.006000,192.000000,0.000000,0.000000,0.000000,0.000000,0.000000,0.000000,0.000000,0.000000,0.000000,1772530565.228895,0.000000
252.000000,4004.717351,6123.729780,8070.276150,-17630.340771,10275.320444,7965.602930,-3574.669787,184.536002,4099.980485,5826.228061,9825.424531,7929.616622,14509.724320,14588.022481,5064.882942,10873.609587,0.010000,-0.006000,1.006000,192.000000,0.000000,0.000000,0.000000,0.000000,0.000000,0.000000,0.000000,0.000000,0.000000,1772530565.228906,0.000000
254.000000,3997.587144,6112.263335,8068.577417,-17618.941381,10258.914263,7982.813773,-3575.273284,180.937371,4096.627724,5815.387465,9824.731627,7925.079218,14482.231674,14584.110926,5074.024805,10885.120736,0.010000,-0.008000,1.006000,192.000000,0.000000,40.000000,127.500000,96.000000,15.500000,56.000000,0.000000,0.000000,0.000000,1772530565.228917,0.000000
0.000000,3999.285877,6117.158367,8071.594902,-17613.487555,10243.290394,7988.133489,-3573.216924,180.467985,4094.839584,5811.811186,9819.568374,7925.794473,14488.378404,14609.547211,5062.312491,10906.980742,0.010000,-0.008000,1.006000,192.000000,0.000000,0.000000,0.000000,0.000000,0.000000,0.000000,0.000000,0.000000,0.000000,1772530565.228927,0.000000
2.000000,4003.420949,6114.163234,8061.380155,-17624.261096,10270.760688,7970.676776,-3579.162488,178.210459,4095.398378,5807.542003,9820.417740,7923.425188,14518.709721,14617.236211,5065.598198,10909.595896,0.010000,-0.008000,1.006000,192.000000,0.000000,0.000000,0.000000,0.000000,0.000000,0.000000,0.000000,0.000000,0.000000,1772530565.228938,0.000000
4.000000,3999.375284,6105.937792,8064.978786,-17629.200832,10274.515781,7970.408555,-3576.234409,180.378578,4095.398378,5796.902573,9818.383732,7915.892651,14531.941954,14604.987455,5072.326073,10901.191640,0.010000,-0.008000,1.006000,192.000000,0.000000,0.000000,0.000000,0.000000,0.000000,0.000000,0.000000,0.000000,0.000000,1772530565.228948,0.000000
6.000000,4019.111874,6122.567489,8070.566722,-17627.837375,10268.279644,7939.943128,-3575.832078,185.742996,4116.051390,5811.587669,9829.045514,7924.632183,14490.814744,14573.873827,5057.775087,10871.955558,0.010000,-0.008000,1.006000,192.000000,0.000000,0.000000,0.000000,0.000000,0.000000,0.000000,0.000000,0.000000,0.000000,1772530565.228958,0.000000
8.000000,4011.780502,6112.062170,8067.660995,-17628.798500,10271.051260,7943.809979,-3574.245104,184.826575,4115.693762,5791.314637,9829.403142,7921.190014,14520.766082,14572.689184,5060.792573,10874.615416,0.008000,-0.004000,0.998000,192.000000,0.000000,32.000000,127.500000,112.000000,15.500000,24.000000,0.000000,0.000000,0.000000,1772530565.228968,0.000000
10.000000,4010.394694,6112.106873,8075.506458,-17626.473919,10271.341833,7943.094724,-3571.607598,186.637066,4119.046523,5792.052244,9830.721895,7922.732284,14505.566896,14610.776557,5043.961709,10863.037212,0.008000,-0.004000,0.998000,192.000000,0.000000,0.000000,0.000000,0.000000,0.000000,0.000000,0.000000,0.000000,0.000000,1772530565.228979,0.000000
12.000000,4016.317906,6111.995114,8073.852429,-17632.084207,10249.548882,7958.830352,-3578.223715,179.752729,4120.454683,5785.167907,9829.425493,7919.670095,14561.379202,14569.045850,5063.631244,10873.564884,0.008000,-0.004000,0.998000,192.000000,0.000000,0.000000,0.000000,0.000000,0.000000,0.000000,0.000000,0.000000,0.000000,1772530565.228989,0.000000
14.000000,4019.268336,6115.370228,8080.423842,-17629.871384,10269.732507,7960.864360,-3573.351034,185.161851,4119.627669,5768.560561,9829.313735,7912.226965,14452.995593,14576.109001,5066.715785,10882.729099,0.008000,-0.004000,0.998000,192.000000,0.000000,0.000000,0.000000,0.000000,0.000000,0.000000,0.000000,0.000000,0.000000,1772530565.229006,0.000000
16.000000,4015.580298,6111.503376,8072.801897,-17633.492366,10257.148475,7941.708915,-3578.491936,179.126880,4131.876425,5778.685901,9833.135883,7916.026761,14493.161677,14569.738754,5061.150201,10874.458954,0.008000,-0.004000,0.998000,192.000000,0.000000,0.000000,0.000000,0.000000,0.000000,0.000000,0.000000,0.000000,0.000000,1772530565.229017,0.000000
18.000000,4029.281918,6124.757960,8068.599769,-17628.552631,10281.064842,7962.630148,-3577.843735,184.021912,4134.648041,5783.200953,9830.744246,7917.770197,14544.861262,14580.624054,5069.129773,10884.696053,0.007000,-0.005000,0.996000,192.000000,0.000000,24.000000,127.500000,104.000000,15.500000,8.000000,0.000000,0.000000,0.000000,1772530565.229029,0.000000
20.000000,4019.737723,6115.683152,8078.523943,-17623.456433,10245.369106,7964.999433,-3574.625084,184.804223,4125.975564,5776.897761,9828.956107,7919.446578,14555.143065,14596.650254,5056.255168,10877.834067,0.007000,-0.005000,0.996000,192.000000,0.000000,0.000000,0.000000,0.000000,0.000000,0.000000,0.000000,0.000000,0.000000,1772530565.229039,0.000000
22.000000,4019.000115,6111.481024,8075.394699,-17630.094901,10238.551824,7937.685601,-3579.743633,179.864488,4134.290413,5786.017273,9831.392447,7918.686619,14487.506686,14575.729022,5072.840163,10880.851553,0.007000,-0.005000,0.996000,192.000000,0.000000,0.000000,0.000000,0.000000,0.000000,0.000000,0.000000,0.000000,0.000000,1772530565.229049,0.000000
24.000000,4024.565700,6122.165158,8081.541429,-17623.612895,10253.974528,7956.572826,-3574.982712,184.468947,4134.469227,5779.065881,9832.286517,7917.054941,14488.713680,14586.435507,5078.673968,10886.864172,0.007000,-0.005000,0.996000,192.000000,0.000000,0.000000,0.000000,0.000000,0.000000,0.000000,0.000000,0.000000,0.000000,1772530565.229059,0.000000
26.000000,4022.777560,6116.085484,8075.908789,-17622.919991,10268.816086,7965.915855,-3577.307293,183.820746,4138.336079,5785.234962,9832.375924,7920.899441,14500.515401,14583.820353,5069.755622,10885.254846,0.007000,-0.005000,0.996000,192.000000,0.000000,0.000000,0.000000,0.000000,0.000000,0.000000,0.000000,0.000000,0.000000,1772530565.229070,0.000000
28.000000,4027.337316,6116.688981,8070.276150,-17622.696474,10281.109545,7980.735061,-3576.614389,185.161851,4136.056201,5780.742261,9833.158235,7920.519462,14575.170228,14572.800943,5079.411576,10892.809736,0.005500,-0.005500,0.999000,192.000000,0.000000,16.000000,127.500000,104.000000,15.500000,40.000000,0.000000,0.000000,0.000000,1772530565.229080,0.000000
30.000000,4036.747400,6128.222481,8083.597789,-17627.949134,10312.513746,7961.132581,-3570.557066,195.108377,4151.657719,5790.934657,9839.550834,7926.442674,14553.354925,14604.629827,5060.077317,10869.988605,0.005500,-0.005500,0.999000,192.000000,0.000000,0.000000,0.000000,0.000000,0.000000,0.000000,0.000000,0.000000,0.000000,1772530565.229091,0.000000
32.000000,4025.079790,6112.129225,8079.887400,-17632.084207,10241.368144,7939.987831,-3575.653264,188.559316,4148.953158,5777.970645,9841.897767,7920.564165,14479.996500,14619.471385,5057.618625,10862.724288,0.005500,-0.005500,0.999000,192.000000,0.000000,0.000000,0.000000,0.000000,0.000000,0.000000,0.000000,0.000000,0.000000,1772530565.229102,0.000000
34.000000,4043.967014,6139.711277,8086.525868,-17614.538087,10239.110618,7967.145201,-3567.047842,200.763369,4147.477942,5789.794718,9841.070752,7926.286212,14497.944951,14568.911739,5060.770221,10872.313186,0.005500,-0.005500,0.999000,192.000000,0.000000,0.000000,0.000000,0.000000,0.000000,0.000000,0.000000,0.000000,0.000000,1772530565.229113,0.000000
36.000000,4026.443246,6116.733684,8081.563780,-17622.651770,10244.385629,7948.839122,-3571.920523,191.375636,4148.975509,5800.389445,9843.238871,7933.706991,14519.201460,14578.813562,5060.122020,10855.169398,0.005500,-0.005500,0.999000,192.000000,0.000000,0.000000,0.000000,0.000000,0.000000,0.000000,0.000000,0.000000,0.000000,1772530565.229123,0.000000
38.000000,4025.035086,6116.241946,8073.070118,-17620.751872,10278.561446,7928.789607,-3575.273284,185.966514,4131.451742,5773.522648,9834.789912,7921.324124,14555.232472,14576.421926,5072.482535,10875.420079,0.005500,-0.005500,0.999000,192.000000,0.000000,0.000000,127.500000,104.000000,15.500000,56.000000,0.000000,0.000000,0.000000,1772530565.229134,0.000000
40.000000,4029.214862,6121.986344,8079.418013,-17620.908334,10264.256330,7939.183168,-3572.792241,187.397026,4144.996899,5779.602323,9832.778255,7923.291078,14616.006865,14587.284873,5062.334843,10876.962349,0.005500,-0.005500,0.999000,192.000000,0.000000,0.000000,0.000000,0.000000,0.000000,0.000000,0.000000,0.000000,0.000000,1772530565.229145,0.000000
42.000000,4028.924290,6116.197242,8082.189629,-17636.040465,10263.451667,7953.242416,-3577.441404,185.430072,4144.572216,5772.561523,9838.120322,7917.211404,14439.137511,14572.890350,5070.381471,10866.814657,0.005500,-0.005500,0.999000,192.000000,0.000000,0.000000,0.000000,0.000000,0.000000,0.000000,0.000000,0.000000,0.000000,1772530565.229156,0.000000
44.000000,4021.481159,6113.067998,8081.675539,-17624.931648,10270.157191,7959.098573,-3573.663959,184.312485,4138.045506,5770.996901,9834.834616,7913.433959,14480.532942,14573.806771,5074.158916,10880.806849,0.005500,-0.005500,0.999000,192.000000,0.000000,0.000000,0.000000,0.000000,0.000000,0.000000,0.000000,0.000000,0.000000,1772530565.229166,0.000000
46.000000,4025.057438,6114.140882,8069.292673,-17629.066721,10321.342685,7967.458125,-3577.419052,179.842136,4134.737448,5774.662587,9829.090217,7916.049113,14506.393910,14583.708594,5065.262921,10878.728137,0.005500,-0.005500,0.999000,192.000000,0.000000,0.000000,0.000000,0.000000,0.000000,0.000000,0.000000,0.000000,0.000000,1772530565.229205,0.000000
48.000000,4013.926269,6098.919344,8073.964187,-17635.258154,10288.664435,7955.298776,-3581.218848,172.175488,4130.401210,5762.123258,9824.463406,7902.928639,14561.066277,14594.795060,5079.769204,10895.156669,0.005500,-0.005500,0.999000,192.000000,0.000000,0.000000,127.500000,96.000000,15.500000,72.000000,0.000000,0.000000,0.000000,1772530565.229216,0.000000
50.000000,4023.984554,6114.364399,8076.668748,-17619.097843,10252.879292,7951.454276,-3577.508459,179.529211,4134.201006,5776.853058,9826.363304,7912.763406,14543.006068,14576.533684,5084.396015,10891.289817,0.005500,-0.005500,0.999000,192.000000,0.000000,0.000000,0.000000,0.000000,0.000000,0.000000,0.000000,0.000000,0.000000,1772530565.229228,0.000000
52.000000,4018.217804,6100.707483,8075.841734,-17629.178480,10270.045432,7969.223913,-3579.520116,179.998598,4131.630556,5762.346776,9826.005677,7914.685656,14491.462945,14551.186806,5079.702148,10892.653274,0.005500,-0.005500,0.999000,192.000000,0.000000,0.000000,0.000000,0.000000,0.000000,0.000000,0.000000,0.000000,0.000000,1772530565.229239,0.000000
54.000000,4038.222616,6124.489739,8082.636664,-17625.222221,10289.066766,7966.854628,-3571.607598,191.733264,4146.293300,5777.903590,9839.975517,7925.034514,14491.954683,14573.225626,5067.296930,10874.481305,0.005500,-0.005500,0.999000,192.000000,0.000000,0.000000,0.000000,0.000000,0.000000,0.000000,0.000000,0.000000,0.000000,1772530565.229250,0.000000
56.000000,4041.955357,6122.813359,8078.747461,-17621.690645,10238.864748,7946.022802,-3570.937046,195.466005,4146.159189,5779.311750,9837.226252,7926.062694,14540.435617,14581.674586,5048.365003,10868.356927,0.005500,-0.005500,0.999000,192.000000,0.000000,0.000000,0.000000,0.000000,0.000000,0.000000,0.000000,0.000000,0.000000,1772530565.229260,0.000000
58.000000,4045.621043,6126.747266,8080.334435,-17625.266925,10239.021211,7954.315299,-3572.747537,191.733264,4146.002727,5782.619808,9839.416723,7927.023819,14587.798964,14608.071996,5061.574884,10869.161590,0.003750,-0.004750,1.004500,192.000000,0.000000,8.000000,127.500000,112.000000,15.500000,72.000000,0.000000,0.000000,0.000000,1772530565.707965,0.000000
60.000000,4041.195398,6118.566527,8087.419938,-17627.278582,10266.178580,7952.907139,-3570.020624,192.202651,4162.632425,5777.992997,9841.853063,7925.101569,14514.731111,14602.461708,5055.428154,10865.630015,0.003750,-0.004750,1.004500,192.000000,0.000000,0.000000,0.000000,0.000000,0.000000,0.000000,0.000000,0.000000,0.000000,1772530565.708027,0.000000
62.000000,4052.013642,6127.261356,8082.591961,-17625.803366,10271.140667,7949.733192,-3574.870953,190.280401,4157.826800,5776.271913,9843.864720,7923.559299,14486.992596,14560.239263,5066.380509,10859.170360,0.003750,-0.004750,1.004500,192.000000,0.000000,0.000000,0.000000,0.000000,0.000000,0.000000,0.000000,0.000000,0.000000,1772530565.708064,0.000000
64.000000,4053.712374,6134.078638,8081.295560,-17614.716901,10298.476851,7956.148142,-3570.400604,192.873203,4165.314634,5779.177639,9844.199996,7931.896500,14541.553204,14550.873882,5063.474782,10873.766050,0.003750,-0.004750,1.004500,192.000000,0.000000,0.000000,0.000000,0.000000,0.000000,0.000000,0.000000,0.000000,0.000000,1772530565.708101,0.000000
66.000000,4050.985462,6128.490702,8082.927237,-17620.573058,10254.667432,7950.381392,-3574.781546,187.240563,4159.816105,5786.956046,9838.433246,7931.293003,14592.291664,14584.781478,5063.050099,10877.051756,0.003750,-0.004750,1.004500,192.000000,0.000000,0.000000,0.000000,0.000000,0.000000,0.000000,0.000000,0.000000,0.000000,1772530565.708139,0.000000
68.000000,4059.121497,6138.928966,8086.727033,-17624.104634,10291.748976,7945.441657,-3575.183877,189.028703,4168.220361,5786.017273,9846.636337,7925.950936,14501.565933,14605.210972,5076.282332,10881.969140,0.004875,-0.006375,1.009250,192.000000,0.000000,24.000000,127.500000,96.000000,15.500000,88.000000,0.000000,0.000000,0.000000,1772530565.708175,0.000000
70.000000,4048.593825,6135.553853,8085.140060,-17614.761605,10289.737319,7956.595177,-3573.082813,189.520441,4168.913265,5788.319503,9843.752962,7929.147235,14506.103338,14585.876713,5062.156029,10886.685358,0.004875,-0.006375,1.009250,192.000000,0.000000,0.000000,0.000000,0.000000,0.000000,0.000000,0.000000,0.000000,0.000000,1772530565.708215,0.000000
72.000000,4048.593825,6132.066981,8085.028301,-17623.322323,10265.440972,7983.305512,-3580.503593,181.719682,4171.349605,5799.182451,9841.629546,7928.342572,14568.710574,14588.067184,5087.502907,10892.161535,0.004875,-0.006375,1.009250,192.000000,0.000000,0.000000,0.000000,0.000000,0.000000,0.000000,0.000000,0.000000,0.000000,1772530565.708255,0.000000
74.000000,4045.509284,6129.384772,8081.429670,-17615.007474,10284.954045,7982.187925,-3574.625084,187.151156,4166.029890,5786.330198,9838.723819,7924.363962,14555.187768,14605.345083,5091.906201,10897.280085,0.004875,-0.006375,1.009250,192.000000,0.000000,0.000000,0.000000,0.000000,0.000000,0.000000,0.000000,0.000000,0.000000,1772530565.708292,0.000000
76.000000,4057.713337,6139.532463,8082.547257,-17618.807270,10308.892764,7965.714689,-3574.289808,192.582630,4172.467193,5790.353512,9842.791837,7933.796398,14646.785217,14612.967028,5057.573921,10886.640654,0.004875,-0.006375,1.009250,192.000000,0.000000,0.000000,0.000000,0.000000,0.000000,0.000000,0.000000,0.000000,0.000000,1772530565.708330,0.000000
78.000000,4039.720182,6122.120455,8086.436461,-17624.417558,10247.045487,7960.573788,-3575.720319,187.508784,4172.109565,5785.681997,9845.764619,7929.169587,14430.599145,14570.744583,5074.561247,10886.908875,0.005437,-0.007188,1.012625,192.000000,0.000000,24.000000,127.500000,96.000000,15.500000,96.000000,0.000000,0.000000,0.000000,1772530565.708361,0.000000
80.000000,4054.114706,6141.722934,8091.242086,-17619.567230,10241.949289,7956.125791,-3569.283017,197.611773,4166.991015,5785.123203,9843.551796,7932.075314,14511.043073,14577.941844,5060.926683,10873.900160,0.005437,-0.007188,1.012625,192.000000,0.000000,0.000000,0.000000,0.000000,0.000000,0.000000,0.000000,0.000000,0.000000,1772530565.708372,0.000000
82.000000,4047.386831,6131.575242,8080.647359,-17628.396169,10282.651816,7952.191884,-3573.753366,192.403816,4163.437088,5793.236887,9844.892901,7934.377543,14559.255786,14588.447164,5060.166724,10866.635843,0.005437,-0.007188,1.012625,192.000000,0.000000,0.000000,0.000000,0.000000,0.000000,0.000000,0.000000,0.000000,0.000000,1772530565.708390,0.000000
84.000000,4053.444153,6140.203016,8085.832964,-17623.679951,10271.341833,7939.652555,-3569.372424,194.147252,4168.823858,5781.524573,9841.450732,7932.075314,14573.382088,14592.850458,5060.434945,10863.685413,0.005437,-0.007188,1.012625,192.000000,0.000000,0.000000,0.000000,0.000000,0.000000,0.000000,0.000000,0.000000,0.000000,1772530565.708401,0.000000
86.000000,4055.724031,6138.191359,8092.091452,-17626.272753,10264.926882,7931.069485,-3573.105165,192.180299,4166.812201,5776.026043,9843.372982,7927.917889,14510.081948,14576.287815,5068.861552,10866.971119,0.005437,-0.007188,1.012625,192.000000,0.000000,0.000000,0.000000,0.000000,0.000000,0.000000,0.000000,0.000000,0.000000,1772530565.708412,0.000000
88.000000,4058.339186,6136.425571,8085.207115,-17629.424349,10276.214513,7947.274500,-3575.988540,191.174470,4181.810222,5781.971607,9849.854988,7929.303697,14519.603791,14560.194559,5078.115175,10873.073146,0.005437,-0.007188,1.012625,192.000000,0.000000,0.000000,0.000000,0.000000,0.000000,0.000000,0.000000,0.000000,0.000000,1772530565.708423,0.000000
90.000000,4057.735688,6139.510112,8075.864086,-17624.752834,10317.341723,7966.295834,-3574.200401,190.436863,4174.478850,5780.384634,9841.137808,7924.878052,14535.942916,14590.570580,5059.563227,10876.671776,0.008000,-0.004000,1.016000,192.000000,0.000000,32.000000,127.500000,112.000000,15.500000,96.000000,0.000000,0.000000,0.000000,1772530565.708434,0.000000
92.000000,4056.506342,6135.978536,8079.015682,-17629.625515,10280.215476,7965.178247,-3580.704758,185.519479,4171.394309,5788.565372,9835.728685,7926.710895,14602.215839,14585.586141,5055.092878,10880.918608,0.008000,-0.004000,1.016000,192.000000,0.000000,0.000000,0.000000,0.000000,0.000000,0.000000,0.000000,0.000000,0.000000,1772530565.708444,0.000000
94.000000,4051.074869,6131.687001,8088.872801,-17619.321361,10243.156283,7965.245302,-3576.301465,186.637066,4178.636274,5789.280628,9839.886110,7928.029648,14517.502727,14567.548283,5081.847916,10885.835992,0.008000,-0.004000,1.016000,192.000000,0.000000,0.000000,0.000000,0.000000,0.000000,0.000000,0.000000,0.000000,0.000000,1772530565.708455,0.000000
96.000000,4063.323625,6140.806513,8087.866972,-17624.126986,10269.397231,7976.398823,-3577.910790,189.185165,4175.350568,5786.218439,9838.187377,7926.532081,14506.528021,14585.519086,5069.062718,10885.679529,0.008000,-0.004000,1.016000,192.000000,0.000000,0.000000,0.000000,0.000000,0.000000,0.000000,0.000000,0.000000,0.000000,1772530565.708466,0.000000
98.000000,4057.579226,6134.592728,8078.769812,-17625.222221,10327.332953,7962.361927,-3578.983674,186.324142,4179.306827,5788.185392,9838.321488,7924.721590,14531.696085,14605.792118,5083.993683,10897.190678,0.008000,-0.004000,1.016000,192.000000,0.000000,0.000000,0.000000,0.000000,0.000000,0.000000,0.000000,0.000000,0.000000,1772530565.708476,0.000000
100.000000,4075.460622,6154.016394,8091.264438,-17614.806308,10279.969606,7979.595122,-3571.898171,196.427130,4184.760652,5793.706273,9839.260261,7931.158892,14553.980774,14586.457859,5060.278482,10897.101271,0.004000,-0.010000,1.008000,192.000000,0.000000,16.000000,127.500000,88.000000,15.500000,64.000000,0.000000,0.000000,0.000000,1772530565.708487,0.000000
102.000000,4071.727880,6141.946452,8087.956379,-17623.121157,10273.487601,7961.669023,-3575.250933,192.627334,4193.634295,5799.473023,9846.502226,7936.255090,14604.830993,14599.466574,5080.707977,10881.164477,0.004000,-0.010000,1.008000,192.000000,0.000000,0.000000,0.000000,0.000000,0.000000,0.000000,0.000000,0.000000,0.000000,1772530565.708498,0.000000
104.000000,4077.248761,6158.397336,8093.700778,-17610.626532,10267.251464,7979.796288,-3569.260665,199.399912,4189.789795,5793.505108,9844.647031,7935.897462,14563.502617,14610.061301,5071.163782,10880.940960,0.004000,-0.010000,1.008000,192.000000,0.000000,0.000000,0.000000,0.000000,0.000000,0.000000,0.000000,0.000000,0.000000,1772530565.708508,0.000000
106.000000,4074.454793,6154.441077,8087.844621,-17613.554610,10298.700368,7952.862436,-3571.562895,197.678828,4191.555582,5814.605154,9845.921081,7946.514540,14544.883614,14606.641484,5054.891712,10871.195599,0.004000,-0.010000,1.008000,192.000000,0.000000,0.000000,0.000000,0.000000,0.000000,0.000000,0.000000,0.000000,0.000000,1772530565.708519,0.000000
108.000000,4074.924180,6152.988214,8088.828097,-17613.331093,10277.689728,7968.553361,-3571.361729,199.131691,4187.621675,5791.985189,9848.871511,7937.439732,14508.807899,14592.828106,5067.900427,10879.666910,0.004000,-0.010000,1.008000,192.000000,0.000000,0.000000,0.000000,0.000000,0.000000,0.000000,0.000000,0.000000,0.000000,1772530565.708530,0.000000
110.000000,4078.031072,6167.405089,8082.614312,-17612.951113,10302.701331,7978.589294,-3569.126555,201.031590,4188.783966,5810.537137,9848.044497,7944.949918,14575.796077,14624.388769,5054.668195,10875.353023,0.008000,-0.010000,1.008000,192.000000,0.000000,32.000000,127.500000,88.000000,15.500000,64.000000,0.000000,0.000000,0.000000,1772530565.708540,0.000000
112.000000,4067.637511,6145.589786,8089.029263,-17620.193079,10274.694595,7968.307491,-3573.529848,197.030627,4182.547829,5795.986151,9845.295232,7937.663250,14535.115902,14590.592932,5062.156029,10879.219875,0.008000,-0.010000,1.008000,192.000000,0.000000,0.000000,0.000000,0.000000,0.000000,0.000000,0.000000,0.000000,0.000000,1772530565.708567,0.000000
114.000000,4075.527677,6159.917254,8091.197382,-17614.359273,10257.237882,7964.820619,-3571.987578,196.628296,4187.465213,5793.728625,9847.061020,7936.545662,14500.738919,14596.314978,5080.707977,10882.527933,0.008000,-0.010000,1.008000,192.000000,0.000000,0.000000,0.000000,0.000000,0.000000,0.000000,0.000000,0.000000,0.000000,1772530565.708579,0.000000
116.000000,4065.424689,6151.848275,8080.535600,-17620.729520,10275.499258,7970.117983,-3574.692139,191.532098,4177.697501,5802.266991,9838.656764,7938.244395,14535.652344,14606.663836,5066.671081,10879.286930,0.008000,-0.010000,1.008000,192.000000,0.000000,0.000000,0.000000,0.000000,0.000000,0.000000,0.000000,0.000000,0.000000,1772530565.708589,0.000000
118.000000,4067.726918,6152.854103,8071.259626,-17623.210564,10312.178470,7971.928474,-3576.860258,190.883898,4175.350568,5786.598419,9837.248604,7931.136540,14563.502617,14586.882542,5068.772145,10890.775727,0.008000,-0.010000,1.008000,192.000000,0.000000,0.000000,0.000000,0.000000,0.000000,0.000000,0.000000,0.000000,0.000000,1772530565.708600,0.000000
120.000000,4067.682215,6153.345842,8084.737728,-17616.192116,10280.930731,7975.102422,-3574.222752,194.035494,4174.098870,5798.981285,9833.404104,7934.511654,14612.788214,14600.718272,5071.342596,10894.083785,0.004000,-0.012000,1.004000,192.000000,0.000000,16.000000,127.500000,80.000000,15.500000,48.000000,0.000000,0.000000,0.000000,1772530565.708610,0.000000
122.000000,4058.875627,6137.431400,8078.658054,-17627.904430,10258.690746,7971.280273,-3581.285904,186.435901,4175.976417,5791.158174,9841.517787,7928.342572,14463.098581,14599.153650,5071.990797,10892.765032,0.004000,-0.012000,1.004000,192.000000,0.000000,0.000000,0.000000,0.000000,0.000000,0.000000,0.000000,0.000000,0.000000,1772530565.708621,0.000000
124.000000,4063.010700,6151.736516,8076.087603,-17620.215430,10274.024042,7977.561114,-3577.620218,191.330933,4176.088175,5791.024064,9835.818092,7928.342572,14534.802977,14581.451068,5076.796422,10901.951599,0.004000,-0.012000,1.004000,192.000000,0.000000,0.000000,0.000000,0.000000,0.000000,0.000000,0.000000,0.000000,0.000000,1772530565.708631,0.000000
126.000000,4057.556874,6138.303118,8080.602655,-17620.036616,10270.939502,7959.545608,-3576.212058,192.001485,4159.749050,5796.902573,9831.615964,7933.550529,14539.586251,14594.348025,5062.133677,10887.713538,0.004000,-0.012000,1.004000,192.000000,0.000000,0.000000,0.000000,0.000000,0.000000,0.000000,0.000000,0.000000,0.000000,1772530565.708642,0.000000
128.000000,4066.229351,6144.986289,8081.697891,-17619.746044,10287.368034,7979.304550,-3574.692139,197.008276,4174.188277,5778.797660,9842.993002,7927.135578,14509.389044,14580.601702,5071.432003,10886.059509,0.004000,-0.012000,1.004000,192.000000,0.000000,0.000000,0.000000,0.000000,0.000000,0.000000,0.000000,0.000000,0.000000,1772530565.708652,0.000000
130.000000,4077.539334,6160.408993,8089.476298,-17614.225163,10286.652778,7970.989701,-3568.947741,204.741979,4187.644027,5803.228116,9849.095029,7940.770142,14561.490960,14595.152687,5057.149238,10875.688300,0.004000,-0.008000,1.006000,192.000000,0.000000,16.000000,127.500000,96.000000,15.500000,56.000000,0.000000,0.000000,0.000000,1772530565.708663,0.000000
132.000000,4076.421747,6153.994042,8078.054557,-17618.717863,10303.416586,7975.795326,-3575.161526,201.366866,4177.630446,5801.641143,9845.518749,7936.947994,14515.625181,14622.421816,5065.620549,10883.444355,0.004000,-0.008000,1.006000,192.000000,0.000000,0.000000,0.000000,0.000000,0.000000,0.000000,0.000000,0.000000,0.000000,1772530565.708673,0.000000
134.000000,4073.963055,6153.837580,8086.279999,-17618.337884,10328.785816,7974.074241,-3569.685348,202.372694,4183.754824,5807.698465,9849.296194,7943.318241,14543.698972,14605.166269,5057.976253,10875.129506,0.004000,-0.008000,1.006000,192.000000,0.000000,0.000000,0.000000,0.000000,0.000000,0.000000,0.000000,0.000000,0.000000,1772530565.708684,0.000000
136.000000,4060.507305,6138.258414,8087.554048,-17620.394244,10229.499367,7941.418343,-3573.149869,191.755616,4169.919094,5788.163041,9837.628584,7931.516520,14578.321824,14603.579295,5066.671081,10875.442430,0.004000,-0.008000,1.006000,192.000000,0.000000,0.000000,0.000000,0.000000,0.000000,0.000000,0.000000,0.000000,0.000000,1772530565.708695,0.000000
138.000000,4061.781354,6143.287557,8079.283903,-17617.622628,10243.513911,7972.084936,-3576.994369,188.067578,4173.629483,5789.973532,9838.366191,7930.331878,14513.814689,14570.923396,5076.170573,10884.986625,0.004000,-0.008000,1.006000,192.000000,0.000000,0.000000,0.000000,0.000000,0.000000,0.000000,0.000000,0.000000,0.000000,1772530565.708705,0.000000
140.000000,4058.316834,6143.645184,8081.541429,-17618.784919,10280.103717,7977.605817,-3575.228581,186.815880,4168.801507,5799.651837,9832.666496,7933.684639,14566.989489,14610.776557,5063.675948,10887.959407,0.004000,-0.006000,1.012000,192.000000,0.000000,16.000000,127.500000,104.000000,15.500000,80.000000,0.000000,0.000000,0.000000,1772530565.708716,0.000000
142.000000,4049.063212,6131.172911,8075.618216,-17628.709093,10280.282531,7964.284177,-3581.017683,180.982075,4157.871504,5786.464308,9826.363304,7922.844043,14509.098471,14585.675548,5078.249285,10878.795192,0.004000,-0.006000,1.012000,192.000000,0.000000,0.000000,0.000000,0.000000,0.000000,0.000000,0.000000,0.000000,0.000000,1772530565.708727,0.000000
144.000000,4053.421802,6140.672402,8076.981673,-17621.467128,10306.411720,7981.115041,-3577.240238,183.753691,4168.577989,5787.112509,9831.258336,7923.872223,14544.302469,14579.640577,5075.209448,10884.807811,0.004000,-0.006000,1.012000,192.000000,0.000000,0.000000,0.000000,0.000000,0.000000,0.000000,0.000000,0.000000,0.000000,1772530565.708737,0.000000
146.000000,4043.028241,6130.055324,8075.372347,-17622.517660,10268.436106,7990.770995,-3581.040034,176.914057,4166.432222,5788.565372,9823.815206,7920.497110,14497.117936,14614.196374,5059.406764,10889.501678,0.004000,-0.006000,1.012000,192.000000,0.000000,0.000000,0.000000,0.000000,0.000000,0.000000,0.000000,0.000000,0.000000,1772530565.708749,0.000000
148.000000,4043.296461,6132.581071,8076.579341,-17625.758663,10266.759725,7992.939114,-3583.141098,175.796470,4167.370995,5793.885087,9825.603345,7918.150177,14532.970134,14595.040929,5087.122928,10899.716425,0.004000,-0.006000,1.012000,192.000000,0.000000,0.000000,0.000000,0.000000,0.000000,0.000000,0.000000,0.000000,0.000000,1772530565.708760,0.000000
150.000000,4048.683232,6142.862873,8080.647359,-17614.001645,10284.752880,7979.930398,-3575.541505,184.334837,4162.632425,5792.275762,9822.049418,7919.021895,14525.258783,14609.860135,5069.263884,10908.545364,0.003000,-0.008000,1.013000,192.000000,0.000000,8.000000,127.500000,88.000000,15.500000,88.000000,0.000000,0.000000,0.000000,1772530565.708771,0.000000
152.000000,4047.275072,6134.168045,8076.288769,-17621.958866,10297.225153,7960.707898,-3577.486107,184.223078,4169.583818,5804.770387,9829.447845,7928.320221,14544.436579,14596.583199,5064.748831,10894.061434,0.003000,-0.008000,1.013000,192.000000,0.000000,0.000000,0.000000,0.000000,0.000000,0.000000,0.000000,0.000000,0.000000,1772530565.708782,0.000000
154.000000,4062.496610,6154.821057,8083.486031,-17614.895715,10275.074574,7963.635977,-3570.869991,192.269706,4169.695576,5798.623657,9835.616927,7931.829444,14519.872012,14593.789231,5063.385375,10885.500715,0.003000,-0.008000,1.013000,192.000000,0.000000,0.000000,0.000000,0.000000,0.000000,0.000000,0.000000,0.000000,0.000000,1772530565.708792,0.000000
156.000000,4063.122459,6154.932815,8083.418975,-17619.902506,10262.289377,7963.837142,-3571.853467,194.616639,4177.138707,5818.114378,9839.036744,7937.909119,14577.092478,14610.307170,5061.641939,10868.267520,0.003000,-0.008000,1.013000,192.000000,0.000000,0.000000,0.000000,0.000000,0.000000,0.000000,0.000000,0.000000,0.000000,1772530565.708802,0.000000
158.000000,4059.814401,6150.618929,8077.316949,-17621.489480,10291.592514,7975.571808,-3573.082813,193.946087,4173.160097,5802.803433,9840.914290,7932.120017,14535.026495,14594.929170,5072.862515,10881.030367,0.003000,-0.008000,1.013000,192.000000,0.000000,0.000000,0.000000,0.000000,0.000000,0.000000,0.000000,0.000000,0.000000,1772530565.708813,0.000000
160.000000,4061.133154,6157.950301,8085.475336,-17617.466166,10273.264083,7979.349253,-3570.802935,195.443654,4172.467193,5811.095930,9837.583880,7937.305622,14551.656193,14595.890295,5059.853799,10878.392861,0.004500,-0.009000,1.011500,192.000000,0.000000,24.000000,127.500000,88.000000,15.500000,72.000000,0.000000,0.000000,0.000000,1772530565.708823,0.000000
162.000000,4050.717241,6140.180664,8082.323740,-17626.451567,10251.158208,7959.903235,-3578.626046,184.737168,4167.236885,5798.489547,9835.751037,7926.845005,14509.165527,14601.657045,5073.845991,10880.650387,0.004500,-0.009000,1.011500,192.000000,0.000000,0.000000,0.000000,0.000000,0.000000,0.000000,0.000000,0.000000,0.000000,1772530565.708834,0.000000
164.000000,4056.014604,6149.076658,8083.620141,-17623.858765,10286.026929,7980.422137,-3574.647436,188.715778,4167.929789,5800.322390,9833.113531,7923.916927,14520.117881,14609.144879,5080.730329,10883.399651,0.004500,-0.009000,1.011500,192.000000,0.000000,0.000000,0.000000,0.000000,0.000000,0.000000,0.000000,0.000000,0.000000,1772530565.708845,0.000000
166.000000,4056.215770,6153.547007,8079.261551,-17627.099768,10281.087194,7984.601913,-3578.804860,185.698293,4162.475963,5807.229079,9829.604307,7928.253165,14511.713625,14609.055472,5068.079241,10878.661082,0.004500,-0.009000,1.011500,192.000000,0.000000,0.000000,0.000000,0.000000,0.000000,0.000000,0.000000,0.000000,0.000000,1772530565.708855,0.000000
168.000000,4041.061287,6136.224405,8075.193533,-17627.435044,10260.165961,7965.804096,-3580.593000,180.423281,4158.162076,5804.926849,9827.860871,7923.916927,14549.242204,14590.503525,5087.078224,10888.518201,0.004500,-0.009000,1.011500,192.000000,0.000000,0.000000,0.000000,0.000000,0.000000,0.000000,0.000000,0.000000,0.000000,1772530565.708866,0.000000
170.000000,4049.130267,6141.857045,8075.752327,-17621.131852,10282.629464,7973.671910,-3575.586209,187.218212,4152.775306,5783.223305,9823.591688,7920.295944,14562.317975,14586.480211,5070.426174,10887.490021,0.006250,-0.007500,1.010750,192.000000,0.000000,32.000000,127.500000,104.000000,15.500000,72.000000,0.000000,0.000000,0.000000,1772530565.708876,0.000000
172.000000,4047.632700,6137.587862,8078.590998,-17627.323285,10250.755876,7966.072317,-3580.257723,182.770214,4160.330195,5794.622695,9827.570299,7925.615659,14526.175204,14598.706615,5073.041329,10892.183887,0.006250,-0.007500,1.010750,192.000000,0.000000,0.000000,0.000000,0.000000,0.000000,0.000000,0.000000,0.000000,0.000000,1772530565.708887,0.000000
174.000000,4047.945624,6139.688926,8085.497688,-17623.389378,10268.190237,7994.011997,-3574.066290,189.073406,4159.458477,5797.170794,9829.984287,7925.906232,14482.321081,14590.861153,5079.500983,10902.666855,0.006250,-0.007500,1.010750,192.000000,0.000000,0.000000,0.000000,0.000000,0.000000,0.000000,0.000000,0.000000,0.000000,1772530565.708897,0.000000
176.000000,4050.314909,6141.946452,8080.893228,-17628.127948,10304.154194,7986.635922,-3574.468622,191.353284,4162.051280,5793.214535,9832.308868,7926.286212,14535.540585,14585.675548,5068.526276,10881.142125,0.006250,-0.007500,1.010750,192.000000,0.000000,0.000000,0.000000,0.000000,0.000000,0.000000,0.000000,0.000000,0.000000,1772530565.708907,0.000000
178.000000,4041.933005,6139.800684,8073.539504,-17621.936515,10280.729566,7978.902218,-3574.960360,188.939296,4156.798620,5801.015294,9830.252508,7930.041305,14553.198463,14606.976760,5060.837276,10891.759204,0.006250,-0.007500,1.010750,192.000000,0.000000,0.000000,0.000000,0.000000,0.000000,0.000000,0.000000,0.000000,0.000000,1772530566.188822,0.000000
180.000000,4045.174008,6143.533426,8084.178935,-17613.554610,10265.530379,7963.255997,-3569.394776,192.157947,4151.143628,5806.714989,9824.731627,7931.963555,14512.920620,14601.299417,5059.786744,10888.384090,0.008125,-0.007750,1.007375,192.000000,0.000000,40.000000,127.500000,96.000000,15.500000,48.000000,0.000000,0.000000,0.000000,1772530566.188882,0.000000
182.000000,4046.626871,6136.313812,8082.614312,-17623.344675,10274.851057,7956.952805,-3574.267456,187.866412,4149.377841,5796.075558,9829.045514,7931.471816,14495.821535,14574.432620,5057.126887,10879.197523,0.008125,-0.007750,1.007375,192.000000,0.000000,0.000000,0.000000,0.000000,0.000000,0.000000,0.000000,0.000000,0.000000,1772530566.188928,0.000000
184.000000,4046.649223,6142.281728,8089.275132,-17622.316494,10274.068746,7980.332730,-3571.853467,186.570011,4163.101812,5806.357361,9832.353572,7929.974250,14533.528928,14594.459783,5082.294951,10885.858343,0.008125,-0.007750,1.007375,192.000000,0.000000,0.000000,0.000000,0.000000,0.000000,0.000000,0.000000,0.000000,0.000000,1772530566.188971,0.000000
186.000000,4035.562758,6129.407123,8079.149792,-17631.950096,10284.641121,7971.973177,-3577.530811,177.182278,4143.029945,5790.666436,9819.501319,7919.111302,14564.977832,14598.863077,5073.890695,10878.482268,0.008125,-0.007750,1.007375,192.000000,0.000000,0.000000,0.000000,0.000000,0.000000,0.000000,0.000000,0.000000,0.000000,1772530566.189016,0.000000
188.000000,4035.026316,6131.821112,8070.499667,-17628.373817,10254.868597,7966.944035,-3580.660055,175.438842,4136.011497,5790.912305,9816.126205,7917.323162,14519.089701,14580.400536,5082.764337,10889.904009,0.008125,-0.007750,1.007375,192.000000,0.000000,0.000000,0.000000,0.000000,0.000000,0.000000,0.000000,0.000000,0.000000,1772530566.189065,0.000000
190.000000,4039.429610,6136.716144,8075.729975,-17626.250401,10262.267025,7969.514486,-3576.569686,178.791604,4138.760762,5799.808300,9813.555755,7924.900404,14505.455137,14574.611434,5058.557398,10888.965236,0.011062,-0.005875,1.006687,192.000000,0.000000,56.000000,127.500000,112.000000,15.500000,56.000000,0.000000,0.000000,0.000000,1772530566.189099,0.000000
192.000000,4031.874720,6124.869719,8068.063327,-17640.220242,10285.915170,7939.652555,-3584.929238,170.767328,4135.765628,5785.525535,9812.684037,7912.942220,14512.160660,14565.156646,5070.426174,10882.058547,0.011062,-0.005875,1.006687,192.000000,0.000000,0.000000,0.000000,0.000000,0.000000,0.000000,0.000000,0.000000,0.000000,1772530566.189109,0.000000
194.000000,4028.745476,6127.663687,8077.763984,-17633.000628,10257.193179,7964.999433,-3579.833040,172.220191,4131.474093,5784.095023,9809.934772,7909.477700,14503.644646,14569.381126,5080.484459,10888.026463,0.011062,-0.005875,1.006687,192.000000,0.000000,0.000000,0.000000,0.000000,0.000000,0.000000,0.000000,0.000000,0.000000,1772530566.189121,0.000000
196.000000,4032.120589,6131.485835,8070.007929,-17630.005494,10268.994900,7978.991625,-3581.844697,173.516592,4133.910434,5792.879259,9808.593668,7911.355246,14554.226643,14588.111888,5067.900427,10889.814602,0.011062,-0.005875,1.006687,192.000000,0.000000,0.000000,0.000000,0.000000,0.000000,0.000000,0.000000,0.000000,0.000000,1772530566.189134,0.000000
198.000000,4034.109895,6133.564548,8066.923388,-17623.858765,10293.984150,7974.074241,-3581.129441,177.763424,4130.960003,5789.504145,9812.974609,7916.764369,14480.801163,14605.076862,5077.221105,10902.465689,0.011062,-0.005875,1.006687,192.000000,0.000000,0.000000,0.000000,0.000000,0.000000,0.000000,0.000000,0.000000,0.000000,1772530566.189145,0.000000
200.000000,4029.080752,6133.184568,8073.584208,-17619.343712,10260.501237,7974.007186,-3577.396700,177.718720,4130.512968,5797.394311,9808.526612,7927.314392,14508.114995,14565.246053,5052.857703,10903.449166,0.007531,-0.007938,1.008344,192.000000,0.000000,16.000000,127.500000,88.000000,15.500000,72.000000,0.000000,0.000000,0.000000,1772530566.189156,0.000000
202.000000,4030.667726,6128.222481,8070.745536,-17631.212489,10250.599414,7944.860511,-3581.464718,174.567124,4128.277794,5791.247581,9809.621848,7920.675924,14484.355090,14572.063335,5071.543762,10887.221800,0.007531,-0.007938,1.008344,192.000000,0.000000,0.000000,0.000000,0.000000,0.000000,0.000000,0.000000,0.000000,0.000000,1772530566.189167,0.000000
204.000000,4031.852368,6134.548024,8070.477315,-17624.350503,10290.676092,7981.517372,-3578.246066,176.914057,4125.841454,5788.118337,9807.967819,7916.138520,14500.425994,14571.482190,5062.424250,10907.271315,0.007531,-0.007938,1.008344,192.000000,0.000000,0.000000,0.000000,0.000000,0.000000,0.000000,0.000000,0.000000,0.000000,1772530566.189178,0.000000
206.000000,4033.595804,6138.303118,8072.399565,-17620.506003,10244.095057,7962.294872,-3579.520116,175.081214,4125.059143,5796.701407,9808.548964,7921.257069,14545.196539,14610.709502,5058.691509,10896.989512,0.007531,-0.007938,1.008344,192.000000,0.000000,0.000000,0.000000,0.000000,0.000000,0.000000,0.000000,0.000000,0.000000,1772530566.189188,0.000000
208.000000,4036.836807,6138.928966,8076.042900,-17622.204736,10270.358356,7958.919759,-3580.235372,175.841174,4123.829797,5797.774291,9810.113586,7923.425188,14537.932222,14568.375298,5080.596218,10900.476384,0.007531,-0.007938,1.008344,192.000000,0.000000,0.000000,0.000000,0.000000,0.000000,0.000000,0.000000,0.000000,0.000000,1772530566.189199,0.000000
210.000000,4040.927177,6145.165103,8075.752327,-17625.781015,10297.202801,7978.365776,-3578.871915,175.438842,4127.562538,5801.037645,9810.113586,7924.006334,14485.271512,14581.138144,5074.650654,10893.659102,0.005766,-0.007969,1.009172,192.000000,0.000000,16.000000,127.500000,96.000000,15.500000,72.000000,0.000000,0.000000,0.000000,1772530566.189217,0.000000
212.000000,4048.750287,6149.076658,8066.342243,-17628.485576,10300.689674,7957.422192,-3582.224677,179.596267,4128.434256,5800.121224,9810.359455,7923.581651,14514.976980,14577.405402,5072.773108,10891.222762,0.005766,-0.007969,1.009172,192.000000,0.000000,0.000000,0.000000,0.000000,0.000000,0.000000,0.000000,0.000000,0.000000,1772530566.189227,0.000000
214.000000,4048.169142,6153.032917,8077.294597,-17625.781015,10248.341888,7967.279311,-3578.357825,180.646799,4135.720925,5806.558526,9816.796758,7926.107398,14498.324930,14601.075900,5067.386337,10892.608570,0.005766,-0.007969,1.009172,192.000000,0.000000,0.000000,0.000000,0.000000,0.000000,0.000000,0.000000,0.000000,0.000000,1772530566.189237,0.000000
216.000000,4048.951453,6154.485781,8074.321815,-17625.021055,10235.556690,7951.141352,-3579.542468,180.400929,4131.630556,5808.726646,9817.713179,7926.710895,14485.316215,14570.968100,5060.278482,10888.406442,0.005766,-0.007969,1.009172,192.000000,0.000000,0.000000,0.000000,0.000000,0.000000,0.000000,0.000000,0.000000,0.000000,1772530566.189248,0.000000
218.000000,4041.798895,6150.127190,8069.426783,-17634.229974,10250.308842,7949.308509,-3582.671712,175.237677,4121.907547,5800.277686,9813.086368,7921.257069,14545.442408,14581.182847,5085.334788,10892.429756,0.005766,-0.007969,1.009172,192.000000,0.000000,0.000000,0.000000,0.000000,0.000000,0.000000,0.000000,0.000000,0.000000,1772530566.189258,0.000000
220.000000,4046.671575,6158.553798,8073.718318,-17624.685779,10312.178470,7988.781689,-3578.648398,181.272648,4121.259346,5806.267954,9809.286572,7921.704104,14514.664056,14581.898103,5074.918875,10894.530820,0.005766,-0.007969,1.009172,192.000000,0.000000,0.000000,0.000000,0.000000,0.000000,0.000000,0.000000,0.000000,0.000000,1772530566.189268,0.000000
222.000000,4052.147752,6158.218522,8074.075946,-17627.546802,10276.795659,7977.695224,-3581.978808,182.926677,4134.625689,5812.325276,9814.382769,7926.353267,14535.294716,14576.578388,5075.835297,10893.748509,0.002000,-0.014000,1.012000,192.000000,0.000000,8.000000,127.500000,72.000000,15.500000,80.000000,0.000000,0.000000,0.000000,1772530566.189279,0.000000
224.000000,4066.966959,6179.318569,8077.361653,-17612.705244,10353.260976,7992.134451,-3571.205267,198.975229,4142.426448,5828.798512,9825.424531,7937.752657,14458.002383,14586.927245,5073.756584,10888.853477,0.002000,-0.014000,1.012000,192.000000,0.000000,0.000000,0.000000,0.000000,0.000000,0.000000,0.000000,0.000000,0.000000,1772530566.189290,0.000000
226.000000,4066.765793,6179.586790,8075.819382,-17612.325264,10289.245580,7979.617474,-3570.869991,199.288154,4143.968719,5836.934547,9829.604307,7946.335727,14482.499895,14610.374225,5037.345593,10888.160573,0.002000,-0.014000,1.012000,192.000000,0.000000,0.000000,0.000000,0.000000,0.000000,0.000000,0.000000,0.000000,0.000000,1772530566.189300,0.000000
228.000000,4066.676386,6179.072699,8083.106051,-17616.080358,10222.078588,7962.138410,-3572.009930,195.823633,4142.448800,5830.519596,9831.839482,7944.167607,14506.684483,14609.882487,5071.208486,10887.825297,0.002000,-0.014000,1.012000,192.000000,0.000000,0.000000,0.000000,0.000000,0.000000,0.000000,0.000000,0.000000,0.000000,1772530566.189310,0.000000
230.000000,4072.264322,6185.241781,8087.039958,-17608.480764,10224.917260,7979.103384,-3570.042976,196.918869,4142.761724,5832.374791,9826.117435,7942.535930,14540.301507,14620.521917,5064.949997,10889.814602,0.002000,-0.014000,1.012000,192.000000,0.000000,0.000000,0.000000,0.000000,0.000000,0.000000,0.000000,0.000000,0.000000,1772530566.189321,0.000000
232.000000,4077.964017,6184.526525,8082.569609,-17619.656637,10301.516688,7972.420212,-3574.692139,196.985924,4143.633442,5830.698410,9829.760770,7943.541758,14526.018742,14578.902969,5068.012186,10892.854439,0.002000,-0.014000,1.012000,192.000000,0.000000,0.000000,127.500000,72.000000,15.500000,56.000000,0.000000,0.000000,0.000000,1772530566.189332,0.000000
234.000000,4083.619008,6194.003665,8088.314007,-17621.623590,10306.434072,7992.380320,-3571.160563,198.192918,4150.517780,5834.006469,9833.627621,7943.608814,14529.840890,14585.295568,5076.595256,10884.785460,0.002000,-0.014000,1.012000,192.000000,0.000000,0.000000,0.000000,0.000000,0.000000,0.000000,0.000000,0.000000,0.000000,1772530566.189343,0.000000
236.000000,4081.048558,6193.936609,8084.134231,-17613.398148,10260.992975,7955.589349,-3576.033244,192.962610,4145.555692,5837.940376,9826.676229,7944.636994,14503.421128,14604.071033,5066.715785,10893.100309,0.002000,-0.014000,1.012000,192.000000,0.000000,0.000000,0.000000,0.000000,0.000000,0.000000,0.000000,0.000000,0.000000,1772530566.189354,0.000000
238.000000,4081.942628,6197.334075,8082.435499,-17614.202811,10244.564443,7949.710840,-3575.720319,193.543755,4147.500294,5842.142504,9828.106740,7943.385296,14511.378349,14590.503525,5092.979085,10898.755300,0.002000,-0.014000,1.012000,192.000000,0.000000,0.000000,0.000000,0.000000,0.000000,0.000000,0.000000,0.000000,0.000000,1772530566.189364,0.000000
240.000000,4092.515003,6211.303915,8086.659978,-17615.052177,10261.641176,7954.807038,-3572.613427,195.600116,4144.303995,5852.111382,9829.090217,7948.861474,14525.258783,14624.880508,5069.666215,10893.592047,0.002000,-0.014000,1.012000,192.000000,0.000000,0.000000,0.000000,0.000000,0.000000,0.000000,0.000000,0.000000,0.000000,1772530566.189374,0.000000
242.000000,4088.826965,6204.218412,8080.513249,-17620.841279,10263.988109,7948.481494,-3579.855392,188.380502,4152.484733,5850.703222,9828.866700,7946.514540,14505.723358,14598.974836,5081.579695,10888.629960,0.002000,-0.014000,1.002000,192.000000,0.000000,8.000000,127.500000,72.000000,15.500000,40.000000,0.000000,0.000000,0.000000,1772530566.189386,0.000000
244.000000,4095.085453,6214.991953,8085.698853,-17611.878230,10261.663528,7985.808907,-3574.490973,193.677866,4149.869579,5851.619643,9826.340953,7945.084029,14520.833137,14574.656138,5084.820698,10902.353931,0.002000,-0.014000,1.002000,192.000000,0.000000,0.000000,0.000000,0.000000,0.000000,0.000000,0.000000,0.000000,0.000000,1772530566.189397,0.000000
246.000000,4102.997971,6218.210604,8083.888362,-17610.760642,10259.987147,7974.431869,-3573.596904,197.723531,4156.463344,5866.662367,9830.230156,7952.638918,14482.991634,14611.424757,5066.939302,10887.691186,0.002000,-0.014000,1.002000,192.000000,0.000000,0.000000,0.000000,0.000000,0.000000,0.000000,0.000000,0.000000,0.000000,1772530566.189407,0.000000
248.000000,4106.194270,6219.752874,8078.099260,-17617.756738,10280.148420,7969.961520,-3573.999235,198.684656,4155.055184,5854.659480,9833.515863,7951.141352,14508.718492,14603.668702,5076.438794,10889.792250,0.002000,-0.014000,1.002000,192.000000,0.000000,0.000000,0.000000,0.000000,0.000000,0.000000,0.000000,0.000000,0.000000,1772530566.189418,0.000000
250.000000,4102.930916,6222.345677,8078.658054,-17612.772299,10261.931749,7975.370643,-3569.171258,201.255107,4162.543018,5867.690547,9833.381752,7957.533951,14516.943934,14605.367435,5055.472857,10877.588198,0.002000,-0.014000,1.002000,192.000000,0.000000,0.000000,0.000000,0.000000,0.000000,0.000000,0.000000,0.000000,0.000000,1772530566.189428,0.000000
252.000000,4104.115558,6218.657639,8073.763022,-17616.058006,10243.446856,7975.415346,-3572.635779,200.808072,4151.970643,5861.633225,9829.604307,7953.980023,14534.177129,14615.805699,5052.388317,10876.694128,0.008000,-0.012000,1.006000,192.000000,0.000000,32.000000,127.500000,80.000000,15.500000,56.000000,0.000000,0.000000,0.000000,1772530566.189438,0.000000
254.000000,4108.854128,6224.916127,8080.334435,-17606.871439,10278.404984,7992.045044,-3567.874857,204.496110,4157.066841,5867.243513,9836.063962,7958.517427,14538.401608,14605.501545,5049.147314,10882.662044,0.008000,-0.012000,1.006000,192.000000,0.000000,0.000000,0.000000,0.000000,0.000000,0.000000,0.000000,0.000000,0.000000,1772530566.189449,0.000000
0.000000,4110.709323,6223.865595,8080.289731,-17615.208640,10271.185371,7976.398823,-3570.378252,204.116130,4151.277739,5863.443716,9829.894880,7954.829389,14518.061521,14603.758109,5053.841180,10894.128489,0.008000,-0.012000,1.006000,192.000000,0.000000,0.000000,0.000000,0.000000,0.000000,0.000000,0.000000,0.000000,0.000000,1772530566.189459,0.000000
2.000000,4116.096093,6228.112427,8087.218772,-17614.113404,10263.742240,7968.955692,-3570.266494,206.641877,4159.346719,5869.031652,9839.662592,7957.891578,14473.156866,14615.179850,5072.549590,10892.250942,0.008000,-0.012000,1.006000,192.000000,0.000000,0.000000,0.000000,0.000000,0.000000,0.000000,0.000000,0.000000,0.000000,1772530566.189470,0.000000
4.000000,4115.023209,6230.772284,8091.510307,-17610.559477,10283.523534,7967.145201,-3568.388947,207.670058,4165.739318,5864.270731,9838.187377,7961.467858,14492.893457,14586.591969,5068.973311,10884.763108,0.008000,-0.012000,1.006000,192.000000,0.000000,0.000000,0.000000,0.000000,0.000000,0.000000,0.000000,0.000000,0.000000,1772530566.189481,0.000000
6.000000,4111.089302,6224.446741,8081.161449,-17621.310666,10279.008481,7947.430962,-3576.904962,199.645781,4154.675204,5863.600178,9834.052305,7954.672927,14534.221832,14606.239153,5079.948018,10885.076032,0.010000,-0.008000,1.004000,192.000000,0.000000,40.000000,127.500000,96.000000,15.500000,48.000000,0.000000,0.000000,0.000000,1772530566.189492,0.000000
8.000000,4113.995029,6230.884043,8085.274170,-17614.180459,10271.542999,7951.364869,-3572.211095,205.032552,4157.625634,5864.091917,9834.588746,7952.035421,14522.084835,14589.542400,5091.101538,10890.038120,0.010000,-0.008000,1.004000,192.000000,0.000000,0.000000,0.000000,0.000000,0.000000,0.000000,0.000000,0.000000,0.000000,1772530566.189502,0.000000
10.000000,4119.627669,6234.348563,8079.552123,-17615.968599,10268.190237,7961.221988,-3573.663959,208.474721,4160.263140,5869.568094,9833.337049,7958.405669,14507.355035,14611.737682,5072.840163,10882.662044,0.010000,-0.008000,1.004000,192.000000,0.000000,0.000000,0.000000,0.000000,0.000000,0.000000,0.000000,0.000000,0.000000,1772530566.189512,0.000000
12.000000,4117.481901,6231.822816,8078.747461,-17614.716901,10256.567330,7965.804096,-3573.820421,208.631183,4161.648948,5866.863533,9838.276784,7957.109267,14507.064463,14600.561810,5080.998550,10894.731986,0.010000,-0.008000,1.004000,192.000000,0.000000,0.000000,0.000000,0.000000,0.000000,0.000000,0.000000,0.000000,0.000000,1772530566.189523,0.000000
14.000000,4114.889099,6234.616784,8081.183801,-17608.748985,10245.838493,7961.333747,-3570.646473,209.927584,4160.643120,5868.808135,9838.545005,7962.607797,14534.847681,14596.583199,5061.932512,10888.853477,0.010000,-0.008000,1.004000,192.000000,0.000000,0.000000,0.000000,0.000000,0.000000,0.000000,0.000000,0.000000,0.000000,1772530566.189533,0.000000
16.000000,4111.558689,6227.128950,8072.332510,-17619.321361,10255.114467,7978.477535,-3577.150831,201.813901,4148.081440,5866.371795,9833.717028,7955.410535,14472.754535,14588.804792,5057.104535,10893.927323,0.008000,-0.012000,1.002000,192.000000,0.000000,32.000000,127.500000,80.000000,15.500000,40.000000,0.000000,0.000000,0.000000,1772530566.189543,0.000000
18.000000,4113.659753,6232.918052,8076.199362,-17616.370930,10250.822932,7972.867247,-3572.524020,202.842081,4157.223303,5864.337786,9835.125188,7951.655442,14539.720361,14612.475289,5064.748831,10890.127527,0.008000,-0.012000,1.002000,192.000000,0.000000,0.000000,0.000000,0.000000,0.000000,0.000000,0.000000,0.000000,0.000000,1772530566.189555,0.000000
20.000000,4108.384741,6226.368991,8085.542391,-17622.115329,10248.475998,7933.684639,-3573.976883,200.383389,4153.691727,5863.533123,9830.766598,7949.487323,14519.447329,14612.095310,5060.971387,10887.177096,0.008000,-0.012000,1.002000,192.000000,0.000000,0.000000,0.000000,0.000000,0.000000,0.000000,0.000000,0.000000,0.000000,1772530566.189566,0.000000
22.000000,4115.067913,6237.298994,8076.691100,-17615.856840,10275.834534,7956.841046,-3573.462793,204.809034,4155.010480,5866.125925,9836.376886,7955.030555,14458.337660,14597.410214,5069.286235,10884.651349,0.008000,-0.012000,1.002000,192.000000,0.000000,0.000000,0.000000,0.000000,0.000000,0.000000,0.000000,0.000000,0.000000,1772530566.189576,0.000000
24.000000,4119.515910,6249.212474,8079.440365,-17611.744119,10296.599304,7984.981893,-3569.908866,211.849834,4160.531361,5878.754661,9836.086313,7966.117020,14533.350114,14588.603626,5046.062773,10875.844762,0.008000,-0.012000,1.002000,192.000000,0.000000,0.000000,0.000000,0.000000,0.000000,0.000000,0.000000,0.000000,0.000000,1772530566.189587,0.000000
26.000000,4117.660715,6242.082267,8076.735804,-17615.789785,10280.461345,7948.772067,-3576.212058,205.211366,4163.459440,5877.972350,9838.165025,7963.948901,14492.647587,14594.906818,5058.780916,10877.454087,0.002000,-0.012000,0.996000,192.000000,0.000000,8.000000,127.500000,80.000000,15.500000,16.000000,0.000000,0.000000,0.000000,1772530566.189597,0.000000
28.000000,4122.958079,6249.145418,8084.380100,-17605.262113,10253.371030,7972.889599,-3572.166392,208.139444,4162.431259,5879.201696,9838.097970,7963.479515,14498.861372,14592.291664,5073.533067,10895.804870,0.002000,-0.012000,0.996000,192.000000,0.000000,0.000000,0.000000,0.000000,0.000000,0.000000,0.000000,0.000000,0.000000,1772530566.189608,0.000000
30.000000,4124.768570,6246.284395,8085.922371,-17615.678026,10261.752935,7977.762279,-3576.145002,203.669095,4162.163039,5880.475745,9835.326354,7960.752602,14543.028419,14607.379092,5072.527238,10894.039082,0.002000,-0.012000,0.996000,192.000000,0.000000,0.000000,0.000000,0.000000,0.000000,0.000000,0.000000,0.000000,0.000000,1772530566.189618,0.000000
32.000000,4123.315707,6245.815008,8078.948626,-17616.080358,10296.956932,7972.219047,-3578.491936,200.696313,4159.570236,5875.536010,9834.499339,7955.879921,14493.564009,14624.902859,5089.067529,10901.616323,0.002000,-0.012000,0.996000,192.000000,0.000000,0.000000,0.000000,0.000000,0.000000,0.000000,0.000000,0.000000,0.000000,1772530566.189629,0.000000
34.000000,4134.133951,6257.974357,8083.664844,-17612.906410,10292.553639,7979.997454,-3574.714491,204.294944,4167.102774,5885.348426,9832.420627,7958.964462,14536.658172,14631.340162,5072.951922,10894.731986,0.002000,-0.012000,0.996000,192.000000,0.000000,0.000000,0.000000,0.000000,0.000000,0.000000,0.000000,0.000000,0.000000,1772530566.189640,0.000000
36.000000,4128.680125,6250.017136,8072.824248,-17623.791709,10336.296002,7992.425024,-3581.084738,196.807110,4164.644082,5887.740062,9832.577089,7960.573788,14487.193762,14594.504487,5069.912084,10899.001169,0.002000,-0.012000,0.998000,192.000000,0.000000,8.000000,127.500000,80.000000,15.500000,32.000000,0.000000,0.000000,0.000000,1772530566.189650,0.000000
38.000000,4131.787018,6256.409735,8090.191554,-17609.330131,10252.544016,7948.101514,-3574.513325,201.322162,4161.447783,5884.029673,9830.766598,7956.975157,14518.128576,14602.841688,5101.115120,10893.681454,0.002000,-0.012000,0.998000,192.000000,0.000000,0.000000,0.000000,0.000000,0.000000,0.000000,0.000000,0.000000,0.000000,1772530566.189660,0.000000
40.000000,4137.821989,6263.048203,8087.442289,-17611.006512,10248.140722,7938.311450,-3574.289808,205.770159,4163.817068,5887.181269,9834.566395,7962.630148,14508.182050,14605.233324,5085.446547,10891.982721,0.002000,-0.012000,0.998000,192.000000,0.000000,0.000000,0.000000,0.000000,0.000000,0.000000,0.000000,0.000000,0.000000,1772530566.189671,0.000000
42.000000,4147.075611,6269.440802,8085.207115,-17615.633323,10256.522626,7945.441657,-3573.842773,210.173453,4175.887010,5890.377568,9842.791837,7963.412459,14498.213172,14610.217763,5087.793480,10888.831125,0.002000,-0.012000,0.998000,192.000000,0.000000,0.000000,0.000000,0.000000,0.000000,0.000000,0.000000,0.000000,0.000000,1772530566.669176,0.000000
44.000000,4152.328271,6279.834363,8084.469507,-17605.955017,10277.734432,7975.080070,-3569.372424,217.594232,4176.289341,5901.039350,9845.854026,7972.531971,14526.756349,14606.909705,5064.122983,10881.410346,0.002000,-0.012000,0.998000,192.000000,0.000000,0.000000,0.000000,0.000000,0.000000,0.000000,0.000000,0.000000,0.000000,1772530566.669263,0.000000
46.000000,4158.251483,6278.381500,8081.630836,-17612.749948,10273.085269,7962.428983,-3574.155697,213.749732,4173.696539,5905.420292,9846.457523,7973.157820,14550.002164,14612.385882,5059.630282,10887.601779,0.004000,-0.011000,1.003000,192.000000,0.000000,24.000000,127.500000,88.000000,15.500000,64.000000,0.000000,0.000000,0.000000,1772530566.669303,0.000000
48.000000,4160.933693,6287.903343,8091.085624,-17599.920046,10265.038641,7993.162631,-3569.774755,218.734171,4185.878239,5907.543708,9851.531369,7972.777840,14475.637910,14633.910612,5071.119079,10891.178059,0.004000,-0.011000,1.003000,192.000000,0.000000,0.000000,0.000000,0.000000,0.000000,0.000000,0.000000,0.000000,0.000000,1772530566.669353,0.000000
50.000000,4161.872466,6289.892648,8081.563780,-17596.075546,10307.574011,7985.630093,-3571.138212,218.309488,4183.061920,5916.350295,9846.301060,7980.064509,14510.931314,14634.938793,5058.155067,10897.883582,0.004000,-0.011000,1.003000,192.000000,0.000000,0.000000,0.000000,0.000000,0.000000,0.000000,0.000000,0.000000,0.000000,1772530566.669413,0.000000
52.000000,4164.264102,6291.501974,8079.887400,-17601.574075,10315.173604,7976.979968,-3572.635779,216.655459,4181.810222,5916.462054,9843.507092,7981.450317,14531.494919,14620.432510,5063.161858,10906.310190,0.004000,-0.011000,1.003000,192.000000,0.000000,0.000000,0.000000,0.000000,0.000000,0.000000,0.000000,0.000000,0.000000,1772530566.669456,0.000000
54.000000,4162.453611,6293.848907,8090.012740,-17597.483706,10274.448726,7988.625227,-3569.953569,216.521349,4184.850059,5919.054856,9843.529444,7980.176268,14493.094622,14629.127339,5062.312491,10898.129451,0.004000,-0.011000,1.003000,192.000000,0.000000,0.000000,0.000000,0.000000,0.000000,0.000000,0.000000,0.000000,0.000000,1772530566.669497,0.000000
56.000000,4158.765573,6285.377596,8083.083699,-17607.743157,10291.167830,7991.955637,-3576.793203,208.430017,4178.099832,5920.999458,9839.819055,7974.856552,14572.510370,14625.260487,5083.367834,10899.314094,0.007000,-0.011500,1.003500,192.000000,0.000000,40.000000,127.500000,80.000000,15.500000,48.000000,0.000000,0.000000,0.000000,1772530566.669539,0.000000
58.000000,4152.395326,6283.120070,8090.929161,-17598.064852,10272.012385,7954.762334,-3574.088642,204.317296,4191.220306,5915.836205,9841.495435,7970.699128,14508.249105,14615.470423,5093.247306,10910.221745,0.007000,-0.011500,1.003500,192.000000,0.000000,0.000000,0.000000,0.000000,0.000000,0.000000,0.000000,0.000000,0.000000,1772530566.669581,0.000000
60.000000,4152.216512,6283.991788,8086.682330,-17602.535200,10277.645025,7975.638864,-3575.966188,202.864433,4183.263085,5912.505795,9835.058133,7968.463954,14478.364823,14624.075845,5077.265808,10913.976838,0.007000,-0.011500,1.003500,192.000000,0.000000,0.000000,0.000000,0.000000,0.000000,0.000000,0.000000,0.000000,0.000000,1772530566.669621,0.000000
62.000000,4147.746163,6278.381500,8081.049690,-17605.686796,10285.266970,7979.840991,-3578.424880,203.020895,4177.384576,5913.019885,9833.784084,7965.424116,14500.604808,14629.261449,5086.094747,10911.182870,0.007000,-0.011500,1.003500,192.000000,0.000000,0.000000,0.000000,0.000000,0.000000,0.000000,0.000000,0.000000,0.000000,1772530566.669663,0.000000
64.000000,4152.909416,6284.125898,8085.788260,-17605.128003,10286.831592,7983.104346,-3573.328683,209.748770,4180.826745,5923.145225,9833.582918,7971.503791,14562.452085,14649.042743,5072.773108,10893.279123,0.007000,-0.011500,1.003500,192.000000,0.000000,0.000000,0.000000,0.000000,0.000000,0.000000,0.000000,0.000000,0.000000,1772530566.669704,0.000000
66.000000,4151.948291,6278.023872,8085.497688,-17606.178535,10259.718926,7971.906122,-3574.781546,211.201633,4182.592533,5918.540766,9838.366191,7967.659291,14547.498768,14624.209955,5078.070471,10891.960370,0.007500,-0.010750,1.003750,192.000000,0.000000,32.000000,127.500000,88.000000,15.500000,48.000000,0.000000,0.000000,0.000000,1772530566.669746,0.000000
68.000000,4148.461419,6275.364015,8086.302350,-17602.646959,10284.819935,7962.563093,-3571.294674,214.509692,4187.755786,5921.759417,9845.943433,7976.488230,14498.213172,14614.308132,5075.500020,10890.842782,0.007500,-0.010750,1.003750,192.000000,0.000000,0.000000,0.000000,0.000000,0.000000,0.000000,0.000000,0.000000,0.000000,1772530566.669796,0.000000
70.000000,4144.035774,6268.926712,8085.743557,-17606.066776,10292.397176,7982.813773,-3572.233447,214.219119,4171.036681,5912.416388,9838.545005,7973.761317,14511.132480,14627.294496,5064.480610,10886.417137,0.007500,-0.010750,1.003750,192.000000,0.000000,0.000000,0.000000,0.000000,0.000000,0.000000,0.000000,0.000000,0.000000,1772530566.669807,0.000000
72.000000,4143.991070,6269.731375,8087.397586,-17606.580866,10267.698499,7978.097555,-3572.524020,213.414456,4180.335007,5917.937269,9845.943433,7972.286102,14493.161677,14620.276048,5073.264846,10889.814602,0.007500,-0.010750,1.003750,192.000000,0.000000,0.000000,0.000000,0.000000,0.000000,0.000000,0.000000,0.000000,0.000000,1772530566.669817,0.000000
74.000000,4137.397306,6262.511761,8087.330531,-17599.920046,10296.286380,7968.016919,-3568.925389,214.509692,4180.424414,5914.182176,9842.277746,7972.777840,14562.720306,14631.273106,5062.737174,10889.345215,0.007500,-0.010750,1.003750,192.000000,0.000000,0.000000,0.000000,0.000000,0.000000,0.000000,0.000000,0.000000,0.000000,1772530566.669827,0.000000
76.000000,4127.093151,6247.245520,8082.971940,-17609.307779,10296.599304,7983.327864,-3575.519154,205.904270,4165.828725,5902.603972,9836.153368,7963.971253,14500.515401,14627.272144,5073.778936,10905.103195,0.007750,-0.008375,1.003875,192.000000,0.000000,32.000000,127.500000,104.000000,15.500000,48.000000,0.000000,0.000000,0.000000,1772530566.669837,0.000000
78.000000,4144.840437,6267.071517,8092.180859,-17598.154259,10294.319426,8006.931306,-3569.975921,216.454293,4183.486603,5901.084054,9843.350630,7965.334709,14522.978905,14629.082636,5081.937323,10906.801928,0.007750,-0.008375,1.003875,192.000000,0.000000,0.000000,0.000000,0.000000,0.000000,0.000000,0.000000,0.000000,0.000000,1772530566.669847,0.000000
80.000000,4129.305974,6254.085154,8090.459775,-17597.282540,10261.842342,7977.561114,-3572.658130,211.559261,4177.362225,5915.009190,9841.607194,7973.917779,14560.038097,14638.068037,5078.137526,10910.534669,0.007750,-0.008375,1.003875,192.000000,0.000000,0.000000,0.000000,0.000000,0.000000,0.000000,0.000000,0.000000,0.000000,1772530566.669858,0.000000
82.000000,4124.232128,6250.486523,8085.810612,-17602.579904,10278.092060,7980.690358,-3575.049767,205.703104,4169.114431,5897.686588,9841.584842,7963.948901,14494.972169,14621.974781,5088.039349,10916.480233,0.007750,-0.008375,1.003875,192.000000,0.000000,0.000000,0.000000,0.000000,0.000000,0.000000,0.000000,0.000000,0.000000,1772530566.669869,0.000000
84.000000,4119.962945,6242.775171,8084.625969,-17602.512849,10283.903513,7973.850724,-3572.099337,205.367828,4162.699480,5904.302705,9831.951241,7965.848799,14530.042056,14622.488871,5073.510715,10911.048759,0.007750,-0.008375,1.003875,192.000000,0.000000,0.000000,0.000000,0.000000,0.000000,0.000000,0.000000,0.000000,0.000000,1772530566.669879,0.000000
86.000000,4116.833701,6236.762552,8082.502554,-17617.823794,10274.225208,7954.941148,-3579.386005,199.019933,4160.687823,5878.218219,9829.581956,7951.230759,14528.924469,14615.224554,5081.423233,10902.756262,0.007875,-0.007188,1.000938,192.000000,0.000000,32.000000,127.500000,104.000000,15.500000,24.000000,0.000000,0.000000,0.000000,1772530566.669889,0.000000
88.000000,4125.796750,6248.318404,8088.716339,-17608.905448,10286.250447,7974.521276,-3572.881648,207.200671,4173.718890,5899.139452,9835.192243,7959.187980,14494.592189,14625.439301,5084.105442,10895.402538,0.007875,-0.007188,1.000938,192.000000,0.000000,0.000000,0.000000,0.000000,0.000000,0.000000,0.000000,0.000000,0.000000,1772530566.669899,0.000000
90.000000,4112.206890,6240.204721,8082.413147,-17610.045387,10270.626577,7966.251131,-3574.088642,203.445578,4163.571198,5887.158917,9828.509072,7959.433849,14516.921582,14603.020501,5069.822677,10888.249980,0.007875,-0.007188,1.000938,192.000000,0.000000,0.000000,0.000000,0.000000,0.000000,0.000000,0.000000,0.000000,0.000000,1772530566.669909,0.000000
92.000000,4108.764721,6236.382572,8075.998196,-17609.486593,10279.500220,7966.407593,-3574.334511,202.529157,4151.724774,5905.576754,9827.704409,7961.311395,14511.333646,14615.828051,5076.371738,10881.946788,0.007875,-0.007188,1.000938,192.000000,0.000000,0.000000,0.000000,0.000000,0.000000,0.000000,0.000000,0.000000,0.000000,1772530566.669919,0.000000
94.000000,4112.832738,6240.629404,8083.888362,-17603.921009,10241.703420,7967.994567,-3570.110031,205.904270,4153.423506,5887.337731,9828.106740,7962.071355,14502.124727,14615.381016,5062.625416,10885.612474,0.007875,-0.007188,1.000938,192.000000,0.000000,0.000000,0.000000,0.000000,0.000000,0.000000,0.000000,0.000000,0.000000,1772530566.669930,0.000000
96.000000,4116.788997,6242.529302,8071.349033,-17605.060948,10248.632461,7972.353157,-3574.222752,204.473758,4158.542056,5890.891658,9830.677191,7959.702070,14473.268625,14617.996170,5064.458259,10896.609532,0.006938,-0.003594,0.999469,192.000000,0.000000,24.000000,0.000000,0.000000,15.500000,24.000000,0.000000,0.000000,0.000000,1772530566.669940,0.000000
98.000000,4119.024172,6247.111410,8081.407318,-17603.719843,10284.819935,7996.157765,-3571.249970,208.072389,4156.619806,5902.268696,9832.532386,7966.362890,14519.492032,14649.243909,5057.752735,10901.973951,0.006938,-0.003594,0.999469,192.000000,0.000000,0.000000,0.000000,0.000000,0.000000,0.000000,0.000000,0.000000,0.000000,1772530566.669950,0.000000
100.000000,4122.488692,6246.999651,8085.877667,-17600.322378,10272.481772,7978.030500,-3572.367558,208.921755,4157.625634,5890.086995,9831.973592,7960.618491,14517.681541,14629.909650,5072.348424,10907.003094,0.006938,-0.003594,0.999469,192.000000,0.000000,0.000000,0.000000,0.000000,0.000000,0.000000,0.000000,0.000000,0.000000,1772530566.669960,0.000000
102.000000,4123.718038,6250.710040,8083.418975,-17605.239762,10271.654757,7977.695224,-3575.295636,205.792511,4167.996844,5899.072397,9838.254432,7966.072317,14522.978905,14618.130281,5086.139451,10908.701826,0.006938,-0.003594,0.999469,192.000000,0.000000,0.000000,0.000000,0.000000,0.000000,0.000000,0.000000,0.000000,0.000000,1772530566.669971,0.000000
104.000000,4124.142721,6256.677956,8080.602655,-17598.534238,10290.989016,7975.884733,-3571.227619,208.966459,4159.100850,5901.128757,9832.957069,7967.100497,14495.106279,14616.140975,5069.576808,10906.421948,0.006938,-0.003594,0.999469,192.000000,0.000000,0.000000,0.000000,0.000000,0.000000,0.000000,0.000000,0.000000,0.000000,1772530566.669980,0.000000
106.000000,4126.780227,6256.633253,8079.440365,-17606.245590,10263.853999,7980.466840,-3576.212058,208.206500,4160.240788,5900.681722,9835.482816,7969.559189,14517.100396,14639.118569,5069.576808,10904.454995,0.006938,-0.003594,0.999469,192.000000,0.000000,0.000000,0.000000,0.000000,0.000000,0.000000,0.000000,0.000000,0.000000,1772530566.669990,0.000000
108.000000,4124.679163,6257.214398,8084.402452,-17605.507982,10245.346754,7985.808907,-3572.971055,207.446540,4165.649911,5900.637019,9838.880281,7965.446468,14494.145154,14622.466519,5072.661349,10910.579373,0.004000,-0.010000,1.000000,192.000000,0.000000,16.000000,127.500000,88.000000,15.500000,32.000000,0.000000,0.000000,0.000000,1772530566.670000,0.000000
110.000000,4123.338058,6253.325195,8080.133269,-17607.966674,10253.616900,7977.583465,-3575.876781,205.121959,4153.624672,5888.745891,9830.721895,7958.942110,14508.159698,14608.071996,5071.901390,10904.075015,0.004000,-0.010000,1.000000,192.000000,0.000000,0.000000,0.000000,0.000000,0.000000,0.000000,0.000000,0.000000,0.000000,1772530566.670010,0.000000
