Sample_index,EXG Channel 0,EXG Channel 1,EXG Channel 2,EXG Channel 3,EXG Channel 4,EXG Channel 5,EXG Channel 6,EXG Channel 7,EXG Channel 8,EXG Channel 9,EXG Channel 10,EXG Channel 11,EXG Channel 12,EXG Channel 13,EXG Channel 14,EXG Channel 15,Accel Channel 0,Accel Channel 1,Accel Channel 2,Not Used,Digital Channel 0 (D11),Digital Channel 1 (D12),Digital Channel 2 (D13),Digital Channel 3 (D17),Not Used,Digital Channel 4 (D18),Analog Channel 0,Analog Channel 1,Analog Channel 2,Timestamp,Marker Channel
90.000000,5824.775198,6047.130352,6312.713780,-18206.725205,9682.775698,8226.671305,-4669.100603,-1590.438377,4649.520475,5652.644414,6642.491417,10073.953578,11330.501596,11960.440810,1213.051523,12133.532719,0.004000,-0.012000,1.008000,192.000000,0.000000,0.000000,0.000000,0.000000,0.000000,0.000000,0.000000,0.000000,0.000000,1772528748.451542,101.000000
92.000000,5825.423399,6044.805770,6313.652553,-18203.037167,9674.773774,8230.135826,-4665.725489,-1586.236249,4638.523416,5667.709490,6646.827656,10087.945770,11375.585064,11958.518560,1197.695875,12076.178143,0.004000,-0.012000,1.008000,192.000000,0.000000,0.000000,0.000000,0.000000,0.000000,0.000000,0.000000,0.000000,0.000000,1772528748.451600,0.000000
94.000000,5815.499224,6028.667811,6302.811957,-18220.270362,9668.917616,8216.121282,-4673.816821,-1592.852365,4643.798428,5659.305234,6645.575958,10078.043947,11345.991355,11975.215313,1208.067084,12103.894306,0.006000,-0.012000,1.018000,192.000000,0.000000,24.000000,127.500000,80.000000,15.500000,104.000000,0.000000,0.000000,0.000000,1772528748.451643,0.000000
96.000000,5824.842253,6046.415096,6318.502881,-18205.227638,9648.957509,8208.924020,-4657.924731,-1583.509336,4641.406791,5662.367423,6647.095877,10080.994377,11289.016758,11942.000621,1195.058369,12093.098413,0.006000,-0.012000,1.018000,192.000000,0.000000,0.000000,0.000000,0.000000,0.000000,0.000000,0.000000,0.000000,0.000000,1772528748.451685,0.000000
98.000000,5829.402009,6043.218797,6307.215250,-18214.905943,9675.869009,8235.075561,-4664.652606,-1582.391749,4641.898530,5662.635644,6652.639109,10085.643540,11319.191613,11953.936452,1189.246915,12069.562026,0.006000,-0.012000,1.018000,192.000000,0.000000,0.000000,0.000000,0.000000,0.000000,0.000000,0.000000,0.000000,0.000000,1772528748.451729,0.000000
100.000000,5837.627451,6055.802829,6307.841099,-18201.740766,9673.276207,8226.134864,-4660.204608,-1575.261542,4654.147286,5671.352824,6656.036574,10090.516220,11362.553997,11976.891694,1182.317875,12120.524004,0.006000,-0.012000,1.018000,192.000000,0.000000,0.000000,0.000000,0.000000,0.000000,0.000000,0.000000,0.000000,0.000000,1772528748.451773,0.000000
102.000000,5843.461256,6060.429640,6319.709876,-18200.243199,9646.320003,8227.811244,-4657.656510,-1569.852420,4640.915053,5676.605484,6659.970481,10096.975875,11349.724096,11986.190019,1185.245953,12079.173276,0.006000,-0.012000,1.018000,192.000000,0.000000,0.000000,0.000000,0.000000,0.000000,0.000000,0.000000,0.000000,0.000000,1772528748.451800,0.000000
104.000000,5839.214425,6048.538512,6308.735169,-18213.788356,9665.095468,8226.447788,-4668.050071,-1574.278065,4655.376632,5672.090432,6667.413612,10094.383072,11318.766930,11960.843141,1192.130291,12108.811689,0.014000,-0.012000,1.014000,192.000000,0.000000,56.000000,127.500000,80.000000,15.500000,88.000000,0.000000,0.000000,0.000000,1772528748.451813,0.000000
106.000000,5848.982137,6068.073936,6318.368771,-18197.851562,9685.770832,8232.326297,-4656.538922,-1570.679435,4654.348451,5677.432499,6665.357252,10097.109985,11335.977773,11977.092859,1187.883459,12107.895268,0.014000,-0.012000,1.014000,192.000000,0.000000,0.000000,0.000000,0.000000,0.000000,0.000000,0.000000,0.000000,0.000000,1772528748.451825,0.000000
108.000000,5840.086143,6059.021480,6308.019913,-18213.095452,9656.266529,8219.183471,-4670.039376,-1583.285818,4649.878103,5671.844563,6662.004490,10094.941866,11356.541378,11979.149220,1187.570535,12085.923503,0.014000,-0.012000,1.014000,192.000000,0.000000,0.000000,0.000000,0.000000,0.000000,0.000000,0.000000,0.000000,0.000000,1772528748.451836,0.000000
110.000000,5835.660498,6049.097305,6315.887727,-18216.202344,9650.611538,8216.300096,-4667.558332,-1587.152670,4661.433954,5662.546237,6653.533179,10083.810697,11352.786285,11955.456371,1206.346000,12135.522024,0.014000,-0.012000,1.014000,192.000000,0.000000,0.000000,0.000000,0.000000,0.000000,0.000000,0.000000,0.000000,0.000000,1772528748.451849,0.000000
112.000000,5833.604137,6047.197407,6311.551489,-18211.664940,9655.484218,8218.244698,-4664.920827,-1589.521955,4642.837303,5662.412126,6650.694507,10083.386014,11329.607526,11968.241569,1196.622991,12074.635872,0.014000,-0.012000,1.014000,192.000000,0.000000,0.000000,0.000000,0.000000,0.000000,0.000000,0.000000,0.000000,0.000000,1772528748.451860,0.000000
114.000000,5835.325221,6046.437448,6299.973285,-18218.057539,9661.899169,8218.311753,-4672.520420,-1590.728949,4644.670146,5663.440307,6645.419496,10077.149877,11344.694954,11960.261996,1192.979657,12114.354922,0.009000,-0.014000,1.010000,192.000000,0.000000,16.000000,127.500000,64.000000,15.500000,56.000000,0.000000,0.000000,0.000000,1772528748.451873,0.000000
116.000000,5859.800382,6080.769727,6319.508710,-18194.834077,9655.998308,8217.663552,-4657.276530,-1575.753281,4655.220169,5677.499554,6656.237740,10092.639636,11317.090549,11975.260016,1195.863032,12097.054672,0.009000,-0.014000,1.010000,192.000000,0.000000,0.000000,0.000000,0.000000,0.000000,0.000000,0.000000,0.000000,0.000000,1772528748.451897,0.000000
118.000000,5862.549646,6080.255637,6312.132634,-18201.316083,9635.010020,8204.453672,-4665.658434,-1576.110909,4660.919864,5691.335284,6667.234798,10104.575468,11341.051619,11989.609836,1191.012703,12063.683517,0.009000,-0.014000,1.010000,192.000000,0.000000,0.000000,0.000000,0.000000,0.000000,0.000000,0.000000,0.000000,0.000000,1772528748.451909,0.000000
120.000000,5869.836315,6090.224515,6315.261878,-18196.331644,9647.996384,8216.568317,-4660.115201,-1569.830068,4671.805164,5691.312932,6668.486496,10105.737758,11342.348020,11967.995699,1189.135157,12115.606620,0.009000,-0.014000,1.010000,192.000000,0.000000,0.000000,0.000000,0.000000,0.000000,0.000000,0.000000,0.000000,0.000000,1772528748.451921,0.000000
122.000000,5878.620550,6101.132167,6316.848852,-18196.018719,9654.187817,8221.843329,-4656.449515,-1565.382071,4661.433954,5702.287638,6672.867438,10115.371360,11364.476247,11978.322205,1172.416052,12053.871102,0.009000,-0.014000,1.010000,192.000000,0.000000,0.000000,0.000000,0.000000,0.000000,0.000000,0.000000,0.000000,0.000000,1772528748.451933,0.000000
124.000000,5876.117155,6089.509259,6310.456253,-18214.548315,9658.099372,8221.396294,-4668.854734,-1574.590990,4672.319254,5689.390682,6671.436926,10103.860212,11326.232413,11969.247397,1182.764910,12092.293750,0.006500,-0.015000,1.008000,192.000000,0.000000,16.000000,127.500000,64.000000,15.500000,56.000000,0.000000,0.000000,0.000000,1772528748.451945,0.000000
126.000000,5890.489327,6110.966934,6323.241451,-18200.265551,9662.547369,8231.611041,-4659.399946,-1569.561847,4677.348396,5699.270153,6671.727499,10106.877697,11339.866977,11984.267769,1189.872764,12084.425936,0.006500,-0.015000,1.008000,192.000000,0.000000,0.000000,0.000000,0.000000,0.000000,0.000000,0.000000,0.000000,0.000000,1772528748.451957,0.000000
128.000000,5889.863478,6104.864908,6311.015047,-18206.769908,9662.815590,8232.661573,-4668.787678,-1575.172135,4675.537905,5698.890173,6671.012243,10103.569639,11330.725113,11990.146278,1189.984523,12090.282093,0.006500,-0.015000,1.008000,192.000000,0.000000,0.000000,0.000000,0.000000,0.000000,0.000000,0.000000,0.000000,0.000000,1772528748.451969,0.000000
130.000000,5891.472804,6111.101045,6312.780835,-18202.903056,9662.055631,8232.303945,-4664.697309,-1574.501583,4689.239525,5699.583077,6668.933531,10102.519107,11354.820294,11980.758545,1197.025323,12138.628917,0.006500,-0.015000,1.008000,192.000000,0.000000,0.000000,0.000000,0.000000,0.000000,0.000000,0.000000,0.000000,0.000000,1772528748.451982,0.000000
132.000000,5895.943152,6119.035914,6314.591326,-18202.120745,9660.468657,8227.252451,-4661.746879,-1571.975836,4676.722548,5703.718150,6668.553551,10107.481194,11349.724096,11979.730365,1188.710474,12083.308349,0.006500,-0.015000,1.008000,192.000000,0.000000,0.000000,0.000000,0.000000,0.000000,0.000000,0.000000,0.000000,0.000000,1772528748.451994,0.000000
134.000000,5888.410615,6105.557812,6305.963553,-18217.275228,9655.998308,8210.399236,-4671.648702,-1578.971932,4685.819708,5702.309990,6669.648787,10102.139128,11355.423791,11972.711917,1201.562727,12109.906925,0.005250,-0.015500,1.007000,192.000000,0.000000,16.000000,127.500000,64.000000,15.500000,56.000000,0.000000,0.000000,0.000000,1772528748.452006,0.000000
136.000000,5899.877059,6125.763789,6319.218137,-18202.165449,9676.204285,8223.363247,-4657.812972,-1568.958350,4679.628274,5700.298333,6668.553551,10101.356816,11392.371224,11976.802287,1205.988372,12099.602771,0.005250,-0.015500,1.007000,192.000000,0.000000,0.000000,0.000000,0.000000,0.000000,0.000000,0.000000,0.000000,0.000000,1772528748.452018,0.000000
138.000000,5906.917859,6128.848330,6318.011143,-18209.452118,9681.613407,8217.775311,-4662.842114,-1564.510353,4681.975208,5708.680237,6678.276560,10111.906840,11360.944672,11988.179325,1201.093340,12067.997404,0.005250,-0.015500,1.007000,192.000000,0.000000,0.000000,0.000000,0.000000,0.000000,0.000000,0.000000,0.000000,0.000000,1772528748.452029,0.000000
140.000000,5919.032504,6142.371135,6320.447483,-18201.830173,9670.839866,8226.023105,-4657.365937,-1558.095402,4709.199632,5716.369237,6684.378586,10114.544346,11334.681372,11988.805173,1197.092378,12116.143062,0.005250,-0.015500,1.007000,192.000000,0.000000,0.000000,0.000000,0.000000,0.000000,0.000000,0.000000,0.000000,0.000000,1772528748.452042,0.000000
142.000000,5921.848824,6147.422629,6317.184128,-18201.226676,9704.568649,8240.931718,-4654.102582,-1555.592007,4695.341551,5725.734618,6687.798403,10120.892241,11364.878579,12012.766244,1182.608447,12065.941044,0.005250,-0.015500,1.007000,192.000000,0.000000,0.000000,0.000000,0.000000,0.000000,0.000000,0.000000,0.000000,0.000000,1772528748.452054,0.000000
144.000000,5908.236612,6128.513053,6309.875108,-18206.009949,9652.712602,8206.800605,-4664.116164,-1564.510353,4695.475661,5718.000915,6681.696377,10116.891279,11348.271233,11975.975272,1168.593904,12108.387006,0.004625,-0.015750,1.004500,192.000000,0.000000,16.000000,127.500000,64.000000,15.500000,40.000000,0.000000,0.000000,0.000000,1772528748.452067,0.000000
146.000000,5919.323077,6146.774429,6325.722495,-18191.369556,9654.880721,8207.247640,-4650.481600,-1555.167324,4692.346417,5709.820176,6681.092880,10113.292648,11339.710515,11980.132697,1185.961209,12094.037186,0.004625,-0.015750,1.004500,192.000000,0.000000,0.000000,0.000000,0.000000,0.000000,0.000000,0.000000,0.000000,0.000000,1772528748.452081,0.000000
148.000000,5919.658353,6144.338089,6312.043227,-18198.812687,9666.749497,8211.785044,-4660.025795,-1557.022519,4685.707949,5721.197214,6683.998607,10120.914593,11368.320747,11978.277502,1179.948590,12073.898265,0.004625,-0.015750,1.004500,192.000000,0.000000,0.000000,0.000000,0.000000,0.000000,0.000000,0.000000,0.000000,0.000000,1772528748.452093,0.000000
150.000000,5919.457188,6145.098048,6321.140387,-18197.136306,9652.980823,8211.002733,-4659.310539,-1558.542437,4705.511594,5723.633554,6685.272656,10121.383979,11347.690087,11978.948054,1192.644381,12126.871899,0.004625,-0.015750,1.004500,192.000000,0.000000,0.000000,0.000000,0.000000,0.000000,0.000000,0.000000,0.000000,0.000000,1772528748.452107,0.000000
152.000000,5921.535900,6149.881321,6321.967402,-18202.277208,9655.059535,8213.751997,-4657.500047,-1559.190638,4688.323103,5721.085456,6681.562267,10119.640543,11363.671585,11985.877095,1193.158471,12075.574645,0.004625,-0.015750,1.004500,192.000000,0.000000,0.000000,0.000000,0.000000,0.000000,0.000000,0.000000,0.000000,0.000000,1772528748.452120,0.000000
154.000000,5902.246344,6122.791007,6305.918849,-18214.727129,9640.463846,8202.956105,-4670.061728,-1574.166307,4692.078196,5705.752159,6674.767336,10105.894221,11365.906759,11997.924685,1194.700741,12118.132367,0.006313,-0.015875,1.007250,192.000000,0.000000,32.000000,127.500000,64.000000,15.500000,72.000000,0.000000,0.000000,0.000000,1772528748.452132,0.000000
156.000000,5914.629211,6140.538292,6317.429998,-18197.806859,9646.722334,8212.053265,-4655.510742,-1563.392766,4690.245353,5708.590830,6674.432060,10105.290723,11300.930238,11961.871321,1192.264401,12110.041035,0.006313,-0.015875,1.007250,192.000000,0.000000,0.000000,0.000000,0.000000,0.000000,0.000000,0.000000,0.000000,0.000000,1772528748.452143,0.000000
158.000000,5910.538842,6131.150559,6307.304657,-18211.597885,9668.180009,8203.425491,-4665.546675,-1565.896161,4680.254123,5709.261383,6675.169668,10105.626000,11334.748427,11959.770257,1187.905811,12078.010986,0.006313,-0.015875,1.007250,192.000000,0.000000,0.000000,0.000000,0.000000,0.000000,0.000000,0.000000,0.000000,0.000000,1772528748.452155,0.000000
160.000000,5922.899356,6146.573263,6314.412512,-18207.373405,9697.326684,8221.463349,-4660.137553,-1557.737775,4697.464966,5713.038828,6677.673063,10109.895183,11365.683242,11973.047194,1194.857203,12116.344227,0.006313,-0.015875,1.007250,192.000000,0.000000,0.000000,0.000000,0.000000,0.000000,0.000000,0.000000,0.000000,0.000000,1772528748.452168,0.000000
162.000000,5930.789522,6156.475086,6322.883823,-18199.952626,9675.265512,8206.979419,-4657.187123,-1552.798039,4694.961571,5727.925089,6686.144374,10121.473386,11352.294547,11993.990778,1187.883459,12050.965375,0.006313,-0.015875,1.007250,192.000000,0.000000,0.000000,0.000000,0.000000,0.000000,0.000000,0.000000,0.000000,0.000000,1772528748.452179,0.000000
164.000000,5926.520339,6145.433324,6313.987829,-18207.015777,9643.615442,8205.928887,-4665.457268,-1558.207161,4713.088836,5725.913432,6687.686645,10116.846575,11404.016483,12015.716674,1201.920355,12093.254875,0.008156,-0.016938,1.008625,192.000000,0.000000,40.000000,127.500000,56.000000,15.500000,72.000000,0.000000,0.000000,0.000000,1772528748.452191,0.000000
166.000000,5936.556272,6163.761754,6326.594213,-18188.620292,9658.121724,8222.782102,-4649.900454,-1550.026423,4713.759388,5733.244805,6690.570020,10125.429645,11350.238186,12001.545668,1186.922334,12094.819497,0.008156,-0.016938,1.008625,192.000000,0.000000,0.000000,0.000000,0.000000,0.000000,0.000000,0.000000,0.000000,0.000000,1772528748.452203,0.000000
168.000000,5926.095656,6148.897844,6309.226907,-18204.065347,9661.876817,8224.793759,-4662.663300,-1561.381109,4699.208403,5726.047543,6682.746909,10119.864061,11349.880558,11972.264883,1183.614276,12079.888532,0.008156,-0.016938,1.008625,192.000000,0.000000,0.000000,0.000000,0.000000,0.000000,0.000000,0.000000,0.000000,0.000000,1772528748.452215,0.000000
170.000000,5925.246289,6149.590748,6313.853719,-18198.544466,9665.050765,8227.543024,-4661.523361,-1566.678472,4703.321124,5721.867767,6678.745947,10114.007904,11336.469512,11984.424232,1188.509308,12134.493844,0.008156,-0.016938,1.008625,192.000000,0.000000,0.000000,0.000000,0.000000,0.000000,0.000000,0.000000,0.000000,0.000000,1772528748.452227,0.000000
172.000000,5925.425103,6149.233121,6320.782759,-18199.505591,9670.035204,8232.303945,-4660.562236,-1568.019577,4690.312408,5718.783226,6675.907275,10110.163404,11363.202198,11983.977197,1187.995218,12088.695119,0.008156,-0.016938,1.008625,192.000000,0.000000,0.000000,0.000000,0.000000,0.000000,0.000000,0.000000,0.000000,0.000000,1772528748.452238,0.000000
174.000000,5926.207414,6142.974632,6318.189957,-18210.502650,9653.740782,8219.697561,-4667.670091,-1567.080804,4705.802167,5715.765740,6681.852839,10106.832994,11348.114770,11996.963560,1194.633686,12119.160547,0.007078,-0.018469,1.010312,192.000000,0.000000,24.000000,127.500000,48.000000,15.500000,80.000000,0.000000,0.000000,0.000000,1772528748.452249,0.000000
176.000000,5936.735086,6164.722879,6326.840082,-18198.388004,9661.206265,8224.950221,-4655.667204,-1560.732908,4711.703028,5726.204005,6687.507831,10114.119663,11371.360585,12021.841052,1193.493747,12105.078948,0.007078,-0.018469,1.010312,192.000000,0.000000,0.000000,0.000000,0.000000,0.000000,0.000000,0.000000,0.000000,0.000000,1772528748.452262,0.000000
178.000000,5914.338638,6138.616042,6312.736131,-18210.972036,9668.716451,8218.870547,-4668.251236,-1573.942789,4697.532022,5717.710342,6677.717766,10107.324732,11382.871733,11988.335787,1190.789186,12087.868105,0.007078,-0.018469,1.010312,192.000000,0.000000,0.000000,0.000000,0.000000,0.000000,0.000000,0.000000,0.000000,0.000000,1772528748.452273,0.000000
180.000000,5913.221051,6139.644222,6317.228832,-18206.769908,9656.110067,8217.708256,-4664.630254,-1571.953484,4702.784682,5709.641362,6674.633226,10102.899087,11327.327648,11973.784801,1191.549145,12131.543414,0.007078,-0.018469,1.010312,192.000000,0.000000,0.000000,0.000000,0.000000,0.000000,0.000000,0.000000,0.000000,0.000000,1772528748.452285,0.000000
182.000000,5908.236612,6137.297289,6316.602983,-18207.485164,9637.714581,8214.690770,-4663.311501,-1573.518106,4688.814841,5717.509176,6671.839258,10106.609476,11342.079799,11990.369796,1193.136119,12070.701965,0.007078,-0.018469,1.010312,192.000000,0.000000,0.000000,0.000000,0.000000,0.000000,0.000000,0.000000,0.000000,0.000000,1772528748.452296,0.000000
184.000000,5902.983952,6121.136978,6305.717684,-18222.617295,9658.188779,8211.203898,-4672.922751,-1575.909743,4687.294923,5694.822156,6663.367947,10095.992398,11350.841683,11989.319264,1203.753198,12106.308294,0.007078,-0.018469,1.010312,192.000000,0.000000,0.000000,0.000000,0.000000,0.000000,0.000000,0.000000,0.000000,0.000000,1772528748.452307,0.000000
186.000000,5919.546595,6146.193283,6324.359038,-18196.935141,9657.898206,8205.347741,-4653.633196,-1555.837876,4705.131615,5716.145720,6677.226028,10113.717331,11349.634689,11992.336749,1189.269267,12079.866180,0.002000,-0.014000,1.012000,192.000000,0.000000,8.000000,127.500000,72.000000,15.500000,80.000000,0.000000,0.000000,0.000000,1772528748.452319,0.000000
188.000000,5906.940211,6125.182644,6313.429035,-18204.624141,9648.599881,8201.167965,-4664.406736,-1565.069147,4690.871202,5716.637458,6680.109403,10119.685247,11341.789227,11980.333862,1183.882497,12062.297709,0.002000,-0.014000,1.012000,192.000000,0.000000,0.000000,0.000000,0.000000,0.000000,0.000000,0.000000,0.000000,0.000000,1772528748.452331,0.000000
190.000000,5898.491251,6118.410065,6316.893556,-18207.976902,9637.781636,8208.901669,-4664.630254,-1572.802850,4691.429995,5699.225449,6670.319339,10103.301418,11360.475285,11979.462144,1195.371293,12115.941896,0.002000,-0.014000,1.012000,192.000000,0.000000,0.000000,0.000000,0.000000,0.000000,0.000000,0.000000,0.000000,0.000000,1772528748.452343,0.000000
192.000000,5910.024751,6132.648126,6316.535928,-18206.971074,9653.249044,8223.363247,-4660.897513,-1569.070109,4675.962588,5705.327476,6669.738194,10106.318904,11355.267329,11973.360118,1182.966075,12061.940081,0.002000,-0.014000,1.012000,192.000000,0.000000,0.000000,0.000000,0.000000,0.000000,0.000000,0.000000,0.000000,0.000000,1772528748.452355,0.000000
194.000000,5903.609801,6118.343010,6305.091835,-18217.655208,9652.086753,8214.154329,-4672.274550,-1576.334426,4685.305617,5699.694836,6666.363080,10101.803851,11355.468494,11973.203656,1188.621067,12098.261666,0.002000,-0.014000,1.012000,192.000000,0.000000,0.000000,0.000000,0.000000,0.000000,0.000000,0.000000,0.000000,0.000000,1772528748.452367,0.000000
196.000000,5921.066513,6146.662670,6318.860509,-18200.064385,9680.562875,8234.963803,-4659.355242,-1561.962254,4691.832327,5712.301220,6669.492325,10108.151747,11383.296416,12002.350331,1192.823195,12101.100338,0.002000,-0.010000,1.010000,192.000000,0.000000,8.000000,127.500000,88.000000,15.500000,72.000000,0.000000,0.000000,0.000000,1772528748.452379,0.000000
198.000000,5915.210356,6138.996022,6316.021838,-18206.345225,9656.870026,8225.687829,-4669.905266,-1565.784403,4695.006275,5715.206947,6675.415537,10112.331523,11331.149796,11988.536953,1192.107939,12089.075099,0.002000,-0.010000,1.010000,192.000000,0.000000,0.000000,0.000000,0.000000,0.000000,0.000000,0.000000,0.000000,0.000000,1772528748.452391,0.000000
200.000000,5916.350295,6139.107780,6320.045152,-18202.076042,9662.167390,8218.915250,-4665.725489,-1563.683339,4706.025685,5719.409075,6679.975293,10114.946677,11333.899061,11984.178362,1201.987410,12141.378181,0.002000,-0.010000,1.010000,192.000000,0.000000,0.000000,0.000000,0.000000,0.000000,0.000000,0.000000,0.000000,0.000000,1772528748.452402,0.000000
202.000000,5916.439702,6140.180664,6322.861472,-18206.546391,9678.327701,8233.533291,-4662.216265,-1562.990435,4685.819708,5714.826967,6678.410671,10117.114796,11338.950555,11985.407708,1197.204137,12071.350166,0.002000,-0.010000,1.010000,192.000000,0.000000,0.000000,0.000000,0.000000,0.000000,0.000000,0.000000,0.000000,0.000000,1772528748.452415,0.000000
204.000000,5905.330885,6122.478082,6310.858585,-18214.458908,9673.678538,8210.443939,-4671.671053,-1570.098289,4692.547583,5706.556822,6675.102612,10108.218802,11355.289680,11988.827525,1201.473320,12095.490050,0.002000,-0.010000,1.010000,192.000000,0.000000,0.000000,0.000000,0.000000,0.000000,0.000000,0.000000,0.000000,0.000000,1772528748.452426,0.000000
206.000000,5915.389170,6143.332260,6318.525233,-18200.064385,9691.783451,8230.985192,-4657.857675,-1557.715423,4696.660304,5712.658848,6677.427194,10112.286819,11408.285666,11987.397014,1200.378084,12089.455079,-0.002000,-0.008000,1.010000,192.000000,127.500000,120.000000,127.500000,96.000000,15.500000,72.000000,0.000000,0.000000,0.000000,1772528748.452437,0.000000
208.000000,5900.122929,6123.819187,6310.992695,-18207.529868,9665.721317,8210.376884,-4667.848905,-1563.571580,4691.631161,5716.011610,6682.411633,10115.572526,11353.970927,11992.828487,1186.922334,12055.771000,-0.002000,-0.008000,1.010000,192.000000,0.000000,0.000000,0.000000,0.000000,0.000000,0.000000,0.000000,0.000000,0.000000,1772528748.452449,0.000000
210.000000,5892.724501,6115.504338,6313.272573,-18202.500725,9642.363744,8211.986209,-4665.949007,-1565.046795,4693.531059,5703.718150,6678.768298,10105.402482,11320.644476,11983.977197,1179.948590,12121.999219,-0.002000,-0.008000,1.010000,192.000000,0.000000,0.000000,0.000000,0.000000,0.000000,0.000000,0.000000,0.000000,0.000000,1772528748.932400,0.000000
212.000000,5902.939248,6128.244833,6321.229794,-18197.292769,9643.727200,8216.769483,-4659.377594,-1558.631844,4681.259952,5706.556822,6681.629322,10111.750378,11328.556994,11987.687586,1177.624008,12070.679613,-0.002000,-0.008000,1.010000,192.000000,0.000000,0.000000,0.000000,0.000000,0.000000,0.000000,0.000000,0.000000,0.000000,1772528748.932458,0.000000
214.000000,5896.971333,6114.409103,6310.165681,-18212.804879,9664.715489,8223.698523,-4668.362995,-1562.588103,4699.431920,5707.942630,6686.703168,10111.057474,11359.089477,11986.167668,1177.869878,12100.094509,-0.002000,-0.008000,1.010000,192.000000,0.000000,0.000000,0.000000,0.000000,0.000000,0.000000,0.000000,0.000000,0.000000,1772528748.932500,0.000000
216.000000,5893.104481,6123.215690,6319.955745,-18201.919580,9655.484218,8217.484739,-4658.818800,-1565.136202,4683.003388,5702.533508,6676.644883,10106.296552,11382.268236,11991.822659,1177.400491,12102.039111,0.002000,-0.008000,1.014000,192.000000,0.000000,8.000000,127.500000,96.000000,15.500000,88.000000,0.000000,0.000000,0.000000,1772528748.932542,0.000000
218.000000,5888.678835,6107.144786,6313.943125,-18217.498746,9634.272413,8202.844346,-4670.598170,-1574.479231,4675.739071,5690.932952,6675.214371,10099.300456,11316.621162,11993.700206,1192.711436,12071.819552,0.002000,-0.008000,1.014000,192.000000,0.000000,0.000000,0.000000,0.000000,0.000000,0.000000,0.000000,0.000000,0.000000,1772528748.932596,0.000000
220.000000,5891.763376,6117.493643,6313.540794,-18216.157641,9653.561968,8225.017276,-4670.665225,-1575.239190,4681.327007,5696.342074,6670.274636,10096.752357,11359.871788,11968.599197,1201.473320,12117.931201,0.002000,-0.008000,1.014000,192.000000,0.000000,0.000000,0.000000,0.000000,0.000000,0.000000,0.000000,0.000000,0.000000,1772528748.932641,0.000000
222.000000,5890.779899,6113.760902,6313.563146,-18205.786432,9653.807837,8205.526555,-4669.771155,-1578.413138,4672.140440,5687.580191,6665.983101,10096.238267,11315.615334,11966.498133,1197.964096,12068.086811,0.002000,-0.008000,1.014000,192.000000,0.000000,0.000000,0.000000,0.000000,0.000000,0.000000,0.000000,0.000000,0.000000,1772528748.932656,0.000000
224.000000,5897.150147,6117.381885,6302.566088,-18216.939952,9709.441329,8204.274858,-4676.610789,-1577.250847,4686.847888,5701.080644,6664.798458,10097.266447,11386.760937,11971.080240,1201.965058,12111.292733,0.002000,-0.008000,1.014000,192.000000,0.000000,0.000000,0.000000,0.000000,0.000000,0.000000,0.000000,0.000000,0.000000,1772528748.932668,0.000000
226.000000,5905.107368,6127.775446,6320.939221,-18207.596923,9671.242198,8214.556660,-4662.953873,-1568.667778,4693.352245,5702.287638,6671.995720,10108.062340,11363.537474,11981.138525,1189.224564,12089.879762,0.002000,-0.016000,1.012000,192.000000,0.000000,8.000000,127.500000,64.000000,15.500000,80.000000,0.000000,0.000000,0.000000,1772528748.932681,0.000000
228.000000,5908.348371,6121.002867,6317.564108,-18215.822365,9647.951680,8184.806488,-4667.804202,-1569.271275,4684.903286,5698.040807,6671.414575,10104.016674,11320.488014,11983.776031,1198.165262,12066.566892,0.002000,-0.016000,1.012000,192.000000,0.000000,0.000000,0.000000,0.000000,0.000000,0.000000,0.000000,0.000000,0.000000,1772528748.932693,0.000000
230.000000,5901.687551,6114.252641,6319.732227,-18214.011873,9653.114933,8192.629599,-4664.674957,-1570.478269,4693.486356,5699.627781,6671.258112,10102.183831,11329.786340,11976.399955,1201.853299,12100.899172,0.002000,-0.016000,1.012000,192.000000,0.000000,0.000000,0.000000,0.000000,0.000000,0.000000,0.000000,0.000000,0.000000,1772528748.932705,0.000000
232.000000,5918.853690,6133.452789,6325.364867,-18203.484202,9655.707736,8217.931773,-4660.517533,-1561.559923,4687.831365,5706.892098,6678.276560,10110.409273,11344.940823,11989.207505,1181.468508,12038.694267,0.002000,-0.016000,1.012000,192.000000,0.000000,0.000000,0.000000,0.000000,0.000000,0.000000,0.000000,0.000000,0.000000,1772528748.932717,0.000000
234.000000,5916.015019,6120.801702,6312.736131,-18209.206248,9648.421067,8220.457521,-4672.676882,-1567.371376,4699.588382,5708.836700,6678.835354,10111.795081,11371.338233,11982.546685,1186.944686,12090.282093,0.002000,-0.016000,1.012000,192.000000,0.000000,0.000000,0.000000,0.000000,0.000000,0.000000,0.000000,0.000000,0.000000,1772528748.932729,0.000000
236.000000,5929.336659,6142.527597,6326.393047,-18192.218923,9644.241291,8228.235928,-4657.701213,-1555.346138,4705.221022,5717.531528,6684.736214,10120.981648,11365.929111,11991.621493,1187.190555,12090.617369,0.004000,-0.014000,1.012000,192.000000,0.000000,16.000000,127.500000,72.000000,15.500000,80.000000,0.000000,0.000000,0.000000,1772528748.932742,0.000000
238.000000,5929.694287,6142.505246,6316.491224,-18204.467679,9649.940985,8215.003695,-4666.038414,-1558.385975,4696.012103,5720.191386,6683.260999,10122.769788,11441.343897,11998.349368,1187.838756,12078.547427,0.004000,-0.014000,1.012000,192.000000,0.000000,0.000000,0.000000,0.000000,0.000000,0.000000,0.000000,0.000000,0.000000,1772528748.932770,0.000000
240.000000,5924.665144,6137.207882,6317.161777,-18206.948722,9669.923445,8213.707294,-4664.563199,-1563.213952,4712.977077,5712.189461,6682.635150,10116.287782,11319.057503,11993.119060,1193.806671,12121.596887,0.004000,-0.014000,1.012000,192.000000,0.000000,0.000000,0.000000,0.000000,0.000000,0.000000,0.000000,0.000000,0.000000,1772528748.932783,0.000000
242.000000,5922.251156,6133.497492,6310.344495,-18209.049786,9674.974939,8210.309829,-4665.658434,-1567.594894,4692.011141,5709.060217,6675.370833,10112.152709,11326.478282,11977.450487,1182.183764,12071.797201,0.004000,-0.014000,1.012000,192.000000,0.000000,0.000000,0.000000,0.000000,0.000000,0.000000,0.000000,0.000000,0.000000,1772528748.932796,0.000000
244.000000,5903.587449,6108.061207,6295.301771,-18225.031284,9651.952642,8204.878355,-4679.985902,-1583.710502,4687.473737,5694.263362,6667.726537,10099.836898,11342.795055,11977.271673,1185.804747,12105.056596,0.004000,-0.014000,1.012000,192.000000,0.000000,0.000000,0.000000,0.000000,0.000000,0.000000,0.000000,0.000000,0.000000,1772528748.932808,0.000000
246.000000,5913.042237,6126.233176,6310.746826,-18211.016740,9647.482294,8202.799642,-4666.977187,-1573.763975,4677.393100,5684.808574,6661.043365,10092.505526,11390.560733,11972.331938,1189.358674,12107.045902,-0.002000,-0.008000,1.006000,192.000000,127.500000,120.000000,127.500000,96.000000,15.500000,56.000000,0.000000,0.000000,0.000000,1772528748.932820,0.000000
248.000000,5918.496063,6127.775446,6312.177338,-18220.180955,9644.330698,8192.495488,-4673.526248,-1570.098289,4675.627312,5695.716226,6670.118173,10099.836898,11313.044883,11957.892711,1192.912602,12070.724317,-0.002000,-0.008000,1.006000,192.000000,0.000000,0.000000,0.000000,0.000000,0.000000,0.000000,0.000000,0.000000,0.000000,1772528748.932832,0.000000
250.000000,5927.235595,6137.431400,6318.905213,-18211.687292,9649.315137,8197.099948,-4668.742975,-1563.213952,4700.661266,5707.048560,6679.550610,10106.609476,11333.139102,11971.996662,1202.434445,12112.678541,-0.002000,-0.008000,1.006000,192.000000,0.000000,0.000000,0.000000,0.000000,0.000000,0.000000,0.000000,0.000000,0.000000,1772528748.932846,0.000000
252.000000,5930.141321,6142.348783,6319.754579,-18206.568743,9651.796180,8208.611096,-4662.618597,-1560.732908,4693.978094,5711.138929,6683.350406,10113.940849,11332.870881,11976.869342,1192.130291,12057.402677,-0.002000,-0.008000,1.006000,192.000000,0.000000,0.000000,0.000000,0.000000,0.000000,0.000000,0.000000,0.000000,0.000000,1772528748.932858,0.000000
254.000000,5921.513548,6127.618984,6304.801262,-18220.538583,9654.724259,8210.667456,-4670.709928,-1569.517144,4695.095682,5710.177804,6679.260037,10110.543383,11377.104983,11991.397976,1188.241087,12092.941951,-0.002000,-0.008000,1.006000,192.000000,0.000000,0.000000,0.000000,0.000000,0.000000,0.000000,0.000000,0.000000,0.000000,1772528748.932871,0.000000
0.000000,5928.643755,6142.505246,6317.474701,-18204.065347,9642.274337,8199.826860,-4657.410640,-1563.728042,4693.262839,5709.306086,6679.707072,10105.916572,11357.010765,11991.330921,1183.189593,12090.036224,0.002000,-0.006000,1.004000,192.000000,0.000000,24.000000,127.500000,112.000000,15.500000,40.000000,0.000000,0.000000,0.000000,1772528748.932883,0.000000
2.000000,5915.232708,6121.204033,6305.158890,-18219.197478,9617.262735,8186.594628,-4670.531114,-1574.814507,4685.640894,5707.406188,6677.404842,10105.849517,11339.039962,11969.917949,1169.622084,12065.605767,0.002000,-0.006000,1.004000,192.000000,0.000000,0.000000,0.000000,0.000000,0.000000,0.000000,0.000000,0.000000,0.000000,1772528748.932895,0.000000
4.000000,5927.906147,6136.380868,6311.551489,-18209.049786,9635.255889,8205.146576,-4665.747841,-1567.170211,4699.588382,5703.181708,6677.270732,10104.843689,11324.086645,11964.665289,1181.870840,12112.700893,0.002000,-0.006000,1.004000,192.000000,0.000000,0.000000,0.000000,0.000000,0.000000,0.000000,0.000000,0.000000,0.000000,1772528748.932907,0.000000
6.000000,5932.756476,6143.779295,6317.139425,-18203.260684,9646.007078,8212.701465,-4663.266797,-1563.951560,4690.267705,5712.815310,6678.321264,10114.767863,11360.631747,11989.855705,1180.797956,12071.774849,0.002000,-0.006000,1.004000,192.000000,0.000000,0.000000,0.000000,0.000000,0.000000,0.000000,0.000000,0.000000,0.000000,1772528748.932920,0.000000
8.000000,5929.783694,6136.984365,6306.544698,-18211.441423,9641.179102,8203.939581,-4673.347434,-1567.036100,4702.717626,5713.999953,6680.914066,10114.991381,11355.714364,11973.605987,1189.761006,12110.286905,0.002000,-0.006000,1.004000,192.000000,0.000000,0.000000,0.000000,0.000000,0.000000,0.000000,0.000000,0.000000,0.000000,1772528748.932932,0.000000
10.000000,5932.532958,6147.377926,6315.418341,-18199.058556,9644.733029,8218.579974,-4662.953873,-1565.940865,4696.570897,5715.363409,6676.220200,10114.052607,11389.443146,11998.774052,1183.815442,12112.522079,0.002000,-0.006000,1.004000,192.000000,0.000000,0.000000,127.500000,80.000000,15.500000,48.000000,0.000000,0.000000,0.000000,1772528748.932945,0.000000
12.000000,5912.617554,6120.734646,6303.929544,-18220.650342,9632.171349,8215.450730,-4677.169583,-1582.123528,4683.472774,5709.663714,6671.235761,10106.251848,11291.386043,11970.812019,1182.340226,12083.867143,0.002000,-0.006000,1.004000,192.000000,0.000000,0.000000,0.000000,0.000000,0.000000,0.000000,0.000000,0.000000,0.000000,1772528748.932958,0.000000
14.000000,5912.930478,6123.707428,6306.030608,-18218.750443,9653.427858,8208.409930,-4675.850830,-1582.168231,4686.534963,5692.385816,6659.992833,10090.024482,11308.708645,11961.625452,1199.640477,12130.850510,0.002000,-0.006000,1.004000,192.000000,0.000000,0.000000,0.000000,0.000000,0.000000,0.000000,0.000000,0.000000,0.000000,1772528748.932970,0.000000
16.000000,5928.599051,6140.091257,6312.758483,-18212.335493,9659.418125,8211.896802,-4667.088946,-1568.980702,4684.724472,5707.048560,6668.732365,10104.083729,11330.479244,11981.607912,1191.482090,12069.271454,0.002000,-0.006000,1.004000,192.000000,0.000000,0.000000,0.000000,0.000000,0.000000,0.000000,0.000000,0.000000,0.000000,1772528748.932983,0.000000
18.000000,5931.862406,6138.280766,6312.065579,-18216.850545,9654.076058,8197.502279,-4670.195838,-1561.962254,4700.303638,5714.446987,6677.091918,10109.515203,11399.993169,11996.538877,1193.829023,12104.341341,0.002000,-0.006000,1.004000,192.000000,0.000000,0.000000,0.000000,0.000000,0.000000,0.000000,0.000000,0.000000,0.000000,1772528748.932996,0.000000
20.000000,5947.933310,6164.342900,6330.014030,-18205.629969,9675.399622,8215.763654,-4653.744954,-1549.646443,4711.792435,5724.773493,6686.189078,10118.522956,11356.921358,11991.263865,1194.119596,12083.151887,0.002000,-0.010000,1.007000,192.000000,0.000000,8.000000,127.500000,72.000000,15.500000,72.000000,0.000000,0.000000,0.000000,1772528748.933010,0.000000
22.000000,5939.797275,6149.277824,6322.593251,-18210.860278,9646.945852,8187.309884,-4663.244446,-1556.664891,4709.669019,5726.159302,6691.084110,10121.026352,11343.979698,11978.009281,1182.362578,12044.416314,0.002000,-0.010000,1.007000,192.000000,0.000000,0.000000,0.000000,0.000000,0.000000,0.000000,0.000000,0.000000,0.000000,1772528748.933026,0.000000
24.000000,5938.232653,6148.093182,6320.514538,-18211.843754,9643.727200,8212.343837,-4662.171562,-1558.028347,4714.944031,5726.941613,6686.636113,10111.459805,11339.844625,11977.562246,1183.211944,12100.966227,0.002000,-0.010000,1.007000,192.000000,0.000000,0.000000,0.000000,0.000000,0.000000,0.000000,0.000000,0.000000,0.000000,1772528748.933038,0.000000
26.000000,5942.680650,6155.178685,6321.632126,-18203.640664,9627.164558,8214.958991,-4657.477696,-1552.574522,4697.219097,5716.659810,6687.708996,10112.689151,11351.244015,12002.193868,1168.593904,12053.736991,0.002000,-0.010000,1.007000,192.000000,0.000000,0.000000,0.000000,0.000000,0.000000,0.000000,0.000000,0.000000,0.000000,1772528748.933053,0.000000
28.000000,5937.785618,6144.673365,6309.562184,-18206.747557,9619.788482,8205.928887,-4667.647739,-1556.910760,4702.717626,5723.231223,6687.708996,10116.354837,11359.022422,11986.279426,1173.377177,12098.015797,0.002000,-0.010000,1.007000,192.000000,0.000000,0.000000,0.000000,0.000000,0.000000,0.000000,0.000000,0.000000,0.000000,1772528748.933066,0.000000
30.000000,5944.267624,6158.442039,6325.275460,-18197.918617,9644.084828,8223.966744,-4659.355242,-1554.340309,4705.466891,5726.047543,6683.395110,10116.399540,11343.510311,11982.345519,1181.647322,12107.738806,0.002000,-0.010000,1.007000,192.000000,0.000000,0.000000,127.500000,88.000000,15.500000,80.000000,0.000000,0.000000,0.000000,1772528748.933079,0.000000
32.000000,5935.885720,6144.226330,6313.429035,-18212.335493,9649.829227,8212.187375,-4672.073385,-1564.443298,4702.270592,5726.561633,6680.668197,10113.091482,11359.782381,11993.610799,1180.440328,12081.699023,0.002000,-0.010000,1.007000,192.000000,0.000000,0.000000,0.000000,0.000000,0.000000,0.000000,0.000000,0.000000,0.000000,1772528748.933092,0.000000
34.000000,5932.979993,6141.633527,6314.993657,-18210.346187,9664.626082,8210.332180,-4670.955798,-1567.997225,4709.445501,5724.259403,6674.186191,10104.955447,11337.698858,11988.983987,1191.459738,12125.016704,0.002000,-0.010000,1.007000,192.000000,0.000000,0.000000,0.000000,0.000000,0.000000,0.000000,0.000000,0.000000,0.000000,1772528748.933105,0.000000
36.000000,5932.935289,6142.929929,6318.391123,-18205.495859,9629.198567,8204.967762,-4668.474754,-1569.874772,4691.094719,5728.617993,6672.733327,10110.565735,11361.458762,11992.202639,1182.496689,12067.751535,0.002000,-0.010000,1.007000,192.000000,0.000000,0.000000,0.000000,0.000000,0.000000,0.000000,0.000000,0.000000,0.000000,1772528748.933117,0.000000
38.000000,5923.704019,6126.859024,6305.516518,-18218.772795,9621.487215,8191.981398,-4679.292998,-1574.412176,4689.887725,5714.670505,6665.960749,10103.994322,11367.583140,11978.568075,1192.420863,12104.117823,0.002000,-0.010000,1.007000,192.000000,0.000000,0.000000,0.000000,0.000000,0.000000,0.000000,0.000000,0.000000,0.000000,1772528748.933137,0.000000
40.000000,5934.812836,6144.069868,6321.386256,-18204.981769,9649.248081,8211.606230,-4664.205571,-1562.141068,4695.207440,5721.666601,6669.782897,10110.297514,11328.378180,12000.428081,1190.073930,12087.733994,-0.001000,-0.011000,1.008500,192.000000,127.500000,112.000000,127.500000,80.000000,15.500000,72.000000,0.000000,0.000000,0.000000,1772528748.933149,0.000000
42.000000,5930.141321,6133.542196,6313.205518,-18210.569705,9640.217977,8201.167965,-4670.955798,-1563.593932,4691.429995,5726.136950,6671.995720,10114.924325,11346.863073,11996.471822,1184.463642,12057.849712,-0.001000,-0.011000,1.008500,192.000000,0.000000,0.000000,0.000000,0.000000,0.000000,0.000000,0.000000,0.000000,0.000000,1772528748.933162,0.000000
44.000000,5935.081057,6138.459580,6322.459140,-18203.730071,9662.122686,8211.829747,-4663.736184,-1555.457897,4706.897403,5729.266194,6677.047214,10116.980686,11381.195352,11996.695339,1185.961209,12104.453099,-0.001000,-0.011000,1.008500,192.000000,0.000000,0.000000,0.000000,0.000000,0.000000,0.000000,0.000000,0.000000,0.000000,1772528748.933174,0.000000
46.000000,5946.458095,6149.478990,6333.590309,-18194.632911,9649.940985,8217.507090,-4656.270701,-1545.377260,4711.524214,5738.653927,6691.017054,10126.636639,11349.835855,12011.402787,1173.690101,12049.579567,-0.001000,-0.011000,1.008500,192.000000,0.000000,0.000000,0.000000,0.000000,0.000000,0.000000,0.000000,0.000000,0.000000,1772528748.933187,0.000000
48.000000,5921.267679,6121.919289,6317.765274,-18204.154754,9657.965262,8214.623715,-4667.312463,-1555.927283,4712.597097,5733.982412,6689.072453,10123.507395,11363.537474,11996.427118,1168.616255,12094.350111,-0.001000,-0.011000,1.008500,192.000000,0.000000,0.000000,0.000000,0.000000,0.000000,0.000000,0.000000,0.000000,0.000000,1772528748.933200,0.000000
50.000000,5923.726371,6128.155426,6329.768161,-18195.236408,9671.465715,8233.600346,-4657.567103,-1554.049737,4696.459138,5731.367258,6682.545743,10118.142977,11347.511273,12033.151034,1182.653151,12096.384120,-0.001500,-0.012500,1.012250,192.000000,127.500000,120.000000,127.500000,72.000000,15.500000,96.000000,0.000000,0.000000,0.000000,1772528748.933213,0.000000
52.000000,5908.996571,6108.575297,6316.066541,-18205.138231,9691.179954,8227.610079,-4668.675920,-1563.549228,4691.228830,5723.700610,6679.774127,10118.701770,11397.065091,12005.546630,1178.383968,12080.179105,-0.001500,-0.012500,1.012250,192.000000,0.000000,0.000000,0.000000,0.000000,0.000000,0.000000,0.000000,0.000000,0.000000,1772528748.933226,0.000000
54.000000,5895.674931,6099.187565,6314.591326,-18200.131440,9726.339248,8235.053210,-4668.362995,-1569.248923,4689.910077,5713.776435,6672.621569,10108.889354,11333.027343,11997.455299,1190.029227,12126.469568,-0.001500,-0.012500,1.012250,192.000000,0.000000,0.000000,0.000000,0.000000,0.000000,0.000000,0.000000,0.000000,0.000000,1772528748.933239,0.000000
56.000000,5881.034539,6088.414024,6317.564108,-18197.762155,9639.770942,8241.602271,-4669.972321,-1580.313036,4669.637045,5714.603450,6660.618682,10105.894221,11366.689070,12002.283275,1193.940782,12098.887515,-0.001500,-0.012500,1.012250,192.000000,0.000000,0.000000,0.000000,0.000000,0.000000,0.000000,0.000000,0.000000,0.000000,1772528748.933252,0.000000
58.000000,5868.405803,6071.024367,6307.215250,-18211.620237,9652.377326,8228.839425,-4682.846926,-1591.600667,4655.108411,5696.364426,6643.385487,10087.834011,11366.577311,12001.545668,1209.095265,12140.238242,-0.001500,-0.012500,1.012250,192.000000,0.000000,0.000000,0.000000,0.000000,0.000000,0.000000,0.000000,0.000000,0.000000,1772528748.933266,0.000000
60.000000,5875.133678,6085.709463,6319.128730,-18199.594998,9673.343262,8237.690716,-4670.888742,-1584.291647,4669.234713,5705.662752,6648.638147,10091.723215,11369.997128,12021.908107,1208.335305,12131.118730,-0.001500,-0.012500,1.012250,192.000000,0.000000,0.000000,0.000000,0.000000,0.000000,0.000000,0.000000,0.000000,0.000000,1772528748.933279,0.000000
62.000000,5873.680815,6080.434451,6316.781797,-18214.190687,9668.425878,8220.837500,-4678.711853,-1586.236249,4652.336794,5712.614144,6649.353403,10093.153726,11323.527852,12003.870249,1209.050561,12098.798108,-0.004000,-0.012000,1.010000,192.000000,127.500000,112.000000,127.500000,80.000000,15.500000,72.000000,0.000000,0.000000,0.000000,1772528748.933293,0.000000
64.000000,5882.710920,6090.850364,6319.776931,-18205.607618,9672.851524,8220.189300,-4670.911094,-1575.909743,4668.519457,5712.725903,6651.119191,10091.902029,11360.587044,12004.674912,1217.030134,12136.818425,-0.004000,-0.012000,1.010000,192.000000,0.000000,0.000000,0.000000,0.000000,0.000000,0.000000,0.000000,0.000000,0.000000,1772528748.933306,0.000000
66.000000,5894.087958,6107.368303,6319.419303,-18193.470620,9690.777623,8219.339933,-4663.624425,-1566.566714,4662.953873,5729.847339,6660.395165,10110.029293,11367.381974,12020.924630,1191.683256,12068.265625,-0.004000,-0.012000,1.010000,192.000000,0.000000,0.000000,0.000000,0.000000,0.000000,0.000000,0.000000,0.000000,0.000000,1772528748.933318,0.000000
68.000000,5896.792519,6098.360550,6320.402780,-18209.385062,9664.380212,8216.143634,-4671.335777,-1568.600722,4673.459193,5729.847339,6663.412650,10108.777596,11373.863980,12001.053929,1195.572459,12099.222791,-0.004000,-0.012000,1.010000,192.000000,0.000000,0.000000,0.000000,0.000000,0.000000,0.000000,0.000000,0.000000,0.000000,1772528748.933331,0.000000
70.000000,5910.337676,6119.304135,6333.456198,-18190.520190,9689.101242,8228.258279,-4656.985957,-1557.201333,4683.651588,5732.954232,6672.487458,10116.511299,11342.996221,12010.933401,1195.572459,12086.281131,-0.004000,-0.012000,1.010000,192.000000,0.000000,0.000000,0.000000,0.000000,0.000000,0.000000,0.000000,0.000000,0.000000,1772528748.933344,0.000000
72.000000,5910.874118,6113.783254,6326.773027,-18200.109088,9635.993497,8222.938564,-4667.088946,-1562.386937,4672.989806,5732.060162,6669.358214,10117.159500,11370.980605,12036.190872,1186.564706,12078.413317,-0.002000,-0.016000,1.012000,192.000000,127.500000,120.000000,127.500000,64.000000,15.500000,80.000000,0.000000,0.000000,0.000000,1772528748.933357,0.000000
74.000000,5915.769150,6121.606364,6332.383315,-18197.471583,9640.106218,8211.986209,-4664.004405,-1559.660025,4688.971304,5730.629650,6673.783859,10115.103139,11348.248881,12012.542726,1196.913564,12119.093492,-0.002000,-0.016000,1.012000,192.000000,0.000000,0.000000,0.000000,0.000000,0.000000,0.000000,0.000000,0.000000,0.000000,1772528749.412459,0.000000
76.000000,5918.205490,6129.138902,6329.611698,-18196.912789,9648.577529,8216.210689,-4660.204608,-1559.391804,4674.532077,5731.993107,6674.499115,10119.193509,11351.713401,12012.788595,1184.284828,12062.029488,-0.002000,-0.016000,1.012000,192.000000,0.000000,0.000000,0.000000,0.000000,0.000000,0.000000,0.000000,0.000000,0.000000,1772528749.412522,0.000000
78.000000,5896.077263,6100.908649,6313.540794,-18212.715472,9633.646564,8199.603343,-4677.080176,-1578.010807,4678.264818,5726.025191,6667.324205,10110.923363,11354.730887,12001.076281,1186.967038,12096.026492,-0.002000,-0.016000,1.012000,192.000000,0.000000,0.000000,0.000000,0.000000,0.000000,0.000000,0.000000,0.000000,0.000000,1772528749.412573,0.000000
80.000000,5902.872193,6115.638449,6322.146216,-18201.159620,9667.151829,8212.477948,-4667.156001,-1574.233362,4669.033548,5712.457682,6659.121115,10099.434566,11359.938843,12002.327979,1190.655075,12104.922486,-0.002000,-0.016000,1.012000,192.000000,0.000000,0.000000,0.000000,0.000000,0.000000,0.000000,0.000000,0.000000,0.000000,1772528749.412638,0.000000
82.000000,5889.774071,6098.628771,6314.613678,-18218.661036,9650.410372,8209.751035,-4680.812917,-1587.778519,4659.712870,5709.708418,6656.483609,10093.489002,11330.188671,11998.751700,1196.868860,12087.331663,-0.004000,-0.016000,1.014000,192.000000,127.500000,112.000000,127.500000,64.000000,15.500000,88.000000,0.000000,0.000000,0.000000,1772528749.412685,0.000000
84.000000,5899.340618,6111.637486,6318.547585,-18216.269400,9680.987558,8227.051285,-4678.778908,-1582.347045,4673.123917,5708.523775,6651.856798,10087.208162,11321.650305,11986.055909,1203.261459,12136.751370,-0.004000,-0.016000,1.014000,192.000000,0.000000,0.000000,0.000000,0.000000,0.000000,0.000000,0.000000,0.000000,0.000000,1772528749.412705,0.000000
86.000000,5911.231746,6129.094199,6324.336687,-18201.204324,9718.136158,8221.977439,-4672.028681,-1573.182830,4668.050071,5724.460569,6659.635205,10098.808718,11362.866922,12002.842069,1210.078741,12076.491067,-0.004000,-0.016000,1.014000,192.000000,0.000000,0.000000,0.000000,0.000000,0.000000,0.000000,0.000000,0.000000,0.000000,1772528749.412723,0.000000
88.000000,5914.048065,6125.964955,6320.112207,-18206.345225,9668.202361,8204.900706,-4678.734205,-1571.305283,4678.510687,5728.617993,6664.910217,10105.491889,11393.622922,12009.145261,1206.524814,12108.699931,-0.004000,-0.016000,1.014000,192.000000,0.000000,0.000000,0.000000,0.000000,0.000000,0.000000,0.000000,0.000000,0.000000,1772528749.412741,0.000000
90.000000,5932.354144,6153.032917,6334.551434,-18193.962359,9672.493896,8213.349666,-4663.177390,-1559.570618,4687.697254,5736.262290,6674.499115,10114.276125,11331.306259,12012.073339,1207.262422,12098.485184,-0.004000,-0.016000,1.014000,192.000000,0.000000,0.000000,0.000000,0.000000,0.000000,0.000000,0.000000,0.000000,0.000000,1772528749.412768,0.000000
92.000000,5929.403714,6146.930891,6325.722495,-18205.205286,9643.011945,8203.514898,-4669.726452,-1561.917551,4685.082100,5743.839531,6678.969464,10119.394674,11374.936864,12016.543688,1192.912602,12062.632985,-0.002000,-0.012000,1.018000,192.000000,127.500000,120.000000,127.500000,80.000000,15.500000,104.000000,0.000000,0.000000,0.000000,1772528749.412786,0.000000
94.000000,5939.216130,6156.966824,6327.532986,-18206.881667,9704.769815,8227.632431,-4665.323158,-1555.346138,4696.570897,5738.497464,6679.796479,10115.863099,11356.742544,12013.280334,1191.884421,12102.642608,-0.002000,-0.012000,1.018000,192.000000,0.000000,0.000000,0.000000,0.000000,0.000000,0.000000,0.000000,0.000000,0.000000,1772528749.412805,0.000000
96.000000,5948.648566,6167.114516,6327.756504,-18196.823382,9705.328608,8222.111550,-4661.433954,-1551.121658,4692.480527,5752.154380,6685.719691,10126.256660,11360.654099,12036.324982,1168.079813,12046.495026,-0.002000,-0.012000,1.018000,192.000000,0.000000,0.000000,0.000000,0.000000,0.000000,0.000000,0.000000,0.000000,0.000000,1772528749.412823,0.000000
98.000000,5948.872083,6159.447868,6327.331820,-18203.953588,9640.150921,8206.442977,-4670.039376,-1553.692109,4698.850775,5748.175770,6684.222124,10122.725084,11345.521968,12009.391130,1187.034093,12098.775756,-0.002000,-0.012000,1.018000,192.000000,0.000000,0.000000,0.000000,0.000000,0.000000,0.000000,0.000000,0.000000,0.000000,1772528749.412842,0.000000
100.000000,5955.622310,6174.915275,6329.589347,-18191.816591,9706.580306,8221.597460,-4660.584588,-1550.451106,4703.790510,5749.829799,6686.814926,10127.351895,11367.381974,12024.635020,1190.811538,12095.780622,-0.002000,-0.012000,1.018000,192.000000,0.000000,0.000000,0.000000,0.000000,0.000000,0.000000,0.000000,0.000000,0.000000,1772528749.412860,0.000000
102.000000,5954.907054,6169.372042,6312.914945,-18206.300522,9773.389670,8228.124169,-4670.173486,-1556.262559,4690.602981,5750.299186,6680.332921,10123.529747,11359.737678,12035.274450,1179.412148,12074.658224,-0.002000,-0.012000,1.018000,192.000000,0.000000,0.000000,127.500000,88.000000,15.500000,80.000000,0.000000,0.000000,0.000000,1772528749.412877,0.000000
104.000000,5951.084906,6165.505191,6330.841044,-18202.612484,9601.594162,8190.796756,-4668.944141,-1560.844667,4707.970286,5748.131066,6680.534086,10120.624020,11395.344006,12005.501927,1197.807634,12115.517213,-0.002000,-0.012000,1.018000,192.000000,0.000000,0.000000,0.000000,0.000000,0.000000,0.000000,0.000000,0.000000,0.000000,1772528749.412895,0.000000
106.000000,5954.527075,6171.987196,6325.588384,-18202.388966,9615.608706,8189.030968,-4667.983016,-1560.151763,4687.473737,5743.057220,6676.063737,10116.556003,11330.568651,12000.718653,1199.595773,12081.810782,-0.002000,-0.012000,1.018000,192.000000,0.000000,0.000000,0.000000,0.000000,0.000000,0.000000,0.000000,0.000000,0.000000,1772528749.412913,0.000000
108.000000,5955.063517,6164.745231,6313.361980,-18217.230525,9635.971145,8180.023215,-4678.264818,-1562.789269,4696.257972,5739.995031,6676.846048,10113.203241,11347.757143,11988.447546,1198.053503,12106.822384,-0.002000,-0.012000,1.018000,192.000000,0.000000,0.000000,0.000000,0.000000,0.000000,0.000000,0.000000,0.000000,0.000000,1772528749.412931,0.000000
110.000000,5968.943950,6185.733519,6326.571861,-18199.662054,9662.122686,8199.893916,-4663.602074,-1552.328652,4702.158833,5746.320575,6677.918932,10119.126453,11338.905852,12004.876078,1192.934953,12096.920561,-0.002000,-0.012000,1.018000,192.000000,0.000000,0.000000,0.000000,0.000000,0.000000,0.000000,0.000000,0.000000,0.000000,1772528749.412952,0.000000
112.000000,5973.414299,6189.332150,6320.022800,-18204.355920,9654.791314,8191.556715,-4670.173486,-1551.747507,4705.623353,5757.004709,6682.746909,10127.575413,11364.967986,12015.180232,1191.213869,12062.185951,0.004000,-0.012000,1.012000,192.000000,0.000000,16.000000,127.500000,80.000000,15.500000,80.000000,0.000000,0.000000,0.000000,1772528749.412972,0.000000
114.000000,5983.092604,6197.445833,6327.823559,-18201.025510,9647.415238,8223.407951,-4664.876123,-1543.253844,4727.729228,5761.095078,6685.920857,10132.269279,11364.453896,12010.173441,1188.196383,12110.577477,0.004000,-0.012000,1.012000,192.000000,0.000000,0.000000,0.000000,0.000000,0.000000,0.000000,0.000000,0.000000,0.000000,1772528749.412990,0.000000
116.000000,5988.635837,6208.509947,6329.008201,-18189.313196,9656.110067,8203.067863,-4659.891684,-1538.872902,4724.622336,5772.650930,6693.632209,10143.065172,11379.295454,12038.873081,1179.970942,12055.033392,0.004000,-0.012000,1.012000,192.000000,0.000000,0.000000,0.000000,0.000000,0.000000,0.000000,0.000000,0.000000,0.000000,1772528749.413007,0.000000
118.000000,5988.278209,6198.071682,6316.938259,-18200.042033,9703.920448,8210.823919,-4669.301768,-1541.555112,4724.152949,5768.091174,6691.531145,10139.623003,11372.545227,12022.422197,1174.315950,12100.362730,0.004000,-0.012000,1.012000,192.000000,0.000000,0.000000,0.000000,0.000000,0.000000,0.000000,0.000000,0.000000,0.000000,1772528749.413025,0.000000
120.000000,5990.938066,6209.068740,6336.428980,-18192.107164,9655.305404,8221.865680,-4657.701213,-1539.521103,4733.071295,5773.701462,6699.108386,10144.182759,11379.675434,12038.940136,1174.025378,12089.835058,0.004000,-0.012000,1.012000,192.000000,0.000000,0.000000,0.000000,0.000000,0.000000,0.000000,0.000000,0.000000,0.000000,1772528749.413043,0.000000
122.000000,5981.818555,6196.350598,6326.840082,-18195.616388,9632.327811,8208.119358,-4667.781850,-1547.925359,4716.195728,5764.403136,6689.944171,10136.270241,11385.151611,12033.463959,1186.587058,12068.735012,0.004000,-0.010000,1.012000,192.000000,0.000000,16.000000,127.500000,88.000000,15.500000,80.000000,0.000000,0.000000,0.000000,1772528749.413064,0.000000
124.000000,5977.504668,6199.055159,6326.817730,-18194.744670,9642.989593,8205.772424,-4668.832382,-1551.479286,4728.913871,5768.180581,6690.368854,10136.583166,11345.097285,12008.430005,1195.617163,12116.344227,0.004000,-0.010000,1.012000,192.000000,0.000000,0.000000,0.000000,0.000000,0.000000,0.000000,0.000000,0.000000,0.000000,1772528749.413082,0.000000
126.000000,5980.410395,6206.900621,6323.867300,-18192.397737,9674.326739,8221.932736,-4668.430050,-1552.105135,4709.311391,5768.269988,6682.881019,10136.471407,11361.011727,12026.378456,1183.793090,12075.820515,0.004000,-0.010000,1.012000,192.000000,0.000000,0.000000,0.000000,0.000000,0.000000,0.000000,0.000000,0.000000,0.000000,1772528749.413100,0.000000
128.000000,5965.501781,6181.419633,6313.607849,-18210.770871,9636.149959,8201.994980,-4682.668112,-1567.125507,4711.658324,5767.197104,6677.002511,10129.140035,11385.486887,12021.930459,1188.732825,12116.947724,0.004000,-0.010000,1.012000,192.000000,0.000000,0.000000,0.000000,0.000000,0.000000,0.000000,0.000000,0.000000,0.000000,1772528749.413118,0.000000
130.000000,5980.253933,6200.619781,6330.371658,-18202.388966,9661.452134,8203.045512,-4668.340643,-1557.178981,4712.328877,5758.278758,6676.667235,10122.076884,11348.003012,12007.379473,1197.226488,12101.972056,0.004000,-0.010000,1.012000,192.000000,0.000000,0.000000,0.000000,0.000000,0.000000,0.000000,0.000000,0.000000,0.000000,1772528749.413136,0.000000
132.000000,5985.975979,6198.742235,6322.973230,-18206.099356,9659.373422,8193.993055,-4672.274550,-1555.346138,4709.870185,5764.604302,6681.472860,10126.658991,11360.341175,12010.262848,1192.979657,12065.203436,0.004000,-0.010000,1.012000,192.000000,0.000000,0.000000,127.500000,88.000000,15.500000,104.000000,0.000000,0.000000,0.000000,1772528749.413154,0.000000
134.000000,5995.453119,6211.326267,6324.783722,-18197.158658,9665.184875,8193.635427,-4667.267760,-1547.880655,4732.020763,5772.807392,6690.659427,10133.789198,11386.358605,12021.058741,1192.800843,12108.923448,0.004000,-0.010000,1.012000,192.000000,0.000000,0.000000,0.000000,0.000000,0.000000,0.000000,0.000000,0.000000,0.000000,1772528749.413172,0.000000
136.000000,6002.605677,6223.977354,6329.879919,-18186.251007,9674.639663,8205.951238,-4659.087021,-1540.146952,4720.576670,5783.536230,6696.023845,10145.345050,11385.173963,12025.842014,1179.926238,12059.839017,0.004000,-0.010000,1.012000,192.000000,0.000000,0.000000,0.000000,0.000000,0.000000,0.000000,0.000000,0.000000,0.000000,1772528749.413189,0.000000
138.000000,5999.565840,6214.053180,6326.303640,-18197.002196,9638.228671,8221.418646,-4669.122955,-1544.416135,4729.606775,5783.647988,6698.706055,10145.032125,11376.434431,12039.521282,1179.970942,12095.981788,0.004000,-0.010000,1.012000,192.000000,0.000000,0.000000,0.000000,0.000000,0.000000,0.000000,0.000000,0.000000,0.000000,1772528749.413207,0.000000
140.000000,6005.578459,6225.787845,6335.892539,-18187.100373,9692.431652,8228.504149,-4657.589454,-1540.884559,4734.792380,5785.056148,6701.924706,10148.049611,11356.049640,12037.643735,1179.188630,12096.473527,0.004000,-0.010000,1.012000,192.000000,0.000000,0.000000,0.000000,0.000000,0.000000,0.000000,0.000000,0.000000,0.000000,1772528749.413225,0.000000
142.000000,5999.610543,6214.522566,6327.756504,-18198.499763,9667.822381,8207.202936,-4667.245408,-1549.534684,4721.627202,5778.708253,6698.437834,10141.835826,11398.070919,12043.544596,1178.339264,12074.278244,0.000000,-0.012000,1.010000,192.000000,127.500000,112.000000,127.500000,72.000000,15.500000,64.000000,0.000000,0.000000,0.000000,1772528749.413242,0.000000
144.000000,5998.582363,6213.628496,6327.957669,-18197.091603,9691.202306,8225.509015,-4665.591379,-1549.825257,4732.132522,5771.756860,6695.018017,10133.699791,11352.026326,12027.116063,1190.923296,12121.127501,0.000000,-0.012000,1.010000,192.000000,0.000000,0.000000,0.000000,0.000000,0.000000,0.000000,0.000000,0.000000,0.000000,1772528749.413260,0.000000
146.000000,5994.089662,6213.293220,6328.225890,-18186.742745,9644.911843,8209.572221,-4663.982053,-1551.725155,4713.960554,5783.268009,6690.011226,10140.427666,11388.146745,12015.806081,1190.498613,12076.044032,0.000000,-0.012000,1.010000,192.000000,0.000000,0.000000,0.000000,0.000000,0.000000,0.000000,0.000000,0.000000,0.000000,1772528749.413278,0.000000
148.000000,5979.337511,6192.014359,6312.356152,-18202.657187,9661.228616,8201.793814,-4676.186106,-1561.045833,4717.939164,5770.214590,6687.373720,10131.442264,11346.170169,12018.532994,1193.851375,12108.342303,0.000000,-0.012000,1.010000,192.000000,0.000000,0.000000,0.000000,0.000000,0.000000,0.000000,0.000000,0.000000,0.000000,1772528749.413296,0.000000
150.000000,5972.788450,6193.355464,6316.290059,-18197.583341,9644.174235,8196.518802,-4669.458231,-1567.192562,4704.349304,5762.682052,6676.376662,10125.317887,11372.098192,12019.360008,1187.056445,12117.394759,0.000000,-0.012000,1.010000,192.000000,0.000000,0.000000,0.000000,0.000000,0.000000,0.000000,0.000000,0.000000,0.000000,1772528749.413314,0.000000
152.000000,5965.188857,6177.642188,6307.125843,-18219.689217,9678.394756,8198.932791,-4681.505821,-1576.021502,4687.719606,5750.254482,6666.519543,10113.337351,11397.355663,12000.226915,1180.619142,12084.001253,-0.001000,-0.012000,1.008000,192.000000,127.500000,120.000000,127.500000,80.000000,15.500000,56.000000,0.000000,0.000000,0.000000,1772528749.413332,0.000000
154.000000,5978.152869,6190.807365,6324.359038,-18210.949684,9622.604802,8188.740395,-4676.275513,-1568.041929,4710.652496,5754.478962,6675.773165,10110.252811,11317.381122,12015.381398,1196.399474,12118.557050,-0.001000,-0.012000,1.008000,192.000000,0.000000,0.000000,0.000000,0.000000,0.000000,0.000000,0.000000,0.000000,0.000000,1772528749.413353,0.000000
156.000000,5992.770909,6210.543956,6331.533948,-18196.711623,9637.893395,8182.727776,-4668.251236,-1556.776650,4708.931411,5768.471154,6686.032615,10123.440340,11349.947613,12025.774959,1196.086549,12061.470695,-0.001000,-0.012000,1.008000,192.000000,0.000000,0.000000,0.000000,0.000000,0.000000,0.000000,0.000000,0.000000,0.000000,1772528749.413371,0.000000
158.000000,5983.092604,6199.345732,6315.865376,-18209.161545,9656.199474,8190.863811,-4676.588437,-1557.849533,4721.426037,5776.204857,6688.357197,10131.285802,11373.349890,12024.702075,1192.711436,12087.286960,-0.001000,-0.012000,1.008000,192.000000,0.000000,0.000000,0.000000,0.000000,0.000000,0.000000,0.000000,0.000000,0.000000,1772528749.413389,0.000000
160.000000,5989.194630,6212.287392,6324.582556,-18188.508533,9623.275354,8199.223363,-4662.395079,-1550.406402,4715.435769,5774.997863,6684.758566,10130.011753,11391.074823,12030.401770,1182.072006,12085.431765,-0.001000,-0.012000,1.008000,192.000000,0.000000,0.000000,0.000000,0.000000,0.000000,0.000000,0.000000,0.000000,0.000000,1772528749.413407,0.000000
162.000000,5985.104261,6199.971581,6318.748751,-18195.392870,9621.509566,8207.135881,-4669.949969,-1554.385013,4705.198670,5777.121279,6684.311531,10133.856253,11382.625864,12013.481499,1172.170183,12065.203436,0.000500,-0.013000,1.009000,192.000000,0.000000,8.000000,127.500000,72.000000,15.500000,72.000000,0.000000,0.000000,0.000000,1772528749.413424,0.000000
164.000000,5994.022607,6208.822871,6327.488283,-18194.185876,9658.948738,8222.759750,-4667.424222,-1550.160533,4722.163644,5770.594570,6689.318322,10128.581241,11320.130386,12028.457168,1184.061311,12121.373370,0.000500,-0.013000,1.009000,192.000000,0.000000,0.000000,0.000000,0.000000,0.000000,0.000000,0.000000,0.000000,0.000000,1772528749.413442,0.000000
166.000000,5998.939991,6217.562403,6332.942108,-18192.241274,9683.200381,8231.365172,-4666.351338,-1549.735850,4716.039266,5781.301055,6692.447566,10137.767808,11385.486887,12029.284183,1181.870840,12074.345300,0.000500,-0.013000,1.009000,192.000000,0.000000,0.000000,0.000000,0.000000,0.000000,0.000000,0.000000,0.000000,0.000000,1772528749.413460,0.000000
168.000000,5989.932238,6198.652828,6322.190919,-18211.374368,9698.399567,8216.233041,-4677.817783,-1558.587141,4725.270537,5775.668416,6689.810060,10130.190567,11399.501431,12023.673895,1200.199270,12105.414224,0.000500,-0.013000,1.009000,192.000000,0.000000,0.000000,0.000000,0.000000,0.000000,0.000000,0.000000,0.000000,0.000000,1772528749.413478,0.000000
170.000000,5988.479374,6207.593525,6329.946975,-18194.230580,9662.882645,8213.930811,-4664.585550,-1553.870923,4724.376467,5774.908456,6685.406767,10129.520014,11388.929056,12035.989706,1191.839718,12108.141137,0.000500,-0.013000,1.009000,192.000000,0.000000,0.000000,0.000000,0.000000,0.000000,0.000000,0.000000,0.000000,0.000000,1772528749.413496,0.000000
172.000000,5968.787488,6183.990083,6314.211346,-18212.223734,9672.046861,8193.009578,-4675.582609,-1564.756222,4701.510632,5765.900703,6680.668197,10124.110892,11336.111884,12011.983932,1189.559840,12074.233541,0.001250,-0.013500,1.010500,192.000000,0.000000,8.000000,127.500000,72.000000,15.500000,80.000000,0.000000,0.000000,0.000000,1772528749.413514,0.000000
174.000000,5966.261740,6183.475993,6315.418341,-18209.921504,9653.360802,8189.992093,-4676.074347,-1567.013749,4703.075254,5751.640290,6674.141487,10112.845613,11338.816445,12022.086921,1191.482090,12111.851527,0.001250,-0.013500,1.010500,192.000000,0.000000,0.000000,0.000000,0.000000,0.000000,0.000000,0.000000,0.000000,0.000000,1772528749.413531,0.000000
176.000000,5967.781659,6194.227182,6317.295887,-18205.317045,9673.052689,8201.458538,-4672.229847,-1565.918513,4687.920772,5759.709270,6672.375700,10119.752302,11386.962102,12010.709883,1194.700741,12061.135419,0.001250,-0.013500,1.010500,192.000000,0.000000,0.000000,0.000000,0.000000,0.000000,0.000000,0.000000,0.000000,0.000000,1772528749.413550,0.000000
178.000000,5967.491086,6186.225258,6314.345457,-18214.034225,9649.561006,8183.823011,-4681.327007,-1567.885467,4698.426091,5762.838514,6671.951016,10119.238212,11367.829009,12009.033502,1195.728921,12085.610579,0.001250,-0.013500,1.010500,192.000000,0.000000,0.000000,0.000000,0.000000,0.000000,0.000000,0.000000,0.000000,0.000000,1772528749.413568,0.000000
180.000000,5977.035281,6203.771377,6330.751637,-18198.589170,9626.985744,8185.901724,-4667.133649,-1557.536609,4707.255031,5769.387575,6681.294046,10127.016619,11349.835855,12013.190927,1196.086549,12091.802012,0.001250,-0.013500,1.010500,192.000000,0.000000,0.000000,0.000000,0.000000,0.000000,0.000000,0.000000,0.000000,0.000000,1772528749.413586,0.000000
182.000000,5968.362804,6188.013397,6317.050018,-18211.262609,9636.328773,8182.325444,-4676.387271,-1565.583237,4698.090815,5765.677186,6682.143412,10123.999134,11396.171021,12024.299744,1196.667695,12057.983823,0.001625,-0.013750,1.010250,192.000000,0.000000,8.000000,127.500000,72.000000,15.500000,72.000000,0.000000,0.000000,0.000000,1772528749.413604,0.000000
184.000000,5967.245217,6188.058101,6316.714742,-18209.094490,9635.412352,8194.708311,-4672.967455,-1565.247961,4708.663190,5760.536285,6676.175496,10117.137148,11366.420849,12017.080130,1191.415035,12109.124614,0.001625,-0.013750,1.010250,192.000000,0.000000,0.000000,0.000000,0.000000,0.000000,0.000000,0.000000,0.000000,0.000000,1772528749.413622,0.000000
186.000000,5972.855505,6196.551764,6320.268669,-18198.678577,9662.525018,8214.243736,-4666.261931,-1558.385975,4697.755539,5766.683014,6679.282389,10125.384942,11350.215834,12035.721485,1169.845601,12047.456151,0.001625,-0.013750,1.010250,192.000000,0.000000,0.000000,0.000000,0.000000,0.000000,0.000000,0.000000,0.000000,0.000000,1772528749.413643,0.000000
188.000000,5966.976996,6182.984255,6314.636030,-18207.395757,9682.976864,8219.943430,-4676.946065,-1563.370414,4705.042208,5769.365224,6680.489383,10126.167253,11398.249733,12031.742875,1172.773680,12091.645550,0.001625,-0.013750,1.010250,192.000000,0.000000,0.000000,0.000000,0.000000,0.000000,0.000000,0.000000,0.000000,0.000000,1772528749.413661,0.000000
190.000000,5981.259761,6203.301990,6336.361925,-18185.133420,9656.937081,8204.006637,-4664.898475,-1553.289777,4715.055789,5775.914285,6689.340674,10127.821282,11338.615279,12056.843884,1188.576363,12102.262628,0.001625,-0.013750,1.010250,192.000000,0.000000,0.000000,0.000000,0.000000,0.000000,0.000000,0.000000,0.000000,0.000000,1772528749.413679,0.000000
192.000000,5968.295749,6186.314665,6325.320163,-18201.092565,9638.519244,8202.821994,-4676.253161,-1561.537571,4710.943068,5779.781136,6691.598200,10128.201262,11383.028195,12034.961526,1195.572459,12089.008044,0.002812,-0.014875,1.010125,192.000000,0.000000,16.000000,127.500000,64.000000,15.500000,72.000000,0.000000,0.000000,0.000000,1772528749.413697,0.000000
194.000000,5951.867217,6170.064946,6319.955745,-18209.273304,9634.764151,8208.052302,-4676.141402,-1568.779536,4709.624315,5769.029947,6684.915028,10117.986514,11366.666718,12024.277392,1202.568555,12133.420960,0.002812,-0.014875,1.010125,192.000000,0.000000,0.000000,0.000000,0.000000,0.000000,0.000000,0.000000,0.000000,0.000000,1772528749.894574,0.000000
196.000000,5921.245327,6144.673365,6312.467910,-18210.502650,9622.537747,8182.079575,-4674.912056,-1581.408272,4677.348396,5752.199084,6668.531200,10108.732892,11388.034986,12019.672933,1186.363540,12073.942968,0.002812,-0.014875,1.010125,192.000000,0.000000,0.000000,0.000000,0.000000,0.000000,0.000000,0.000000,0.000000,0.000000,1772528749.894635,0.000000
198.000000,5907.454301,6122.969821,6303.840137,-18221.589115,9657.786448,8172.133049,-4683.182202,-1583.107005,4665.233751,5729.735581,6657.936473,10094.539534,11310.295619,12005.099595,1186.877631,12095.422995,0.002812,-0.014875,1.010125,192.000000,0.000000,0.000000,0.000000,0.000000,0.000000,0.000000,0.000000,0.000000,0.000000,1772528749.894691,0.000000
200.000000,5924.888661,6148.607272,6325.633088,-18201.584304,9686.888419,8203.201974,-4668.720623,-1566.253789,4676.208457,5740.911453,6665.089031,10108.039988,11382.044719,12009.793462,1178.875706,12095.534753,0.002812,-0.014875,1.010125,192.000000,0.000000,0.000000,0.000000,0.000000,0.000000,0.000000,0.000000,0.000000,0.000000,1772528749.894747,0.000000
202.000000,5921.424141,6139.085429,6321.766236,-18206.032301,9670.728108,8198.642218,-4677.571914,-1568.645426,4676.633141,5751.036793,6673.895618,10115.997209,11351.668698,12021.326962,1194.991314,12065.069326,0.002812,-0.014875,1.010125,192.000000,0.000000,0.000000,0.000000,0.000000,0.000000,0.000000,0.000000,0.000000,0.000000,1772528749.894785,0.000000
204.000000,5917.691400,6131.195263,6319.106378,-18207.038129,9643.123703,8220.658686,-4676.990769,-1573.272237,4690.982961,5749.963909,6674.387357,10112.487985,11378.669605,12038.582508,1204.222584,12123.832062,0.004000,-0.014000,1.012000,192.000000,0.000000,16.000000,127.500000,72.000000,15.500000,80.000000,0.000000,0.000000,0.000000,1772528749.894823,0.000000
206.000000,5920.038333,6142.840522,6318.100550,-18202.210152,9647.415238,8228.213576,-4671.469888,-1569.360682,4671.492239,5748.555749,6670.587560,10112.420930,11385.933922,12019.672933,1189.559840,12072.266587,0.004000,-0.014000,1.012000,192.000000,0.000000,0.000000,0.000000,0.000000,0.000000,0.000000,0.000000,0.000000,0.000000,1772528749.894861,0.000000
208.000000,5918.473711,6132.223443,6312.937297,-18213.184859,9652.556140,8209.035779,-4678.041301,-1570.433565,4678.086004,5747.907549,6672.509810,10111.929192,11358.016593,12024.456206,1184.597753,12104.788375,0.004000,-0.014000,1.012000,192.000000,0.000000,0.000000,0.000000,0.000000,0.000000,0.000000,0.000000,0.000000,0.000000,1772528749.894902,0.000000
210.000000,5924.016943,6149.009603,6323.844948,-18194.141173,9634.361820,8204.252506,-4666.038414,-1563.281007,4690.602981,5748.578101,6675.102612,10114.946677,11345.298451,12038.470750,1178.942761,12098.462832,0.004000,-0.014000,1.012000,192.000000,0.000000,0.000000,0.000000,0.000000,0.000000,0.000000,0.000000,0.000000,0.000000,1772528749.894945,0.000000
212.000000,5916.998496,6138.705449,6315.127768,-18199.237370,9649.382192,8200.564468,-4675.113222,-1566.209086,4659.042318,5747.326404,6667.368909,10116.935982,11369.550093,12019.427063,1181.222639,12083.531866,0.004000,-0.014000,1.012000,192.000000,0.000000,0.000000,0.000000,0.000000,0.000000,0.000000,0.000000,0.000000,0.000000,1772528749.894986,0.000000
214.000000,5918.339600,6142.035859,6319.508710,-18200.243199,9664.246102,8209.371055,-4675.247332,-1565.940865,4679.248295,5751.305014,6669.626435,10118.120625,11378.826067,12033.240441,1194.052541,12133.353905,0.002000,-0.018000,1.012000,192.000000,0.000000,8.000000,127.500000,56.000000,15.500000,80.000000,0.000000,0.000000,0.000000,1772528749.895006,0.000000
216.000000,5921.379438,6146.394449,6319.888690,-18198.365652,9694.689178,8222.402122,-4672.252199,-1566.432603,4666.865428,5752.847284,6669.738194,10120.422854,11355.446143,12020.008209,1184.217773,12082.794259,0.002000,-0.018000,1.012000,192.000000,0.000000,0.000000,0.000000,0.000000,0.000000,0.000000,0.000000,0.000000,0.000000,1772528749.895019,0.000000
218.000000,5907.923687,6125.652030,6306.991733,-18216.515269,9662.592073,8214.556660,-4684.947990,-1578.882525,4665.680786,5745.538264,6660.417516,10108.129395,11366.063221,12022.779825,1194.298410,12117.707684,0.002000,-0.018000,1.012000,192.000000,0.000000,0.000000,0.000000,0.000000,0.000000,0.000000,0.000000,0.000000,0.000000,1772528749.895039,0.000000
220.000000,5924.352220,6150.529522,6323.733190,-18201.807821,9653.986651,8212.947334,-4669.391175,-1569.204219,4672.542771,5752.802581,6660.551627,10109.828128,11381.418870,12031.295840,1195.684218,12118.311181,0.002000,-0.018000,1.012000,192.000000,0.000000,0.000000,0.000000,0.000000,0.000000,0.000000,0.000000,0.000000,0.000000,1772528749.895053,0.000000
222.000000,5926.274470,6147.355574,6311.976172,-18213.631894,9721.734789,8210.689808,-4676.029644,-1568.421908,4671.939274,5757.988186,6665.580769,10116.108968,11354.797942,12030.737046,1182.161412,12076.044032,0.002000,-0.018000,1.012000,192.000000,0.000000,0.000000,0.000000,0.000000,0.000000,0.000000,0.000000,0.000000,0.000000,1772528749.895066,0.000000
224.000000,5923.324039,6143.511074,6323.576727,-18209.876801,9604.589296,8166.701575,-4674.666187,-1570.545324,4692.882859,5758.435221,6669.157048,10111.705674,11362.889274,12038.426046,1195.885384,12113.036169,-0.004000,-0.012000,1.004000,192.000000,127.500000,112.000000,127.500000,80.000000,15.500000,48.000000,0.000000,0.000000,0.000000,1772528749.895079,0.000000
226.000000,5929.873101,6155.804533,6322.056809,-18203.439498,9630.964354,8180.872581,-4668.944141,-1563.884504,4674.442670,5754.210741,6668.598255,10119.640543,11394.382881,12013.660313,1189.045750,12054.206378,-0.004000,-0.012000,1.004000,192.000000,0.000000,0.000000,0.000000,0.000000,0.000000,0.000000,0.000000,0.000000,0.000000,1772528749.895092,0.000000
228.000000,5930.208377,6150.306004,6315.865376,-18216.202344,9641.357916,8197.122299,-4678.868315,-1565.963217,4686.780833,5752.355546,6671.995720,10118.366494,11388.102041,12008.273543,1188.464604,12088.695119,-0.004000,-0.012000,1.004000,192.000000,0.000000,0.000000,0.000000,0.000000,0.000000,0.000000,0.000000,0.000000,0.000000,1772528749.895106,0.000000
230.000000,5945.653432,6168.746193,6331.086913,-18197.404527,9650.745648,8209.996904,-4667.513629,-1560.129411,4698.314333,5760.983319,6679.885886,10121.383979,11344.337326,12021.595183,1184.195421,12097.434652,-0.004000,-0.012000,1.004000,192.000000,0.000000,0.000000,0.000000,0.000000,0.000000,0.000000,0.000000,0.000000,0.000000,1772528749.895119,0.000000
232.000000,5944.312327,6163.001795,6319.843986,-18207.954551,9669.789335,8210.198070,-4677.728376,-1566.812583,4693.888687,5762.659700,6679.595313,10120.534613,11379.675434,12023.360970,1186.207078,12086.102317,-0.004000,-0.012000,1.004000,192.000000,0.000000,0.000000,0.000000,0.000000,0.000000,0.000000,0.000000,0.000000,0.000000,1772528749.895133,0.000000
234.000000,5941.205435,6159.716089,6317.161777,-18212.469603,9671.421012,8209.773387,-4680.410585,-1573.540458,4704.572821,5758.815200,6673.269769,10109.448148,11392.974722,12047.500854,1195.684218,12139.947669,-0.004000,-0.012000,1.004000,192.000000,0.000000,0.000000,127.500000,72.000000,15.500000,88.000000,0.000000,0.000000,0.000000,1772528749.895146,0.000000
236.000000,5937.964432,6159.984310,6319.240489,-18205.674673,9640.240328,8200.743282,-4677.214286,-1575.730929,4688.501917,5756.110639,6668.330034,10110.029293,11386.872695,12019.516470,1190.655075,12085.565875,-0.004000,-0.012000,1.004000,192.000000,0.000000,0.000000,0.000000,0.000000,0.000000,0.000000,0.000000,0.000000,0.000000,1772528749.895159,0.000000
238.000000,5936.243348,6156.631548,6311.596192,-18214.749481,9638.340430,8197.077596,-4685.395024,-1575.954446,4691.765272,5750.634462,6665.513714,10108.487023,11386.157439,12019.248249,1195.863032,12117.484166,-0.004000,-0.012000,1.004000,192.000000,0.000000,0.000000,0.000000,0.000000,0.000000,0.000000,0.000000,0.000000,0.000000,1772528749.895171,0.000000
240.000000,5946.905130,6175.384662,6321.721533,-18199.773812,9658.747573,8198.083424,-4670.821687,-1563.839801,4693.195783,5763.486715,6673.850915,10116.556003,11362.241073,12020.321133,1199.215794,12110.175146,-0.004000,-0.012000,1.004000,192.000000,0.000000,0.000000,0.000000,0.000000,0.000000,0.000000,0.000000,0.000000,0.000000,1772528749.895185,0.000000
242.000000,5948.760325,6171.897789,6315.239527,-18210.122670,9641.603785,8198.776328,-4678.622446,-1562.878676,4686.624370,5761.542113,6676.868400,10122.389808,11383.855210,12027.160767,1187.101148,12085.320006,-0.004000,-0.012000,1.004000,192.000000,0.000000,0.000000,0.000000,0.000000,0.000000,0.000000,0.000000,0.000000,0.000000,1772528749.895197,0.000000
244.000000,5954.214150,6177.597484,6316.714742,-18209.228600,9644.755381,8208.186413,-4675.068519,-1559.637673,4710.048999,5762.279721,6681.182287,10119.215860,11377.015576,12028.859500,1195.080721,12125.977829,-0.004000,-0.012000,1.004000,192.000000,0.000000,0.000000,127.500000,80.000000,15.500000,96.000000,0.000000,0.000000,0.000000,1772528749.895211,0.000000
246.000000,5957.119877,6185.599409,6321.408608,-18201.561952,9648.041087,8210.756863,-4670.128783,-1559.101231,4702.449405,5771.466288,6682.724557,10125.295535,11374.936864,12036.593203,1179.814479,12072.825381,-0.004000,-0.012000,1.004000,192.000000,0.000000,0.000000,0.000000,0.000000,0.000000,0.000000,0.000000,0.000000,0.000000,1772528749.895223,0.000000
248.000000,5952.448362,6175.988159,6314.881899,-18210.949684,9658.144076,8199.290419,-4678.600094,-1563.213952,4707.702065,5772.539171,6682.456336,10118.567660,11375.294492,12041.555290,1187.704645,12098.663997,-0.004000,-0.012000,1.004000,192.000000,0.000000,0.000000,0.000000,0.000000,0.000000,0.000000,0.000000,0.000000,0.000000,1772528749.895236,0.000000
250.000000,5959.466810,6188.147508,6327.421227,-18197.046899,9658.836980,8210.734512,-4666.239579,-1557.335443,4715.391066,5779.423509,6685.384415,10123.239174,11384.011672,12047.970241,1185.380064,12098.127556,-0.004000,-0.012000,1.004000,192.000000,0.000000,0.000000,0.000000,0.000000,0.000000,0.000000,0.000000,0.000000,0.000000,1772528749.895251,0.000000
252.000000,5955.801124,6177.843353,6318.748751,-18212.559010,9669.901093,8204.856003,-4676.946065,-1563.482173,4701.868260,5773.746165,6683.596275,10121.182814,11370.131239,12020.946982,1181.356750,12063.191779,-0.004000,-0.012000,1.004000,192.000000,0.000000,0.000000,0.000000,0.000000,0.000000,0.000000,0.000000,0.000000,0.000000,1772528749.895263,0.000000
254.000000,5949.542636,6173.350653,6314.658381,-18214.570667,9706.647361,8186.684035,-4678.018949,-1567.371376,4709.423150,5764.671357,6675.035557,10112.108006,11404.038835,12020.567002,1199.595773,12113.863184,0.002000,-0.010000,1.014000,192.000000,0.000000,8.000000,127.500000,88.000000,15.500000,88.000000,0.000000,0.000000,0.000000,1772528749.895276,0.000000
0.000000,5956.315214,6184.034787,6323.755541,-18209.340359,9627.790407,8180.582008,-4671.000501,-1560.218818,4693.843984,5765.699537,6677.918932,10118.791177,11405.536402,12007.781805,1191.973828,12051.926500,0.002000,-0.010000,1.014000,192.000000,0.000000,0.000000,0.000000,0.000000,0.000000,0.000000,0.000000,0.000000,0.000000,1772528749.895289,0.000000
2.000000,5947.374516,6169.863781,6306.701160,-18223.913696,9626.829282,8184.270046,-4681.729338,-1566.700824,4693.687522,5761.497410,6678.276560,10110.208107,11338.414113,12024.858537,1186.587058,12087.130497,0.002000,-0.010000,1.014000,192.000000,0.000000,0.000000,0.000000,0.000000,0.000000,0.000000,0.000000,0.000000,0.000000,1772528749.895302,0.000000
4.000000,5951.531941,6185.510002,6313.518442,-18203.148926,9630.383209,8203.425491,-4670.285245,-1563.862153,4691.072368,5767.510029,6675.840220,10110.968067,11367.001994,12025.685552,1175.053558,12095.981788,0.002000,-0.010000,1.014000,192.000000,0.000000,0.000000,0.000000,0.000000,0.000000,0.000000,0.000000,0.000000,0.000000,1772528749.895314,0.000000
6.000000,5951.107258,6179.139755,6310.590364,-18211.240257,9636.798160,8212.768520,-4678.644798,-1566.767879,4686.423205,5769.342872,6676.756641,10115.885450,11366.219683,12012.386264,1175.210020,12075.887570,0.002000,-0.010000,1.014000,192.000000,0.000000,0.000000,0.000000,0.000000,0.000000,0.000000,0.000000,0.000000,0.000000,1772528749.895326,0.000000
8.000000,5955.689365,6180.547915,6317.474701,-18216.850545,9662.793238,8211.248602,-4677.326045,-1563.102193,4705.153967,5766.481849,6680.914066,10112.510337,11341.409247,12014.576735,1184.396587,12118.333533,0.002000,-0.010000,1.008000,192.000000,0.000000,8.000000,127.500000,88.000000,15.500000,64.000000,0.000000,0.000000,0.000000,1772528749.895339,0.000000
10.000000,5964.272435,6192.506098,6326.013067,-18205.674673,9646.744686,8192.003750,-4671.022853,-1555.971987,4697.867298,5774.640235,6684.177421,10117.494776,11380.323634,12043.812817,1188.822232,12068.332680,0.002000,-0.010000,1.008000,192.000000,0.000000,0.000000,0.000000,0.000000,0.000000,0.000000,0.000000,0.000000,0.000000,1772528749.895353,0.000000
12.000000,5964.741822,6188.594543,6315.083064,-18211.731996,9647.392887,8184.359453,-4677.929542,-1552.976853,4709.110225,5772.919151,6687.306665,10119.528785,11415.125300,12050.875968,1200.109863,12094.126593,0.002000,-0.010000,1.008000,192.000000,0.000000,0.000000,0.000000,0.000000,0.000000,0.000000,0.000000,0.000000,0.000000,1772528749.895365,0.000000
14.000000,5978.912828,6211.505081,6326.728323,-18192.487144,9669.655224,8197.837555,-4664.362033,-1541.845684,4717.313316,5786.866639,6694.168650,10131.241099,11400.239038,12029.619459,1197.338247,12090.818535,0.002000,-0.010000,1.008000,192.000000,0.000000,0.000000,0.000000,0.000000,0.000000,0.000000,0.000000,0.000000,0.000000,1772528749.895379,0.000000
16.000000,5969.323929,6196.998798,6314.188995,-18205.629969,9648.733991,8197.167003,-4673.570952,-1551.523990,4704.751635,5794.957971,6693.833374,10133.900956,11352.830989,12036.615555,1175.098261,12060.621328,0.002000,-0.010000,1.008000,192.000000,0.000000,0.000000,0.000000,0.000000,0.000000,0.000000,0.000000,0.000000,0.000000,1772528749.895392,0.000000
18.000000,5955.175275,6182.872496,6307.662285,-18212.201382,9645.984727,8202.084387,-4677.258989,-1565.672644,4708.484376,5774.729642,6682.121060,10115.304305,11356.206102,12024.478558,1189.872764,12111.940934,0.002000,-0.010000,1.008000,192.000000,0.000000,0.000000,127.500000,72.000000,15.500000,72.000000,0.000000,0.000000,0.000000,1772528749.895404,0.000000
20.000000,5957.142229,6193.310761,6311.506785,-18200.176144,9680.272303,8215.316619,-4672.431013,-1564.756222,4691.318237,5780.652855,6674.342653,10116.064264,11384.771631,12043.119913,1167.632779,12069.785544,0.002000,-0.010000,1.008000,192.000000,0.000000,0.000000,0.000000,0.000000,0.000000,0.000000,0.000000,0.000000,0.000000,1772528749.895417,0.000000
22.000000,5963.065441,6193.131947,6315.261878,-18209.765042,9640.732067,8208.320523,-4680.544696,-1561.515219,4705.422187,5781.703387,6679.975293,10114.879622,11413.024236,12063.929387,1196.019494,12108.096434,0.002000,-0.010000,1.008000,192.000000,0.000000,0.000000,0.000000,0.000000,0.000000,0.000000,0.000000,0.000000,0.000000,1772528749.895430,0.000000
24.000000,5980.320988,6215.841319,6335.199634,-18191.905998,9664.536675,8217.194166,-4666.328986,-1546.271330,4721.046057,5797.930753,6694.593334,10126.524881,11386.202143,12055.905110,1203.529680,12112.969114,0.002000,-0.010000,1.008000,192.000000,0.000000,0.000000,0.000000,0.000000,0.000000,0.000000,0.000000,0.000000,0.000000,1772528749.895444,0.000000
26.000000,5976.610598,6203.614915,6321.565070,-18205.942894,9666.056593,8198.865735,-4675.761423,-1550.071126,4711.255993,5797.818994,6700.024807,10132.984535,11380.770669,12056.508607,1197.360599,12080.201457,0.002000,-0.010000,1.008000,192.000000,0.000000,0.000000,0.000000,0.000000,0.000000,0.000000,0.000000,0.000000,0.000000,1772528749.895459,0.000000
28.000000,5957.544560,6184.638284,6314.948954,-18211.329664,9611.138357,8178.682110,-4678.018949,-1562.766917,4708.707894,5779.445860,6690.659427,10116.712465,11375.518009,12023.830357,1194.432520,12120.591059,0.002000,-0.013000,1.008000,192.000000,0.000000,8.000000,127.500000,64.000000,15.500000,64.000000,0.000000,0.000000,0.000000,1772528749.895472,0.000000
30.000000,5951.442534,6178.200981,6315.999486,-18212.044920,9622.068360,8164.242883,-4672.542771,-1565.270312,4676.454327,5763.352604,6680.511735,10108.867003,11354.663832,12012.967409,1178.451023,12056.419200,0.002000,-0.013000,1.008000,192.000000,0.000000,0.000000,0.000000,0.000000,0.000000,0.000000,0.000000,0.000000,0.000000,1772528749.895485,0.000000
32.000000,5946.949833,6169.662615,6301.113224,-18227.780548,9651.215035,8163.929959,-4682.958684,-1568.421908,4678.197763,5752.914340,6677.516601,10103.189659,11340.403419,12006.083072,1175.232372,12074.144134,0.002000,-0.013000,1.008000,192.000000,0.000000,0.000000,0.000000,0.000000,0.000000,0.000000,0.000000,0.000000,0.000000,1772528749.895499,0.000000
34.000000,5968.876895,6197.267019,6321.587422,-18210.010911,9660.289843,8196.250581,-4669.569989,-1552.418059,4688.948952,5763.866694,6683.953903,10111.728026,11373.484000,12021.975162,1173.824212,12071.394869,0.002000,-0.013000,1.008000,192.000000,0.000000,0.000000,0.000000,0.000000,0.000000,0.000000,0.000000,0.000000,0.000000,1772528749.895520,0.000000
36.000000,5968.742784,6192.640208,6319.843986,-18209.049786,9631.992535,8189.790927,-4676.744899,-1553.446240,4698.873126,5783.513878,6696.426177,10123.641506,11377.596721,12041.465883,1192.420863,12052.664107,0.002000,-0.013000,1.008000,192.000000,0.000000,0.000000,0.000000,0.000000,0.000000,0.000000,0.000000,0.000000,0.000000,1772528749.895533,0.000000
38.000000,5964.808877,6191.790842,6319.285192,-18205.741728,9648.018735,8199.335122,-4675.850830,-1558.274216,4709.601964,5782.172773,6692.626380,10118.075921,11411.996056,12041.220014,1199.863994,12110.890402,0.002000,-0.013000,1.008000,192.000000,0.000000,0.000000,127.500000,56.000000,15.500000,56.000000,0.000000,0.000000,0.000000,1772528749.895545,0.000000
40.000000,5964.205380,6195.456528,6317.519405,-18201.807821,9696.589076,8213.126148,-4671.112260,-1558.028347,4690.871202,5784.698520,6689.653598,10118.411197,11380.725966,12037.129645,1179.658017,12051.054782,0.002000,-0.013000,1.008000,192.000000,0.000000,0.000000,0.000000,0.000000,0.000000,0.000000,0.000000,0.000000,0.000000,1772528749.895560,0.000000
42.000000,5957.633967,6180.145583,6317.586460,-18205.920542,9623.387113,8178.413889,-4680.745862,-1561.448164,4692.033493,5779.267046,6686.569057,10113.538517,11357.457800,12046.383267,1183.279000,12090.483259,0.002000,-0.013000,1.008000,192.000000,0.000000,0.000000,0.000000,0.000000,0.000000,0.000000,0.000000,0.000000,0.000000,1772528749.895573,0.000000
44.000000,5972.475525,6200.128043,6329.969326,-18188.709699,9643.123703,8203.626657,-4665.323158,-1547.299510,4704.058731,5779.222343,6694.883906,10122.054532,11383.586989,12035.252098,1198.902869,12094.663035,0.002000,-0.013000,1.008000,192.000000,0.000000,0.000000,0.000000,0.000000,0.000000,0.000000,0.000000,0.000000,0.000000,1772528749.895586,0.000000
46.000000,5968.385156,6190.561496,6322.570899,-18198.924446,9632.394866,8195.356512,-4675.806126,-1553.379184,4698.336685,5785.749052,6696.113252,10123.775616,11396.059262,12036.950831,1199.707532,12074.971148,0.002000,-0.013000,1.008000,192.000000,0.000000,0.000000,0.000000,0.000000,0.000000,0.000000,0.000000,0.000000,0.000000,1772528749.895599,0.000000
48.000000,5973.123726,6197.870517,6321.699181,-18196.197533,9687.447213,8207.605267,-4675.962588,-1555.167324,4715.771045,5780.786965,6697.566116,10119.618192,11395.701634,12041.912918,1211.598660,12126.648382,0.000000,-0.012500,1.006000,192.000000,127.500000,120.000000,127.500000,80.000000,15.500000,48.000000,0.000000,0.000000,0.000000,1772528749.895612,0.000000
50.000000,5965.233560,6194.361293,6320.603945,-18198.879742,9640.217977,8215.853061,-4677.795431,-1568.332501,4701.845908,5784.989093,6690.949999,10116.377189,11391.365396,12057.156808,1201.450968,12078.726241,0.000000,-0.012500,1.006000,192.000000,0.000000,0.000000,0.000000,0.000000,0.000000,0.000000,0.000000,0.000000,0.000000,1772528749.895625,0.000000
52.000000,5946.256929,6171.070775,6303.683675,-18220.024493,9617.530956,8197.815203,-4693.218135,-1586.996208,4690.982961,5772.114488,6672.420403,10095.657122,11398.629713,12038.269584,1207.821215,12109.661056,0.000000,-0.012500,1.006000,192.000000,0.000000,0.000000,0.000000,0.000000,0.000000,0.000000,0.000000,0.000000,0.000000,1772528749.895638,0.000000
54.000000,5955.957586,6185.554705,6313.697256,-18214.034225,9647.191721,8191.221439,-4680.812917,-1577.630827,4687.160812,5766.928883,6668.397089,10092.594933,11354.105038,12018.532994,1196.310067,12093.724262,0.000000,-0.012500,1.006000,192.000000,0.000000,0.000000,0.000000,0.000000,0.000000,0.000000,0.000000,0.000000,0.000000,1772528749.895651,0.000000
56.000000,5953.096563,6178.424499,6301.269686,-18219.733920,9702.936972,8174.591741,-4683.450423,-1570.277103,4676.789603,5763.464363,6672.174534,10098.249924,11358.150704,12014.532031,1182.496689,12050.026602,0.000000,-0.012500,1.006000,192.000000,0.000000,0.000000,0.000000,0.000000,0.000000,0.000000,0.000000,0.000000,0.000000,1772528749.895664,0.000000
58.000000,5971.961435,6195.054197,6323.330858,-18207.395757,9612.188889,8179.509125,-4671.268722,-1550.182885,4694.536888,5766.615959,6685.518525,10109.671665,11403.547097,12021.349313,1196.310067,12092.852544,-0.001000,-0.012250,1.007000,192.000000,127.500000,120.000000,127.500000,80.000000,15.500000,64.000000,0.000000,0.000000,0.000000,1772528750.373938,0.000000
60.000000,5983.919619,6211.348618,6327.912966,-18195.415222,9644.218939,8193.836593,-4664.339681,-1541.733926,4697.219097,5788.274799,6700.136566,10129.251794,11367.717250,12038.291936,1191.191517,12041.957622,-0.001000,-0.012250,1.007000,192.000000,0.000000,0.000000,0.000000,0.000000,0.000000,0.000000,0.000000,0.000000,0.000000,1772528750.374009,0.000000
62.000000,5975.940046,6197.490537,6311.149157,-18207.306350,9684.317968,8200.296247,-4675.672016,-1552.373356,4704.461062,5790.353512,6699.711883,10127.888337,11353.412134,12045.153921,1190.364503,12077.295730,-0.001000,-0.012250,1.007000,192.000000,0.000000,0.000000,0.000000,0.000000,0.000000,0.000000,0.000000,0.000000,0.000000,1772528750.374064,0.000000
64.000000,5967.289921,6198.250496,6315.150120,-18202.523077,9659.641643,8208.387579,-4668.474754,-1561.917551,4697.912001,5784.050320,6689.653598,10119.148805,11376.456782,12036.861424,1181.267343,12090.282093,-0.001000,-0.012250,1.007000,192.000000,0.000000,0.000000,0.000000,0.000000,0.000000,0.000000,0.000000,0.000000,0.000000,1772528750.374116,0.000000
66.000000,5953.588301,6180.190287,6296.642875,-18214.213039,9703.629876,8200.832689,-4681.796394,-1576.736757,4673.056862,5769.901665,6673.515639,10102.563811,11370.421811,12035.788540,1185.849450,12071.797201,-0.001000,-0.012250,1.007000,192.000000,0.000000,0.000000,0.000000,0.000000,0.000000,0.000000,0.000000,0.000000,0.000000,1772528750.374169,0.000000
68.000000,5963.154848,6190.270923,6308.690466,-18212.089623,9650.946814,8202.419663,-4678.197763,-1568.354853,4686.378501,5768.381747,6672.576865,10101.982665,11370.175942,12026.221994,1172.617218,12124.659076,-0.001500,-0.013125,1.003500,192.000000,127.500000,120.000000,127.500000,72.000000,15.500000,32.000000,0.000000,0.000000,0.000000,1772528750.374216,0.000000
70.000000,5976.275322,6203.883136,6327.488283,-18194.543504,9569.966444,8177.519819,-4668.944141,-1554.921455,4687.876068,5779.065881,6685.518525,10114.097311,11384.816335,12038.895433,1199.573421,12065.046974,-0.001500,-0.013125,1.003500,192.000000,0.000000,0.000000,0.000000,0.000000,0.000000,0.000000,0.000000,0.000000,0.000000,1772528750.374250,0.000000
72.000000,5974.867162,6194.607162,6314.211346,-18203.797126,9620.593145,8176.245770,-4677.996597,-1556.195504,4698.157871,5775.511953,6690.771185,10116.779520,11405.402291,12042.203491,1202.210927,12097.926390,-0.001500,-0.013125,1.003500,192.000000,0.000000,0.000000,0.000000,0.000000,0.000000,0.000000,0.000000,0.000000,0.000000,1772528750.374263,0.000000
74.000000,5980.902133,6208.889927,6323.733190,-18192.174219,9635.904090,8191.936695,-4666.664263,-1552.105135,4706.450368,5779.915247,6694.928610,10118.858232,11360.765858,12036.324982,1190.990352,12099.625123,-0.001500,-0.013125,1.003500,192.000000,0.000000,0.000000,0.000000,0.000000,0.000000,0.000000,0.000000,0.000000,0.000000,1772528750.374277,0.000000
76.000000,5974.062499,6199.636304,6314.993657,-18206.456984,9630.025581,8190.506183,-4678.510687,-1562.453993,4690.848850,5778.954122,6686.457299,10113.762035,11368.633672,12012.095691,1191.370331,12073.562988,-0.001500,-0.013125,1.003500,192.000000,0.000000,0.000000,0.000000,0.000000,0.000000,0.000000,0.000000,0.000000,0.000000,1772528750.374290,0.000000
78.000000,5980.298636,6207.995857,6321.498015,-18207.261647,9641.916709,8202.553773,-4677.057824,-1557.894237,4712.530042,5779.669378,6688.804232,10109.492851,11387.967931,12016.387226,1198.746407,12112.566783,-0.001750,-0.013563,1.005750,192.000000,127.500000,120.000000,127.500000,72.000000,15.500000,64.000000,0.000000,0.000000,0.000000,1772528750.374304,0.000000
80.000000,5981.952665,6215.707209,6324.806073,-18194.565856,9653.740782,8194.350683,-4673.526248,-1554.899103,4704.237545,5794.935619,6692.268752,10118.500604,11403.435338,12046.919709,1182.027302,12062.498875,-0.001750,-0.013563,1.005750,192.000000,0.000000,0.000000,0.000000,0.000000,0.000000,0.000000,0.000000,0.000000,0.000000,1772528750.374317,0.000000
82.000000,5973.973092,6203.324342,6317.541756,-18204.154754,9656.065363,8180.246732,-4682.601056,-1558.944769,4709.937240,5795.606172,6691.955828,10119.819357,11422.411969,12046.092695,1206.033076,12083.576570,-0.001750,-0.013563,1.005750,192.000000,0.000000,0.000000,0.000000,0.000000,0.000000,0.000000,0.000000,0.000000,0.000000,1772528750.374330,0.000000
84.000000,5991.496860,6228.738276,6331.265727,-18187.905036,9675.824306,8212.276782,-4666.127821,-1541.666870,4713.222946,5801.730550,6697.521412,10128.827110,11383.139954,12065.248140,1204.691971,12082.458983,-0.001750,-0.013563,1.005750,192.000000,0.000000,0.000000,0.000000,0.000000,0.000000,0.000000,0.000000,0.000000,0.000000,1772528750.374344,0.000000
86.000000,5983.338473,6214.589621,6321.654477,-18196.219885,9674.952587,8195.803546,-4672.006330,-1544.729059,4704.438711,5805.619753,6702.707017,10136.136131,11409.559716,12059.682555,1192.398511,12039.007192,-0.001750,-0.013563,1.005750,192.000000,0.000000,0.000000,0.000000,0.000000,0.000000,0.000000,0.000000,0.000000,0.000000,1772528750.374357,0.000000
88.000000,5976.297674,6206.520642,6319.754579,-18192.598902,9646.744686,8203.850174,-4669.994673,-1549.601740,4709.110225,5789.682959,6696.225011,10126.591936,11388.772594,12051.166541,1190.476261,12099.558067,-0.001750,-0.013563,1.005750,192.000000,0.000000,0.000000,0.000000,0.000000,0.000000,0.000000,0.000000,0.000000,0.000000,1772528750.374371,0.000000
90.000000,5972.587284,6204.799557,6318.771102,-18190.274321,9596.676778,8220.099893,-4670.732280,-1557.447202,4691.206478,5786.218439,6692.089938,10126.480177,11359.737678,12032.413427,1178.540430,12061.314233,-0.008000,-0.012000,1.006000,192.000000,127.500000,96.000000,127.500000,80.000000,15.500000,56.000000,0.000000,0.000000,0.000000,1772528750.374389,0.000000
92.000000,5956.292862,6183.967731,6301.403797,-18203.618312,9604.455185,8198.061073,-4687.920772,-1572.825202,4689.530097,5778.015349,6681.025825,10112.577392,11378.490791,12026.557270,1187.548183,12110.778643,-0.008000,-0.012000,1.006000,192.000000,0.000000,0.000000,0.000000,0.000000,0.000000,0.000000,0.000000,0.000000,0.000000,1772528750.374401,0.000000
94.000000,5968.899246,6203.547860,6311.417378,-18197.538638,9652.578491,8203.961933,-4676.566085,-1564.219780,4687.697254,5774.841401,6676.421365,10109.716369,11402.295399,12051.814741,1187.414072,12118.959381,-0.008000,-0.012000,1.006000,192.000000,0.000000,0.000000,0.000000,0.000000,0.000000,0.000000,0.000000,0.000000,0.000000,1772528750.374415,0.000000
96.000000,5968.586322,6198.250496,6309.785701,-18213.184859,9613.887622,8185.164116,-4685.931466,-1566.052624,4689.530097,5781.278703,6680.668197,10116.108968,11362.576349,12036.213223,1181.177936,12076.781640,-0.008000,-0.012000,1.006000,192.000000,0.000000,0.000000,0.000000,0.000000,0.000000,0.000000,0.000000,0.000000,0.000000,1772528750.374427,0.000000
98.000000,5971.290883,6202.631438,6311.439730,-18211.709644,9652.712602,8182.258389,-4683.249257,-1561.224647,4704.796339,5776.920113,6683.708034,10109.917535,11354.708535,12026.043180,1204.669619,12118.937030,-0.008000,-0.012000,1.006000,192.000000,0.000000,0.000000,0.000000,0.000000,0.000000,0.000000,0.000000,0.000000,0.000000,1772528750.374440,0.000000
100.000000,5986.534773,6218.992915,6321.207442,-18203.908885,9649.292785,8187.175773,-4674.129745,-1548.685318,4696.615600,5791.314637,6691.665255,10122.523918,11382.894085,12033.508662,1189.224564,12058.654375,-0.004000,-0.014000,1.006000,192.000000,127.500000,112.000000,127.500000,72.000000,15.500000,56.000000,0.000000,0.000000,0.000000,1772528750.374453,0.000000
102.000000,5983.003197,6208.264078,6316.111245,-18209.161545,9633.400695,8174.569389,-4683.226905,-1551.814562,4710.764254,5795.226192,6698.415482,10122.412160,11416.913440,12055.279262,1201.294506,12079.240332,-0.004000,-0.014000,1.006000,192.000000,0.000000,0.000000,0.000000,0.000000,0.000000,0.000000,0.000000,0.000000,0.000000,1772528750.374466,0.000000
104.000000,5997.531831,6230.861691,6331.489245,-18189.916693,9665.207227,8200.229192,-4671.201667,-1542.136257,4718.453255,5797.349608,6699.734235,10125.340238,11411.392559,12055.458075,1205.787206,12089.298617,-0.004000,-0.014000,1.006000,192.000000,0.000000,0.000000,0.000000,0.000000,0.000000,0.000000,0.000000,0.000000,0.000000,1772528750.374479,0.000000
106.000000,6000.728130,6228.537110,6323.353210,-18191.570722,9661.809762,8212.276782,-4678.108356,-1541.242187,4715.972211,5811.386503,6705.411578,10135.800855,11438.080542,12062.632985,1206.122483,12059.146113,-0.004000,-0.014000,1.006000,192.000000,0.000000,0.000000,0.000000,0.000000,0.000000,0.000000,0.000000,0.000000,0.000000,1772528750.374491,0.000000
108.000000,6002.672732,6232.001630,6327.354172,-18189.804934,9658.613462,8221.731570,-4676.521382,-1539.945786,4736.289947,5812.235869,6709.613706,10133.275108,11386.380957,12063.795276,1214.593794,12108.029378,-0.004000,-0.014000,1.006000,192.000000,0.000000,0.000000,0.000000,0.000000,0.000000,0.000000,0.000000,0.000000,0.000000,1772528750.374504,0.000000
110.000000,5994.804918,6228.045372,6318.100550,-18187.837981,9694.890344,8234.740285,-4672.900399,-1544.282024,4719.324973,5814.985134,6702.930534,10136.538462,11389.823126,12068.735012,1187.615238,12067.863294,-0.002000,-0.008000,1.006000,192.000000,127.500000,120.000000,127.500000,96.000000,15.500000,56.000000,0.000000,0.000000,0.000000,1772528750.374517,0.000000
112.000000,5981.192706,6207.593525,6315.977134,-18200.578475,9607.897354,8204.140747,-4681.125841,-1552.462763,4716.151025,5798.556602,6694.839203,10126.144901,11394.002902,12063.996442,1193.806671,12094.193649,-0.002000,-0.008000,1.006000,192.000000,0.000000,0.000000,0.000000,0.000000,0.000000,0.000000,0.000000,0.000000,0.000000,1772528750.374530,0.000000
114.000000,5985.640703,6217.361238,6322.436788,-18188.441478,9627.253965,8207.113529,-4670.754632,-1549.355870,4713.021781,5795.494413,6694.682741,10120.802834,11427.418760,12059.906073,1197.785282,12101.994407,-0.002000,-0.008000,1.006000,192.000000,0.000000,0.000000,0.000000,0.000000,0.000000,0.000000,0.000000,0.000000,0.000000,1772528750.374543,0.000000
116.000000,5976.074156,6204.374874,6312.423207,-18199.662054,9640.195625,8190.237962,-4679.605923,-1555.703766,4696.749711,5784.273837,6691.754662,10121.406331,11405.514050,12036.593203,1191.839718,12065.404602,-0.002000,-0.008000,1.006000,192.000000,0.000000,0.000000,0.000000,0.000000,0.000000,0.000000,0.000000,0.000000,0.000000,1772528750.374556,0.000000
118.000000,5965.412374,6194.562458,6310.120977,-18202.433670,9629.176215,8189.142727,-4680.298827,-1565.113850,4697.040283,5774.193200,6683.104537,10109.872831,11374.869809,12031.519357,1199.059331,12112.879707,-0.002000,-0.008000,1.006000,192.000000,0.000000,0.000000,0.000000,0.000000,0.000000,0.000000,0.000000,0.000000,0.000000,1772528750.374570,0.000000
120.000000,5963.557179,6193.869554,6312.043227,-18201.673711,9627.075151,8196.541154,-4678.711853,-1568.757185,4679.404757,5769.186410,6678.589485,10107.928229,11371.986434,12044.081038,1183.502517,12065.717526,0.002000,-0.012000,1.014000,192.000000,0.000000,8.000000,127.500000,80.000000,15.500000,88.000000,0.000000,0.000000,0.000000,1772528750.374583,0.000000
122.000000,5962.506647,6189.063929,6304.421282,-18205.451155,9623.007133,8187.220477,-4689.306580,-1570.008882,4687.406681,5767.644139,6679.975293,10105.491889,11374.154553,12032.681648,1195.505404,12094.439518,0.002000,-0.012000,1.014000,192.000000,0.000000,0.000000,0.000000,0.000000,0.000000,0.000000,0.000000,0.000000,0.000000,1772528750.374597,0.000000
124.000000,5981.684444,6213.293220,6315.619506,-18190.207266,9680.808745,8212.545003,-4674.196800,-1555.077917,4703.611696,5787.671302,6689.519488,10117.673590,11396.305131,12059.123762,1195.438349,12098.976922,0.002000,-0.012000,1.014000,192.000000,0.000000,0.000000,0.000000,0.000000,0.000000,0.000000,0.000000,0.000000,0.000000,1772528750.374610,0.000000
126.000000,5981.215058,6207.101787,6318.145253,-18203.104222,9634.741799,8205.168927,-4679.628274,-1554.876751,4701.622391,5794.488584,6695.934438,10121.898070,11421.629658,12053.200549,1187.168203,12062.811799,0.002000,-0.012000,1.014000,192.000000,0.000000,0.000000,0.000000,0.000000,0.000000,0.000000,0.000000,0.000000,0.000000,1772528750.374624,0.000000
128.000000,5985.305427,6210.543956,6316.200652,-18206.769908,9667.554160,8203.023160,-4678.242466,-1549.422926,4715.011086,5791.068767,6698.102557,10117.450072,11422.344914,12042.739933,1209.050561,12098.552239,0.002000,-0.012000,1.014000,192.000000,0.000000,0.000000,0.000000,0.000000,0.000000,0.000000,0.000000,0.000000,0.000000,1772528750.374637,0.000000
130.000000,5993.977904,6223.440912,6330.729286,-18197.292769,9640.106218,8189.030968,-4669.547638,-1538.962309,4705.757464,5795.561468,6704.204584,10129.877642,11414.365341,12053.804046,1195.170128,12037.822549,0.006000,-0.008000,1.010000,192.000000,0.000000,24.000000,127.500000,96.000000,15.500000,72.000000,0.000000,0.000000,0.000000,1772528750.374650,0.000000
132.000000,5981.438575,6205.380703,6315.686562,-18212.268437,9627.388075,8186.035834,-4682.534001,-1549.534684,4709.065522,5785.212610,6703.690494,10123.842671,11371.807620,12068.645605,1209.989334,12071.327814,0.006000,-0.008000,1.010000,192.000000,0.000000,0.000000,0.000000,0.000000,0.000000,0.000000,0.000000,0.000000,0.000000,1772528750.374663,0.000000
134.000000,5995.900154,6228.335944,6325.364867,-18187.279187,9631.612555,8207.717026,-4667.826553,-1536.816542,4710.540737,5789.817070,6701.790595,10131.151692,11410.118510,12036.213223,1196.131253,12081.475506,0.006000,-0.008000,1.010000,192.000000,0.000000,0.000000,0.000000,0.000000,0.000000,0.000000,0.000000,0.000000,0.000000,1772528750.374676,0.000000
136.000000,5992.390930,6219.238784,6318.257012,-18191.056632,9636.440532,8203.984285,-4676.253161,-1540.057545,4704.975153,5802.088177,6704.741026,10136.963145,11394.181716,12044.572776,1188.933991,12062.521227,0.006000,-0.008000,1.010000,192.000000,0.000000,0.000000,0.000000,0.000000,0.000000,0.000000,0.000000,0.000000,0.000000,1772528750.374690,0.000000
138.000000,5993.955552,6222.636249,6320.514538,-18188.799106,9643.079000,8219.898727,-4676.879010,-1540.705745,4721.135464,5802.691675,6704.025770,10135.040895,11402.250695,12063.191779,1194.611334,12120.211079,0.006000,-0.008000,1.010000,192.000000,0.000000,0.000000,0.000000,0.000000,0.000000,0.000000,0.000000,0.000000,0.000000,1772528750.374703,0.000000
140.000000,5994.022607,6225.832549,6322.950878,-18184.954606,9644.353049,8212.813224,-4673.526248,-1540.616338,4712.462987,5806.089140,6704.271639,10138.170140,11432.380847,12074.032375,1188.442253,12064.465828,0.004000,-0.004000,1.010000,192.000000,0.000000,16.000000,127.500000,112.000000,15.500000,72.000000,0.000000,0.000000,0.000000,1772528750.374717,0.000000
142.000000,5980.768023,6204.576040,6310.120977,-18198.343301,9653.673727,8199.871564,-4685.842059,-1550.808734,4708.014990,5797.059035,6698.102557,10130.212919,11425.630620,12058.207340,1201.585078,12096.384120,0.004000,-0.004000,1.010000,192.000000,0.000000,0.000000,0.000000,0.000000,0.000000,0.000000,0.000000,0.000000,0.000000,1772528750.374730,0.000000
144.000000,5983.338473,6217.338886,6316.334762,-18190.363728,9657.540579,8212.612058,-4675.359091,-1547.612434,4708.462025,5793.885087,6696.739101,10129.385904,11413.918306,12055.860407,1191.973828,12093.366634,0.004000,-0.004000,1.010000,192.000000,0.000000,0.000000,0.000000,0.000000,0.000000,0.000000,0.000000,0.000000,0.000000,1772528750.374743,0.000000
146.000000,5959.310348,6186.895810,6311.842062,-18203.774775,9607.897354,8189.254485,-4686.669074,-1562.699862,4683.718644,5780.384634,6686.367892,10119.595840,11397.981512,12052.239424,1195.415997,12066.745706,0.004000,-0.004000,1.010000,192.000000,0.000000,0.000000,0.000000,0.000000,0.000000,0.000000,0.000000,0.000000,0.000000,1772528750.374756,0.000000
148.000000,5955.130572,6184.861801,6313.116111,-18199.259722,9630.852596,8205.280686,-4681.930504,-1562.610455,4690.781795,5770.616921,6684.289179,10111.660971,11382.625864,12039.051895,1197.248840,12113.751425,0.004000,-0.004000,1.010000,192.000000,0.000000,0.000000,0.000000,0.000000,0.000000,0.000000,0.000000,0.000000,0.000000,1772528750.374769,0.000000
150.000000,5947.039240,6182.604275,6319.061675,-18190.900170,9657.987613,8201.950276,-4678.354225,-1566.231437,4663.892646,5764.894875,6674.990854,10113.851442,11400.529611,12049.870139,1196.310067,12056.642718,0.004000,-0.004000,1.010000,192.000000,0.000000,0.000000,127.500000,96.000000,15.500000,80.000000,0.000000,0.000000,0.000000,1772528750.374782,0.000000
152.000000,5952.358955,6183.274827,6314.747788,-18194.230580,9668.381175,8206.599439,-4685.059748,-1563.213952,4681.036434,5773.097965,6679.930589,10116.757168,11372.746393,12059.257872,1197.561764,12080.782602,0.004000,-0.004000,1.010000,192.000000,0.000000,0.000000,0.000000,0.000000,0.000000,0.000000,0.000000,0.000000,0.000000,1772528750.374795,0.000000
154.000000,5966.954645,6206.453586,6325.230756,-18175.902149,9644.263642,8209.393407,-4671.112260,-1549.735850,4691.877030,5797.707236,6684.602104,10131.129340,11435.487740,12061.671860,1207.642401,12093.768965,0.004000,-0.004000,1.010000,192.000000,0.000000,0.000000,0.000000,0.000000,0.000000,0.000000,0.000000,0.000000,0.000000,1772528750.374810,0.000000
156.000000,5961.143191,6193.131947,6319.173434,-18190.497838,9632.886604,8206.532384,-4677.258989,-1549.892312,4687.406681,5788.252448,6691.084110,10132.962183,11413.918306,12081.788430,1196.243012,12051.881796,0.004000,-0.004000,1.010000,192.000000,0.000000,0.000000,0.000000,0.000000,0.000000,0.000000,0.000000,0.000000,0.000000,1772528750.374824,0.000000
158.000000,5959.287996,6191.388511,6318.994620,-18189.022623,9612.702979,8219.652858,-4676.096699,-1549.802905,4699.968362,5787.716006,6690.257095,10132.157520,11400.350797,12064.577587,1202.657962,12106.174184,0.004000,-0.004000,1.010000,192.000000,0.000000,0.000000,0.000000,0.000000,0.000000,0.000000,0.000000,0.000000,0.000000,1772528750.374837,0.000000
160.000000,5969.078060,6203.011418,6324.493149,-18184.775792,9615.541651,8212.746169,-4670.285245,-1543.879693,4690.938257,5782.217477,6691.486441,10136.158483,11387.342082,12061.291881,1185.849450,12062.588282,0.003000,-0.008000,1.007000,192.000000,0.000000,8.000000,127.500000,80.000000,15.500000,48.000000,0.000000,0.000000,0.000000,1772528750.374851,0.000000
162.000000,5961.254950,6187.365197,6312.825538,-18199.818516,9625.756398,8210.913326,-4682.086966,-1551.702804,4698.023760,5782.865677,6694.123947,10131.285802,11412.621905,12082.637797,1181.312046,12096.205306,0.003000,-0.008000,1.007000,192.000000,0.000000,0.000000,0.000000,0.000000,0.000000,0.000000,0.000000,0.000000,0.000000,1772528750.374874,0.000000
164.000000,5972.877857,6206.498290,6326.616565,-18184.507571,9629.690305,8211.270954,-4671.559295,-1548.104173,4703.857565,5781.412814,6695.621514,10130.816416,11394.762861,12039.431875,1187.615238,12104.430748,0.003000,-0.008000,1.007000,192.000000,0.000000,0.000000,0.000000,0.000000,0.000000,0.000000,0.000000,0.000000,0.000000,1772528750.374890,0.000000
166.000000,5972.453174,6194.741272,6316.647687,-18198.745632,9666.101297,8224.838462,-4683.204554,-1554.273254,4690.625333,5776.070747,6692.939304,10127.396599,11393.287646,12045.019811,1188.688122,12076.982805,0.003000,-0.008000,1.007000,192.000000,0.000000,0.000000,0.000000,0.000000,0.000000,0.000000,0.000000,0.000000,0.000000,1772528750.374902,0.000000
168.000000,5979.493973,6201.737368,6323.912004,-18197.873914,9636.060552,8222.804454,-4682.578705,-1553.513295,4714.049961,5783.022139,6697.923743,10124.624982,11428.424588,12056.061573,1204.535509,12118.534698,0.003000,-0.008000,1.007000,192.000000,0.000000,0.000000,0.000000,0.000000,0.000000,0.000000,0.000000,0.000000,0.000000,1772528750.374915,0.000000
170.000000,5987.808822,6216.690685,6330.304602,-18185.401641,9639.793293,8220.345762,-4675.604960,-1548.975891,4696.861469,5782.306884,6695.420348,10128.625945,11441.276841,12078.323910,1210.592831,12076.871047,0.003000,-0.008000,1.007000,192.000000,0.000000,0.000000,127.500000,80.000000,15.500000,56.000000,0.000000,0.000000,0.000000,1772528750.374928,0.000000
172.000000,5995.006084,6215.528395,6327.108303,-18197.225713,9627.991572,8203.984285,-4684.120975,-1549.266463,4718.833234,5786.978398,6703.243459,10128.916517,11386.895047,12076.871047,1213.811483,12097.792279,0.003000,-0.008000,1.007000,192.000000,0.000000,0.000000,0.000000,0.000000,0.000000,0.000000,0.000000,0.000000,0.000000,1772528750.374941,0.000000
174.000000,6012.462796,6238.975375,6335.289041,-18175.745687,9651.818532,8222.625640,-4668.139478,-1534.246091,4732.087819,5800.903535,6711.625363,10141.746419,11408.665646,12073.875913,1206.390703,12095.177125,0.003000,-0.008000,1.007000,192.000000,0.000000,0.000000,0.000000,0.000000,0.000000,0.000000,0.000000,0.000000,0.000000,1772528750.374954,0.000000
176.000000,6015.256764,6236.449627,6326.661268,-18186.899207,9661.362727,8216.791834,-4674.867353,-1534.559016,4721.537795,5803.675151,6714.911069,10147.334355,11454.084391,12065.896340,1201.830948,12055.636889,0.003000,-0.008000,1.007000,192.000000,0.000000,0.000000,0.000000,0.000000,0.000000,0.000000,0.000000,0.000000,0.000000,1772528750.374966,0.000000
178.000000,6020.911756,6243.401020,6330.438713,-18186.541580,9678.595922,8212.969686,-4673.347434,-1531.049792,4740.201502,5805.105663,6717.146244,10146.753209,11483.231066,12063.482352,1204.133177,12099.625123,0.003000,-0.008000,1.007000,192.000000,0.000000,0.000000,0.000000,0.000000,0.000000,0.000000,0.000000,0.000000,0.000000,1772528750.854814,0.000000
180.000000,6016.061427,6239.712982,6337.837140,-18185.178123,9629.489139,8213.617887,-4670.084080,-1531.653289,4732.959537,5804.122186,6720.364895,10146.954375,11359.469457,12066.656299,1195.348942,12052.619404,0.003000,-0.008000,1.007000,192.000000,0.000000,0.000000,127.500000,80.000000,15.500000,40.000000,0.000000,0.000000,0.000000,1772528750.854932,0.000000
182.000000,6003.879726,6220.356371,6320.425131,-18199.997330,9669.923445,8206.755901,-4680.388234,-1541.353946,4727.438656,5791.314637,6714.285220,10137.767808,11393.444108,12056.754477,1195.639514,12079.285035,0.003000,-0.008000,1.007000,192.000000,0.000000,0.000000,0.000000,0.000000,0.000000,0.000000,0.000000,0.000000,0.000000,1772528750.855020,0.000000
184.000000,6000.571668,6226.324287,6330.662230,-18188.016795,9634.451227,8201.145613,-4669.055899,-1540.929263,4719.727304,5781.904552,6706.417406,10133.185701,11436.985306,12064.555235,1192.107939,12093.836021,0.003000,-0.008000,1.007000,192.000000,0.000000,0.000000,0.000000,0.000000,0.000000,0.000000,0.000000,0.000000,0.000000,1772528750.855077,0.000000
186.000000,5986.914752,6209.471072,6323.196748,-18200.578475,9598.464918,8186.304055,-4679.896495,-1551.211065,4704.371656,5778.127107,6705.053950,10127.888337,11425.652972,12043.477540,1202.479148,12057.089753,0.003000,-0.008000,1.007000,192.000000,0.000000,0.000000,0.000000,0.000000,0.000000,0.000000,0.000000,0.000000,0.000000,1772528750.855134,0.000000
188.000000,5987.518249,6212.153281,6316.468873,-18202.098394,9616.189851,8193.344855,-4680.321178,-1551.255769,4714.452292,5770.683976,6699.823642,10121.652200,11440.785103,12045.980936,1201.674485,12113.773777,0.003000,-0.008000,1.007000,192.000000,0.000000,0.000000,0.000000,0.000000,0.000000,0.000000,0.000000,0.000000,0.000000,1772528750.855165,0.000000
190.000000,5989.842831,6218.389418,6319.464006,-18196.331644,9637.111084,8197.435224,-4675.850830,-1548.528856,4701.175356,5771.198067,6696.716749,10126.301363,11379.876599,12039.074247,1190.185689,12064.622291,-0.000500,-0.010000,1.008500,192.000000,127.500000,112.000000,127.500000,80.000000,15.500000,72.000000,0.000000,0.000000,0.000000,1772528750.855191,0.000000
192.000000,5986.400662,6208.264078,6313.071407,-18209.116841,9640.642660,8189.612113,-4686.333798,-1552.440411,4707.791472,5768.582913,6694.101595,10121.696904,11366.845532,12042.002325,1195.661866,12092.673730,-0.000500,-0.010000,1.008500,192.000000,0.000000,0.000000,0.000000,0.000000,0.000000,0.000000,0.000000,0.000000,0.000000,1772528750.855217,0.000000
194.000000,6000.459909,6231.129912,6323.286155,-18197.136306,9655.908901,8206.733549,-4673.570952,-1543.678527,4715.614583,5776.786003,6696.940267,10125.854328,11403.457690,12054.116971,1196.332418,12090.595018,-0.000500,-0.010000,1.008500,192.000000,0.000000,0.000000,0.000000,0.000000,0.000000,0.000000,0.000000,0.000000,0.000000,1772528750.855243,0.000000
196.000000,6003.365636,6227.933613,6324.604908,-18203.506554,9621.218994,8192.808413,-4678.555391,-1543.432658,4713.334705,5779.892895,6699.220145,10129.117683,11465.148504,12044.416314,1204.691971,12054.206378,-0.000500,-0.010000,1.008500,192.000000,0.000000,0.000000,0.000000,0.000000,0.000000,0.000000,0.000000,0.000000,0.000000,1772528750.855269,0.000000
198.000000,6017.089607,6242.708116,6333.478550,-18199.215019,9631.701962,8199.089253,-4673.749766,-1533.687298,4739.709763,5789.884125,6712.899412,10135.733799,11401.803661,12049.356049,1214.794959,12092.852544,-0.000500,-0.010000,1.008500,192.000000,0.000000,0.000000,0.000000,0.000000,0.000000,0.000000,0.000000,0.000000,0.000000,1772528750.855294,0.000000
200.000000,6027.997259,6260.589511,6338.686507,-18187.927388,9653.070230,8208.164061,-4665.725489,-1522.667888,4733.451275,5800.456500,6721.102502,10147.244948,11408.978571,12060.956605,1200.065160,12042.806988,-0.001250,-0.010000,1.007250,192.000000,127.500000,120.000000,127.500000,88.000000,15.500000,56.000000,0.000000,0.000000,0.000000,1772528750.855320,0.000000
202.000000,6019.190671,6246.038526,6326.460102,-18199.796164,9622.135415,8189.880334,-4677.191934,-1531.385068,4738.346307,5802.088177,6720.007267,10149.547177,11413.895954,12052.529997,1197.517061,12069.472619,-0.001250,-0.010000,1.007250,192.000000,0.000000,0.000000,0.000000,0.000000,0.000000,0.000000,0.000000,0.000000,0.000000,1772528750.855346,0.000000
204.000000,6028.846625,6262.221189,6336.808960,-18184.015832,9638.295727,8208.320523,-4664.227922,-1523.941937,4742.839008,5803.317523,6715.514566,10152.318794,11458.733554,12068.623253,1190.811538,12076.602826,-0.001250,-0.010000,1.007250,192.000000,0.000000,0.000000,0.000000,0.000000,0.000000,0.000000,0.000000,0.000000,0.000000,1772528750.855372,0.000000
206.000000,6017.335477,6248.228997,6326.728323,-18195.258760,9628.796235,8200.586820,-4673.414489,-1531.318013,4732.244281,5803.026951,6713.726427,10151.089448,11444.987231,12057.246215,1192.532622,12049.646622,-0.001250,-0.010000,1.007250,192.000000,0.000000,0.000000,0.000000,0.000000,0.000000,0.000000,0.000000,0.000000,0.000000,1772528750.855398,0.000000
208.000000,6011.568726,6243.423372,6319.754579,-18196.979844,9650.902110,8212.857927,-4675.403795,-1535.229568,4734.211234,5788.140689,6706.842090,10144.987422,11405.178774,12045.511549,1190.968000,12104.453099,-0.001250,-0.010000,1.007250,192.000000,0.000000,0.000000,0.000000,0.000000,0.000000,0.000000,0.000000,0.000000,0.000000,1772528750.855423,0.000000
210.000000,6010.831119,6248.832494,6327.287117,-18191.146039,9602.488232,8207.180584,-4671.738109,-1533.866112,4712.731208,5791.225230,6702.841127,10145.456808,11418.366303,12048.417276,1189.872764,12058.743782,-0.001250,-0.010000,1.007250,192.000000,0.000000,0.000000,127.500000,56.000000,15.500000,48.000000,0.000000,0.000000,0.000000,1772528750.855449,0.000000
212.000000,6000.571668,6231.778113,6314.658381,-18207.731033,9612.367703,8205.973590,-4683.718644,-1541.532760,4715.905156,5783.580933,6703.377569,10136.963145,11370.958253,12050.652450,1191.392683,12087.421070,-0.001250,-0.010000,1.007250,192.000000,0.000000,0.000000,0.000000,0.000000,0.000000,0.000000,0.000000,0.000000,0.000000,1772528750.855475,0.000000
214.000000,6001.577497,6237.835436,6320.626297,-18194.543504,9654.634852,8212.947334,-4673.526248,-1539.454048,4713.580574,5780.630503,6698.303723,10136.471407,11412.621905,12048.707849,1184.888325,12099.066329,-0.001250,-0.010000,1.007250,192.000000,0.000000,0.000000,0.000000,0.000000,0.000000,0.000000,0.000000,0.000000,0.000000,1772528750.855500,0.000000
216.000000,5987.317084,6218.836453,6321.073332,-18208.043958,9599.470746,8199.670398,-4684.210382,-1550.249940,4700.549507,5776.853058,6695.397996,10132.939831,11417.651047,12040.929442,1191.102110,12067.371555,-0.001250,-0.010000,1.007250,192.000000,0.000000,0.000000,0.000000,0.000000,0.000000,0.000000,0.000000,0.000000,0.000000,1772528750.855525,0.000000
218.000000,5984.433709,6216.422464,6321.185091,-18204.624141,9616.882755,8188.852154,-4682.958684,-1552.149838,4710.876013,5768.918189,6691.821717,10123.350933,11401.647198,12025.797311,1205.876613,12118.668809,-0.001250,-0.010000,1.007250,192.000000,0.000000,0.000000,0.000000,0.000000,0.000000,0.000000,0.000000,0.000000,0.000000,1772528750.855551,0.000000
220.000000,5991.139232,6227.799502,6330.103437,-18200.287902,9642.117875,8198.865735,-4675.806126,-1544.036155,4706.293906,5776.651892,6694.839203,10130.347029,11399.210858,12047.567910,1195.751273,12056.642718,-0.001625,-0.014000,1.007625,192.000000,127.500000,120.000000,127.500000,56.000000,15.500000,64.000000,0.000000,0.000000,0.000000,1772528750.855580,0.000000
222.000000,5989.529906,6217.316534,6323.174396,-18216.403510,9664.402564,8201.391483,-4683.696292,-1544.371431,4719.034400,5783.826802,6702.103520,10135.376172,11435.018353,12040.191834,1199.774587,12065.270491,-0.001625,-0.014000,1.007625,192.000000,0.000000,0.000000,0.000000,0.000000,0.000000,0.000000,0.000000,0.000000,0.000000,1772528750.855606,0.000000
224.000000,5991.586267,6225.787845,6335.780780,-18195.124649,9649.538654,8214.087273,-4670.128783,-1539.565806,4723.817673,5784.340892,6705.210412,10135.152654,11436.493568,12059.704907,1206.100131,12070.076116,-0.001625,-0.014000,1.007625,192.000000,0.000000,0.000000,0.000000,0.000000,0.000000,0.000000,0.000000,0.000000,0.000000,1772528750.855632,0.000000
226.000000,5984.612523,6211.281563,6326.393047,-18197.762155,9638.966279,8212.589706,-4677.594266,-1545.421963,4715.145196,5797.550773,6703.914011,10136.002020,11415.684094,12061.828323,1191.236221,12051.255948,-0.001625,-0.014000,1.007625,192.000000,0.000000,0.000000,0.000000,0.000000,0.000000,0.000000,0.000000,0.000000,0.000000,1772528750.855657,0.000000
228.000000,5979.337511,6202.989066,6326.437751,-18198.231542,9668.872913,8205.593610,-4677.817783,-1545.243149,4723.840025,5780.406985,6701.075339,10129.341201,11453.279728,12043.634003,1201.719189,12109.057559,-0.001625,-0.014000,1.007625,192.000000,0.000000,0.000000,0.000000,0.000000,0.000000,0.000000,0.000000,0.000000,0.000000,1772528750.855682,0.000000
230.000000,5980.186877,6202.743197,6342.106323,-18197.650397,9628.349200,8220.301058,-4672.386309,-1542.739754,4718.609717,5770.751032,6706.439758,10127.910689,11443.333202,12054.921634,1199.506366,12056.307442,-0.001625,-0.014000,1.007625,192.000000,0.000000,0.000000,0.000000,0.000000,0.000000,0.000000,0.000000,0.000000,0.000000,1772528750.855708,0.000000
232.000000,5969.726261,6184.213601,6328.471759,-18211.307312,9616.972162,8207.515860,-4682.913981,-1548.282987,4720.174339,5771.533343,6706.283296,10127.284840,11411.996056,12055.860407,1204.647267,12084.045957,0.004000,-0.014000,1.004000,192.000000,0.000000,16.000000,127.500000,72.000000,15.500000,48.000000,0.000000,0.000000,0.000000,1772528750.855733,0.000000
234.000000,5966.574665,6188.549839,6333.210329,-18195.996367,9637.468712,8209.795738,-4673.146269,-1548.662966,4719.839063,5760.737450,6702.394092,10124.513224,11448.094123,12038.694267,1203.350866,12086.750518,0.004000,-0.014000,1.004000,192.000000,0.000000,0.000000,0.000000,0.000000,0.000000,0.000000,0.000000,0.000000,0.000000,1772528750.855759,0.000000
236.000000,5954.996461,6174.736461,6319.754579,-18208.043958,9664.089640,8205.548907,-4684.724472,-1555.614359,4695.967400,5760.759802,6690.748834,10119.618192,11436.180644,12052.082962,1200.668657,12067.326852,0.004000,-0.014000,1.004000,192.000000,0.000000,0.000000,0.000000,0.000000,0.000000,0.000000,0.000000,0.000000,0.000000,1772528750.855787,0.000000
238.000000,5951.241368,6166.622778,6320.738056,-18209.653283,9652.064401,8221.083369,-4685.327969,-1555.189676,4709.289039,5744.845360,6686.591409,10111.169232,11418.567469,12026.758436,1203.663791,12124.502614,0.004000,-0.014000,1.004000,192.000000,0.000000,0.000000,0.000000,0.000000,0.000000,0.000000,0.000000,0.000000,0.000000,1772528750.855812,0.000000
240.000000,5946.011060,6168.768545,6326.303640,-18202.478373,9628.483311,8212.343837,-4678.421280,-1551.099306,4699.946010,5754.724831,6688.558363,10118.098273,11452.586824,12040.683572,1191.638552,12074.546465,0.004000,-0.014000,1.004000,192.000000,0.000000,0.000000,0.000000,0.000000,0.000000,0.000000,0.000000,0.000000,0.000000,1772528750.855838,0.000000
