Sample_index,EXG Channel 0,EXG Channel 1,EXG Channel 2,EXG Channel 3,EXG Channel 4,EXG Channel 5,EXG Channel 6,EXG Channel 7,EXG Channel 8,EXG Channel 9,EXG Channel 10,EXG Channel 11,EXG Channel 12,EXG Channel 13,EXG Channel 14,EXG Channel 15,Accel Channel 0,Accel Channel 1,Accel Channel 2,Not Used,Digital Channel 0 (D11),Digital Channel 1 (D12),Digital Channel 2 (D13),Digital Channel 3 (D17),Not Used,Digital Channel 4 (D18),Analog Channel 0,Analog Channel 1,Analog Channel 2,Timestamp,Marker Channel
90.000000,-919.282546,1719.966736,-906.877328,2385.154651,-26201.519513,-21210.911418,-5259.924264,-3703.237021,729.493884,88.222335,-18530.758444,1530.133370,-14301.294303,-5207.487071,-5875.491306,-2456.724937,0.010000,-0.012000,1.004000,192.000000,0.000000,0.000000,0.000000,0.000000,0.000000,0.000000,0.000000,0.000000,0.000000,1772182969.768155,101.000000
92.000000,-866.107746,1778.327141,-852.584941,2437.390678,-26149.596411,-21164.978583,-5209.006990,-3650.553960,771.358701,129.953042,-18495.599150,1566.834935,-14260.703535,-5158.089716,-5838.521521,-2439.670556,0.010000,-0.012000,1.004000,192.000000,0.000000,0.000000,0.000000,0.000000,0.000000,0.000000,0.000000,0.000000,0.000000,1772182969.768213,0.000000
94.000000,-902.339924,1742.609053,-899.836528,2393.178927,-26190.544807,-21212.006654,-5252.838761,-3691.524707,770.151707,130.713002,-18496.336758,1570.835897,-14271.477076,-5169.377347,-5840.153198,-2454.959149,0.004000,-0.018000,1.002000,192.000000,0.000000,16.000000,127.500000,56.000000,15.500000,40.000000,0.000000,0.000000,0.000000,1772182969.768255,0.000000
96.000000,-869.885191,1773.745033,-863.000853,2431.445114,-26153.597373,-21167.884310,-5217.344191,-3659.226437,749.051660,108.629478,-18520.878973,1548.819429,-14290.967797,-5182.028435,-5871.937379,-2480.976579,0.004000,-0.018000,1.002000,192.000000,0.000000,0.000000,0.000000,0.000000,0.000000,0.000000,0.000000,0.000000,0.000000,1772182969.768297,0.000000
98.000000,-875.808403,1770.302864,-867.448851,2423.800817,-26154.625553,-21167.481979,-5223.848548,-3668.748280,794.962143,155.925769,-18472.040411,1592.897069,-14233.657924,-5128.294841,-5825.177529,-2425.946584,0.004000,-0.018000,1.002000,192.000000,0.000000,0.000000,0.000000,0.000000,0.000000,0.000000,0.000000,0.000000,0.000000,1772182969.768341,0.000000
100.000000,-906.586755,1733.243672,-900.954116,2394.609439,-26191.640042,-21199.377918,-5255.185694,-3700.420702,748.738736,105.187309,-18523.672941,1541.868036,-14282.943521,-5177.960417,-5877.592370,-2473.376986,0.004000,-0.018000,1.002000,192.000000,0.000000,0.000000,0.000000,0.000000,0.000000,0.000000,0.000000,0.000000,0.000000,1772182969.768377,0.000000
102.000000,-861.458583,1788.854812,-851.266188,2447.985404,-26147.964734,-21154.406208,-5203.664923,-3650.621015,776.410195,134.848074,-18492.872237,1571.551153,-14259.205968,-5155.563969,-5852.178437,-2440.855198,0.004000,-0.018000,1.002000,192.000000,0.000000,0.000000,0.000000,0.000000,0.000000,0.000000,0.000000,0.000000,0.000000,1772182969.768393,0.000000
104.000000,-908.576060,1731.187312,-903.368104,2392.910706,-26205.654586,-21210.553790,-5250.916511,-3697.962010,770.844611,130.780057,-18495.666205,1569.137164,-14262.826951,-5151.652414,-5860.783858,-2441.883378,0.008000,-0.012000,1.006000,192.000000,0.000000,32.000000,127.500000,80.000000,15.500000,56.000000,0.000000,0.000000,0.000000,1772182969.768408,0.000000
106.000000,-878.848240,1765.631350,-873.349711,2428.606442,-26172.238728,-21175.550959,-5220.875766,-3666.781326,740.178018,86.814175,-18528.076235,1538.112943,-14290.431355,-5207.732941,-5894.445586,-2473.198172,0.008000,-0.012000,1.006000,192.000000,0.000000,0.000000,0.000000,0.000000,0.000000,0.000000,0.000000,0.000000,0.000000,1772182969.768421,0.000000
108.000000,-872.969731,1770.906361,-876.836583,2425.432494,-26162.538071,-21165.626784,-5226.620165,-3669.016501,792.615210,150.159019,-18476.443705,1593.232345,-14254.109771,-5142.689364,-5840.309660,-2408.109892,0.008000,-0.012000,1.006000,192.000000,0.000000,0.000000,0.000000,0.000000,0.000000,0.000000,0.000000,0.000000,0.000000,1772182969.768433,0.000000
110.000000,-895.567345,1744.196027,-901.825834,2395.235288,-26177.379629,-21188.112639,-5255.811543,-3694.855117,754.259617,107.780112,-18524.768177,1547.098344,-14293.448841,-5177.669844,-5878.553495,-2456.099088,0.008000,-0.012000,1.006000,192.000000,0.000000,0.000000,0.000000,0.000000,0.000000,0.000000,0.000000,0.000000,0.000000,1772182969.768444,0.000000
112.000000,-849.902731,1795.873260,-845.231217,2447.784239,-26120.114460,-21139.966981,-5203.083778,-3641.412096,785.440300,141.486542,-18484.356223,1583.732853,-14241.413980,-5135.447399,-5832.397143,-2436.250739,0.008000,-0.012000,1.006000,192.000000,0.000000,0.000000,0.000000,0.000000,0.000000,0.000000,0.000000,0.000000,0.000000,1772182969.768456,0.000000
114.000000,-899.903584,1740.686803,-895.880270,2393.514203,-26183.258138,-21204.362357,-5252.928168,-3689.580105,781.439338,137.977319,-18483.126877,1582.548211,-14247.516006,-5146.802085,-5832.374791,-2447.314852,0.007000,-0.013000,1.005000,192.000000,0.000000,24.000000,127.500000,72.000000,15.500000,48.000000,0.000000,0.000000,0.000000,1772182969.768468,0.000000
116.000000,-873.305008,1768.961760,-867.627665,2427.265337,-26163.275679,-21180.870674,-5223.021534,-3662.556846,745.475381,96.224260,-18521.124842,1544.997280,-14290.230190,-5194.165432,-5873.099670,-2485.335169,0.007000,-0.013000,1.005000,192.000000,0.000000,0.000000,0.000000,0.000000,0.000000,0.000000,0.000000,0.000000,0.000000,1772182969.768480,0.000000
118.000000,-885.397301,1755.506010,-873.349711,2419.039895,-26170.294126,-21185.475133,-5227.178958,-3672.503373,793.419873,144.571083,-18475.616691,1591.064226,-14240.855186,-5132.072286,-5829.625527,-2429.813436,0.007000,-0.013000,1.005000,192.000000,0.000000,0.000000,0.000000,0.000000,0.000000,0.000000,0.000000,0.000000,0.000000,1772182969.768491,0.000000
120.000000,-916.399171,1723.699477,-908.419598,2390.116738,-26201.988900,-21212.408985,-5258.560808,-3706.410969,739.261596,90.636324,-18532.144252,1538.314109,-14293.091213,-5194.344246,-5884.633170,-2475.679216,0.007000,-0.013000,1.005000,192.000000,0.000000,0.000000,0.000000,0.000000,0.000000,0.000000,0.000000,0.000000,0.000000,1772182969.768502,0.000000
122.000000,-853.188438,1788.608943,-853.188438,2445.459657,-26144.142585,-21153.758008,-5209.252859,-3654.174942,777.527783,132.344679,-18496.828496,1571.014711,-14265.844436,-5155.251045,-5851.105553,-2435.960166,0.007000,-0.013000,1.005000,192.000000,0.000000,0.000000,0.000000,0.000000,0.000000,0.000000,0.000000,0.000000,0.000000,1772182969.768514,0.000000
124.000000,-883.855031,1751.259178,-901.669371,2392.486023,-26183.056972,-21201.501334,-5257.577331,-3695.860946,790.469443,142.380612,-18489.698290,1573.361644,-14253.215701,-5147.874969,-5846.814018,-2439.245872,0.007500,-0.011500,1.002500,192.000000,0.000000,32.000000,127.500000,88.000000,15.500000,32.000000,0.000000,0.000000,0.000000,1772182969.768526,0.000000
126.000000,-859.715147,1776.226077,-868.588790,2426.952413,-26154.089112,-21170.700630,-5223.692086,-3663.562675,761.702748,103.846205,-18516.922714,1546.181923,-14280.216608,-5177.111051,-5874.060795,-2471.253570,0.007500,-0.011500,1.002500,192.000000,0.000000,0.000000,0.000000,0.000000,0.000000,0.000000,0.000000,0.000000,0.000000,1772182969.768537,0.000000
128.000000,-861.883266,1779.936466,-869.102880,2431.623928,-26158.827681,-21167.973717,-5221.143987,-3660.768707,803.299344,159.814973,-18466.184254,1600.228441,-14229.813424,-5134.419219,-5827.926794,-2416.022410,0.007500,-0.011500,1.002500,192.000000,0.000000,0.000000,0.000000,0.000000,0.000000,0.000000,0.000000,0.000000,0.000000,1772182969.768548,0.000000
130.000000,-898.271906,1739.859788,-901.378799,2401.672590,-26187.907301,-21203.289473,-5252.369374,-3691.703521,753.365547,111.423446,-18512.675883,1557.000167,-14287.056242,-5179.994426,-5879.112289,-2455.964977,0.007500,-0.011500,1.002500,192.000000,0.000000,0.000000,0.000000,0.000000,0.000000,0.000000,0.000000,0.000000,0.000000,1772182969.768561,0.000000
132.000000,-838.928025,1802.556432,-843.823057,2455.987329,-26136.811213,-21147.074836,-5199.574554,-3636.450009,782.959257,139.184313,-18482.009290,1588.761996,-14259.161265,-5147.025603,-5848.825675,-2425.164273,0.007500,-0.011500,1.002500,192.000000,0.000000,0.000000,0.000000,0.000000,0.000000,0.000000,0.000000,0.000000,0.000000,1772182969.768578,0.000000
134.000000,-878.378854,1758.948178,-889.152394,2400.890279,-26182.185254,-21192.918264,-5247.608453,-3678.717158,793.151652,142.537074,-18476.644871,1591.824185,-14244.610279,-5138.308422,-5841.270785,-2432.205073,0.005750,-0.011750,1.004250,192.000000,0.000000,16.000000,127.500000,80.000000,15.500000,56.000000,0.000000,0.000000,0.000000,1772182969.768590,0.000000
136.000000,-852.920217,1788.385426,-858.642263,2429.455808,-26154.379684,-21160.888214,-5219.154682,-3650.732774,760.316939,113.189234,-18507.020892,1562.230475,-14283.368204,-5177.245161,-5872.697338,-2472.415861,0.005750,-0.011750,1.004250,192.000000,0.000000,0.000000,0.000000,0.000000,0.000000,0.000000,0.000000,0.000000,0.000000,1772182969.768607,0.000000
138.000000,-859.402223,1779.936466,-863.336130,2425.454846,-26157.777149,-21164.643307,-5223.490920,-3658.846457,807.188548,160.150249,-18459.411676,1607.962144,-14233.412055,-5126.394943,-5823.501149,-2424.806645,0.005750,-0.011750,1.004250,192.000000,0.000000,0.000000,0.000000,0.000000,0.000000,0.000000,0.000000,0.000000,0.000000,1772182969.768619,0.000000
140.000000,-896.260249,1741.379707,-899.523604,2385.914610,-26191.952967,-21206.776346,-5258.963139,-3697.067940,756.003053,105.813158,-18515.939238,1555.144972,-14274.896893,-5172.417184,-5870.819792,-2474.025187,0.005750,-0.011750,1.004250,192.000000,0.000000,0.000000,0.000000,0.000000,0.000000,0.000000,0.000000,0.000000,0.000000,1772182969.768632,0.000000
142.000000,-851.869685,1788.631295,-848.963958,2438.441210,-26143.583792,-21158.831854,-5209.878708,-3650.732774,783.115719,130.757705,-18490.502952,1580.670664,-14254.132122,-5142.018812,-5841.494303,-2449.371213,0.005750,-0.011750,1.004250,192.000000,0.000000,0.000000,0.000000,0.000000,0.000000,0.000000,0.000000,0.000000,0.000000,1772182969.768647,0.000000
144.000000,-899.009514,1734.204797,-898.540127,2393.715369,-26194.299900,-21207.156325,-5256.616206,-3698.073768,780.433509,127.539054,-18490.413545,1577.943752,-14252.656907,-5165.823420,-5843.014222,-2444.699698,0.004875,-0.010875,1.009125,192.000000,0.000000,16.000000,127.500000,88.000000,15.500000,88.000000,0.000000,0.000000,0.000000,1772182969.768660,0.000000
146.000000,-870.823964,1769.274684,-866.085394,2430.573396,-26165.287336,-21175.908586,-5222.887423,-3663.294454,744.827180,96.045446,-18523.360017,1545.712536,-14294.253504,-5188.197516,-5875.334844,-2467.677291,0.004875,-0.010875,1.009125,192.000000,0.000000,0.000000,0.000000,0.000000,0.000000,0.000000,0.000000,0.000000,0.000000,1772182969.768676,0.000000
148.000000,-869.706377,1770.526382,-869.013473,2428.561739,-26162.135740,-21173.382839,-5222.060409,-3661.685128,804.796911,152.662415,-18466.653641,1601.457787,-14245.414942,-5130.753533,-5821.780064,-2413.228442,0.004875,-0.010875,1.009125,192.000000,0.000000,0.000000,0.000000,0.000000,0.000000,0.000000,0.000000,0.000000,0.000000,1772182969.768688,0.000000
150.000000,-899.501252,1733.869521,-902.496386,2394.877660,-26194.434010,-21203.781212,-5256.817371,-3695.145690,750.929207,104.203833,-18514.709892,1553.759164,-14291.660701,-5178.273341,-5869.746908,-2451.449925,0.004875,-0.010875,1.009125,192.000000,0.000000,0.000000,0.000000,0.000000,0.000000,0.000000,0.000000,0.000000,0.000000,1772182969.768705,0.000000
152.000000,-852.853161,1787.424301,-849.947435,2451.516980,-26142.265039,-21153.199214,-5203.687275,-3643.311994,782.623980,129.193083,-18485.540865,1583.151708,-14252.835721,-5154.491085,-5844.489437,-2411.708523,0.004875,-0.010875,1.009125,192.000000,0.000000,0.000000,0.000000,0.000000,0.000000,0.000000,0.000000,0.000000,0.000000,1772182969.768718,0.000000
154.000000,-893.175708,1740.440934,-898.785996,2402.298439,-26182.632289,-21201.389575,-5248.100191,-3687.903725,782.825146,133.954005,-18484.043298,1588.314961,-14256.009669,-5143.896358,-5845.830541,-2420.135131,0.004438,-0.010437,1.012563,192.000000,0.000000,16.000000,127.500000,88.000000,15.500000,96.000000,0.000000,0.000000,0.000000,1772182969.768748,0.000000
156.000000,-869.952246,1767.821821,-864.073737,2428.606442,-26163.968583,-21178.389630,-5217.590060,-3657.840628,751.152724,97.408902,-18518.017950,1554.899103,-14280.663643,-5184.196554,-5875.625417,-2471.678254,0.004438,-0.010437,1.012563,192.000000,0.000000,0.000000,0.000000,0.000000,0.000000,0.000000,0.000000,0.000000,0.000000,1772182969.768764,0.000000
158.000000,-868.365272,1771.353396,-864.051385,2425.343087,-26168.505987,-21181.764744,-5218.417074,-3656.611282,804.171062,154.182333,-18465.647813,1610.957278,-14239.022343,-5123.846844,-5830.094913,-2437.301271,0.004438,-0.010437,1.012563,192.000000,0.000000,0.000000,0.000000,0.000000,0.000000,0.000000,0.000000,0.000000,0.000000,1772182969.768776,0.000000
160.000000,-897.936630,1739.390402,-890.761720,2391.636657,-26198.904359,-21209.413851,-5250.335366,-3687.769614,756.315977,103.667391,-18512.541772,1560.799964,-14281.960044,-5185.023568,-5879.939303,-2485.782204,0.004438,-0.010437,1.012563,192.000000,0.000000,0.000000,0.000000,0.000000,0.000000,0.000000,0.000000,0.000000,0.000000,1772182969.768787,0.000000
162.000000,-849.947435,1793.861603,-841.096144,2445.750230,-26138.398187,-21150.047618,-5199.731016,-3638.305204,788.301323,137.530284,-18481.450496,1588.382016,-14258.468361,-5139.828341,-5847.283405,-2448.454791,0.004438,-0.010437,1.012563,192.000000,0.000000,0.000000,0.000000,0.000000,0.000000,0.000000,0.000000,0.000000,0.000000,1772182969.768799,0.000000
164.000000,-896.215546,1739.882140,-891.409921,2392.642485,-26187.326156,-21200.651968,-5249.150723,-3687.121414,785.864983,137.440877,-18485.384403,1589.454900,-14255.942614,-5149.596053,-5841.114323,-2446.309024,0.007219,-0.010219,1.011281,192.000000,0.000000,40.000000,127.500000,88.000000,15.500000,72.000000,0.000000,0.000000,0.000000,1772182969.768811,0.000000
166.000000,-870.443984,1770.101699,-860.810382,2421.565643,-26160.705228,-21177.987299,-5222.261575,-3663.361509,748.269349,94.927859,-18519.761386,1552.216894,-14289.805506,-5179.569743,-5869.724556,-2476.215658,0.007219,-0.010219,1.011281,192.000000,0.000000,0.000000,0.000000,0.000000,0.000000,0.000000,0.000000,0.000000,0.000000,1772182969.768822,0.000000
168.000000,-872.343883,1766.927751,-868.409976,2422.996154,-26162.292202,-21182.435296,-5221.523967,-3663.339158,802.941716,149.868447,-18470.051106,1602.754188,-14228.762892,-5145.170408,-5815.588631,-2423.465541,0.007219,-0.010219,1.011281,192.000000,0.000000,0.000000,0.000000,0.000000,0.000000,0.000000,0.000000,0.000000,0.000000,1772182969.768833,0.000000
170.000000,-909.738351,1728.795675,-905.089188,2388.775633,-26196.289205,-21213.839497,-5255.185694,-3698.721969,746.592968,94.771396,-18526.623371,1548.350042,-14293.404137,-5189.002179,-5866.081222,-2467.632588,0.007219,-0.010219,1.011281,192.000000,0.000000,0.000000,0.000000,0.000000,0.000000,0.000000,0.000000,0.000000,0.000000,1772182969.768844,0.000000
172.000000,-859.268112,1782.663379,-853.300196,2446.800762,-26134.598390,-21147.723037,-5204.782510,-3648.452896,774.420890,125.683859,-18497.923732,1577.273199,-14264.995070,-5150.624234,-5832.173625,-2424.717239,0.007219,-0.010219,1.011281,192.000000,0.000000,0.000000,0.000000,0.000000,0.000000,0.000000,0.000000,0.000000,0.000000,1772182969.768855,0.000000
174.000000,-900.261211,1736.752896,-898.987162,2398.900974,-26179.681859,-21196.829819,-5252.145857,-3694.095158,779.025350,132.635252,-18493.542790,1581.810603,-14262.983413,-5142.935233,-5829.200843,-2417.899956,0.010609,-0.009109,1.008641,192.000000,0.000000,56.000000,127.500000,96.000000,15.500000,56.000000,0.000000,0.000000,0.000000,1772182969.768867,0.000000
176.000000,-874.869630,1763.798507,-868.946417,2427.086523,-26151.675123,-21169.314822,-5223.625031,-3663.875599,749.878675,98.928821,-18526.533964,1549.512333,-14289.023195,-5183.570705,-5858.727498,-2458.177800,0.010609,-0.009109,1.008641,192.000000,0.000000,0.000000,0.000000,0.000000,0.000000,0.000000,0.000000,0.000000,0.000000,1772182969.768879,0.000000
178.000000,-865.616008,1772.001597,-861.570342,2425.611308,-26152.613896,-21175.841531,-5218.372371,-3653.951425,811.837710,153.578836,-18469.447609,1603.089464,-14225.164261,-5127.356068,-5808.190204,-2420.872738,0.010609,-0.009109,1.008641,192.000000,0.000000,0.000000,0.000000,0.000000,0.000000,0.000000,0.000000,0.000000,0.000000,1772182969.768890,0.000000
180.000000,-896.260249,1739.904492,-898.607182,2386.942790,-26195.708060,-21212.140764,-5250.648290,-3686.808489,758.528800,107.377780,-18508.898438,1557.849533,-14284.172867,-5173.221847,-5867.154106,-2481.356559,0.010609,-0.009109,1.008641,192.000000,0.000000,0.000000,0.000000,0.000000,0.000000,0.000000,0.000000,0.000000,0.000000,1772182969.768902,0.000000
182.000000,-850.260359,1791.112338,-842.683118,2439.223521,-26149.752873,-21164.285679,-5197.115862,-3638.193445,790.692960,136.949138,-18480.981109,1585.923324,-14254.199178,-5158.581455,-5847.350460,-2460.077698,0.010609,-0.009109,1.008641,192.000000,0.000000,0.000000,0.000000,0.000000,0.000000,0.000000,0.000000,0.000000,0.000000,1772182969.768914,0.000000
184.000000,-901.714075,1735.054163,-897.511947,2390.586125,-26200.066650,-21209.883238,-5248.368412,-3688.127242,785.350893,132.434086,-18482.813952,1584.224592,-14247.203082,-5139.671879,-5850.055021,-2461.441155,0.010609,-0.009109,1.008641,192.000000,0.000000,0.000000,0.000000,0.000000,0.000000,0.000000,0.000000,0.000000,0.000000,1772182969.768925,0.000000
186.000000,-865.504249,1773.767385,-865.861877,2426.795951,-26164.683838,-21170.186540,-5220.249918,-3655.024309,748.314053,94.458472,-18521.035435,1549.847609,-14290.431355,-5190.253876,-5882.263885,-2482.585905,0.012000,-0.008000,1.004000,192.000000,0.000000,48.000000,127.500000,96.000000,15.500000,48.000000,0.000000,0.000000,0.000000,1772182969.768936,0.000000
188.000000,-857.479973,1784.518574,-861.302121,2430.126361,-26149.149376,-21158.027191,-5218.372371,-3650.844532,811.636545,162.810107,-18461.892719,1611.583127,-14231.601564,-5112.223937,-5821.802416,-2421.051552,0.012000,-0.008000,1.004000,192.000000,0.000000,0.000000,0.000000,0.000000,0.000000,0.000000,0.000000,0.000000,0.000000,1772182969.768947,0.000000
190.000000,-881.686912,1759.931655,-897.154319,2400.778520,-26178.720734,-21185.251616,-5252.011746,-3686.428510,766.106041,119.157150,-18509.211363,1563.973911,-14278.853152,-5149.461943,-5860.180361,-2456.791992,0.012000,-0.008000,1.004000,192.000000,0.000000,0.000000,0.000000,0.000000,0.000000,0.000000,0.000000,0.000000,0.000000,1772182969.768959,0.000000
192.000000,-827.439228,1811.094798,-843.756001,2457.507248,-26123.981312,-21134.691970,-5201.496804,-3636.293547,811.524786,158.943255,-18478.812990,1596.316886,-14239.357619,-5137.302594,-5828.038553,-2415.038933,0.012000,-0.008000,1.004000,192.000000,0.000000,0.000000,0.000000,0.000000,0.000000,0.000000,0.000000,0.000000,0.000000,1772182969.768970,0.000000
194.000000,-885.307894,1748.532265,-891.544031,2405.226517,-26171.814045,-21186.413906,-5248.793095,-3684.528611,796.079731,141.687708,-18478.455362,1588.985513,-14247.359544,-5140.878873,-5823.121169,-2408.422817,0.012000,-0.008000,1.004000,192.000000,0.000000,0.000000,0.000000,0.000000,0.000000,0.000000,0.000000,0.000000,0.000000,1772182969.768981,0.000000
196.000000,-865.884228,1770.414623,-859.715147,2428.852311,-26140.879231,-21156.619031,-5221.881595,-3659.807582,758.864076,97.475958,-18514.575781,1550.451106,-14287.302111,-5175.814650,-5845.025879,-2434.619061,0.012000,-0.010000,1.006000,192.000000,0.000000,48.000000,127.500000,88.000000,15.500000,56.000000,0.000000,0.000000,0.000000,1772182969.768993,0.000000
198.000000,-864.453717,1771.442803,-862.486763,2433.345012,-26148.277658,-21160.530586,-5218.595888,-3656.723041,815.257527,145.912188,-18462.898548,1600.116682,-14226.483014,-5122.528091,-5794.376826,-2384.126471,0.012000,-0.010000,1.006000,192.000000,0.000000,0.000000,0.000000,0.000000,0.000000,0.000000,0.000000,0.000000,0.000000,1772182969.769005,0.000000
200.000000,-894.226240,1740.843265,-901.356447,2404.757131,-26196.512723,-21202.574218,-5248.457819,-3683.858059,760.674567,96.648943,-18513.994636,1558.698900,-14284.105812,-5161.464830,-5865.991815,-2433.032087,0.012000,-0.010000,1.006000,192.000000,0.000000,0.000000,0.000000,0.000000,0.000000,0.000000,0.000000,0.000000,0.000000,1772182969.769017,0.000000
202.000000,-841.543179,1796.253240,-839.285653,2455.763812,-26150.401074,-21155.099112,-5193.070196,-3630.549148,794.850385,131.249443,-18481.428144,1590.170156,-14251.628727,-5135.246233,-5853.228969,-2422.124436,0.012000,-0.010000,1.006000,192.000000,0.000000,0.000000,0.000000,0.000000,0.000000,0.000000,0.000000,0.000000,0.000000,1772182969.769028,0.000000
204.000000,-877.171859,1751.214475,-874.377891,2400.778520,-26192.489409,-21200.271988,-5235.806732,-3671.139916,807.613231,135.004537,-18469.782885,1591.511260,-14242.710381,-5135.760323,-5847.372812,-2437.837713,0.012000,-0.010000,1.006000,192.000000,0.000000,0.000000,0.000000,0.000000,0.000000,0.000000,0.000000,0.000000,0.000000,1772182969.769038,0.000000
206.000000,-856.250627,1777.678940,-849.008661,2428.315869,-26158.313591,-21177.495560,-5210.996295,-3644.787210,777.371320,101.231051,-18502.639950,1560.017653,-14269.577178,-5176.127574,-5879.089937,-2483.547030,0.012000,-0.010000,1.006000,192.000000,0.000000,48.000000,127.500000,88.000000,15.500000,56.000000,0.000000,0.000000,0.000000,1772182969.769079,0.000000
208.000000,-855.490667,1778.461251,-847.399336,2432.987384,-26160.727580,-21173.561653,-5209.252859,-3644.049602,823.281804,154.517609,-18449.241632,1613.505377,-14222.839680,-5110.748721,-5823.277631,-2427.578262,0.012000,-0.010000,1.006000,192.000000,0.000000,0.000000,0.000000,0.000000,0.000000,0.000000,0.000000,0.000000,0.000000,1772182969.769091,0.000000
210.000000,-899.233031,1731.567291,-890.471147,2392.351913,-26196.110391,-21209.056224,-5248.681336,-3688.283704,770.285817,100.381684,-18504.383386,1561.694033,-14273.801657,-5175.054690,-5866.349443,-2467.856105,0.012000,-0.010000,1.006000,192.000000,0.000000,0.000000,0.000000,0.000000,0.000000,0.000000,0.000000,0.000000,0.000000,1772182970.248309,0.000000
212.000000,-855.177743,1780.159984,-843.018394,2444.230311,-26143.024998,-21152.215737,-5200.938010,-3643.870788,793.978667,119.715943,-18485.943197,1579.933057,-14244.565576,-5154.915768,-5836.465160,-2433.568529,0.012000,-0.010000,1.006000,192.000000,0.000000,0.000000,0.000000,0.000000,0.000000,0.000000,0.000000,0.000000,0.000000,1772182970.248364,0.000000
214.000000,-908.509005,1724.235919,-900.909412,2399.415064,-26188.577853,-21197.410965,-5248.301357,-3694.050454,785.976742,119.537129,-18493.296920,1577.876696,-14259.474189,-5140.029507,-5835.615794,-2418.235233,0.012000,-0.010000,1.006000,192.000000,0.000000,0.000000,0.000000,0.000000,0.000000,0.000000,0.000000,0.000000,0.000000,1772182970.248403,0.000000
216.000000,-875.629589,1760.490449,-864.632531,2432.607404,-26145.953077,-21160.664697,-5221.836891,-3665.306111,750.660986,85.406016,-18525.505784,1542.091553,-14293.404137,-5175.144097,-5865.120097,-2440.676384,0.012000,-0.008000,1.004000,192.000000,0.000000,48.000000,127.500000,96.000000,15.500000,48.000000,0.000000,0.000000,0.000000,1772182970.248441,0.000000
218.000000,-868.409976,1766.212495,-855.088336,2436.317794,-26137.012379,-21152.036923,-5216.986563,-3661.372204,814.095237,144.034641,-18466.139551,1597.546231,-14221.275058,-5126.149073,-5793.840384,-2377.532706,0.012000,-0.008000,1.004000,192.000000,0.000000,0.000000,0.000000,0.000000,0.000000,0.000000,0.000000,0.000000,0.000000,1772182970.248491,0.000000
220.000000,-896.148490,1734.718887,-888.727711,2391.502546,-26174.406847,-21196.516895,-5253.956348,-3694.810414,771.492812,100.359333,-18514.061691,1550.026423,-14269.398364,-5160.727222,-5831.838349,-2435.826056,0.012000,-0.008000,1.004000,192.000000,0.000000,0.000000,0.000000,0.000000,0.000000,0.000000,0.000000,0.000000,0.000000,1772182970.248529,0.000000
222.000000,-828.601519,1809.194900,-834.904711,2449.237102,-26127.624646,-21146.426636,-5198.144042,-3635.131256,801.377094,137.530284,-18479.662356,1580.424795,-14233.076779,-5140.901225,-5820.126035,-2427.622965,0.012000,-0.008000,1.004000,192.000000,0.000000,0.000000,0.000000,0.000000,0.000000,0.000000,0.000000,0.000000,0.000000,1772182970.248542,0.000000
224.000000,-898.785996,1727.298108,-885.978447,2394.654142,-26190.120124,-21213.683035,-5241.931110,-3683.433376,809.289611,140.056031,-18473.985013,1587.085615,-14238.217680,-5135.648565,-5834.408800,-2441.838675,0.012000,-0.008000,1.004000,192.000000,0.000000,0.000000,0.000000,0.000000,0.000000,0.000000,0.000000,0.000000,0.000000,1772182970.248554,0.000000
226.000000,-857.681138,1771.956893,-857.569380,2423.577300,-26170.137664,-21187.844418,-5214.572574,-3653.280872,758.685262,77.135870,-18515.179278,1546.271330,-14282.742355,-5186.208211,-5883.046196,-2489.939629,0.010000,-0.008000,1.004000,192.000000,0.000000,40.000000,127.500000,96.000000,15.500000,48.000000,0.000000,0.000000,0.000000,1772182970.248565,0.000000
228.000000,-872.030958,1751.058012,-850.416821,2420.381000,-26169.333001,-21190.347813,-5211.912717,-3654.443163,819.012620,121.057048,-18456.371839,1598.552060,-14229.344038,-5137.771980,-5830.117265,-2439.089410,0.010000,-0.008000,1.004000,192.000000,0.000000,0.000000,0.000000,0.000000,0.000000,0.000000,0.000000,0.000000,0.000000,1772182970.248576,0.000000
230.000000,-892.013418,1725.800541,-885.352598,2381.578372,-26200.714851,-21226.088253,-5247.675508,-3687.903725,777.170155,76.845297,-18501.991749,1550.384051,-14266.626747,-5195.975923,-5870.238646,-2489.559649,0.010000,-0.008000,1.004000,192.000000,0.000000,0.000000,0.000000,0.000000,0.000000,0.000000,0.000000,0.000000,0.000000,1772182970.248587,0.000000
232.000000,-844.650071,1778.997693,-834.614138,2438.351803,-26142.734425,-21169.337174,-5196.311199,-3638.349907,806.428588,88.959943,-18475.974319,1572.266408,-14248.343020,-5170.785507,-5839.326184,-2458.289559,0.010000,-0.008000,1.004000,192.000000,0.000000,0.000000,0.000000,0.000000,0.000000,0.000000,0.000000,0.000000,0.000000,1772182970.248598,0.000000
234.000000,-891.655790,1728.594509,-883.899734,2393.268334,-26187.750839,-21208.720947,-5243.227511,-3686.204992,811.547138,94.726693,-18475.728449,1577.831993,-14244.990259,-5154.379327,-5835.504035,-2438.955300,0.010000,-0.008000,1.004000,192.000000,0.000000,0.000000,0.000000,0.000000,0.000000,0.000000,0.000000,0.000000,0.000000,1772182970.248609,0.000000
236.000000,-863.850220,1760.557504,-858.977539,2425.588957,-26157.374818,-21176.512084,-5219.087627,-3662.601550,781.953428,57.131059,-18513.346435,1542.851513,-14277.266178,-5199.485147,-5866.036518,-2455.406184,0.014000,-0.008000,1.006000,192.000000,0.000000,56.000000,127.500000,96.000000,15.500000,56.000000,0.000000,0.000000,0.000000,1772182970.248620,0.000000
238.000000,-861.816211,1762.122126,-859.670443,2436.898939,-26147.450643,-21164.330383,-5214.550223,-3660.500486,826.455751,118.598356,-18460.529263,1598.775577,-14223.845509,-5133.905129,-5812.213518,-2380.773709,0.014000,-0.008000,1.006000,192.000000,0.000000,0.000000,0.000000,0.000000,0.000000,0.000000,0.000000,0.000000,0.000000,1772182970.248631,0.000000
240.000000,-897.377836,1724.995878,-897.288429,2396.911668,-26185.068629,-21206.374014,-5250.536531,-3695.235097,783.093367,72.889039,-18508.339644,1552.194542,-14272.058221,-5184.576533,-5853.988928,-2424.158445,0.014000,-0.008000,1.006000,192.000000,0.000000,0.000000,0.000000,0.000000,0.000000,0.000000,0.000000,0.000000,0.000000,1772182970.248641,0.000000
242.000000,-854.775411,1772.560391,-839.911501,2440.922253,-26133.257286,-21167.347868,-5199.686313,-3647.670585,802.695847,92.670333,-18485.742031,1574.970970,-14245.414942,-5154.759306,-5817.644992,-2420.202186,0.014000,-0.008000,1.006000,192.000000,0.000000,0.000000,0.000000,0.000000,0.000000,0.000000,0.000000,0.000000,0.000000,1772182970.248652,0.000000
244.000000,-903.144586,1719.877329,-887.252496,2384.037064,-26194.769286,-21230.290381,-5246.468514,-3697.246754,798.672533,89.429330,-18485.563217,1572.981664,-14255.495579,-5161.911865,-5814.627506,-2441.212826,0.014000,-0.008000,1.006000,192.000000,0.000000,0.000000,0.000000,0.000000,0.000000,0.000000,0.000000,0.000000,0.000000,1772182970.248663,0.000000
246.000000,-881.172822,1744.196027,-868.231162,2405.941773,-26180.799446,-21206.083442,-5223.133293,-3678.113661,758.081765,49.106783,-18528.232697,1532.592062,-14325.545946,-5210.236336,-5861.566169,-2492.130100,0.012000,-0.006000,1.008000,192.000000,0.000000,48.000000,127.500000,104.000000,15.500000,64.000000,0.000000,0.000000,0.000000,1772182970.248674,0.000000
248.000000,-857.636435,1766.525420,-856.563551,2418.481102,-26168.953022,-21189.409040,-5215.064313,-3662.623902,817.135074,108.338905,-18470.989879,1585.588048,-14285.715137,-5163.543542,-5816.281535,-2441.615157,0.012000,-0.006000,1.008000,192.000000,0.000000,0.000000,0.000000,0.000000,0.000000,0.000000,0.000000,0.000000,0.000000,1772182970.248685,0.000000
250.000000,-874.959037,1743.123143,-889.197098,2390.273200,-26200.513685,-21216.611113,-5248.100191,-3689.289533,792.749321,77.784071,-18502.036453,1554.742641,-14316.873469,-5188.286923,-5869.635149,-2482.340036,0.012000,-0.006000,1.008000,192.000000,0.000000,0.000000,0.000000,0.000000,0.000000,0.000000,0.000000,0.000000,0.000000,1772182970.248698,0.000000
252.000000,-831.104914,1793.928658,-830.881397,2449.639434,-26152.926821,-21162.363429,-5191.192650,-3633.946614,824.533501,106.439007,-18474.923787,1583.911667,-14297.203934,-5150.087792,-5850.189132,-2450.444096,0.012000,-0.006000,1.008000,192.000000,0.000000,0.000000,0.000000,0.000000,0.000000,0.000000,0.000000,0.000000,0.000000,1772182970.248709,0.000000
254.000000,-882.983313,1738.429277,-880.234048,2401.560831,-26195.864522,-21213.280703,-5239.450066,-3683.232210,811.144806,112.541033,-18469.447609,1592.941772,-14297.047472,-5147.494989,-5843.282442,-2437.882416,0.012000,-0.006000,1.008000,192.000000,0.000000,0.000000,0.000000,0.000000,0.000000,0.000000,0.000000,0.000000,0.000000,1772182970.248720,0.000000
0.000000,-853.546066,1769.721719,-860.542162,2425.812474,-26167.880138,-21185.028098,-5222.082761,-3667.697748,775.180849,62.808402,-18515.648665,1544.974928,-14333.570222,-5195.998275,-5873.434946,-2472.438213,0.012000,-0.005000,1.008000,192.000000,0.000000,48.000000,127.500000,112.000000,15.500000,64.000000,0.000000,0.000000,0.000000,1772182970.248731,0.000000
2.000000,-861.168010,1761.161001,-860.139830,2427.801779,-26159.811158,-21182.524703,-5215.220775,-3663.361509,827.439228,114.686801,-18464.954908,1591.734778,-14282.161210,-5144.142228,-5813.264050,-2415.105988,0.012000,-0.005000,1.008000,192.000000,0.000000,0.000000,0.000000,0.000000,0.000000,0.000000,0.000000,0.000000,0.000000,1772182970.248742,0.000000
4.000000,-890.247630,1728.661564,-899.322438,2387.792157,-26189.248406,-21211.470212,-5255.968005,-3700.621867,772.744509,63.836582,-18514.709892,1543.656176,-14330.798606,-5187.012874,-5852.469009,-2455.897922,0.012000,-0.005000,1.008000,192.000000,0.000000,0.000000,0.000000,0.000000,0.000000,0.000000,0.000000,0.000000,0.000000,1772182970.248753,0.000000
6.000000,-833.340089,1792.229926,-842.124324,2444.275015,-26132.162050,-21148.930031,-5205.073083,-3648.452896,807.479120,96.760702,-18487.306653,1571.260580,-14298.410928,-5152.412373,-5817.421474,-2418.950488,0.012000,-0.005000,1.008000,192.000000,0.000000,0.000000,0.000000,0.000000,0.000000,0.000000,0.000000,0.000000,0.000000,1772182970.248763,0.000000
8.000000,-878.043577,1746.967643,-887.610124,2396.486985,-26191.014193,-21202.171886,-5247.161418,-3690.675341,817.224481,109.322382,-18480.288205,1579.798946,-14295.661663,-5145.863312,-5816.370942,-2411.887337,0.012000,-0.005000,1.008000,192.000000,0.000000,0.000000,0.000000,0.000000,0.000000,0.000000,0.000000,0.000000,0.000000,1772182970.248774,0.000000
10.000000,-850.729746,1777.231905,-862.263246,2419.442227,-26173.803350,-21190.168999,-5219.735827,-3662.758012,774.934980,71.235010,-18516.654493,1547.098344,-14340.476911,-5182.676635,-5865.433021,-2457.082564,0.011000,-0.005500,1.008000,192.000000,0.000000,40.000000,127.500000,104.000000,15.500000,64.000000,0.000000,0.000000,0.000000,1772182970.248785,0.000000
12.000000,-836.715202,1789.681827,-851.020318,2430.640451,-26161.644001,-21184.066973,-5206.481243,-3645.346003,834.569434,128.768400,-18460.082228,1606.732798,-14280.127201,-5142.979937,-5813.688733,-2414.547195,0.011000,-0.005500,1.008000,192.000000,0.000000,0.000000,0.000000,0.000000,0.000000,0.000000,0.000000,0.000000,0.000000,1772182970.248797,0.000000
14.000000,-868.029996,1756.958873,-887.699531,2394.296514,-26202.547694,-21221.148517,-5242.758124,-3679.410062,794.828033,84.824870,-18496.403813,1566.074975,-14324.026027,-5176.127574,-5863.577826,-2469.957169,0.011000,-0.005500,1.008000,192.000000,0.000000,0.000000,0.000000,0.000000,0.000000,0.000000,0.000000,0.000000,0.000000,1772182970.248808,0.000000
16.000000,-813.424684,1817.643859,-830.277900,2452.500457,-26148.009437,-21162.005801,-5188.957475,-3629.185692,817.492702,117.212548,-18469.782885,1592.830013,-14300.109661,-5147.472638,-5843.237739,-2448.544198,0.011000,-0.005500,1.008000,192.000000,0.000000,0.000000,0.000000,0.000000,0.000000,0.000000,0.000000,0.000000,0.000000,1772182970.248819,0.000000
18.000000,-856.697661,1768.045338,-881.664560,2403.371323,-26199.843132,-21216.588761,-5236.656098,-3677.286646,826.992193,122.979298,-18466.921862,1598.373246,-14301.339007,-5151.339489,-5841.740172,-2442.308061,0.011000,-0.005500,1.008000,192.000000,0.000000,0.000000,0.000000,0.000000,0.000000,0.000000,0.000000,0.000000,0.000000,1772182970.248831,0.000000
20.000000,-838.413935,1789.033626,-863.336130,2423.622003,-26179.324231,-21192.113601,-5217.835929,-3658.310015,786.312018,79.303989,-18509.948970,1555.927283,-14340.566318,-5189.136289,-5881.839202,-2480.618951,0.010500,-0.005750,1.009000,192.000000,0.000000,40.000000,127.500000,104.000000,15.500000,72.000000,0.000000,0.000000,0.000000,1772182970.248841,0.000000
22.000000,-844.873589,1783.982132,-863.626702,2423.107913,-26173.021039,-21188.716136,-5218.327668,-3664.903780,833.541254,130.601243,-18461.669202,1602.731836,-14293.158268,-5137.414353,-5826.876262,-2420.805683,0.010500,-0.005750,1.009000,192.000000,0.000000,0.000000,0.000000,0.000000,0.000000,0.000000,0.000000,0.000000,0.000000,1772182970.248853,0.000000
24.000000,-887.878345,1736.998765,-903.010476,2380.661950,-26212.583627,-21223.070767,-5259.901912,-3708.757902,779.204163,72.106728,-18518.956723,1545.198446,-14338.129978,-5176.731071,-5868.182286,-2454.936797,0.010500,-0.005750,1.009000,192.000000,0.000000,0.000000,0.000000,0.000000,0.000000,0.000000,0.000000,0.000000,0.000000,1772182970.248864,0.000000
26.000000,-842.012565,1788.966571,-845.521789,2438.105933,-26150.222260,-21160.441179,-5207.375313,-3657.952387,796.035027,91.418635,-18498.974264,1562.185772,-14321.410873,-5167.745670,-5840.823751,-2417.788198,0.010500,-0.005750,1.009000,192.000000,0.000000,0.000000,0.000000,0.000000,0.000000,0.000000,0.000000,0.000000,0.000000,1772182970.248877,0.000000
28.000000,-874.713168,1752.957911,-887.811290,2397.358703,-26178.318403,-21195.935750,-5247.675508,-3696.330332,812.262394,108.115388,-18490.033566,1572.199353,-14296.600437,-5151.920635,-5824.708143,-2403.170157,0.010500,-0.005750,1.009000,192.000000,0.000000,0.000000,0.000000,0.000000,0.000000,0.000000,0.000000,0.000000,0.000000,1772182970.248888,0.000000
30.000000,-849.142772,1779.936466,-859.737499,2425.208977,-26152.368027,-21171.974679,-5220.562842,-3665.574332,789.553021,77.649960,-18516.185107,1544.885522,-14328.608135,-5173.601827,-5859.755678,-2445.414954,0.011250,-0.008875,1.009500,192.000000,0.000000,48.000000,127.500000,80.000000,15.500000,72.000000,0.000000,0.000000,0.000000,1772182970.248898,0.000000
32.000000,-838.793914,1789.592420,-845.499438,2431.735686,-26148.501175,-21170.477113,-5209.990467,-3651.313919,836.335222,133.864598,-18457.131798,1604.274107,-14275.053355,-5126.663164,-5806.312657,-2406.791139,0.011250,-0.008875,1.009500,192.000000,0.000000,0.000000,0.000000,0.000000,0.000000,0.000000,0.000000,0.000000,0.000000,1772182970.248909,0.000000
34.000000,-876.747176,1749.091059,-885.330246,2391.100215,-26197.406792,-21221.908477,-5250.782400,-3691.100024,794.157480,86.680065,-18503.578723,1560.844667,-14326.395312,-5178.675673,-5850.680870,-2465.308006,0.011250,-0.008875,1.009500,192.000000,0.000000,0.000000,0.000000,0.000000,0.000000,0.000000,0.000000,0.000000,0.000000,1772182970.248920,0.000000
36.000000,-820.398428,1811.653592,-827.506283,2450.198227,-26145.818966,-21164.151569,-5195.193612,-3633.812503,813.692905,107.623650,-18481.651662,1581.654141,-14306.412853,-5152.993518,-5833.827655,-2448.968881,0.011250,-0.008875,1.009500,192.000000,0.000000,0.000000,0.000000,0.000000,0.000000,0.000000,0.000000,0.000000,0.000000,1772182970.248939,0.000000
38.000000,-851.400298,1774.035606,-872.209772,2410.121549,-26184.979222,-21208.072747,-5235.963194,-3668.994149,829.517940,124.633327,-18462.138589,1598.328543,-14291.750108,-5141.907053,-5826.362172,-2439.290576,0.011250,-0.008875,1.009500,192.000000,0.000000,0.000000,0.000000,0.000000,0.000000,0.000000,0.000000,0.000000,0.000000,1772182970.248950,0.000000
40.000000,-833.384792,1795.202708,-853.099031,2432.674460,-26160.168786,-21183.709345,-5214.796092,-3646.351832,792.414044,85.540126,-18500.114203,1565.024443,-14329.345742,-5170.874914,-5870.663329,-2476.081547,0.011625,-0.010438,1.010750,192.000000,0.000000,48.000000,127.500000,80.000000,15.500000,80.000000,0.000000,0.000000,0.000000,1772182970.248961,0.000000
42.000000,-826.075772,1800.142443,-845.544141,2437.837713,-26155.184347,-21175.506255,-5208.470548,-3645.368355,849.098068,139.720755,-18448.414618,1613.795950,-14272.862884,-5129.971222,-5820.237794,-2423.443189,0.011625,-0.010438,1.010750,192.000000,0.000000,0.000000,0.000000,0.000000,0.000000,0.000000,0.000000,0.000000,0.000000,1772182970.248972,0.000000
44.000000,-864.431365,1760.177524,-885.129080,2395.078825,-26190.678917,-21214.219476,-5248.726040,-3685.869716,804.416931,88.468205,-18498.236656,1560.911722,-14315.264143,-5172.618350,-5864.270731,-2465.822097,0.011625,-0.010438,1.010750,192.000000,0.000000,0.000000,0.000000,0.000000,0.000000,0.000000,0.000000,0.000000,0.000000,1772182970.248982,0.000000
46.000000,-809.177853,1818.336763,-830.657879,2449.728841,-26134.196059,-21157.803673,-5197.875821,-3635.041849,821.672478,110.842301,-18479.081211,1579.396615,-14290.207838,-5148.277300,-5835.839312,-2434.552006,0.011625,-0.010438,1.010750,192.000000,0.000000,0.000000,0.000000,0.000000,0.000000,0.000000,0.000000,0.000000,0.000000,1772182970.248993,0.000000
48.000000,-849.366289,1770.325216,-883.676217,2405.718256,-26181.805275,-21198.886180,-5245.686203,-3685.020350,841.252606,122.800484,-18469.469961,1589.052569,-14289.492582,-5134.486274,-5822.852948,-2409.719218,0.011625,-0.010438,1.010750,192.000000,0.000000,0.000000,0.000000,0.000000,0.000000,0.000000,0.000000,0.000000,0.000000,1772182970.249004,0.000000
50.000000,-854.015452,1775.622580,-864.654883,2428.449980,-26166.203757,-21170.454761,-5224.183825,-3670.603474,777.930114,69.491574,-18521.594229,1541.622167,-14346.266013,-5194.567763,-5863.600178,-2436.317794,0.010812,-0.013219,1.010375,192.000000,0.000000,40.000000,127.500000,64.000000,15.500000,72.000000,0.000000,0.000000,0.000000,1772182970.249014,0.000000
52.000000,-840.894978,1788.944219,-847.309929,2436.608367,-26153.552670,-21163.056333,-5214.527871,-3658.622939,828.735629,125.817970,-18465.334888,1595.579278,-14289.269065,-5130.731181,-5801.484680,-2389.915572,0.010812,-0.013219,1.010375,192.000000,0.000000,0.000000,0.000000,0.000000,0.000000,0.000000,0.000000,0.000000,0.000000,1772182970.249025,0.000000
54.000000,-868.789955,1758.970530,-883.989141,2393.290686,-26188.890778,-21205.882276,-5252.302319,-3691.234135,783.965085,85.093091,-18504.763365,1554.675586,-14328.675190,-5164.102335,-5839.370887,-2452.075774,0.010812,-0.013219,1.010375,192.000000,0.000000,0.000000,0.000000,0.000000,0.000000,0.000000,0.000000,0.000000,0.000000,1772182970.249036,0.000000
56.000000,-807.300306,1823.634127,-825.293461,2451.539332,-26137.817042,-21158.563633,-5192.779624,-3630.102113,816.799798,111.870481,-18476.778981,1582.235287,-14298.053300,-5154.312271,-5824.149349,-2446.621948,0.010812,-0.013219,1.010375,192.000000,0.000000,0.000000,0.000000,0.000000,0.000000,0.000000,0.000000,0.000000,0.000000,1772182970.249047,0.000000
58.000000,-850.506228,1775.577876,-873.573229,2401.940811,-26184.800408,-21213.101889,-5234.912662,-3674.224457,831.909577,123.538092,-18465.513702,1594.372284,-14295.661663,-5144.969242,-5825.177529,-2447.985404,0.010812,-0.013219,1.010375,192.000000,0.000000,0.000000,0.000000,0.000000,0.000000,0.000000,0.000000,0.000000,0.000000,1772182970.249060,0.000000
60.000000,-830.456713,1797.326123,-853.635472,2423.398486,-26165.980240,-21193.454706,-5214.729037,-3655.292529,782.288704,78.745196,-18509.077252,1553.423888,-14335.827748,-5185.604714,-5869.970425,-2485.737501,0.011406,-0.014609,1.011188,192.000000,0.000000,48.000000,127.500000,64.000000,15.500000,80.000000,0.000000,0.000000,0.000000,1772182970.249071,0.000000
62.000000,-822.678306,1804.881013,-841.766696,2433.724992,-26148.590582,-21179.730735,-5208.336438,-3645.837742,839.933853,133.082286,-18453.600222,1608.878566,-14278.830800,-5129.904166,-5816.527404,-2425.410143,0.011406,-0.014609,1.011188,192.000000,0.000000,0.000000,0.000000,0.000000,0.000000,0.000000,0.000000,0.000000,0.000000,1772182970.249083,0.000000
64.000000,-859.178705,1765.117260,-886.269019,2392.553078,-26194.501066,-21216.074671,-5249.575406,-3685.646198,797.063207,87.283562,-18495.912075,1562.543400,-14324.115434,-5168.103298,-5858.012242,-2461.284692,0.011406,-0.014609,1.011188,192.000000,0.000000,0.000000,0.000000,0.000000,0.000000,0.000000,0.000000,0.000000,0.000000,1772182970.249094,0.000000
66.000000,-798.650181,1829.557339,-826.589862,2451.204056,-26140.342789,-21157.848377,-5192.690217,-3626.011744,820.778408,110.372914,-18472.286281,1583.978723,-14301.048434,-5145.460981,-5835.839312,-2438.754134,0.011406,-0.014609,1.011188,192.000000,0.000000,0.000000,0.000000,0.000000,0.000000,0.000000,0.000000,0.000000,0.000000,1772182970.249105,0.000000
68.000000,-835.329394,1790.978228,-868.544086,2409.786273,-26180.441818,-21195.466363,-5235.784380,-3664.613207,835.172932,130.645946,-18456.550653,1603.201223,-14287.726794,-5128.987745,-5825.132826,-2425.164273,0.011406,-0.014609,1.011188,192.000000,0.000000,0.000000,0.000000,0.000000,0.000000,0.000000,0.000000,0.000000,0.000000,1772182970.249116,0.000000
70.000000,-822.968879,1805.685676,-853.903693,2431.467465,-26159.565289,-21168.040772,-5219.691124,-3650.866884,800.930059,92.133891,-18495.755612,1566.924342,-14319.689789,-5149.081963,-5862.102611,-2450.041765,0.011406,-0.014609,1.011188,192.000000,0.000000,0.000000,0.000000,0.000000,0.000000,0.000000,0.000000,0.000000,0.000000,1772182970.249146,0.000000
72.000000,-825.092295,1806.982077,-854.015452,2439.447038,-26157.754798,-21168.107828,-5213.432635,-3651.224512,849.790972,137.932615,-18453.667278,1613.661839,-14272.348794,-5129.457132,-5813.040532,-2390.966104,0.008000,-0.012000,1.012000,192.000000,0.000000,32.000000,127.500000,80.000000,15.500000,80.000000,0.000000,0.000000,0.000000,1772182970.249157,0.000000
74.000000,-868.119403,1758.612902,-894.919145,2393.715369,-26195.775115,-21213.683035,-5254.425735,-3696.106815,785.082672,85.696588,-18505.500973,1560.330577,-14333.503167,-5174.361786,-5855.397088,-2439.044707,0.008000,-0.012000,1.012000,192.000000,0.000000,0.000000,0.000000,0.000000,0.000000,0.000000,0.000000,0.000000,0.000000,1772182970.729382,0.000000
76.000000,-809.848405,1821.354249,-832.714240,2452.545160,-26135.559515,-21157.781322,-5198.166394,-3637.478189,809.758998,107.221318,-18480.288205,1577.474365,-14306.815184,-5153.395850,-5825.512806,-2426.415971,0.008000,-0.012000,1.012000,192.000000,0.000000,0.000000,0.000000,0.000000,0.000000,0.000000,0.000000,0.000000,0.000000,1772182970.729437,0.000000
78.000000,-837.028126,1790.732359,-868.767603,2409.585108,-26168.058952,-21201.478982,-5236.276118,-3666.781326,832.513074,128.388420,-18460.551615,1597.345066,-14282.809410,-5136.028544,-5812.593497,-2427.645317,0.008000,-0.012000,1.012000,192.000000,0.000000,0.000000,0.000000,0.000000,0.000000,0.000000,0.000000,0.000000,0.000000,1772182970.729476,0.000000
80.000000,-812.798835,1816.235699,-842.593711,2432.361535,-26148.992914,-21182.770572,-5212.136234,-3639.288680,805.869795,96.827757,-18490.391194,1572.154650,-14310.525574,-5166.941007,-5855.419440,-2477.534411,0.008000,-0.012000,1.012000,192.000000,0.000000,0.000000,0.000000,0.000000,0.000000,0.000000,0.000000,0.000000,0.000000,1772182970.729515,0.000000
82.000000,-809.222556,1820.393124,-830.613176,2441.391640,-26149.864632,-21174.790999,-5200.334513,-3629.811541,859.156353,147.968548,-18433.684818,1628.369287,-14260.927053,-5117.230727,-5806.111491,-2428.941718,0.012000,-0.004000,1.012000,192.000000,0.000000,48.000000,127.500000,112.000000,15.500000,80.000000,0.000000,0.000000,0.000000,1772182970.729555,0.000000
84.000000,-852.249664,1770.749899,-872.388586,2398.856270,-26191.774153,-21216.767575,-5241.349964,-3672.302207,808.596707,99.129987,-18480.891702,1578.480193,-14316.091158,-5157.821495,-5852.737230,-2471.924123,0.012000,-0.004000,1.012000,192.000000,0.000000,0.000000,0.000000,0.000000,0.000000,0.000000,0.000000,0.000000,0.000000,1772182970.729594,0.000000
86.000000,-800.125396,1826.472798,-819.750228,2459.340091,-26133.346693,-21153.735656,-5188.309275,-3623.128369,818.096199,113.502158,-18462.116237,1589.946638,-14296.868658,-5144.701021,-5830.787817,-2439.871721,0.012000,-0.004000,1.012000,192.000000,0.000000,0.000000,0.000000,0.000000,0.000000,0.000000,0.000000,0.000000,0.000000,1772182970.729626,0.000000
88.000000,-843.532484,1780.852888,-871.226295,2416.312983,-26173.937461,-21189.811372,-5231.872825,-3664.792021,832.423667,122.778132,-18452.996725,1598.663819,-14286.050413,-5133.659260,-5817.622640,-2413.451959,0.012000,-0.004000,1.012000,192.000000,0.000000,0.000000,0.000000,0.000000,0.000000,0.000000,0.000000,0.000000,0.000000,1772182970.729642,0.000000
90.000000,-826.880434,1801.818824,-853.076679,2433.255605,-26155.094940,-21172.108790,-5216.651287,-3649.659890,789.865946,86.367141,-18496.984958,1559.168286,-14328.138748,-5168.460926,-5858.258111,-2443.448000,0.012000,-0.004000,1.012000,192.000000,0.000000,0.000000,0.000000,0.000000,0.000000,0.000000,0.000000,0.000000,0.000000,1772182970.729664,0.000000
92.000000,-823.661783,1806.535042,-844.694775,2440.698736,-26153.709132,-21165.380915,-5208.045865,-3643.244939,840.962033,137.463228,-18448.906356,1610.219671,-14272.237035,-5110.905184,-5804.211593,-2390.742587,0.008000,-0.012000,1.010000,192.000000,0.000000,32.000000,127.500000,80.000000,15.500000,72.000000,0.000000,0.000000,0.000000,1772182970.729680,0.000000
94.000000,-853.411955,1769.744071,-885.039673,2398.833918,-26189.829551,-21206.105793,-5249.351889,-3681.801698,797.085559,93.944382,-18496.403813,1566.678472,-14316.940524,-5157.016832,-5846.769315,-2442.352765,0.008000,-0.012000,1.010000,192.000000,0.000000,0.000000,0.000000,0.000000,0.000000,0.000000,0.000000,0.000000,0.000000,1772182970.729697,0.000000
96.000000,-771.939847,1848.645729,-824.488798,2459.787126,-26127.155260,-21146.963077,-5194.433653,-3621.519044,841.274958,124.588624,-18467.726525,1588.829051,-14284.262274,-5132.318155,-5827.613870,-2429.209939,0.008000,-0.012000,1.010000,192.000000,0.000000,0.000000,0.000000,0.000000,0.000000,0.000000,0.000000,0.000000,0.000000,1772182970.729713,0.000000
98.000000,-839.397411,1790.106510,-870.466336,2419.464579,-26170.629402,-21189.945482,-5234.175054,-3664.054413,849.299234,145.979243,-18448.593432,1610.465540,-14270.247730,-5119.309440,-5815.990963,-2416.290631,0.008000,-0.012000,1.010000,192.000000,0.000000,0.000000,0.000000,0.000000,0.000000,0.000000,0.000000,0.000000,0.000000,1772182970.729727,0.000000
100.000000,-811.278917,1820.571938,-844.292443,2439.312928,-26141.885059,-21163.413961,-5216.874804,-3648.497599,788.703655,105.343772,-18497.923732,1570.701786,-14317.141690,-5149.663109,-5856.112344,-2455.540294,0.008000,-0.012000,1.010000,192.000000,0.000000,0.000000,0.000000,0.000000,0.000000,0.000000,0.000000,0.000000,0.000000,1772182970.729741,0.000000
102.000000,-804.685152,1831.054906,-831.373135,2449.348861,-26130.373911,-21154.249746,-5205.162490,-3636.852340,850.841504,168.778022,-18441.530280,1623.653069,-14257.909567,-5089.268695,-5796.723759,-2401.158500,0.006000,-0.012000,1.006000,192.000000,0.000000,24.000000,127.500000,80.000000,15.500000,56.000000,0.000000,0.000000,0.000000,1772182970.729760,0.000000
104.000000,-831.395487,1793.816900,-877.283618,2407.238174,-26179.167769,-21198.059165,-5247.451991,-3675.587913,811.100103,126.890853,-18484.244464,1580.089519,-14301.383710,-5138.934271,-5843.125980,-2445.616120,0.006000,-0.012000,1.006000,192.000000,0.000000,0.000000,0.000000,0.000000,0.000000,0.000000,0.000000,0.000000,0.000000,1772182970.729775,0.000000
106.000000,-775.426719,1855.954749,-826.008716,2462.268169,-26131.312684,-21150.315839,-5193.919563,-3620.222642,834.122400,138.469057,-18458.472903,1598.350894,-14289.202009,-5130.172387,-5830.452541,-2424.538425,0.006000,-0.012000,1.006000,192.000000,0.000000,0.000000,0.000000,0.000000,0.000000,0.000000,0.000000,0.000000,0.000000,1772182970.729789,0.000000
108.000000,-821.940699,1807.652629,-872.165069,2414.837767,-26177.312574,-21197.187447,-5236.924319,-3666.401346,846.080583,156.372804,-18447.431141,1614.019467,-14275.366280,-5120.605841,-5820.438960,-2417.631736,0.006000,-0.012000,1.006000,192.000000,0.000000,0.000000,0.000000,0.000000,0.000000,0.000000,0.000000,0.000000,0.000000,1772182970.729804,0.000000
110.000000,-810.518957,1824.394086,-855.513019,2434.484951,-26157.061894,-21169.806560,-5222.619202,-3655.717213,795.565640,108.808292,-18500.807107,1566.097327,-14329.725722,-5157.419164,-5857.520504,-2450.980538,0.006000,-0.012000,1.006000,192.000000,0.000000,0.000000,0.000000,0.000000,0.000000,0.000000,0.000000,0.000000,0.000000,1772182970.729819,0.000000
112.000000,-798.113739,1835.905234,-840.246778,2454.243893,-26133.905486,-21147.857147,-5209.252859,-3640.450971,843.308967,168.643912,-18445.553594,1620.367363,-14273.153457,-5099.148166,-5800.165927,-2380.840764,0.006000,-0.014000,1.006000,192.000000,0.000000,24.000000,127.500000,72.000000,15.500000,56.000000,0.000000,0.000000,0.000000,1772182970.729834,0.000000
114.000000,-835.128228,1793.079292,-882.446871,2405.919421,-26168.617745,-21189.051412,-5251.899988,-3682.472251,803.835786,122.509911,-18487.977205,1577.876696,-14313.073672,-5131.267623,-5839.370887,-2426.103047,0.006000,-0.014000,1.006000,192.000000,0.000000,0.000000,0.000000,0.000000,0.000000,0.000000,0.000000,0.000000,0.000000,1772182970.729847,0.000000
116.000000,-778.131280,1852.981967,-823.930004,2457.350785,-26109.340919,-21132.121519,-5198.971057,-3626.972869,827.193359,140.503066,-18470.408734,1595.892202,-14285.178695,-5129.233614,-5812.593497,-2417.162349,0.006000,-0.014000,1.006000,192.000000,0.000000,0.000000,0.000000,0.000000,0.000000,0.000000,0.000000,0.000000,0.000000,1772182970.729857,0.000000
118.000000,-813.581146,1814.693429,-861.860914,2411.954392,-26149.663466,-21176.422677,-5239.695935,-3664.143820,845.119458,157.468040,-18452.884966,1612.119569,-14264.548035,-5110.838128,-5800.121224,-2419.285765,0.006000,-0.014000,1.006000,192.000000,0.000000,0.000000,0.000000,0.000000,0.000000,0.000000,0.000000,0.000000,0.000000,1772182970.729868,0.000000
120.000000,-795.297419,1832.865397,-837.631623,2432.495646,-26140.923934,-21164.688011,-5219.333496,-3644.653099,814.206995,120.073571,-18488.379537,1574.255714,-14303.730643,-5144.142228,-5849.719745,-2465.911504,0.006000,-0.014000,1.006000,192.000000,0.000000,0.000000,0.000000,0.000000,0.000000,0.000000,0.000000,0.000000,0.000000,1772182970.729880,0.000000
122.000000,-783.227477,1845.002394,-828.757981,2447.985404,-26135.715978,-21156.306107,-5204.715455,-3630.951480,869.169935,173.807165,-18429.639152,1629.062191,-14249.974698,-5099.215221,-5803.719855,-2411.037971,0.010000,-0.008000,1.012000,192.000000,0.000000,40.000000,127.500000,96.000000,15.500000,80.000000,0.000000,0.000000,0.000000,1772182970.729895,0.000000
124.000000,-831.149618,1795.225059,-876.546011,2406.947602,-26173.356315,-21198.170924,-5250.938863,-3678.672454,822.410085,129.818932,-18478.075382,1582.235287,-14301.607228,-5140.789466,-5846.679908,-2445.616120,0.010000,-0.008000,1.012000,192.000000,0.000000,0.000000,0.000000,0.000000,0.000000,0.000000,0.000000,0.000000,0.000000,1772182970.729906,0.000000
126.000000,-780.344102,1854.725403,-822.432437,2467.811402,-26115.755870,-21132.367388,-5197.875821,-3628.492788,826.120475,146.828609,-18466.161903,1595.512223,-14284.686957,-5118.951812,-5824.171701,-2413.496663,0.010000,-0.008000,1.012000,192.000000,0.000000,0.000000,0.000000,0.000000,0.000000,0.000000,0.000000,0.000000,0.000000,1772182970.729917,0.000000
128.000000,-818.118551,1812.860586,-861.927970,2429.120532,-26147.540050,-21166.923185,-5240.657060,-3667.071899,845.320624,166.632255,-18454.538996,1612.879528,-14266.045602,-5102.120948,-5804.077483,-2391.279029,0.010000,-0.008000,1.012000,192.000000,0.000000,0.000000,0.000000,0.000000,0.000000,0.000000,0.000000,0.000000,0.000000,1772182970.729928,0.000000
130.000000,-798.516071,1832.060734,-844.046574,2445.414954,-26132.430271,-21151.589889,-5226.396647,-3649.078745,811.927117,122.040525,-18493.095755,1571.886429,-14303.194201,-5134.307460,-5841.606062,-2427.198282,0.010000,-0.008000,1.012000,192.000000,0.000000,0.000000,0.000000,0.000000,0.000000,0.000000,0.000000,0.000000,0.000000,1772182970.729939,0.000000
132.000000,-787.027274,1844.533008,-832.758943,2454.713280,-26124.540105,-21141.911583,-5212.762083,-3634.594814,864.632531,177.808127,-18436.121158,1624.457732,-14249.661773,-5089.067529,-5787.693654,-2379.656122,0.010000,-0.008000,1.014000,192.000000,0.000000,40.000000,127.500000,96.000000,15.500000,88.000000,0.000000,0.000000,0.000000,1772182970.729950,0.000000
134.000000,-828.489760,1799.248373,-876.434252,2406.746436,-26167.298993,-21191.264235,-5255.140991,-3675.073823,819.191434,133.574025,-18477.538941,1581.050644,-14298.880315,-5132.362858,-5828.329125,-2431.467465,0.010000,-0.008000,1.014000,192.000000,0.000000,0.000000,0.000000,0.000000,0.000000,0.000000,0.000000,0.000000,0.000000,1772182970.729961,0.000000
136.000000,-775.538477,1856.245322,-823.214748,2460.100050,-26116.024091,-21137.284772,-5203.195537,-3621.943727,832.960109,149.756688,-18467.167731,1596.830976,-14283.211742,-5122.483387,-5814.091064,-2422.258547,0.010000,-0.008000,1.014000,192.000000,0.000000,0.000000,0.000000,0.000000,0.000000,0.000000,0.000000,0.000000,0.000000,1772182970.729971,0.000000
138.000000,-811.860062,1812.480606,-863.716109,2411.261488,-26159.855862,-21187.531494,-5245.999127,-3662.825067,856.675310,160.306711,-18450.247461,1607.939793,-14269.219550,-5108.044160,-5798.869526,-2422.079733,0.010000,-0.008000,1.014000,192.000000,0.000000,0.000000,0.000000,0.000000,0.000000,0.000000,0.000000,0.000000,0.000000,1772182970.729982,0.000000
140.000000,-796.415007,1830.607871,-847.846371,2431.221596,-26137.973504,-21167.638441,-5228.587118,-3646.374183,808.037914,115.603222,-18488.468944,1565.382071,-14313.520707,-5139.738934,-5842.343669,-2474.002835,0.010000,-0.008000,1.014000,192.000000,0.000000,0.000000,0.000000,0.000000,0.000000,0.000000,0.000000,0.000000,0.000000,1772182970.729993,0.000000
142.000000,-780.478213,1848.310452,-829.450885,2453.595692,-26123.467222,-21147.164243,-5210.146929,-3626.928166,868.186458,178.635142,-18432.276658,1628.235177,-14251.338154,-5085.200678,-5792.611038,-2411.932041,0.010000,-0.012000,1.013000,192.000000,0.000000,40.000000,127.500000,64.000000,15.500000,80.000000,0.000000,0.000000,0.000000,1772182970.730004,0.000000
144.000000,-824.757019,1801.192975,-873.416766,2412.669648,-26166.583737,-21190.392517,-5251.967043,-3670.603474,824.578205,135.451571,-18476.913092,1591.175984,-14291.370129,-5136.252062,-5840.823751,-2449.192399,0.010000,-0.012000,1.013000,192.000000,0.000000,0.000000,0.000000,0.000000,0.000000,0.000000,0.000000,0.000000,0.000000,1772182970.730014,0.000000
146.000000,-780.299399,1850.590330,-821.851292,2468.124326,-26120.807364,-21137.530641,-5199.574554,-3624.447122,838.928025,145.800429,-18466.854807,1599.043798,-14283.099983,-5122.751608,-5826.943317,-2424.091390,0.010000,-0.012000,1.013000,192.000000,0.000000,0.000000,0.000000,0.000000,0.000000,0.000000,0.000000,0.000000,0.000000,1772182970.730025,0.000000
148.000000,-824.958184,1802.064693,-863.917275,2423.823169,-26172.596356,-21183.709345,-5242.624014,-3668.547114,842.593711,153.064746,-18456.260080,1607.358647,-14279.523704,-5119.912937,-5813.867547,-2400.465596,0.010000,-0.012000,1.013000,192.000000,0.000000,0.000000,0.000000,0.000000,0.000000,0.000000,0.000000,0.000000,0.000000,1772182970.730036,0.000000
150.000000,-814.497568,1816.548624,-854.015452,2437.971823,-26160.235841,-21165.157397,-5231.291679,-3659.002919,794.783329,109.232975,-18499.331891,1564.912685,-14326.909402,-5158.357937,-5854.212446,-2431.467465,0.010000,-0.012000,1.013000,192.000000,0.000000,0.000000,0.000000,0.000000,0.000000,0.000000,0.000000,0.000000,0.000000,1772182970.730047,0.000000
152.000000,-804.662800,1824.841121,-842.146676,2453.640396,-26141.303914,-21148.594755,-5219.020572,-3647.692936,845.812362,161.290188,-18451.700324,1615.002944,-14273.108753,-5104.132605,-5795.449709,-2368.346139,0.011000,-0.011000,1.012500,192.000000,0.000000,48.000000,127.500000,88.000000,15.500000,80.000000,0.000000,0.000000,0.000000,1772182970.730057,0.000000
154.000000,-834.167103,1791.000580,-882.670389,2410.635640,-26172.931632,-21192.001842,-5260.773630,-3687.747262,801.935888,123.985126,-18491.531133,1572.780499,-14316.001751,-5139.157789,-5829.156140,-2405.651200,0.011000,-0.011000,1.012500,192.000000,0.000000,0.000000,0.000000,0.000000,0.000000,0.000000,0.000000,0.000000,0.000000,1772182970.730069,0.000000
156.000000,-786.803757,1844.577711,-827.640394,2462.938722,-26117.633416,-21137.888269,-5206.883574,-3635.399477,828.623870,139.877217,-18473.828551,1585.520993,-14296.287512,-5118.348315,-5809.978343,-2393.894183,0.011000,-0.011000,1.012500,192.000000,0.000000,0.000000,0.000000,0.000000,0.000000,0.000000,0.000000,0.000000,0.000000,1772182970.730080,0.000000
158.000000,-825.293461,1802.847004,-870.645150,2419.352820,-26166.047295,-21183.597587,-5246.401459,-3672.168097,838.928025,155.255217,-18457.064743,1603.715313,-14282.384727,-5111.978067,-5799.137747,-2384.484098,0.011000,-0.011000,1.012500,192.000000,0.000000,0.000000,0.000000,0.000000,0.000000,0.000000,0.000000,0.000000,0.000000,1772182970.730090,0.000000
160.000000,-809.177853,1819.744923,-855.848295,2436.608367,-26154.536146,-21169.761857,-5229.928223,-3656.723041,795.833861,112.921013,-18497.633159,1566.857286,-14323.757806,-5154.468734,-5844.422381,-2439.201169,0.011000,-0.011000,1.012500,192.000000,0.000000,0.000000,0.000000,0.000000,0.000000,0.000000,0.000000,0.000000,0.000000,1772182970.730101,0.000000
162.000000,-794.112777,1836.709897,-838.011603,2454.825038,-26140.298085,-21155.948479,-5214.058484,-3641.456800,852.137906,170.208534,-18442.804330,1625.441209,-14260.859997,-5104.065550,-5795.293247,-2394.810604,0.011500,-0.009500,1.011250,192.000000,0.000000,48.000000,127.500000,96.000000,15.500000,72.000000,0.000000,0.000000,0.000000,1772182970.730112,0.000000
164.000000,-839.665632,1785.613809,-875.361368,2407.953430,-26179.659507,-21194.840514,-5256.482095,-3687.859021,814.721085,129.863635,-18482.925711,1580.961237,-14309.430338,-5129.054800,-5836.442809,-2441.905730,0.011500,-0.009500,1.011250,192.000000,0.000000,0.000000,0.000000,0.000000,0.000000,0.000000,0.000000,0.000000,0.000000,1772182970.730122,0.000000
166.000000,-786.937867,1843.817752,-819.146731,2461.865838,-26124.763623,-21143.543261,-5201.675618,-3632.761971,824.689963,140.883045,-18467.927690,1586.415063,-14287.525629,-5120.069399,-5823.858777,-2431.020430,0.011500,-0.009500,1.011250,192.000000,0.000000,0.000000,0.000000,0.000000,0.000000,0.000000,0.000000,0.000000,0.000000,1772182970.730133,0.000000
168.000000,-822.521844,1807.138539,-862.844391,2426.058343,-26167.164882,-21181.831799,-5238.444238,-3663.227399,836.446981,158.250351,-18452.527339,1606.553984,-14281.088326,-5113.855614,-5812.548794,-2413.161387,0.011500,-0.009500,1.011250,192.000000,0.000000,0.000000,0.000000,0.000000,0.000000,0.000000,0.000000,0.000000,0.000000,1772182970.730144,0.000000
170.000000,-811.502434,1822.069505,-852.115554,2444.409125,-26160.012324,-21163.369258,-5226.687220,-3649.950463,795.565640,120.274737,-18492.715775,1574.389824,-14325.881222,-5143.963414,-5854.681832,-2443.671518,0.011500,-0.009500,1.011250,192.000000,0.000000,0.000000,0.000000,0.000000,0.000000,0.000000,0.000000,0.000000,0.000000,1772182970.730155,0.000000
172.000000,-799.745417,1832.485417,-841.364365,2458.893056,-26146.936553,-21148.103016,-5216.003086,-3643.222587,844.314795,174.142441,-18445.218318,1624.413028,-14274.472210,-5086.474727,-5802.110529,-2380.818412,0.008750,-0.010750,1.012625,192.000000,0.000000,24.000000,127.500000,80.000000,15.500000,88.000000,0.000000,0.000000,0.000000,1772182970.730165,0.000000
174.000000,-843.621891,1784.607981,-886.023150,2408.065189,-26185.068629,-21192.851209,-5259.611340,-3688.954257,803.142882,126.957909,-18493.453383,1575.082728,-14316.851117,-5135.492103,-5839.817922,-2416.022410,0.008750,-0.010750,1.012625,192.000000,0.000000,0.000000,0.000000,0.000000,0.000000,0.000000,0.000000,0.000000,0.000000,1772182970.730176,0.000000
176.000000,-795.990324,1839.727383,-831.998984,2464.659806,-26128.585771,-21132.076816,-5208.314086,-3634.214834,817.783274,137.463228,-18478.947101,1583.911667,-14298.455632,-5121.946945,-5821.243622,-2397.939849,0.008750,-0.010750,1.012625,192.000000,0.000000,0.000000,0.000000,0.000000,0.000000,0.000000,0.000000,0.000000,0.000000,1772182970.730187,0.000000
178.000000,-837.363403,1794.576859,-869.460508,2422.683230,-26159.855862,-21174.008688,-5249.664813,-3672.101041,832.133094,153.511781,-18464.843150,1601.748359,-14285.983358,-5104.847861,-5800.389445,-2381.176040,0.008750,-0.010750,1.012625,192.000000,0.000000,0.000000,0.000000,0.000000,0.000000,0.000000,0.000000,0.000000,0.000000,1772182970.730197,0.000000
180.000000,-821.203091,1812.659420,-853.836638,2439.804666,-26140.856879,-21162.609299,-5236.633746,-3657.885332,788.457786,106.640173,-18503.556371,1559.302397,-14325.389484,-5143.628138,-5835.772256,-2428.718201,0.008750,-0.010750,1.012625,192.000000,0.000000,0.000000,0.000000,0.000000,0.000000,0.000000,0.000000,0.000000,0.000000,1772182970.730208,0.000000
182.000000,-801.757074,1831.658403,-835.396449,2453.059250,-26132.094995,-21153.445083,-5219.735827,-3642.194407,844.515961,171.013197,-18446.782940,1618.288650,-14267.699631,-5099.371684,-5784.139727,-2383.567677,0.010375,-0.010375,1.016312,192.000000,0.000000,48.000000,127.500000,88.000000,15.500000,112.000000,0.000000,0.000000,0.000000,1772182970.730218,0.000000
184.000000,-844.828885,1783.423338,-884.480880,2403.796006,-26185.582720,-21201.188409,-5261.712404,-3685.512088,805.959202,125.393286,-18489.363013,1572.802850,-14311.889030,-5144.209283,-5832.754771,-2438.597672,0.010375,-0.010375,1.016312,192.000000,0.000000,0.000000,0.000000,0.000000,0.000000,0.000000,0.000000,0.000000,0.000000,1772182970.730239,0.000000
186.000000,-795.275068,1838.676851,-828.847388,2461.709376,-26137.146489,-21151.612240,-5204.067255,-3626.279965,815.548100,133.909301,-18478.410659,1586.772691,-14304.043568,-5133.435742,-5829.491416,-2431.914500,0.010375,-0.010375,1.016312,192.000000,0.000000,0.000000,0.000000,0.000000,0.000000,0.000000,0.000000,0.000000,0.000000,1772182970.730252,0.000000
188.000000,-836.938719,1795.202708,-869.527563,2420.135131,-26183.615766,-21195.622825,-5243.942767,-3664.657910,825.673440,150.561351,-18459.188158,1610.264374,-14293.337082,-5109.094692,-5815.208651,-2420.559814,0.010375,-0.010375,1.016312,192.000000,0.000000,0.000000,0.000000,0.000000,0.000000,0.000000,0.000000,0.000000,0.000000,1772182970.730263,0.000000
190.000000,-823.818245,1810.625411,-857.457621,2433.277957,-26163.476844,-21180.200121,-5234.599737,-3655.963082,779.673550,104.807330,-18507.691444,1563.303359,-14332.944373,-5161.129553,-5858.906312,-2465.218599,0.010375,-0.010375,1.016312,192.000000,0.000000,0.000000,0.000000,0.000000,0.000000,0.000000,0.000000,0.000000,0.000000,1772182970.730273,0.000000
192.000000,-805.489815,1826.629260,-840.045612,2453.550989,-26146.735388,-21158.317764,-5217.590060,-3638.796942,838.436286,162.966569,-18454.270775,1618.154540,-14281.133030,-5102.366817,-5801.171756,-2405.673552,0.007188,-0.012188,1.015156,192.000000,0.000000,16.000000,127.500000,72.000000,15.500000,88.000000,0.000000,0.000000,0.000000,1772182970.730284,0.000000
194.000000,-849.276882,1778.103623,-881.575153,2405.271221,-26194.948100,-21204.988206,-5262.025328,-3680.885277,794.269239,116.005554,-18487.351356,1578.167269,-14323.690751,-5149.886626,-5839.214425,-2443.716221,0.007188,-0.012188,1.015156,192.000000,0.000000,0.000000,0.000000,0.000000,0.000000,0.000000,0.000000,0.000000,0.000000,1772182971.209703,0.000000
196.000000,-795.543289,1837.626319,-826.433399,2461.195285,-26138.532297,-21146.985429,-5212.136234,-3629.163340,811.368324,129.617766,-18470.118161,1591.064226,-14310.592629,-5134.508626,-5822.785893,-2428.897015,0.007188,-0.012188,1.015156,192.000000,0.000000,0.000000,0.000000,0.000000,0.000000,0.000000,0.000000,0.000000,0.000000,1772182971.209762,0.000000
198.000000,-839.866798,1790.195917,-871.874496,2424.963108,-26171.054086,-21180.647156,-5253.688127,-3676.303169,826.858083,148.952025,-18461.244519,1606.017543,-14291.861867,-5110.033466,-5803.608096,-2393.625962,0.007188,-0.012188,1.015156,192.000000,0.000000,0.000000,0.000000,0.000000,0.000000,0.000000,0.000000,0.000000,0.000000,1772182971.209806,0.000000
200.000000,-832.848350,1799.874222,-859.648092,2442.822152,-26151.585716,-21162.206967,-5241.998165,-3670.514067,776.700768,104.315591,-18517.928543,1555.144972,-14335.604231,-5154.133457,-5846.903425,-2416.871776,0.007188,-0.012188,1.015156,192.000000,0.000000,0.000000,0.000000,0.000000,0.000000,0.000000,0.000000,0.000000,0.000000,1772182971.209849,0.000000
202.000000,-817.425646,1816.056885,-844.538312,2458.155448,-26142.533260,-21146.091359,-5223.110941,-3653.146762,833.518902,155.836362,-18461.311574,1606.017543,-14280.551884,-5091.436814,-5793.840384,-2352.141124,0.005594,-0.013094,1.013578,192.000000,0.000000,16.000000,127.500000,72.000000,15.500000,80.000000,0.000000,0.000000,0.000000,1772182971.209893,0.000000
204.000000,-851.512057,1777.410719,-888.526546,2409.138073,-26192.847036,-21199.377918,-5265.042813,-3688.194297,792.145823,114.217414,-18497.186124,1573.004016,-14325.814167,-5146.802085,-5834.319393,-2407.193471,0.005594,-0.013094,1.013578,192.000000,0.000000,0.000000,0.000000,0.000000,0.000000,0.000000,0.000000,0.000000,0.000000,1772182971.209938,0.000000
206.000000,-789.195393,1841.694336,-831.149618,2462.558742,-26139.761643,-21150.896984,-5209.543432,-3630.817369,809.155501,135.183350,-18474.834380,1593.522917,-14312.537231,-5133.882777,-5823.232928,-2422.593823,0.005594,-0.013094,1.013578,192.000000,0.000000,0.000000,0.000000,0.000000,0.000000,0.000000,0.000000,0.000000,0.000000,1772182971.209970,0.000000
208.000000,-833.004812,1793.191051,-870.421633,2416.380038,-26185.962699,-21200.003767,-5247.407287,-3672.905704,833.183626,149.622577,-18460.529263,1602.731836,-14288.352643,-5109.586431,-5809.710122,-2427.824131,0.005594,-0.013094,1.013578,192.000000,0.000000,0.000000,0.000000,0.000000,0.000000,0.000000,0.000000,0.000000,0.000000,1772182971.209980,0.000000
210.000000,-829.584995,1799.158966,-857.770545,2428.047648,-26178.921900,-21194.035851,-5238.086610,-3664.635559,779.070053,101.901603,-18507.937313,1552.686280,-14344.299059,-5158.022661,-5858.682794,-2476.506230,0.005594,-0.013094,1.013578,192.000000,0.000000,0.000000,0.000000,0.000000,0.000000,0.000000,0.000000,0.000000,0.000000,1772182971.209992,0.000000
212.000000,-814.095237,1817.442693,-838.168065,2450.108820,-26161.979277,-21176.042697,-5218.908813,-3642.976718,832.021336,150.896627,-18453.399057,1609.191490,-14291.571294,-5121.410504,-5807.430244,-2422.392657,0.005594,-0.013094,1.013578,192.000000,0.000000,0.000000,0.000000,0.000000,0.000000,0.000000,0.000000,0.000000,0.000000,1772182971.210003,0.000000
214.000000,-852.473182,1775.935504,-882.469223,2405.584145,-26204.469944,-21213.504221,-5262.673529,-3687.993132,790.335332,110.708190,-18492.067575,1574.769804,-14327.401141,-5154.804010,-5848.065716,-2449.326509,0.008000,-0.004000,1.008000,192.000000,0.000000,32.000000,127.500000,112.000000,15.500000,64.000000,0.000000,0.000000,0.000000,1772182971.210014,0.000000
216.000000,-797.845518,1832.664231,-824.242929,2463.542219,-26143.852013,-21155.590851,-5207.040037,-3637.098210,807.501472,126.063839,-18479.349432,1582.034121,-14315.822937,-5137.548463,-5834.498207,-2430.372230,0.008000,-0.004000,1.008000,192.000000,0.000000,0.000000,0.000000,0.000000,0.000000,0.000000,0.000000,0.000000,0.000000,1772182971.210026,0.000000
218.000000,-840.783219,1785.412644,-864.386662,2423.957279,-26179.123065,-21191.174828,-5248.904854,-3678.739509,827.595690,142.782944,-18465.625461,1595.601630,-14295.035815,-5112.648620,-5808.860756,-2405.494738,0.008000,-0.004000,1.008000,192.000000,0.000000,0.000000,0.000000,0.000000,0.000000,0.000000,0.000000,0.000000,0.000000,1772182971.210043,0.000000
220.000000,-835.955243,1793.973362,-854.998929,2436.474256,-26169.757684,-21182.234130,-5241.305261,-3671.072861,775.918457,92.916202,-18511.088909,1548.662966,-14340.566318,-5171.947798,-5848.982137,-2443.358593,0.008000,-0.004000,1.008000,192.000000,0.000000,0.000000,0.000000,0.000000,0.000000,0.000000,0.000000,0.000000,0.000000,1772182971.210054,0.000000
222.000000,-810.518957,1817.621507,-834.435324,2457.373137,-26138.912277,-21156.082589,-5223.870900,-3650.352794,834.502379,151.589531,-18457.131798,1603.000057,-14284.195219,-5105.585468,-5790.264105,-2387.948619,0.008000,-0.004000,1.008000,192.000000,0.000000,0.000000,0.000000,0.000000,0.000000,0.000000,0.000000,0.000000,0.000000,1772182971.210065,0.000000
224.000000,-850.774449,1770.079347,-880.234048,2407.349933,-26181.782923,-21204.362357,-5267.322691,-3694.162213,801.980591,112.451626,-18491.687595,1564.286836,-14316.337027,-5146.936196,-5818.628468,-2425.097218,0.004000,-0.008000,1.012000,192.000000,0.000000,16.000000,127.500000,96.000000,15.500000,80.000000,0.000000,0.000000,0.000000,1772182971.210075,0.000000
226.000000,-809.446074,1820.750752,-827.372173,2462.759908,-26132.162050,-21147.790092,-5215.399589,-3647.648233,804.483986,113.032772,-18486.859618,1566.343196,-14315.264143,-5145.058649,-5804.323352,-2413.496663,0.004000,-0.008000,1.012000,192.000000,0.000000,0.000000,0.000000,0.000000,0.000000,0.000000,0.000000,0.000000,0.000000,1772182971.210086,0.000000
228.000000,-835.262339,1790.911173,-867.851182,2429.701678,-26174.406847,-21185.341023,-5252.950520,-3677.621922,823.617080,138.714926,-18469.916996,1591.958295,-14297.896838,-5121.186986,-5791.515802,-2389.647351,0.004000,-0.008000,1.012000,192.000000,0.000000,0.000000,0.000000,0.000000,0.000000,0.000000,0.000000,0.000000,0.000000,1772182971.210097,0.000000
230.000000,-817.380943,1811.407722,-854.931874,2443.917387,-26163.990934,-21169.650098,-5240.433543,-3662.221570,789.128338,105.634344,-18506.462098,1560.174115,-14336.386542,-5151.987690,-5845.562320,-2430.439285,0.004000,-0.008000,1.012000,192.000000,0.000000,0.000000,0.000000,0.000000,0.000000,0.000000,0.000000,0.000000,0.000000,1772182971.210108,0.000000
232.000000,-794.828033,1833.446542,-832.110743,2463.497515,-26150.557536,-21152.774531,-5215.354886,-3637.858169,844.381850,163.413604,-18450.247461,1614.980592,-14276.997957,-5106.524242,-5801.484680,-2377.957389,0.004000,-0.008000,1.012000,192.000000,0.000000,0.000000,0.000000,0.000000,0.000000,0.000000,0.000000,0.000000,0.000000,1772182971.210119,0.000000
234.000000,-839.419763,1786.239658,-874.444947,2416.827073,-26204.738165,-21205.368186,-5259.477229,-3680.259428,803.366399,121.414676,-18486.256121,1576.870868,-14326.998809,-5138.688402,-5844.802361,-2426.617137,0.008000,-0.010000,1.006000,192.000000,0.000000,32.000000,127.500000,88.000000,15.500000,56.000000,0.000000,0.000000,0.000000,1772182971.210130,0.000000
236.000000,-790.022408,1840.107362,-822.343030,2470.650073,-26150.512832,-21157.222528,-5208.448196,-3628.090456,814.877548,132.389382,-18474.499103,1588.158499,-14314.168908,-5137.280242,-5834.654669,-2423.666707,0.008000,-0.010000,1.006000,192.000000,0.000000,0.000000,0.000000,0.000000,0.000000,0.000000,0.000000,0.000000,0.000000,1772182971.210141,0.000000
238.000000,-827.372173,1798.175490,-865.414842,2427.667669,-26182.744048,-21193.007671,-5248.837799,-3667.854210,833.876530,148.214417,-18457.824702,1605.592859,-14294.722890,-5120.650544,-5815.499224,-2406.679381,0.008000,-0.010000,1.006000,192.000000,0.000000,0.000000,0.000000,0.000000,0.000000,0.000000,0.000000,0.000000,0.000000,1772182971.210152,0.000000
240.000000,-817.179777,1806.959725,-850.819153,2436.697774,-26168.327173,-21179.015479,-5240.388839,-3663.093288,791.497623,103.488577,-18503.198743,1560.107059,-14334.620754,-5153.082925,-5851.083201,-2445.258492,0.008000,-0.010000,1.006000,192.000000,0.000000,0.000000,0.000000,0.000000,0.000000,0.000000,0.000000,0.000000,0.000000,1772182971.210163,0.000000
242.000000,-802.695847,1826.137522,-833.563606,2459.787126,-26147.182423,-21154.920298,-5220.518138,-3646.262425,843.465429,155.143458,-18452.236766,1608.655048,-14281.848285,-5109.094692,-5790.532326,-2387.009846,0.008000,-0.010000,1.006000,192.000000,0.000000,0.000000,0.000000,0.000000,0.000000,0.000000,0.000000,0.000000,0.000000,1772182971.210174,0.000000
244.000000,-843.331318,1781.970475,-884.994970,2417.430570,-26193.227016,-21194.706404,-5267.926188,-3688.216649,802.517033,114.955022,-18491.218208,1571.797022,-14327.579955,-5147.673803,-5831.659535,-2416.670611,0.012000,-0.010000,1.002000,192.000000,0.000000,48.000000,127.500000,88.000000,15.500000,40.000000,0.000000,0.000000,0.000000,1772182971.210185,0.000000
246.000000,-787.809585,1843.840104,-832.937757,2473.600504,-26135.715978,-21138.514118,-5217.523005,-3637.768762,816.978612,132.389382,-18484.378574,1584.403406,-14314.414777,-5130.775884,-5823.858777,-2399.705636,0.012000,-0.010000,1.002000,192.000000,0.000000,0.000000,0.000000,0.000000,0.000000,0.000000,0.000000,0.000000,0.000000,1772182971.210196,0.000000
248.000000,-822.812417,1801.885879,-871.248647,2431.199244,-26175.971469,-21177.987299,-5254.962177,-3674.738547,834.278862,154.986996,-18464.284356,1602.418912,-14295.661663,-5106.077207,-5799.830651,-2378.225610,0.012000,-0.010000,1.002000,192.000000,0.000000,0.000000,0.000000,0.000000,0.000000,0.000000,0.000000,0.000000,0.000000,1772182971.210207,0.000000
250.000000,-815.749266,1809.708990,-858.552856,2443.090372,-26172.059914,-21172.645232,-5242.534607,-3660.522838,785.820280,104.762626,-18508.853735,1555.703766,-14340.588670,-5157.061536,-5843.774181,-2428.449980,0.012000,-0.010000,1.002000,192.000000,0.000000,0.000000,0.000000,0.000000,0.000000,0.000000,0.000000,0.000000,0.000000,1772182971.210219,0.000000
252.000000,-788.189565,1838.721554,-830.791990,2464.771565,-26149.797577,-21149.064141,-5218.059447,-3634.103076,849.031013,161.647816,-18445.330077,1612.611307,-14285.312806,-5101.293934,-5793.683922,-2383.053587,0.012000,-0.010000,1.002000,192.000000,0.000000,0.000000,0.000000,0.000000,0.000000,0.000000,0.000000,0.000000,0.000000,1772182971.210230,0.000000
254.000000,-834.010641,1791.045283,-874.757871,2416.245927,-26191.662394,-21193.767630,-5259.857209,-3679.521820,813.983478,128.187254,-18481.137571,1578.569600,-14320.717969,-5133.636908,-5835.504035,-2430.729858,0.014000,-0.006000,1.000000,192.000000,0.000000,56.000000,127.500000,104.000000,15.500000,32.000000,0.000000,0.000000,0.000000,1772182971.210241,0.000000
0.000000,-791.631733,1838.162761,-818.409123,2465.375062,-26141.549783,-21147.745388,-5207.308257,-3632.426695,820.599594,134.088115,-18477.471885,1583.866964,-14308.245696,-5133.011059,-5827.993849,-2427.712372,0.014000,-0.006000,1.000000,192.000000,0.000000,0.000000,0.000000,0.000000,0.000000,0.000000,0.000000,0.000000,0.000000,1772182971.210252,0.000000
2.000000,-825.561681,1799.851871,-857.234103,2425.566605,-26182.520531,-21194.058203,-5246.401459,-3667.965969,836.022298,151.321310,-18454.851920,1602.262450,-14290.185486,-5109.742893,-5809.263087,-2410.635640,0.014000,-0.006000,1.000000,192.000000,0.000000,0.000000,0.000000,0.000000,0.000000,0.000000,0.000000,0.000000,0.000000,1772182971.210263,0.000000
4.000000,-820.532539,1807.183243,-853.501362,2431.758038,-26176.284394,-21184.648119,-5243.875711,-3664.724966,793.308114,106.818987,-18498.884857,1555.994339,-14335.783045,-5160.950739,-5855.732364,-2453.930969,0.014000,-0.006000,1.000000,192.000000,0.000000,0.000000,0.000000,0.000000,0.000000,0.000000,0.000000,0.000000,0.000000,1772182971.210274,0.000000
6.000000,-798.650181,1830.205539,-837.005775,2454.802687,-26152.099806,-21160.351772,-5224.675563,-3647.581178,849.187475,160.262008,-18449.308687,1603.514147,-14280.060146,-5100.466919,-5801.417625,-2400.376189,0.014000,-0.006000,1.000000,192.000000,0.000000,0.000000,0.000000,0.000000,0.000000,0.000000,0.000000,0.000000,0.000000,1772182971.210285,0.000000
8.000000,-842.660766,1781.478737,-884.257362,2408.020485,-26192.355298,-21204.496468,-5269.021424,-3692.374074,808.104969,122.644022,-18491.709947,1565.806754,-14324.495414,-5148.031431,-5835.280518,-2437.457733,0.012000,-0.008000,1.002000,192.000000,0.000000,48.000000,127.500000,96.000000,15.500000,40.000000,0.000000,0.000000,0.000000,1772182971.210296,0.000000
10.000000,-785.663818,1844.957691,-824.935833,2470.404204,-26129.368082,-21139.989333,-5214.416112,-3635.220663,818.565585,127.449647,-18485.138534,1572.221705,-14316.649952,-5134.955661,-5817.488529,-2418.436398,0.012000,-0.008000,1.002000,192.000000,0.000000,0.000000,0.000000,0.000000,0.000000,0.000000,0.000000,0.000000,0.000000,1772182971.210307,0.000000
12.000000,-811.658896,1818.157949,-853.747231,2435.334317,-26159.274716,-21169.672450,-5249.083668,-3665.507277,844.471257,163.972397,-18452.974373,1607.068075,-14284.239922,-5095.638942,-5780.608151,-2389.245020,0.012000,-0.008000,1.002000,192.000000,0.000000,0.000000,0.000000,0.000000,0.000000,0.000000,0.000000,0.000000,0.000000,1772182971.210317,0.000000
14.000000,-795.476233,1828.909138,-843.711298,2446.309024,-26143.874364,-21156.864900,-5244.278043,-3661.662777,808.194376,121.079400,-18495.688557,1563.415118,-14322.751978,-5149.774867,-5823.791721,-2432.920329,0.012000,-0.008000,1.002000,192.000000,0.000000,0.000000,0.000000,0.000000,0.000000,0.000000,0.000000,0.000000,0.000000,1772182971.210328,0.000000
16.000000,-779.539440,1846.410554,-821.583071,2467.677291,-26127.646998,-21140.883403,-5222.887423,-3643.177884,872.835621,179.909191,-18442.625516,1614.242985,-14259.541244,-5082.965503,-5773.835572,-2381.019578,0.012000,-0.008000,1.002000,192.000000,0.000000,0.000000,0.000000,0.000000,0.000000,0.000000,0.000000,0.000000,0.000000,1772182971.210346,0.000000
18.000000,-831.619004,1797.057902,-873.215601,2419.844558,-26182.967565,-21193.208837,-5266.361566,-3684.997998,819.459655,134.266929,-18482.836304,1575.842688,-14306.032873,-5126.551405,-5819.455483,-2425.521901,0.014000,-0.014000,1.002000,192.000000,0.000000,56.000000,127.500000,72.000000,15.500000,40.000000,0.000000,0.000000,0.000000,1772182971.210356,0.000000
20.000000,-781.573448,1855.060679,-820.800760,2476.193306,-26131.133870,-21140.793996,-5212.650324,-3631.152645,816.911556,141.195970,-18477.963624,1587.778519,-14300.467289,-5123.377457,-5824.663439,-2422.683230,0.014000,-0.014000,1.002000,192.000000,0.000000,0.000000,0.000000,0.000000,0.000000,0.000000,0.000000,0.000000,0.000000,1772182971.210368,0.000000
22.000000,-816.933908,1812.927641,-853.881342,2433.970861,-26175.390324,-21184.312842,-5247.809618,-3665.261408,850.148600,171.840211,-18447.878176,1615.002944,-14286.229227,-5104.870213,-5806.424416,-2407.193471,0.014000,-0.014000,1.002000,192.000000,0.000000,0.000000,0.000000,0.000000,0.000000,0.000000,0.000000,0.000000,0.000000,1772182971.210378,0.000000
24.000000,-818.654992,1814.112283,-844.203036,2435.915462,-26172.819873,-21184.916340,-5241.215854,-3663.093288,789.262448,117.011382,-18499.443650,1562.766917,-14335.067789,-5154.356975,-5852.044326,-2461.128230,0.014000,-0.014000,1.002000,192.000000,0.000000,0.000000,0.000000,0.000000,0.000000,0.000000,0.000000,0.000000,0.000000,1772182971.210390,0.000000
26.000000,-803.008771,1827.679792,-832.133094,2456.032032,-26152.032751,-21163.257499,-5223.334458,-3649.861056,847.041708,165.715833,-18446.335905,1610.309078,-14286.452745,-5098.835242,-5794.198012,-2408.042837,0.014000,-0.014000,1.002000,192.000000,0.000000,0.000000,0.000000,0.000000,0.000000,0.000000,0.000000,0.000000,0.000000,1772182971.210402,0.000000
28.000000,-844.806533,1785.859678,-887.520717,2413.183738,-26198.882007,-21207.402194,-5270.630750,-3698.967838,794.090425,120.721772,-18492.872237,1566.097327,-14333.257298,-5148.389059,-5835.593442,-2443.202131,0.014000,-0.011000,1.006000,192.000000,0.000000,56.000000,127.500000,96.000000,15.500000,72.000000,0.000000,0.000000,0.000000,1772182971.210413,0.000000
30.000000,-791.832899,1847.170514,-828.333298,2475.500402,-26140.678065,-21141.173976,-5217.791226,-3643.177884,803.209937,134.937481,-18490.279435,1577.183792,-14324.763635,-5134.821550,-5831.480721,-2426.214805,0.014000,-0.011000,1.006000,192.000000,0.000000,0.000000,0.000000,0.000000,0.000000,0.000000,0.000000,0.000000,0.000000,1772182971.210424,0.000000
32.000000,-813.916423,1820.996621,-852.875513,2443.269186,-26157.240708,-21166.230281,-5250.290662,-3665.060242,838.056307,172.242543,-18457.690592,1613.415970,-14289.917265,-5098.969352,-5802.646971,-2393.983590,0.014000,-0.011000,1.006000,192.000000,0.000000,0.000000,0.000000,0.000000,0.000000,0.000000,0.000000,0.000000,0.000000,1772182971.210435,0.000000
34.000000,-802.114702,1832.127790,-840.313833,2452.411050,-26146.578925,-21152.483958,-5243.272214,-3652.520913,797.510242,130.668298,-18492.514609,1576.423833,-14328.764597,-5123.176291,-5838.521521,-2434.216730,0.014000,-0.011000,1.006000,192.000000,0.000000,0.000000,0.000000,0.000000,0.000000,0.000000,0.000000,0.000000,0.000000,1772182971.210446,0.000000
36.000000,-787.116681,1849.271578,-820.890167,2478.003797,-26127.490536,-21134.289638,-5217.813577,-3634.594814,853.657824,186.145328,-18436.545841,1627.162293,-14271.879407,-5090.475689,-5776.853058,-2382.584200,0.014000,-0.011000,1.006000,192.000000,0.000000,0.000000,0.000000,0.000000,0.000000,0.000000,0.000000,0.000000,0.000000,1772182971.210456,0.000000
38.000000,-838.011603,1796.074426,-877.998874,2429.411105,-26185.068629,-21190.258406,-5264.215799,-3686.540268,805.981553,143.609958,-18484.915016,1586.437414,-14319.041588,-5125.098541,-5822.070637,-2428.449980,0.011000,-0.010500,1.007000,192.000000,0.000000,32.000000,127.500000,88.000000,15.500000,64.000000,0.000000,0.000000,0.000000,1772182971.210467,0.000000
40.000000,-790.201222,1846.611720,-822.119513,2477.579114,-26138.711111,-21144.683199,-5211.845662,-3636.740582,811.994173,148.706156,-18480.131743,1591.108929,-14315.264143,-5118.325963,-5822.227099,-2428.472332,0.011000,-0.010500,1.007000,192.000000,0.000000,0.000000,0.000000,0.000000,0.000000,0.000000,0.000000,0.000000,0.000000,1772182971.210478,0.000000
42.000000,-823.617080,1809.239603,-858.061118,2434.395544,-26176.485560,-21189.632558,-5248.435467,-3671.363434,832.423667,169.381519,-18453.354353,1612.991287,-14293.828820,-5096.778881,-5804.748035,-2411.507358,0.011000,-0.010500,1.007000,192.000000,0.000000,0.000000,0.000000,0.000000,0.000000,0.000000,0.000000,0.000000,0.000000,1772182971.210489,0.000000
44.000000,-822.588899,1811.854757,-853.188438,2434.797875,-26181.738219,-21191.711270,-5246.200293,-3670.782288,783.674512,113.993897,-18503.288150,1562.342234,-14340.231042,-5152.479428,-5851.999623,-2464.033957,0.011000,-0.010500,1.007000,192.000000,0.000000,0.000000,0.000000,0.000000,0.000000,0.000000,0.000000,0.000000,0.000000,1772182971.210500,0.000000
46.000000,-803.835786,1833.625356,-830.724934,2459.384794,-26160.414655,-21161.737581,-5222.440388,-3648.296433,830.367307,166.386386,-18454.449589,1610.242022,-14295.482850,-5106.993628,-5804.323352,-2410.725046,0.011000,-0.010500,1.007000,192.000000,0.000000,0.000000,0.000000,0.000000,0.000000,0.000000,0.000000,0.000000,0.000000,1772182971.210512,0.000000
48.000000,-848.673385,1783.669208,-878.110633,2417.028238,-26201.407755,-21201.635444,-5266.875656,-3692.396425,794.537460,132.009403,-18491.777002,1571.126470,-14330.105702,-5143.046992,-5837.381582,-2435.803704,0.008500,-0.011250,1.003500,192.000000,0.000000,24.000000,127.500000,80.000000,15.500000,32.000000,0.000000,0.000000,0.000000,1772182971.210522,0.000000
50.000000,-796.683228,1841.671984,-821.940699,2479.054329,-26140.968638,-21140.257554,-5213.633801,-3636.114733,801.265335,143.408792,-18482.366917,1583.308170,-14323.668399,-5121.186986,-5826.965669,-2425.588957,0.008500,-0.011250,1.003500,192.000000,0.000000,0.000000,0.000000,0.000000,0.000000,0.000000,0.000000,0.000000,0.000000,1772182971.210533,0.000000
52.000000,-825.136998,1809.731342,-858.239932,2443.358593,-26167.835434,-21172.198197,-5250.558883,-3669.128259,827.036897,167.213400,-18458.450551,1610.353781,-14297.986245,-5097.963524,-5798.221326,-2393.089520,0.008500,-0.011250,1.003500,192.000000,0.000000,0.000000,0.000000,0.000000,0.000000,0.000000,0.000000,0.000000,0.000000,1772182971.210544,0.000000
54.000000,-813.089408,1824.841121,-845.544141,2449.326509,-26157.620687,-21164.285679,-5241.081743,-3656.320710,787.317847,127.203778,-18502.259970,1573.272237,-14337.861757,-5138.844864,-5837.940376,-2439.871721,0.008500,-0.011250,1.003500,192.000000,0.000000,0.000000,0.000000,0.000000,0.000000,0.000000,0.000000,0.000000,0.000000,1772182971.210555,0.000000
56.000000,-777.796004,1858.346386,-811.010696,2475.835678,-26124.294236,-21137.061255,-5211.376275,-3624.916509,848.941606,188.604020,-18437.931649,1635.343031,-14268.839570,-5076.483497,-5776.473078,-2388.619171,0.008500,-0.011250,1.003500,192.000000,0.000000,0.000000,0.000000,0.000000,0.000000,0.000000,0.000000,0.000000,0.000000,1772182971.210566,0.000000
58.000000,-822.164216,1809.060789,-858.105821,2425.991288,-26166.293164,-21183.798752,-5259.723098,-3673.173925,818.185606,157.646854,-18467.637118,1602.105987,-14304.378844,-5113.810910,-5808.592535,-2426.728896,0.009250,-0.013625,1.004750,192.000000,0.000000,40.000000,127.500000,64.000000,15.500000,56.000000,0.000000,0.000000,0.000000,1772182971.690531,0.000000
60.000000,-781.573448,1854.300720,-807.613231,2479.099033,-26123.713091,-21136.301295,-5209.185804,-3626.861111,823.818245,150.851923,-18464.239653,1596.808624,-14301.249600,-5114.347352,-5806.379712,-2425.678364,0.009250,-0.013625,1.004750,192.000000,0.000000,0.000000,0.000000,0.000000,0.000000,0.000000,0.000000,0.000000,0.000000,1772182971.690612,0.000000
62.000000,-820.644298,1811.966516,-851.556760,2439.514093,-26171.590527,-21178.791962,-5247.228473,-3665.172001,834.994118,170.096775,-18447.520548,1616.701676,-14287.995015,-5097.360027,-5791.940485,-2405.226517,0.009250,-0.013625,1.004750,192.000000,0.000000,0.000000,0.000000,0.000000,0.000000,0.000000,0.000000,0.000000,0.000000,1772182971.690660,0.000000
64.000000,-817.135074,1813.799359,-847.242874,2441.861027,-26172.775170,-21178.680203,-5245.708554,-3663.450916,787.809585,117.346658,-18497.879028,1568.243094,-14338.889937,-5144.656318,-5847.171646,-2455.115611,0.009250,-0.013625,1.004750,192.000000,0.000000,0.000000,0.000000,0.000000,0.000000,0.000000,0.000000,0.000000,0.000000,1772182971.690715,0.000000
66.000000,-790.536498,1842.968386,-824.198225,2466.403242,-26153.105635,-21155.210871,-5223.043886,-3639.422791,841.587882,175.394139,-18443.385475,1622.557833,-14286.318634,-5098.701131,-5796.343779,-2402.454901,0.009250,-0.013625,1.004750,192.000000,0.000000,0.000000,0.000000,0.000000,0.000000,0.000000,0.000000,0.000000,0.000000,1772182971.690769,0.000000
68.000000,-822.790065,1803.584612,-870.645150,2419.889262,-26196.266853,-21203.714157,-5268.864962,-3682.136975,817.269184,142.179446,-18478.298900,1588.136147,-14318.572202,-5128.920690,-5831.257204,-2438.485913,0.009625,-0.016813,1.004375,192.000000,0.000000,40.000000,127.500000,48.000000,15.500000,48.000000,0.000000,0.000000,0.000000,1772182971.690795,0.000000
70.000000,-804.796911,1834.295909,-820.264318,2472.684082,-26148.791748,-21151.813406,-5219.400551,-3639.623957,806.987382,139.787810,-18477.091906,1586.705635,-14318.505146,-5127.557233,-5824.886957,-2433.568529,0.009625,-0.016813,1.004375,192.000000,0.000000,0.000000,0.000000,0.000000,0.000000,0.000000,0.000000,0.000000,0.000000,1772182971.690820,0.000000
72.000000,-830.277900,1802.668190,-853.926045,2434.104971,-26178.161940,-21184.648119,-5254.895121,-3675.587913,825.271109,162.139554,-18458.182330,1606.241060,-14297.203934,-5103.819681,-5799.540079,-2401.739645,0.009625,-0.016813,1.004375,192.000000,0.000000,0.000000,0.000000,0.000000,0.000000,0.000000,0.000000,0.000000,0.000000,1772182971.690844,0.000000
74.000000,-840.425592,1799.293077,-848.919254,2437.614195,-26167.857786,-21172.891101,-5251.765877,-3672.749242,762.797983,107.713057,-18508.674921,1554.630882,-14349.350554,-5150.020736,-5843.416553,-2447.627777,0.009625,-0.016813,1.004375,192.000000,0.000000,0.000000,0.000000,0.000000,0.000000,0.000000,0.000000,0.000000,0.000000,1772182971.690870,0.000000
76.000000,-802.695847,1836.978118,-820.510187,2468.526658,-26126.931742,-21132.970885,-5226.486054,-3642.373221,826.031068,173.047206,-18451.253289,1613.259508,-14287.413870,-5094.946038,-5781.837497,-2382.673607,0.009625,-0.016813,1.004375,192.000000,0.000000,0.000000,0.000000,0.000000,0.000000,0.000000,0.000000,0.000000,0.000000,1772182971.690895,0.000000
78.000000,-838.883321,1796.163833,-864.520772,2424.426666,-26167.298993,-21174.165150,-5268.641444,-3680.102966,800.438321,145.107525,-18480.265853,1587.175022,-14313.945390,-5104.244364,-5808.167852,-2412.379076,0.006813,-0.017406,1.003188,192.000000,0.000000,16.000000,127.500000,56.000000,15.500000,40.000000,0.000000,0.000000,0.000000,1772182971.690920,0.000000
80.000000,-784.501527,1855.060679,-804.215766,2480.127213,-26108.603312,-21123.896077,-5212.292697,-3624.380067,812.418856,156.976301,-18471.973356,1598.306191,-14300.467289,-5111.486329,-5797.282552,-2414.860119,0.006813,-0.017406,1.003188,192.000000,0.000000,0.000000,0.000000,0.000000,0.000000,0.000000,0.000000,0.000000,0.000000,1772182971.690945,0.000000
82.000000,-817.537405,1819.208481,-836.603443,2443.895035,-26147.718864,-21165.202101,-5245.865017,-3656.767745,841.409068,184.223078,-18444.480711,1622.826054,-14269.755992,-5092.375588,-5775.064918,-2396.934020,0.006813,-0.017406,1.003188,192.000000,0.000000,0.000000,0.000000,0.000000,0.000000,0.000000,0.000000,0.000000,0.000000,1772182971.690969,0.000000
84.000000,-820.510187,1817.286231,-838.592748,2446.130210,-26155.184347,-21168.018421,-5243.361621,-3656.454820,788.904821,132.679955,-18494.347452,1573.294589,-14314.459481,-5138.666050,-5834.319393,-2446.979576,0.006813,-0.017406,1.003188,192.000000,0.000000,0.000000,0.000000,0.000000,0.000000,0.000000,0.000000,0.000000,0.000000,1772182971.690994,0.000000
86.000000,-798.583126,1842.387240,-819.370248,2470.448908,-26140.968638,-21147.298354,-5217.970040,-3635.779457,839.285653,184.603057,-18443.318420,1624.591842,-14275.366280,-5086.608837,-5791.806375,-2394.855308,0.006813,-0.017406,1.003188,192.000000,0.000000,0.000000,0.000000,0.000000,0.000000,0.000000,0.000000,0.000000,0.000000,1772182971.691019,0.000000
88.000000,-849.321586,1785.211478,-871.293351,2414.927174,-26201.653624,-21201.434279,-5267.076822,-3688.596629,795.096254,140.368955,-18484.803258,1584.313999,-14325.322428,-5128.674821,-5838.610928,-2436.116628,0.004406,-0.015703,1.004594,192.000000,0.000000,8.000000,127.500000,72.000000,15.500000,56.000000,0.000000,0.000000,0.000000,1772182971.691043,0.000000
90.000000,-795.699751,1840.599101,-813.469388,2468.504306,-26147.718864,-21150.807577,-5214.907851,-3636.181788,799.208975,142.201798,-18480.377612,1584.671627,-14317.767539,-5128.451303,-5836.085181,-2437.681250,0.004406,-0.015703,1.004594,192.000000,0.000000,0.000000,0.000000,0.000000,0.000000,0.000000,0.000000,0.000000,0.000000,1772182971.691078,0.000000
92.000000,-836.782257,1797.259068,-850.841504,2433.724992,-26183.682821,-21188.671433,-5252.011746,-3675.342044,819.951394,166.520496,-18453.935498,1608.342124,-14294.678187,-5103.707922,-5807.676114,-2409.003962,0.004406,-0.015703,1.004594,192.000000,0.000000,0.000000,0.000000,0.000000,0.000000,0.000000,0.000000,0.000000,0.000000,1772182971.691102,0.000000
94.000000,-833.094219,1802.869356,-853.680176,2442.486875,-26177.357278,-21178.389630,-5250.760049,-3675.990245,769.347044,113.077475,-18506.484450,1555.390841,-14345.416647,-5146.891492,-5850.524408,-2448.097163,0.004406,-0.015703,1.004594,192.000000,0.000000,0.000000,0.000000,0.000000,0.000000,0.000000,0.000000,0.000000,0.000000,1772182971.691127,0.000000
96.000000,-805.065132,1836.240510,-828.422705,2476.640341,-26139.582829,-21135.384874,-5224.988487,-3648.899931,824.757019,174.500069,-18458.428199,1615.226461,-14289.134954,-5089.916896,-5791.359340,-2387.479232,0.004406,-0.015703,1.004594,192.000000,0.000000,0.000000,0.000000,0.000000,0.000000,0.000000,0.000000,0.000000,0.000000,1772182971.691151,0.000000
98.000000,-840.872626,1793.593382,-871.516868,2426.237157,-26173.512778,-21177.316746,-5270.250770,-3688.015483,794.716274,149.197894,-18490.860580,1588.247906,-14320.270934,-5114.190890,-5812.973477,-2410.903860,0.004406,-0.015703,1.004594,192.000000,0.000000,0.000000,0.000000,0.000000,0.000000,0.000000,0.000000,0.000000,0.000000,1772182971.691176,0.000000
100.000000,-787.764882,1849.718612,-814.274051,2478.294370,-26111.956073,-21125.795975,-5219.467606,-3633.700744,806.428588,152.707118,-18477.516589,1594.059359,-14305.429376,-5124.450341,-5789.034759,-2411.753227,0.008000,-0.008000,1.006000,192.000000,0.000000,32.000000,127.500000,96.000000,15.500000,56.000000,0.000000,0.000000,0.000000,1772182971.691200,0.000000
102.000000,-823.304155,1811.675943,-848.114592,2439.871721,-26159.207661,-21172.488770,-5251.520008,-3664.970835,831.641356,176.645836,-18448.526376,1617.394581,-14283.614073,-5096.980047,-5765.811296,-2392.642485,0.008000,-0.008000,1.006000,192.000000,0.000000,0.000000,0.000000,0.000000,0.000000,0.000000,0.000000,0.000000,0.000000,1772182971.691225,0.000000
104.000000,-820.376077,1816.705086,-844.761830,2443.023317,-26164.840301,-21179.551921,-5247.250825,-3660.612245,780.925248,126.086190,-18497.230827,1572.422871,-14335.894804,-5151.250082,-5832.531253,-2458.222503,0.008000,-0.008000,1.006000,192.000000,0.000000,0.000000,0.000000,0.000000,0.000000,0.000000,0.000000,0.000000,0.000000,1772182971.691250,0.000000
106.000000,-796.079731,1843.594234,-820.510187,2469.800707,-26145.841318,-21156.060237,-5221.971002,-3637.433486,833.317737,183.463118,-18445.844167,1625.575319,-14283.055280,-5093.448471,-5796.276724,-2416.022410,0.008000,-0.008000,1.006000,192.000000,0.000000,0.000000,0.000000,0.000000,0.000000,0.000000,0.000000,0.000000,0.000000,1772182971.691275,0.000000
108.000000,-848.941606,1787.312542,-874.243781,2416.938831,-26202.368880,-21215.202953,-5270.831915,-3687.322579,794.112777,142.738240,-18486.390231,1588.136147,-14323.377827,-5134.083943,-5839.035611,-2450.622910,0.008000,-0.008000,1.006000,192.000000,0.000000,0.000000,0.000000,0.000000,0.000000,0.000000,0.000000,0.000000,0.000000,1772182971.691300,0.000000
110.000000,-801.310039,1839.012127,-822.007754,2471.365329,-26156.994838,-21164.308031,-5217.791226,-3635.935919,783.383940,136.859731,-18482.635138,1584.984551,-14325.680056,-5140.029507,-5840.019088,-2450.309986,0.010000,-0.012000,1.002000,192.000000,0.000000,40.000000,127.500000,80.000000,15.500000,40.000000,0.000000,0.000000,0.000000,1772182971.691324,0.000000
112.000000,-833.764772,1802.377618,-858.150525,2437.614195,-26188.600205,-21190.303110,-5252.391726,-3669.597646,813.491739,164.039453,-18457.824702,1608.610345,-14303.171850,-5095.035445,-5812.839367,-2416.581204,0.010000,-0.012000,1.002000,192.000000,0.000000,0.000000,0.000000,0.000000,0.000000,0.000000,0.000000,0.000000,0.000000,1772182971.691349,0.000000
114.000000,-831.753115,1807.116187,-855.133039,2441.659861,-26181.738219,-21182.614110,-5252.682299,-3668.681224,765.659006,116.139664,-18505.679787,1560.576446,-14350.758714,-5161.755402,-5853.899521,-2454.579169,0.010000,-0.012000,1.002000,192.000000,0.000000,0.000000,0.000000,0.000000,0.000000,0.000000,0.000000,0.000000,0.000000,1772182971.691374,0.000000
116.000000,-807.769693,1833.647708,-828.825036,2471.253570,-26153.552670,-21148.751217,-5226.843682,-3643.177884,819.884338,168.956836,-18453.086132,1613.415970,-14292.934751,-5101.115120,-5795.673227,-2385.579334,0.010000,-0.012000,1.002000,192.000000,0.000000,0.000000,0.000000,0.000000,0.000000,0.000000,0.000000,0.000000,0.000000,1772182971.691398,0.000000
118.000000,-855.133039,1783.199821,-878.132984,2426.952413,-26188.220225,-21186.302148,-5275.525782,-3692.128204,781.573448,132.903473,-18490.771173,1578.726063,-14331.469158,-5131.178216,-5824.372867,-2400.666761,0.010000,-0.012000,1.002000,192.000000,0.000000,0.000000,0.000000,0.000000,0.000000,0.000000,0.000000,0.000000,0.000000,1772182971.691423,0.000000
120.000000,-799.723065,1840.509694,-814.989306,2479.680178,-26122.819021,-21132.903830,-5222.954479,-3639.467494,790.581201,140.279548,-18487.083135,1582.324693,-14317.164042,-5117.431893,-5806.625582,-2402.968991,0.012000,-0.014000,1.008000,192.000000,0.000000,48.000000,127.500000,72.000000,15.500000,64.000000,0.000000,0.000000,0.000000,1772182971.691447,0.000000
122.000000,-823.080638,1810.580708,-837.408106,2441.972785,-26145.707207,-21169.292470,-5253.866941,-3666.133126,832.200150,168.465098,-18452.817911,1611.583127,-14278.249655,-5098.164689,-5760.670395,-2393.022465,0.012000,-0.014000,1.008000,192.000000,0.000000,0.000000,0.000000,0.000000,0.000000,0.000000,0.000000,0.000000,0.000000,1772182971.691475,0.000000
124.000000,-816.598632,1819.499054,-834.748248,2443.291538,-26143.874364,-21171.929976,-5252.168209,-3660.276969,783.898030,124.745086,-18489.899455,1567.036100,-14318.751016,-5145.930367,-5807.631410,-2459.474201,0.012000,-0.014000,1.008000,192.000000,0.000000,0.000000,0.000000,0.000000,0.000000,0.000000,0.000000,0.000000,0.000000,1772182971.691500,0.000000
126.000000,-788.569544,1850.009185,-812.821187,2476.819155,-26125.188306,-21146.963077,-5224.653211,-3633.074896,845.231217,187.486432,-18432.991914,1624.345973,-14261.262329,-5086.675893,-5771.086308,-2410.143901,0.012000,-0.014000,1.008000,192.000000,0.000000,0.000000,0.000000,0.000000,0.000000,0.000000,0.000000,0.000000,0.000000,1772182971.691525,0.000000
128.000000,-844.113629,1789.815937,-866.264208,2423.443189,-26187.192045,-21206.597532,-5273.156497,-3686.495565,805.445111,148.817915,-18473.985013,1588.985513,-14305.563486,-5122.483387,-5823.791721,-2445.303195,0.012000,-0.014000,1.008000,192.000000,0.000000,0.000000,0.000000,0.000000,0.000000,0.000000,0.000000,0.000000,0.000000,1772182971.691544,0.000000
130.000000,-804.573393,1837.089877,-817.135074,2476.752100,-26149.238783,-21154.182691,-5222.127464,-3640.875654,796.929097,140.860694,-18481.003461,1582.950542,-14317.275800,-5129.501835,-5834.431152,-2443.917387,0.010000,-0.012000,1.008000,192.000000,0.000000,40.000000,127.500000,80.000000,15.500000,64.000000,0.000000,0.000000,0.000000,1772182971.691556,0.000000
132.000000,-832.021336,1805.417455,-852.875513,2444.543236,-26185.716830,-21189.274930,-5252.592892,-3668.837687,820.778408,166.811069,-18452.974373,1610.577298,-14291.861867,-5102.947963,-5807.407893,-2413.429608,0.010000,-0.012000,1.008000,192.000000,0.000000,0.000000,0.000000,0.000000,0.000000,0.000000,0.000000,0.000000,0.000000,1772182971.691567,0.000000
134.000000,-830.948452,1806.311525,-851.556760,2444.722050,-26181.224129,-21186.033927,-5253.799886,-3668.435355,770.889315,117.234900,-18501.008272,1562.498696,-14336.520652,-5140.208321,-5854.033632,-2456.791992,0.010000,-0.012000,1.008000,192.000000,0.000000,0.000000,0.000000,0.000000,0.000000,0.000000,0.000000,0.000000,0.000000,1772182971.691579,0.000000
136.000000,-807.412065,1832.552473,-822.007754,2477.824983,-26149.261135,-21150.204080,-5224.988487,-3643.714326,823.214748,172.801336,-18447.364086,1615.405275,-14287.369166,-5097.717654,-5796.567297,-2396.285820,0.010000,-0.012000,1.008000,192.000000,0.000000,0.000000,0.000000,0.000000,0.000000,0.000000,0.000000,0.000000,0.000000,1772182971.691590,0.000000
138.000000,-861.972673,1774.080309,-877.641246,2425.320736,-26196.043336,-21195.667529,-5276.911590,-3701.270068,789.821242,135.004537,-18489.631234,1574.814507,-14328.071693,-5137.526111,-5825.356343,-2415.642430,0.010000,-0.012000,1.008000,192.000000,0.000000,0.000000,0.000000,0.000000,0.000000,0.000000,0.000000,0.000000,0.000000,1772182971.691602,0.000000
140.000000,-808.060266,1833.111266,-821.739533,2482.407091,-26134.687797,-21133.775548,-5223.580327,-3648.296433,776.767823,135.675089,-18492.335795,1571.327635,-14330.999771,-5130.373553,-5821.355381,-2402.656067,0.010000,-0.012000,1.016000,192.000000,0.000000,40.000000,127.500000,80.000000,15.500000,96.000000,0.000000,0.000000,0.000000,1772182971.691612,0.000000
142.000000,-831.842522,1804.165757,-848.941606,2445.303195,-26157.218356,-21161.134083,-5257.644386,-3676.951370,818.744399,169.985017,-18458.294089,1605.101121,-14289.090251,-5096.018922,-5776.137802,-2371.520087,0.010000,-0.012000,1.016000,192.000000,0.000000,0.000000,0.000000,0.000000,0.000000,0.000000,0.000000,0.000000,0.000000,1772182971.691624,0.000000
144.000000,-826.433399,1807.093836,-842.884283,2441.212826,-26144.433158,-21157.960136,-5258.851380,-3677.778384,778.913591,125.236824,-18502.483487,1557.469554,-14327.848176,-5138.420181,-5811.520614,-2434.395544,0.010000,-0.012000,1.016000,192.000000,0.000000,0.000000,0.000000,0.000000,0.000000,0.000000,0.000000,0.000000,0.000000,1772182971.691635,0.000000
146.000000,-802.584088,1833.290080,-811.569489,2467.520829,-26123.400166,-21140.615182,-5230.822293,-3653.593797,834.100048,176.489374,-18450.940365,1603.625906,-14271.007689,-5091.235649,-5753.204912,-2400.689113,0.010000,-0.012000,1.016000,192.000000,0.000000,0.000000,0.000000,0.000000,0.000000,0.000000,0.000000,0.000000,0.000000,1772182971.691646,0.000000
148.000000,-846.348804,1784.138594,-857.904656,2420.805683,-26175.680897,-21197.008633,-5272.664758,-3691.435300,799.968934,139.653699,-18479.684708,1569.986531,-14306.457556,-5116.783692,-5795.516765,-2446.398431,0.010000,-0.012000,1.016000,192.000000,0.000000,0.000000,0.000000,0.000000,0.000000,0.000000,0.000000,0.000000,0.000000,1772182971.691658,0.000000
150.000000,-794.492757,1845.471781,-810.451902,2481.244800,-26135.671274,-21150.025266,-5217.143025,-3631.174997,804.059303,143.766420,-18473.001536,1579.195449,-14306.837536,-5125.210300,-5812.235869,-2451.137000,0.008000,-0.014000,1.016000,192.000000,0.000000,32.000000,127.500000,72.000000,15.500000,96.000000,0.000000,0.000000,0.000000,1772182971.691669,0.000000
152.000000,-825.628737,1811.742999,-845.275920,2446.689003,-26175.926766,-21186.302148,-5251.877636,-3662.601550,835.441153,180.780909,-18446.604126,1619.719162,-14279.926035,-5097.225916,-5795.561468,-2420.850387,0.008000,-0.014000,1.016000,192.000000,0.000000,0.000000,0.000000,0.000000,0.000000,0.000000,0.000000,0.000000,0.000000,1772182971.691680,0.000000
154.000000,-831.775466,1805.238641,-842.705469,2441.548102,-26177.826664,-21190.683090,-5255.520970,-3667.787155,774.420890,127.270833,-18498.191952,1567.594894,-14334.799568,-5148.187893,-5846.523445,-2472.147640,0.008000,-0.014000,1.016000,192.000000,0.000000,0.000000,0.000000,0.000000,0.000000,0.000000,0.000000,0.000000,0.000000,1772182971.691693,0.000000
156.000000,-809.714295,1828.171531,-815.235176,2470.560666,-26153.329152,-21160.597642,-5228.676525,-3644.608396,824.444094,171.370825,-18448.459321,1612.298383,-14283.167038,-5107.351256,-5793.102776,-2411.708523,0.008000,-0.014000,1.016000,192.000000,0.000000,0.000000,0.000000,0.000000,0.000000,0.000000,0.000000,0.000000,0.000000,1772182971.691705,0.000000
158.000000,-859.916313,1777.991864,-872.209772,2425.566605,-26204.425240,-21207.737471,-5273.983511,-3691.278838,785.619114,134.669260,-18484.803258,1579.262504,-14323.020199,-5138.487236,-5830.497245,-2437.636547,0.008000,-0.014000,1.016000,192.000000,0.000000,0.000000,0.000000,0.000000,0.000000,0.000000,0.000000,0.000000,0.000000,1772182971.691716,0.000000
160.000000,-811.502434,1832.127790,-823.147693,2487.503289,-26149.529356,-21139.631705,-5223.200348,-3640.987413,781.349931,138.625519,-18488.826572,1582.883487,-14327.691713,-5132.966355,-5831.927756,-2419.911613,0.008000,-0.010000,1.006000,192.000000,0.000000,32.000000,127.500000,88.000000,15.500000,56.000000,0.000000,0.000000,0.000000,1772182971.691727,0.000000
162.000000,-836.961071,1799.315429,-852.093202,2457.216675,-26174.898586,-21159.949441,-5257.756145,-3673.106870,814.631678,174.611828,-18457.712943,1614.265336,-14293.962931,-5092.800271,-5796.388483,-2369.776651,0.008000,-0.010000,1.006000,192.000000,0.000000,0.000000,0.000000,0.000000,0.000000,0.000000,0.000000,0.000000,0.000000,1772182971.691738,0.000000
164.000000,-832.602481,1804.121054,-850.506228,2457.686062,-26164.370914,-21153.243918,-5259.834857,-3672.726890,773.370358,123.649850,-18504.249275,1561.403461,-14336.297135,-5134.329812,-5835.705201,-2405.405331,0.008000,-0.010000,1.006000,192.000000,0.000000,0.000000,0.000000,0.000000,0.000000,0.000000,0.000000,0.000000,0.000000,1772182971.691750,0.000000
166.000000,-795.632696,1844.197732,-812.240042,2489.514946,-26128.004626,-21123.203173,-5225.793150,-3637.411134,831.663708,187.329970,-18446.648830,1621.864929,-14277.400288,-5080.126832,-5773.388538,-2367.675587,0.008000,-0.010000,1.006000,192.000000,0.000000,0.000000,0.000000,0.000000,0.000000,0.000000,0.000000,0.000000,0.000000,1772182971.691761,0.000000
168.000000,-841.677289,1791.492318,-856.854124,2434.507303,-26175.725600,-21190.392517,-5270.004901,-3682.539306,798.404312,153.668243,-18476.220188,1593.589973,-14307.329274,-5119.734123,-5797.729587,-2429.366401,0.008000,-0.010000,1.006000,192.000000,0.000000,0.000000,0.000000,0.000000,0.000000,0.000000,0.000000,0.000000,0.000000,1772182971.691773,0.000000
170.000000,-791.698789,1846.946996,-804.372228,2486.340998,-26122.327283,-21141.933935,-5217.634763,-3632.069067,801.488853,152.841229,-18472.643909,1592.248868,-14309.005655,-5122.729256,-5801.663494,-2447.761887,0.006000,-0.010000,1.004000,192.000000,0.000000,16.000000,127.500000,88.000000,15.500000,40.000000,0.000000,0.000000,0.000000,1772182971.691784,0.000000
172.000000,-817.693867,1816.526272,-837.721030,2454.959149,-26156.927783,-21177.204988,-5250.156552,-3661.841591,836.558740,184.044264,-18437.954001,1620.188549,-14274.360451,-5089.335750,-5778.484735,-2419.017544,0.006000,-0.010000,1.004000,192.000000,0.000000,0.000000,0.000000,0.000000,0.000000,0.000000,0.000000,0.000000,0.000000,1772182971.691795,0.000000
174.000000,-823.594728,1811.519481,-846.125286,2451.941663,-26171.612879,-21181.697688,-5255.968005,-3667.988320,783.674512,131.271795,-18490.078269,1571.349987,-14325.747112,-5139.135437,-5838.990908,-2468.191381,0.006000,-0.010000,1.004000,192.000000,0.000000,0.000000,0.000000,0.000000,0.000000,0.000000,0.000000,0.000000,0.000000,1772182971.691806,0.000000
176.000000,-805.333353,1834.050040,-819.571414,2478.003797,-26156.324286,-21158.295412,-5228.408304,-3646.754163,825.762847,177.182278,-18447.475844,1618.154540,-14286.162172,-5100.735140,-5795.427358,-2414.748360,0.006000,-0.010000,1.004000,192.000000,0.000000,0.000000,0.000000,0.000000,0.000000,0.000000,0.000000,0.000000,0.000000,1772182971.691822,0.000000
178.000000,-857.278807,1777.343664,-871.382758,2429.478160,-26210.996653,-21213.168944,-5274.654064,-3695.279800,789.016579,140.056031,-18484.691499,1583.263467,-14326.797644,-5131.222919,-5829.357306,-2445.146733,0.006000,-0.010000,1.004000,192.000000,0.000000,0.000000,0.000000,0.000000,0.000000,0.000000,0.000000,0.000000,0.000000,1772182972.171364,0.000000
180.000000,-808.104969,1831.568996,-817.917385,2486.966847,-26152.882117,-21152.238089,-5225.547281,-3644.988375,783.674512,136.077420,-18490.279435,1578.100214,-14332.363228,-5143.426972,-5830.497245,-2438.240044,0.004000,-0.009000,1.003000,192.000000,0.000000,8.000000,127.500000,96.000000,15.500000,40.000000,0.000000,0.000000,0.000000,1772182972.171438,0.000000
182.000000,-826.478103,1810.334839,-847.220522,2461.552913,-26170.361182,-21163.570424,-5257.934959,-3670.782288,816.553928,174.589476,-18453.153187,1611.426665,-14291.683053,-5102.188003,-5789.839421,-2383.098290,0.004000,-0.009000,1.003000,192.000000,0.000000,0.000000,0.000000,0.000000,0.000000,0.000000,0.000000,0.000000,0.000000,1772182972.171492,0.000000
184.000000,-826.075772,1810.536004,-852.651996,2458.267207,-26156.927783,-21150.673467,-5265.579255,-3676.884315,777.684245,131.227092,-18501.902342,1563.012786,-14332.586745,-5138.442533,-5832.151274,-2407.573451,0.004000,-0.009000,1.003000,192.000000,0.000000,0.000000,0.000000,0.000000,0.000000,0.000000,0.000000,0.000000,0.000000,1772182972.171543,0.000000
186.000000,-791.162347,1848.243397,-814.318754,2493.202984,-26115.822925,-21114.687158,-5229.458836,-3638.282852,834.770600,186.994694,-18447.900527,1616.321697,-14275.075707,-5078.182230,-5770.818087,-2338.551264,0.004000,-0.009000,1.003000,192.000000,0.000000,0.000000,0.000000,0.000000,0.000000,0.000000,0.000000,0.000000,0.000000,1772182972.171602,0.000000
188.000000,-839.084487,1794.465100,-862.598522,2434.350840,-26171.322307,-21184.871636,-5276.576314,-3682.673416,807.054437,150.203723,-18474.633214,1589.566659,-14304.065919,-5130.932347,-5795.159137,-2393.558907,0.004000,-0.009000,1.003000,192.000000,0.000000,0.000000,0.000000,0.000000,0.000000,0.000000,0.000000,0.000000,0.000000,1772182972.171653,0.000000
190.000000,-783.003960,1854.099554,-806.383885,2488.084434,-26126.551762,-21146.516043,-5220.808711,-3627.196387,804.931021,146.247464,-18470.833417,1588.672589,-14305.384672,-5135.402696,-5803.429282,-2429.589919,0.007000,-0.008500,1.003500,192.000000,0.000000,40.000000,127.500000,96.000000,15.500000,48.000000,0.000000,0.000000,0.000000,1772182972.171702,0.000000
192.000000,-811.413027,1818.627336,-834.703545,2452.835733,-26163.856824,-21181.988261,-5250.536531,-3657.795925,842.437249,178.746900,-18432.857803,1619.540348,-14271.208855,-5100.668085,-5781.703387,-2420.001020,0.007000,-0.008500,1.003500,192.000000,0.000000,0.000000,0.000000,0.000000,0.000000,0.000000,0.000000,0.000000,0.000000,1772182972.171725,0.000000
194.000000,-817.716219,1813.799359,-835.999946,2447.337204,-26171.590527,-21181.071839,-5256.035060,-3663.830896,785.842632,122.889891,-18484.400926,1563.102193,-14330.329219,-5153.127629,-5837.605099,-2470.068928,0.007000,-0.008500,1.003500,192.000000,0.000000,0.000000,0.000000,0.000000,0.000000,0.000000,0.000000,0.000000,0.000000,1772182972.171747,0.000000
196.000000,-789.843594,1842.923682,-807.993210,2475.992140,-26143.941420,-21153.355676,-5224.206176,-3635.511236,840.179722,172.466060,-18436.858766,1609.102083,-14277.847323,-5102.411521,-5787.358378,-2418.414047,0.007000,-0.008500,1.003500,192.000000,0.000000,0.000000,0.000000,0.000000,0.000000,0.000000,0.000000,0.000000,0.000000,1772182972.171769,0.000000
198.000000,-837.855141,1790.620600,-860.564513,2422.258547,-26197.675013,-21207.581008,-5273.983511,-3683.858059,803.120530,138.402002,-18467.346545,1579.486022,-14311.687864,-5143.203454,-5820.796588,-2448.901826,0.007000,-0.008500,1.003500,192.000000,0.000000,0.000000,0.000000,0.000000,0.000000,0.000000,0.000000,0.000000,0.000000,1772182972.171791,0.000000
200.000000,-792.458748,1841.157894,-808.686114,2480.976579,-26152.591545,-21156.999011,-5221.345153,-3635.354773,798.806643,133.730487,-18471.280452,1579.262504,-14319.689789,-5145.371574,-5829.513768,-2450.868780,0.007500,-0.008250,1.001750,192.000000,0.000000,32.000000,127.500000,96.000000,15.500000,32.000000,0.000000,0.000000,0.000000,1772182972.171813,0.000000
202.000000,-823.147693,1809.373714,-842.303138,2451.271111,-26186.186217,-21185.899816,-5250.335366,-3665.395518,826.791027,165.469964,-18442.379647,1611.247851,-14289.045547,-5106.636000,-5802.892840,-2409.361590,0.007500,-0.008250,1.001750,192.000000,0.000000,0.000000,0.000000,0.000000,0.000000,0.000000,0.000000,0.000000,0.000000,1772182972.171835,0.000000
204.000000,-828.623870,1803.852833,-846.460563,2448.454791,-26183.973394,-21177.137932,-5258.203180,-3671.542248,777.706597,111.736371,-18495.330929,1557.849533,-14340.163987,-5143.471675,-5850.613815,-2443.760925,0.007500,-0.008250,1.001750,192.000000,0.000000,0.000000,0.000000,0.000000,0.000000,0.000000,0.000000,0.000000,0.000000,1772182972.171858,0.000000
206.000000,-801.488853,1835.189979,-814.765789,2487.168013,-26146.243649,-21135.183708,-5229.794112,-3643.311994,827.528635,169.314464,-18447.408789,1610.420836,-14287.436222,-5116.694285,-5789.750015,-2367.496773,0.007500,-0.008250,1.001750,192.000000,0.000000,0.000000,0.000000,0.000000,0.000000,0.000000,0.000000,0.000000,0.000000,1772182972.171880,0.000000
208.000000,-843.130153,1789.391254,-865.437194,2439.715259,-26188.309632,-21183.150552,-5277.403328,-3688.596629,797.286725,139.877217,-18480.914054,1583.352874,-14316.985228,-5136.408524,-5811.185337,-2373.442337,0.007500,-0.008250,1.001750,192.000000,0.000000,0.000000,0.000000,0.000000,0.000000,0.000000,0.000000,0.000000,0.000000,1772182972.171902,0.000000
210.000000,-789.173041,1852.154953,-808.328486,2492.308914,-26129.010454,-21130.892173,-5223.781493,-3635.153608,803.768731,144.191103,-18480.265853,1585.342179,-14314.347722,-5129.814759,-5806.625582,-2385.758148,0.007750,-0.009125,1.003875,192.000000,0.000000,32.000000,127.500000,88.000000,15.500000,56.000000,0.000000,0.000000,0.000000,1772182972.171924,0.000000
212.000000,-822.320679,1812.704124,-836.514036,2457.328434,-26162.180443,-21169.113656,-5253.218741,-3667.518934,831.730763,177.696368,-18446.693533,1614.958240,-14277.288530,-5091.615628,-5765.408965,-2384.506450,0.007750,-0.009125,1.003875,192.000000,0.000000,0.000000,0.000000,0.000000,0.000000,0.000000,0.000000,0.000000,0.000000,1772182972.171947,0.000000
214.000000,-824.533501,1809.753693,-842.012565,2446.979576,-26172.842225,-21191.420697,-5260.527761,-3675.274989,778.935943,117.145493,-18500.158906,1561.425812,-14329.725722,-5155.027527,-5822.428265,-2461.731727,0.007750,-0.009125,1.003875,192.000000,0.000000,0.000000,0.000000,0.000000,0.000000,0.000000,0.000000,0.000000,0.000000,1772182972.171969,0.000000
216.000000,-796.325600,1840.152066,-814.251699,2477.154431,-26150.334019,-21162.922223,-5229.235319,-3644.898968,828.467408,169.448575,-18448.772245,1610.174967,-14284.642253,-5114.928498,-5785.927866,-2426.706544,0.007750,-0.009125,1.003875,192.000000,0.000000,0.000000,0.000000,0.000000,0.000000,0.000000,0.000000,0.000000,0.000000,1772182972.171992,0.000000
218.000000,-845.678251,1785.367940,-866.912409,2421.409180,-26204.157019,-21213.727738,-5277.112755,-3691.614114,797.912574,136.658566,-18478.567121,1578.591952,-14316.940524,-5138.219015,-5824.439922,-2451.204056,0.007750,-0.009125,1.003875,192.000000,0.000000,0.000000,0.000000,0.000000,0.000000,0.000000,0.000000,0.000000,0.000000,1772182972.172016,0.000000
220.000000,-793.263411,1839.839141,-812.441207,2473.734614,-26148.814100,-21157.893080,-5223.468569,-3637.679355,792.346989,126.309708,-18482.277510,1571.662911,-14324.249545,-5151.294786,-5831.212500,-2453.372175,0.007875,-0.009563,1.002937,192.000000,0.000000,32.000000,127.500000,88.000000,15.500000,40.000000,0.000000,0.000000,0.000000,1772182972.172038,0.000000
222.000000,-817.827978,1813.285269,-838.995080,2450.444096,-26177.223167,-21181.675337,-5249.865979,-3662.087460,828.802684,168.599208,-18443.229013,1613.035990,-14287.950312,-5109.005285,-5795.248544,-2410.993267,0.007875,-0.009563,1.002937,192.000000,0.000000,0.000000,0.000000,0.000000,0.000000,0.000000,0.000000,0.000000,0.000000,1772182972.172060,0.000000
224.000000,-825.673440,1807.250298,-846.505266,2452.813381,-26185.336850,-21183.150552,-5258.225531,-3672.257504,778.578315,117.771342,-18494.392156,1564.197429,-14336.408894,-5150.333661,-5843.952995,-2451.204056,0.007875,-0.009563,1.002937,192.000000,0.000000,0.000000,0.000000,0.000000,0.000000,0.000000,0.000000,0.000000,0.000000,1772182972.172082,0.000000
226.000000,-801.153577,1834.139447,-817.850330,2489.559649,-26149.439949,-21144.683199,-5231.381086,-3648.944634,826.701620,168.666264,-18450.560385,1610.309078,-14288.933788,-5093.917858,-5787.537192,-2388.373302,0.007875,-0.009563,1.002937,192.000000,0.000000,0.000000,0.000000,0.000000,0.000000,0.000000,0.000000,0.000000,0.000000,1772182972.172104,0.000000
228.000000,-850.148600,1781.657551,-865.459545,2433.926157,-26190.701269,-21192.314767,-5284.578238,-3699.101949,794.872736,135.630385,-18483.640967,1576.021502,-14322.170832,-5143.337565,-5811.945297,-2411.552061,0.007875,-0.009563,1.002937,192.000000,0.000000,0.000000,0.000000,0.000000,0.000000,0.000000,0.000000,0.000000,0.000000,1772182972.172152,0.000000
230.000000,-800.281858,1835.547606,-808.350838,2487.458585,-26132.832603,-21127.114728,-5234.063296,-3647.692936,790.178870,132.389382,-18480.467019,1569.651254,-14319.488623,-5139.448361,-5806.603230,-2410.255660,0.010937,-0.007781,1.001469,192.000000,0.000000,56.000000,127.500000,104.000000,15.500000,32.000000,0.000000,0.000000,0.000000,1772182972.172174,0.000000
232.000000,-825.941661,1809.060789,-838.995080,2457.887227,-26163.588603,-21155.613203,-5259.343119,-3672.749242,823.639431,168.129822,-18448.772245,1602.620077,-14288.307940,-5095.326018,-5770.281645,-2368.301436,0.010937,-0.007781,1.001469,192.000000,0.000000,0.000000,0.000000,0.000000,0.000000,0.000000,0.000000,0.000000,0.000000,1772182972.172196,0.000000
234.000000,-836.156408,1799.002504,-854.015452,2450.466448,-26186.633252,-21171.661755,-5263.522895,-3680.035911,771.738681,118.441894,-18503.735185,1555.390841,-14340.722780,-5154.468734,-5829.580823,-2425.276032,0.010937,-0.007781,1.001469,192.000000,0.000000,0.000000,0.000000,0.000000,0.000000,0.000000,0.000000,0.000000,0.000000,1772182972.172217,0.000000
236.000000,-805.467463,1831.971327,-827.550987,2484.016417,-26158.313591,-21153.467435,-5230.866996,-3645.502465,814.877548,161.558409,-18459.232862,1603.692961,-14298.299169,-5111.419274,-5792.991017,-2383.411215,0.010937,-0.007781,1.001469,192.000000,0.000000,0.000000,0.000000,0.000000,0.000000,0.000000,0.000000,0.000000,0.000000,1772182972.172240,0.000000
