Sample_index,EXG Channel 0,EXG Channel 1,EXG Channel 2,EXG Channel 3,EXG Channel 4,EXG Channel 5,EXG Channel 6,EXG Channel 7,EXG Channel 8,EXG Channel 9,EXG Channel 10,EXG Channel 11,EXG Channel 12,EXG Channel 13,EXG Channel 14,EXG Channel 15,Accel Channel 0,Accel Channel 1,Accel Channel 2,Not Used,Digital Channel 0 (D11),Digital Channel 1 (D12),Digital Channel 2 (D13),Digital Channel 3 (D17),Not Used,Digital Channel 4 (D18),Analog Channel 0,Analog Channel 1,Analog Channel 2,Timestamp,Marker Channel
90.000000,-845.231217,2082.512031,-1154.847581,2096.258354,-26177.223167,-21276.379678,-5222.239223,-3565.885552,1158.401508,-8.292497,-18291.125392,1782.775138,-14108.309341,-6206.766511,-6415.196528,-3978.454051,0.010000,-0.006000,1.010000,192.000000,0.000000,0.000000,0.000000,0.000000,0.000000,0.000000,0.000000,0.000000,0.000000,1772182556.847509,101.000000
92.000000,-794.716274,2136.536197,-1099.437606,2146.415668,-26126.015321,-21226.937619,-5170.450231,-3514.789464,1204.826081,29.392544,-18254.021496,1815.878071,-14059.895463,-6170.869609,-6383.054719,-3945.462876,0.010000,-0.006000,1.010000,192.000000,0.000000,0.000000,0.000000,0.000000,0.000000,0.000000,0.000000,0.000000,0.000000,1772182556.847565,0.000000
94.000000,-845.320624,2080.232153,-1151.539523,2087.071787,-26170.539995,-21281.498227,-5222.820368,-3564.946778,1198.813462,21.882358,-18259.944708,1810.737170,-14065.393992,-6179.497383,-6386.318074,-3958.940978,0.008000,-0.012000,1.012000,192.000000,0.000000,32.000000,127.500000,80.000000,15.500000,80.000000,0.000000,0.000000,0.000000,1772182556.847607,0.000000
96.000000,-804.059303,2125.516787,-1110.166444,2129.405991,-26129.591600,-21237.666456,-5187.795185,-3528.155807,1169.867953,-7.376076,-18287.191485,1780.584667,-14095.255923,-6209.940459,-6409.765054,-3993.362664,0.008000,-0.012000,1.012000,192.000000,0.000000,0.000000,0.000000,0.000000,0.000000,0.000000,0.000000,0.000000,0.000000,1772182556.847649,0.000000
98.000000,-795.409178,2130.501226,-1111.753417,2136.580901,-26130.217448,-21234.693674,-5184.151850,-3521.986726,1239.650099,61.802573,-18223.556068,1844.644766,-14026.569012,-6141.700583,-6350.510579,-3928.408495,0.008000,-0.012000,1.012000,192.000000,0.000000,0.000000,0.000000,0.000000,0.000000,0.000000,0.000000,0.000000,0.000000,1772182556.847691,0.000000
100.000000,-836.089353,2088.770519,-1147.896188,2109.065903,-26159.252365,-21266.768428,-5212.784435,-3553.368575,1179.546258,5.766750,-18278.139028,1796.812033,-14088.595103,-6192.304932,-6405.138243,-3965.870019,0.008000,-0.012000,1.012000,192.000000,0.000000,0.000000,0.000000,0.000000,0.000000,0.000000,0.000000,0.000000,0.000000,1772182556.847723,0.000000
102.000000,-800.125396,2136.670308,-1096.308362,2163.246532,-26101.718974,-21215.605285,-5162.537713,-3508.128644,1208.134140,36.634509,-18249.953479,1828.350345,-14058.844931,-6158.620853,-6369.755431,-3922.775855,0.008000,-0.012000,1.012000,192.000000,0.000000,0.000000,0.000000,0.000000,0.000000,0.000000,0.000000,0.000000,0.000000,1772182556.847739,0.000000
104.000000,-853.277845,2077.326426,-1149.080831,2101.287496,-26164.728542,-21276.491437,-5217.210080,-3566.176124,1191.593849,32.365326,-18256.189615,1820.281365,-14058.174379,-6167.695662,-6361.597045,-3927.469722,0.010000,-0.010000,1.008000,192.000000,0.000000,40.000000,127.500000,88.000000,15.500000,64.000000,0.000000,0.000000,0.000000,1772182556.847755,0.000000
106.000000,-831.015507,2102.762711,-1118.883624,2131.305889,-26149.708170,-21247.568279,-5185.895286,-3538.728182,1148.790258,-15.780332,-18300.624883,1776.404891,-14103.146088,-6211.370970,-6398.119795,-3968.529876,0.010000,-0.010000,1.008000,192.000000,0.000000,0.000000,0.000000,0.000000,0.000000,0.000000,0.000000,0.000000,0.000000,1772182556.847767,0.000000
108.000000,-833.854179,2098.515880,-1129.947737,2122.029915,-26159.319420,-21248.954087,-5191.550278,-3543.690269,1201.942706,35.606329,-18252.322763,1825.444618,-14054.553396,-6156.139810,-6357.238454,-3913.119902,0.010000,-0.010000,1.008000,192.000000,0.000000,0.000000,0.000000,0.000000,0.000000,0.000000,0.000000,0.000000,0.000000,1772182556.847779,0.000000
110.000000,-850.796801,2074.420699,-1159.273226,2087.138842,-26184.353374,-21275.642070,-5223.647383,-3571.786412,1156.121630,-19.624832,-18299.842572,1772.672149,-14107.661141,-6212.980296,-6417.565813,-3961.734946,0.010000,-0.010000,1.008000,192.000000,0.000000,0.000000,0.000000,0.000000,0.000000,0.000000,0.000000,0.000000,0.000000,1772182556.847790,0.000000
112.000000,-799.790120,2130.143598,-1104.824377,2141.364174,-26126.864687,-21220.902648,-5172.819516,-3521.047952,1194.052541,20.027163,-18263.118656,1807.093836,-14070.467838,-6182.470165,-6384.328769,-3928.833178,0.010000,-0.010000,1.008000,192.000000,0.000000,0.000000,0.000000,0.000000,0.000000,0.000000,0.000000,0.000000,0.000000,1772182556.847802,0.000000
114.000000,-844.761830,2080.567429,-1151.852447,2089.217554,-26164.817949,-21267.550739,-5220.384028,-3566.980787,1193.694913,21.435323,-18264.482112,1805.439807,-14072.233626,-6180.637322,-6382.205353,-3934.085838,0.010000,-0.012000,1.004000,192.000000,0.000000,40.000000,127.500000,80.000000,15.500000,48.000000,0.000000,0.000000,0.000000,1772182556.847815,0.000000
116.000000,-802.897013,2123.907462,-1106.366647,2130.322412,-26125.121251,-21226.155308,-5183.637760,-3527.619365,1170.002064,-3.799797,-18289.046680,1778.930638,-14088.885676,-6204.061950,-6403.931249,-3964.774783,0.010000,-0.012000,1.004000,192.000000,0.000000,0.000000,0.000000,0.000000,0.000000,0.000000,0.000000,0.000000,0.000000,1772182556.847832,0.000000
118.000000,-807.166196,2119.235947,-1111.552252,2130.501226,-26134.486632,-21233.665494,-5184.710644,-3530.413333,1229.949442,53.554780,-18229.412225,1833.379487,-14041.701143,-6148.517865,-6348.320108,-3906.481434,0.010000,-0.012000,1.004000,192.000000,0.000000,0.000000,0.000000,0.000000,0.000000,0.000000,0.000000,0.000000,0.000000,1772182556.847844,0.000000
120.000000,-836.312871,2089.910458,-1145.616310,2100.169909,-26164.214452,-21268.534216,-5215.109016,-3555.223770,1168.146869,-1.184642,-18281.335328,1787.401949,-14098.318112,-6201.603258,-6405.808795,-3958.359833,0.010000,-0.012000,1.004000,192.000000,0.000000,0.000000,0.000000,0.000000,0.000000,0.000000,0.000000,0.000000,0.000000,1772182556.847856,0.000000
122.000000,-785.887335,2145.454543,-1093.693208,2158.083279,-26107.619835,-21218.846288,-5162.358899,-3502.294839,1210.369314,42.580073,-18245.930165,1829.669098,-14054.396934,-6163.940568,-6369.621321,-3929.391972,0.010000,-0.012000,1.004000,192.000000,0.000000,0.000000,0.000000,0.000000,0.000000,0.000000,0.000000,0.000000,0.000000,1772182556.847867,0.000000
124.000000,-843.264263,2084.501336,-1144.923406,2101.488662,-26147.115367,-21272.311660,-5214.483167,-3557.816572,1204.222584,34.600500,-18249.506444,1823.321202,-14055.156893,-6168.366214,-6366.737946,-3943.093591,0.010000,-0.011000,1.006000,192.000000,0.000000,40.000000,127.500000,88.000000,15.500000,64.000000,0.000000,0.000000,0.000000,1772182556.847878,0.000000
126.000000,-821.091333,2108.596517,-1119.598880,2131.976441,-26124.160126,-21241.466253,-5186.319969,-3537.811761,1166.045805,-3.241003,-18290.365433,1784.630333,-14089.623283,-6203.413749,-6393.783557,-3974.117812,0.010000,-0.011000,1.006000,192.000000,0.000000,0.000000,0.000000,0.000000,0.000000,0.000000,0.000000,0.000000,0.000000,1772182556.847890,0.000000
128.000000,-835.396449,2095.096063,-1126.550272,2125.337973,-26149.149376,-21250.362247,-5190.119766,-3545.992499,1205.541337,40.993099,-18252.345115,1826.159874,-14050.015992,-6160.073717,-6350.756449,-3917.120864,0.010000,-0.011000,1.006000,192.000000,0.000000,0.000000,0.000000,0.000000,0.000000,0.000000,0.000000,0.000000,0.000000,1772182556.847901,0.000000
130.000000,-870.734557,2057.031042,-1158.893247,2089.284609,-26185.269795,-21286.572073,-5221.836891,-3578.536639,1142.263549,-20.407143,-18308.559753,1769.341739,-14116.400673,-6220.043447,-6406.658161,-3967.144068,0.010000,-0.011000,1.006000,192.000000,0.000000,0.000000,0.000000,0.000000,0.000000,0.000000,0.000000,0.000000,0.000000,1772182556.847912,0.000000
132.000000,-816.911556,2112.977459,-1105.874909,2142.504113,-26135.961847,-21233.374921,-5172.953626,-3525.875929,1180.909715,13.656916,-18270.271214,1801.505900,-14082.023690,-6186.180554,-6372.035309,-3927.670887,0.010000,-0.011000,1.006000,192.000000,0.000000,0.000000,0.000000,0.000000,0.000000,0.000000,0.000000,0.000000,0.000000,1772182556.847923,0.000000
134.000000,-855.177743,2067.893990,-1157.641549,2088.994037,-26177.737257,-21282.593463,-5223.625031,-3569.350072,1181.043825,12.472273,-18268.751296,1797.795510,-14082.426021,-6188.035749,-6380.148993,-3932.945899,0.009000,-0.012500,1.007000,192.000000,0.000000,32.000000,127.500000,72.000000,15.500000,64.000000,0.000000,0.000000,0.000000,1772182556.847934,0.000000
136.000000,-818.900862,2108.015371,-1116.447284,2125.695601,-26124.987140,-21240.236907,-5187.549315,-3532.335583,1151.897151,-16.205015,-18294.522857,1770.727547,-14106.007112,-6215.260174,-6410.256792,-3964.417155,0.009000,-0.012500,1.007000,192.000000,0.000000,0.000000,0.000000,0.000000,0.000000,0.000000,0.000000,0.000000,0.000000,1772182556.847946,0.000000
138.000000,-806.853271,2120.465293,-1110.881699,2128.578976,-26114.861800,-21227.451709,-5188.063406,-3529.988650,1217.588927,49.620873,-18236.967115,1831.144313,-14043.154006,-6154.306967,-6349.884731,-3913.835158,0.009000,-0.012500,1.007000,192.000000,0.000000,0.000000,0.000000,0.000000,0.000000,0.000000,0.000000,0.000000,0.000000,1772182556.847958,0.000000
140.000000,-826.545158,2098.292362,-1134.976880,2106.383694,-26138.532297,-21248.887032,-5212.247993,-3552.206284,1182.630799,13.902785,-18277.021441,1792.788719,-14079.229722,-6185.621761,-6390.140222,-3963.746603,0.009000,-0.012500,1.007000,192.000000,0.000000,0.000000,0.000000,0.000000,0.000000,0.000000,0.000000,0.000000,0.000000,1772182556.847969,0.000000
142.000000,-785.015617,2144.024032,-1083.366702,2160.765488,-26095.862817,-21213.124241,-5161.464830,-3507.435740,1216.873672,48.704451,-18243.404417,1829.423228,-14040.851777,-6150.149542,-6356.791420,-3937.349193,0.009000,-0.012500,1.007000,192.000000,0.000000,0.000000,0.000000,0.000000,0.000000,0.000000,0.000000,0.000000,0.000000,1772182556.847980,0.000000
144.000000,-834.100048,2089.731644,-1141.525941,2105.623735,-26153.619725,-21278.257224,-5214.237298,-3559.895284,1216.381933,38.847332,-18251.473397,1822.002449,-14046.797341,-6166.756888,-6362.066431,-3953.844780,0.006500,-0.010250,1.006500,192.000000,0.000000,16.000000,127.500000,96.000000,15.500000,56.000000,0.000000,0.000000,0.000000,1772182556.847991,0.000000
146.000000,-820.264318,2115.682020,-1114.256813,2140.604215,-26134.173707,-21244.751959,-5182.900153,-3531.553272,1160.994310,0.692904,-18290.253674,1787.290190,-14093.736004,-6204.777206,-6403.126586,-3983.594952,0.006500,-0.010250,1.006500,192.000000,0.000000,0.000000,0.000000,0.000000,0.000000,0.000000,0.000000,0.000000,0.000000,1772182556.848002,0.000000
148.000000,-830.322603,2103.008581,-1123.912766,2131.171779,-26140.119271,-21249.848157,-5190.455042,-3540.985708,1210.279907,50.716108,-18244.901984,1834.653537,-14044.338649,-6152.898807,-6355.964405,-3928.743771,0.006500,-0.010250,1.006500,192.000000,0.000000,0.000000,0.000000,0.000000,0.000000,0.000000,0.000000,0.000000,0.000000,1772182556.848014,0.000000
150.000000,-861.123307,2071.783194,-1159.630854,2088.859926,-26163.923879,-21277.050230,-5226.620165,-3576.860258,1148.186761,-7.644297,-18300.826049,1777.343664,-14096.306455,-6205.291296,-6402.970124,-3978.990493,0.006500,-0.010250,1.006500,192.000000,0.000000,0.000000,0.000000,0.000000,0.000000,0.000000,0.000000,0.000000,0.000000,1772182556.848025,0.000000
152.000000,-822.678306,2111.591650,-1115.217938,2130.121247,-26130.731539,-21238.024084,-5181.424937,-3540.225749,1184.530697,25.279823,-18271.008822,1801.058865,-14072.479495,-6175.429365,-6368.973120,-3944.255882,0.006500,-0.010250,1.006500,192.000000,0.000000,0.000000,0.000000,0.000000,0.000000,0.000000,0.000000,0.000000,0.000000,1772182556.848036,0.000000
154.000000,-880.234048,2049.364394,-1172.058424,2072.431394,-26189.158999,-21290.729498,-5235.605566,-3595.635724,1161.128421,2.324581,-18289.381956,1781.925771,-14101.827336,-6196.797633,-6384.775804,-3949.374431,0.007250,-0.011125,1.005250,192.000000,0.000000,32.000000,127.500000,80.000000,15.500000,48.000000,0.000000,0.000000,0.000000,1772182556.848047,0.000000
156.000000,-832.736591,2098.448825,-1121.498778,2121.985212,-26139.113443,-21232.927887,-5196.333551,-3550.149924,1135.848598,-21.435323,-18314.639427,1757.517667,-14125.341371,-6217.495348,-6409.139205,-3952.369565,0.007250,-0.011125,1.005250,192.000000,0.000000,0.000000,0.000000,0.000000,0.000000,0.000000,0.000000,0.000000,0.000000,1772182556.848064,0.000000
158.000000,-816.017487,2116.620793,-1107.461883,2130.590633,-26118.192210,-21214.554753,-5190.320932,-3534.950737,1208.245898,48.033899,-18245.796054,1823.052981,-14050.887710,-6143.533426,-6336.317222,-3881.000445,0.007250,-0.011125,1.005250,192.000000,0.000000,0.000000,0.000000,0.000000,0.000000,0.000000,0.000000,0.000000,0.000000,1772182556.848075,0.000000
160.000000,-834.211807,2097.063017,-1132.942871,2107.970668,-26139.985161,-21251.055151,-5212.382103,-3555.335528,1176.260552,14.685096,-18278.720174,1789.882992,-14083.409498,-6182.805441,-6383.010016,-3949.977928,0.007250,-0.011125,1.005250,192.000000,0.000000,0.000000,0.000000,0.000000,0.000000,0.000000,0.000000,0.000000,0.000000,1772182556.848087,0.000000
162.000000,-787.496661,2148.047346,-1083.545516,2165.101727,-26098.969710,-21213.615979,-5160.838981,-3508.240403,1212.805654,49.799687,-18239.895194,1829.445580,-14045.724457,-6151.356536,-6359.138353,-3937.215082,0.007250,-0.011125,1.005250,192.000000,0.000000,0.000000,0.000000,0.000000,0.000000,0.000000,0.000000,0.000000,0.000000,1772182556.848098,0.000000
164.000000,-838.033955,2093.464386,-1137.972014,2108.216537,-26150.177556,-21276.066753,-5212.806787,-3560.744650,1206.524814,45.396393,-18248.992354,1824.215272,-14053.480512,-6158.710260,-6371.789440,-3954.113001,0.006625,-0.013562,1.003625,192.000000,0.000000,24.000000,127.500000,64.000000,15.500000,40.000000,0.000000,0.000000,0.000000,1772182556.848109,0.000000
166.000000,-808.663763,2123.214558,-1101.695132,2135.977404,-26132.653789,-21252.776236,-5177.558086,-3528.044048,1170.784375,8.583070,-18284.151648,1787.133728,-14086.494039,-6194.920086,-6407.909859,-3994.055568,0.006625,-0.013562,1.003625,192.000000,0.000000,0.000000,0.000000,0.000000,0.000000,0.000000,0.000000,0.000000,0.000000,1772182556.848121,0.000000
168.000000,-812.105931,2120.487645,-1111.127569,2131.909386,-26144.902545,-21257.693619,-5180.150888,-3529.653374,1225.143817,55.678195,-18233.100263,1836.866359,-14037.789588,-6153.457600,-6361.418231,-3944.211178,0.006625,-0.013562,1.003625,192.000000,0.000000,0.000000,0.000000,0.000000,0.000000,0.000000,0.000000,0.000000,0.000000,1772182556.848132,0.000000
170.000000,-847.220522,2084.903668,-1153.528828,2098.024142,-26183.168731,-21285.834466,-5216.651287,-3565.237351,1161.351938,1.497567,-18283.190523,1786.999617,-14098.966312,-6200.619781,-6417.901089,-3988.244115,0.006625,-0.013562,1.003625,192.000000,0.000000,0.000000,0.000000,0.000000,0.000000,0.000000,0.000000,0.000000,0.000000,1772182556.848143,0.000000
172.000000,-806.674457,2126.612023,-1106.567813,2144.985157,-26128.608123,-21232.436148,-5172.774812,-3526.345316,1189.939820,28.699640,-18263.610394,1812.480606,-14079.252074,-6181.620798,-6384.574638,-3942.735963,0.006625,-0.013562,1.003625,192.000000,0.000000,0.000000,0.000000,0.000000,0.000000,0.000000,0.000000,0.000000,0.000000,1772182556.848154,0.000000
174.000000,-849.902731,2076.387653,-1154.065270,2086.870621,-26168.058952,-21281.207655,-5223.423865,-3578.290770,1186.072968,20.496550,-18270.561787,1802.735246,-14082.493077,-6182.112537,-6379.590199,-3941.640728,0.006313,-0.012781,1.002813,192.000000,0.000000,24.000000,127.500000,80.000000,15.500000,40.000000,0.000000,0.000000,0.000000,1772182556.848164,0.000000
176.000000,-822.879472,2106.070770,-1112.915708,2123.527482,-26132.251457,-21244.371980,-5190.164470,-3548.361784,1155.249912,-14.685096,-18298.769688,1766.704233,-14111.572696,-6216.176595,-6397.605705,-3971.010920,0.006313,-0.012781,1.002813,192.000000,0.000000,0.000000,0.000000,0.000000,0.000000,0.000000,0.000000,0.000000,0.000000,1772182556.848175,0.000000
178.000000,-827.886263,2100.795758,-1110.233499,2126.142636,-26126.708225,-21239.789872,-5190.946781,-3545.947796,1210.950459,41.127210,-18243.382066,1823.432961,-14051.804131,-6162.063022,-6331.668059,-3910.080065,0.006313,-0.012781,1.002813,192.000000,0.000000,0.000000,0.000000,0.000000,0.000000,0.000000,0.000000,0.000000,0.000000,1772182556.848186,0.000000
180.000000,-856.496496,2072.274932,-1140.654223,2102.181566,-26149.618763,-21254.609079,-5221.658077,-3576.748499,1162.983616,-7.845462,-18296.109831,1778.170678,-14095.255923,-6205.067778,-6374.561056,-3941.417210,0.006313,-0.012781,1.002813,192.000000,0.000000,0.000000,0.000000,0.000000,0.000000,0.000000,0.000000,0.000000,0.000000,1772182556.848198,0.000000
182.000000,-806.316829,2127.439037,-1085.199545,2166.822811,-26094.789934,-21194.751107,-5166.538676,-3524.065438,1194.454872,33.594672,-18263.900967,1813.061751,-14059.247262,-6159.537275,-6343.939167,-3883.168564,0.006313,-0.012781,1.002813,192.000000,0.000000,0.000000,0.000000,0.000000,0.000000,0.000000,0.000000,0.000000,0.000000,1772182556.848209,0.000000
184.000000,-845.767658,2082.512031,-1138.486104,2122.834578,-26148.054141,-21246.987134,-5213.410284,-3566.712566,1196.645343,33.259396,-18261.241110,1814.536967,-14048.764294,-6154.217560,-6357.774896,-3880.441651,0.008156,-0.011391,1.003406,192.000000,0.000000,40.000000,127.500000,88.000000,15.500000,48.000000,0.000000,0.000000,0.000000,1772182556.848221,0.000000
186.000000,-807.054437,2124.957994,-1107.238365,2159.871418,-26122.528448,-21221.841421,-5176.842830,-3530.502740,1170.382043,10.170044,-18287.303244,1792.967533,-14090.584408,-6182.358406,-6400.176156,-3918.260803,0.008156,-0.011391,1.003406,192.000000,0.000000,0.000000,0.000000,0.000000,0.000000,0.000000,0.000000,0.000000,0.000000,1772182556.848232,0.000000
188.000000,-817.649164,2113.983287,-1114.681496,2148.583788,-26132.184402,-21241.801529,-5181.000254,-3533.900205,1224.093285,63.791879,-18236.408321,1848.310452,-14038.035457,-6136.939661,-6354.936225,-3885.984884,0.008156,-0.011391,1.003406,192.000000,0.000000,0.000000,0.000000,0.000000,0.000000,0.000000,0.000000,0.000000,0.000000,1772182556.848243,0.000000
190.000000,-847.824019,2079.069862,-1147.069174,2109.691752,-26174.429199,-21284.426306,-5211.242165,-3563.248046,1163.922389,1.765788,-18288.174962,1795.023894,-14097.669911,-6196.954095,-6412.961353,-3957.108135,0.008156,-0.011391,1.003406,192.000000,0.000000,0.000000,0.000000,0.000000,0.000000,0.000000,0.000000,0.000000,0.000000,1772182556.848254,0.000000
192.000000,-800.572431,2128.489569,-1097.895336,2158.530314,-26127.691701,-21233.129052,-5162.515362,-3518.723371,1201.428616,32.790009,-18252.255708,1824.617603,-14061.482437,-6168.723842,-6381.132469,-3935.851626,0.008156,-0.011391,1.003406,192.000000,0.000000,0.000000,0.000000,0.000000,0.000000,0.000000,0.000000,0.000000,0.000000,1772182556.848266,0.000000
194.000000,-854.618949,2069.927999,-1152.344185,2090.245734,-26176.060876,-21293.478762,-5223.177996,-3578.357825,1189.045750,20.720067,-18262.693973,1809.776045,-14078.223893,-6181.486688,-6383.792327,-3950.849646,0.008156,-0.011391,1.003406,192.000000,0.000000,0.000000,0.000000,0.000000,0.000000,0.000000,0.000000,0.000000,0.000000,1772182556.848277,0.000000
196.000000,-828.020373,2100.482833,-1111.708714,2119.012430,-26133.324341,-21251.815111,-5195.238315,-3552.675671,1152.947682,-20.183625,-18299.373186,1767.821821,-14109.784557,-6219.439950,-6399.595010,-3983.930228,0.012000,-0.010000,1.002000,192.000000,0.000000,48.000000,127.500000,88.000000,15.500000,40.000000,0.000000,0.000000,0.000000,1772182556.848289,0.000000
198.000000,-836.245815,2090.022217,-1118.682458,2112.217499,-26132.430271,-21252.217442,-5205.117787,-3561.079927,1204.647267,30.107800,-18252.456874,1816.347458,-14054.463989,-6167.919179,-6331.109265,-3917.478492,0.012000,-0.010000,1.002000,192.000000,0.000000,0.000000,0.000000,0.000000,0.000000,0.000000,0.000000,0.000000,0.000000,1772182556.848300,0.000000
200.000000,-863.112612,2061.523743,-1155.004043,2087.787043,-26155.318458,-21270.970556,-5236.969022,-3594.741654,1142.241197,-24.341050,-18305.698729,1760.132821,-14110.611571,-6209.985162,-6372.415289,-3947.563940,0.012000,-0.010000,1.002000,192.000000,0.000000,0.000000,0.000000,0.000000,0.000000,0.000000,0.000000,0.000000,0.000000,1772182556.848312,0.000000
202.000000,-810.675420,2121.471121,-1105.159653,2159.022052,-26111.173762,-21208.452726,-5181.112013,-3539.331679,1183.614276,23.268166,-18272.819313,1801.796472,-14076.458106,-6172.836563,-6339.938204,-3885.761367,0.012000,-0.010000,1.002000,192.000000,0.000000,0.000000,0.000000,0.000000,0.000000,0.000000,0.000000,0.000000,0.000000,1772182556.848323,0.000000
204.000000,-854.261321,2072.632560,-1155.942816,2113.379790,-26161.889870,-21252.776236,-5226.731923,-3581.911752,1183.748386,24.028125,-18274.428639,1805.283344,-14076.703975,-6170.981368,-6360.993548,-3875.636026,0.012000,-0.010000,1.002000,192.000000,0.000000,0.000000,0.000000,0.000000,0.000000,0.000000,0.000000,0.000000,0.000000,1772182556.848334,0.000000
206.000000,-814.922251,2116.933717,-1112.647487,2157.792706,-26128.250495,-21218.890991,-5182.475469,-3536.984746,1156.032223,-0.424683,-18299.663758,1783.110414,-14104.576600,-6189.980351,-6400.757301,-3910.728265,0.010000,-0.008000,1.006000,192.000000,0.000000,40.000000,127.500000,96.000000,15.500000,56.000000,0.000000,0.000000,0.000000,1772182556.848345,0.000000
208.000000,-811.569489,2116.911366,-1112.043990,2147.957939,-26134.844260,-21235.520689,-5184.442423,-3531.352106,1216.583099,55.566437,-18238.487034,1842.119019,-14043.757503,-6138.817208,-6355.919702,-3885.739015,0.010000,-0.008000,1.006000,192.000000,0.000000,0.000000,0.000000,0.000000,0.000000,0.000000,0.000000,0.000000,0.000000,1772182556.848356,0.000000
210.000000,-827.796856,2093.687903,-1138.664918,2108.283592,-26164.415618,-21276.603195,-5212.627973,-3552.563912,1176.752290,12.271108,-18276.149723,1798.600173,-14090.942036,-6179.877362,-6408.289839,-3964.171286,0.010000,-0.008000,1.006000,192.000000,0.000000,0.000000,0.000000,0.000000,0.000000,0.000000,0.000000,0.000000,0.000000,1772182557.327707,0.000000
212.000000,-788.636600,2137.318508,-1085.959504,2154.439945,-26119.712129,-21236.861794,-5162.358899,-3505.155862,1215.823140,42.870646,-18235.849528,1830.362002,-14054.575748,-6162.845333,-6374.806926,-3946.356946,0.010000,-0.008000,1.006000,192.000000,0.000000,0.000000,0.000000,0.000000,0.000000,0.000000,0.000000,0.000000,0.000000,1772182557.327784,0.000000
214.000000,-835.239987,2084.344874,-1143.381136,2094.693732,-26172.909280,-21295.468068,-5217.388894,-3555.804915,1207.016552,29.481951,-18249.014705,1819.230833,-14066.288062,-6177.262208,-6385.602818,-3965.154763,0.010000,-0.008000,1.006000,192.000000,0.000000,0.000000,0.000000,0.000000,0.000000,0.000000,0.000000,0.000000,0.000000,1772182557.327847,0.000000
216.000000,-806.272126,2119.280651,-1106.612516,2132.535235,-26134.598390,-21257.559509,-5182.050786,-3522.344353,1161.508401,-2.905727,-18280.463610,1789.927696,-14103.548420,-6209.426368,-6410.882641,-4000.314057,0.012000,-0.010000,1.010000,192.000000,0.000000,48.000000,127.500000,88.000000,15.500000,72.000000,0.000000,0.000000,0.000000,1772182557.327904,0.000000
218.000000,-809.222556,2114.743246,-1115.486159,2126.321450,-26134.821908,-21257.313640,-5190.678560,-3532.581452,1218.684163,53.465373,-18230.932144,1841.649633,-14051.290041,-6155.826885,-6348.342460,-3941.148989,0.012000,-0.010000,1.010000,192.000000,0.000000,0.000000,0.000000,0.000000,0.000000,0.000000,0.000000,0.000000,0.000000,1772182557.327973,0.000000
220.000000,-851.802629,2072.900781,-1147.918540,2094.559621,-26153.463263,-21275.060925,-5226.933089,-3574.401566,1160.279055,-2.525747,-18292.354738,1781.277571,-14102.766109,-6202.854956,-6387.234496,-3975.995359,0.012000,-0.010000,1.010000,192.000000,0.000000,0.000000,0.000000,0.000000,0.000000,0.000000,0.000000,0.000000,0.000000,1772182557.327995,0.000000
222.000000,-799.588954,2126.947299,-1093.872022,2155.401070,-26088.084410,-21202.842439,-5179.189763,-3525.093618,1198.567593,34.041707,-18261.531682,1810.804225,-14060.588367,-6161.124249,-6333.031515,-3909.163643,0.012000,-0.010000,1.010000,192.000000,0.000000,0.000000,0.000000,0.000000,0.000000,0.000000,0.000000,0.000000,0.000000,1772182557.328010,0.000000
224.000000,-835.239987,2084.926019,-1145.102220,2112.709238,-26123.802498,-21232.883183,-5228.408304,-3566.578456,1203.417921,38.757925,-18262.649269,1812.346496,-14062.309451,-6152.205903,-6332.942108,-3890.678750,0.012000,-0.010000,1.010000,192.000000,0.000000,0.000000,0.000000,0.000000,0.000000,0.000000,0.000000,0.000000,0.000000,1772182557.328035,0.000000
226.000000,-790.804719,2135.552720,-1104.086769,2159.402032,-26090.565454,-21190.571331,-5184.353016,-3519.706848,1186.743520,24.877492,-18279.144857,1797.192013,-14076.882789,-6163.091202,-6373.622283,-3916.293850,0.012000,-0.006000,1.008000,192.000000,0.000000,48.000000,127.500000,104.000000,15.500000,64.000000,0.000000,0.000000,0.000000,1772182557.328048,0.000000
228.000000,-791.721140,2135.150389,-1107.148958,2151.869494,-26118.371024,-21214.420642,-5185.045920,-3521.293821,1244.232207,84.668408,-18222.416129,1856.334729,-14021.472814,-6112.710370,-6346.174341,-3885.694311,0.012000,-0.006000,1.008000,192.000000,0.000000,0.000000,0.000000,0.000000,0.000000,0.000000,0.000000,0.000000,0.000000,1772182557.328061,0.000000
230.000000,-806.562699,2114.542081,-1132.965223,2119.817092,-26160.280545,-21260.867567,-5211.219813,-3546.864217,1197.360599,37.148599,-18272.282871,1809.843100,-14073.150047,-6170.668444,-6414.436569,-3963.858362,0.012000,-0.006000,1.008000,192.000000,0.000000,0.000000,0.000000,0.000000,0.000000,0.000000,0.000000,0.000000,0.000000,1772182557.328074,0.000000
232.000000,-780.254695,2144.582825,-1078.516373,2165.414651,-26115.442945,-21227.474061,-5159.922559,-3498.115062,1231.335250,60.550876,-18232.429711,1839.794438,-14041.142349,-6146.953243,-6378.271446,-3945.217007,0.012000,-0.006000,1.008000,192.000000,0.000000,0.000000,0.000000,0.000000,0.000000,0.000000,0.000000,0.000000,0.000000,1772182557.328086,0.000000
234.000000,-829.205016,2096.213650,-1136.519150,2097.867679,-26162.850995,-21289.947187,-5219.042923,-3553.033299,1203.373218,42.647128,-18246.779531,1824.461141,-14059.671946,-6166.175743,-6381.579504,-3968.529876,0.012000,-0.006000,1.008000,192.000000,0.000000,0.000000,0.000000,0.000000,0.000000,0.000000,0.000000,0.000000,0.000000,1772182557.328099,0.000000
236.000000,-796.660876,2126.902595,-1094.766092,2132.401125,-26120.539143,-21253.759712,-5182.229600,-3519.349220,1181.356750,17.724933,-18272.484037,1796.722626,-14087.499867,-6193.176650,-6398.589182,-4000.247002,0.012000,-0.004000,1.006000,192.000000,0.000000,48.000000,127.500000,112.000000,15.500000,56.000000,0.000000,0.000000,0.000000,1772182557.328111,0.000000
238.000000,-803.232289,2117.134883,-1103.237403,2121.202901,-26123.489573,-21260.375829,-5192.578458,-3532.201473,1232.698707,55.499381,-18226.975885,1838.967423,-14036.470835,-6148.987251,-6335.177283,-3945.887559,0.012000,-0.004000,1.006000,192.000000,0.000000,0.000000,0.000000,0.000000,0.000000,0.000000,0.000000,0.000000,0.000000,1772182557.328124,0.000000
240.000000,-835.239987,2086.535345,-1137.994365,2094.269048,-26145.260173,-21282.772277,-5223.446217,-3564.522095,1176.729939,0.156462,-18284.911607,1779.221210,-14093.490135,-6205.604220,-6380.081937,-3990.434586,0.012000,-0.004000,1.006000,192.000000,0.000000,0.000000,0.000000,0.000000,0.000000,0.000000,0.000000,0.000000,0.000000,1772182557.328135,0.000000
242.000000,-778.220687,2148.159104,-1090.183984,2165.034671,-26095.371079,-21209.279741,-5171.411356,-3512.710752,1215.845491,50.492591,-18248.098284,1822.471836,-14052.094704,-6153.703469,-6339.446466,-3930.017821,0.012000,-0.004000,1.006000,192.000000,0.000000,0.000000,0.000000,0.000000,0.000000,0.000000,0.000000,0.000000,0.000000,1772182557.328148,0.000000
244.000000,-829.093257,2092.659723,-1147.672671,2113.983287,-26151.451606,-21253.469140,-5228.274194,-3571.764060,1211.464549,51.565474,-18257.955403,1820.057848,-14060.811885,-6153.859932,-6352.075202,-3909.990658,0.012000,-0.004000,1.006000,192.000000,0.000000,0.000000,0.000000,0.000000,0.000000,0.000000,0.000000,0.000000,0.000000,1772182557.328159,0.000000
246.000000,-795.498585,2132.579938,-1105.897260,2153.389413,-26103.149486,-21206.105793,-5189.650379,-3535.755400,1180.663846,17.791989,-18289.672528,1787.178431,-14088.326882,-6178.826830,-6379.903123,-3918.305507,0.012000,-0.008000,1.012000,192.000000,0.000000,48.000000,127.500000,96.000000,15.500000,80.000000,0.000000,0.000000,0.000000,1772182557.328171,0.000000
248.000000,-793.732797,2130.992965,-1108.467711,2140.313642,-26107.239855,-21213.347758,-5194.835984,-3535.688345,1238.398402,71.994969,-18236.184804,1840.599101,-14027.083102,-6125.361458,-6320.380428,-3864.482506,0.012000,-0.008000,1.012000,192.000000,0.000000,0.000000,0.000000,0.000000,0.000000,0.000000,0.000000,0.000000,0.000000,1772182557.328183,0.000000
250.000000,-820.107856,2102.650953,-1137.860255,2106.026066,-26140.745120,-21249.177605,-5223.021534,-3562.175162,1185.916506,17.233195,-18284.419869,1790.285324,-14081.219027,-6181.263170,-6378.673777,-3938.243263,0.012000,-0.008000,1.012000,192.000000,0.000000,0.000000,0.000000,0.000000,0.000000,0.000000,0.000000,0.000000,0.000000,1772182557.328224,0.000000
252.000000,-771.895143,2156.496305,-1087.524126,2160.720785,-26100.400221,-21203.915322,-5169.824382,-3509.760321,1227.982489,56.572265,-18245.818406,1830.540816,-14043.690448,-6139.599519,-6358.467800,-3923.513463,0.012000,-0.008000,1.012000,192.000000,0.000000,0.000000,0.000000,0.000000,0.000000,0.000000,0.000000,0.000000,0.000000,1772182557.328236,0.000000
254.000000,-815.659859,2107.613040,-1139.760153,2106.294287,-26153.999705,-21265.740247,-5219.422903,-3554.933197,1219.824102,53.107745,-18249.931127,1830.026726,-14051.558262,-6154.396374,-6377.131507,-3947.206312,0.012000,-0.008000,1.012000,192.000000,0.000000,0.000000,0.000000,0.000000,0.000000,0.000000,0.000000,0.000000,0.000000,1772182557.328248,0.000000
0.000000,-780.567620,2146.102744,-1094.989609,2145.119267,-26114.347710,-21232.994942,-5179.301522,-3516.197624,1194.544279,23.022297,-18271.589967,1801.416493,-14086.337577,-6183.923028,-6401.852536,-3984.131394,0.008000,-0.012000,1.010000,192.000000,0.000000,32.000000,127.500000,80.000000,15.500000,72.000000,0.000000,0.000000,0.000000,1772182557.328260,0.000000
2.000000,-792.302286,2133.697526,-1108.177138,2131.082372,-26119.823887,-21245.400160,-5191.594981,-3529.273394,1244.880407,73.850164,-18222.751406,1851.059717,-14031.151120,-6134.592728,-6343.402725,-3933.348231,0.008000,-0.012000,1.010000,192.000000,0.000000,0.000000,0.000000,0.000000,0.000000,0.000000,0.000000,0.000000,0.000000,1772182557.328272,0.000000
4.000000,-822.611251,2099.007618,-1138.016717,2102.159214,-26145.438986,-21270.702335,-5222.663906,-3561.079927,1185.894154,16.450884,-18282.072935,1793.503975,-14090.159725,-6188.929819,-6385.803984,-3982.633827,0.008000,-0.012000,1.010000,192.000000,0.000000,0.000000,0.000000,0.000000,0.000000,0.000000,0.000000,0.000000,0.000000,1772182557.328284,0.000000
6.000000,-780.880544,2146.214503,-1090.027522,2158.575017,-26090.788971,-21213.236000,-5176.127574,-3516.398789,1219.712343,52.794820,-18249.662906,1829.713801,-14051.200634,-6151.155371,-6338.664155,-3931.336574,0.008000,-0.012000,1.010000,192.000000,0.000000,0.000000,0.000000,0.000000,0.000000,0.000000,0.000000,0.000000,0.000000,1772182557.328295,0.000000
8.000000,-829.987327,2093.486737,-1147.002118,2106.271935,-26137.861745,-21258.945317,-5231.023458,-3572.546372,1207.396532,43.094163,-18262.671621,1818.917909,-14061.057754,-6159.291406,-6337.010126,-3919.288983,0.008000,-0.012000,1.010000,192.000000,0.000000,0.000000,0.000000,0.000000,0.000000,0.000000,0.000000,0.000000,0.000000,1772182557.328307,0.000000
10.000000,-800.617135,2128.087238,-1109.339429,2146.236854,-26103.395355,-21219.114509,-5193.249010,-3538.459961,1176.729939,12.874605,-18295.238113,1784.362112,-14093.333673,-6184.146545,-6367.587312,-3932.387106,0.008000,-0.013000,1.008000,192.000000,0.000000,32.000000,127.500000,72.000000,15.500000,56.000000,0.000000,0.000000,0.000000,1772182557.328320,0.000000
12.000000,-801.555908,2120.577052,-1111.619307,2135.485665,-26111.643149,-21234.917192,-5197.607600,-3540.739839,1232.274024,64.015396,-18239.314048,1835.346441,-14034.347419,-6135.464446,-6316.178300,-3886.275457,0.008000,-0.013000,1.008000,192.000000,0.000000,0.000000,0.000000,0.000000,0.000000,0.000000,0.000000,0.000000,0.000000,1772182557.328332,0.000000
14.000000,-820.599594,2097.755921,-1132.942871,2108.529461,-26147.674161,-21262.946279,-5219.914641,-3560.319967,1185.625933,11.712314,-18282.542322,1785.613809,-14082.917760,-6183.967731,-6380.126641,-3954.269463,0.008000,-0.013000,1.008000,192.000000,0.000000,0.000000,0.000000,0.000000,0.000000,0.000000,0.000000,0.000000,0.000000,1772182557.328345,0.000000
16.000000,-775.583181,2149.321395,-1080.997417,2163.984139,-26106.010509,-21209.883238,-5167.008062,-3508.821548,1225.456742,53.867704,-18241.124540,1827.836255,-14044.182187,-6149.300176,-6358.378393,-3922.887614,0.008000,-0.013000,1.008000,192.000000,0.000000,0.000000,0.000000,0.000000,0.000000,0.000000,0.000000,0.000000,0.000000,1772182557.328357,0.000000
18.000000,-824.019411,2095.118415,-1142.218845,2105.959011,-26157.844205,-21263.639183,-5222.194519,-3561.415203,1218.661811,46.558684,-18253.574461,1818.672039,-14052.541739,-6155.759830,-6377.869115,-3931.090704,0.008000,-0.013000,1.008000,192.000000,0.000000,0.000000,0.000000,0.000000,0.000000,0.000000,0.000000,0.000000,0.000000,1772182557.328369,0.000000
20.000000,-786.021446,2138.369040,-1102.097464,2148.539084,-26128.049329,-21227.339950,-5180.240295,-3517.248156,1182.429633,17.590823,-18275.345060,1794.152176,-14090.338539,-6183.699511,-6410.703827,-3965.691205,0.007000,-0.012500,1.006000,192.000000,0.000000,24.000000,127.500000,80.000000,15.500000,48.000000,0.000000,0.000000,0.000000,1772182557.328381,0.000000
22.000000,-790.737664,2133.339898,-1112.245156,2140.000718,-26135.313646,-21240.035741,-5187.459908,-3523.484292,1237.146704,77.515850,-18223.690179,1852.691394,-14037.588422,-6130.859987,-6355.472667,-3919.423094,0.007000,-0.012500,1.006000,192.000000,0.000000,0.000000,0.000000,0.000000,0.000000,0.000000,0.000000,0.000000,0.000000,1772182557.328393,0.000000
24.000000,-822.007754,2096.593630,-1141.369479,2104.439092,-26160.347600,-21269.987079,-5219.355848,-3555.693156,1179.680369,17.859044,-18279.994223,1799.114263,-14094.987702,-6185.957037,-6400.533783,-3973.559019,0.007000,-0.012500,1.006000,192.000000,0.000000,0.000000,0.000000,0.000000,0.000000,0.000000,0.000000,0.000000,0.000000,1772182557.328404,0.000000
26.000000,-778.645370,2143.778162,-1088.328789,2152.852971,-26103.171838,-21217.281665,-5170.025548,-3513.068380,1223.020401,53.711242,-18244.253784,1829.400877,-14052.541739,-6148.808437,-6350.912911,-3933.258824,0.007000,-0.012500,1.006000,192.000000,0.000000,0.000000,0.000000,0.000000,0.000000,0.000000,0.000000,0.000000,0.000000,1772182557.328418,0.000000
28.000000,-834.345917,2084.031950,-1146.868008,2096.638333,-26146.243649,-21268.824788,-5224.295583,-3569.573590,1207.955326,39.339070,-18258.827121,1811.787702,-14065.505751,-6160.945435,-6355.517370,-3938.712649,0.007000,-0.012500,1.006000,192.000000,0.000000,0.000000,0.000000,0.000000,0.000000,0.000000,0.000000,0.000000,0.000000,1772182557.328430,0.000000
30.000000,-795.051550,2127.237872,-1098.767054,2141.833561,-26107.865704,-21232.279686,-5179.994426,-3523.730162,1174.494764,9.566547,-18284.330462,1786.239658,-14090.003263,-6187.946342,-6376.237437,-3961.869056,0.008500,-0.010250,1.005000,192.000000,0.000000,40.000000,127.500000,96.000000,15.500000,48.000000,0.000000,0.000000,0.000000,1772182557.328443,0.000000
32.000000,-802.382922,2116.464331,-1105.606688,2129.629508,-26119.376852,-21248.350590,-5188.510440,-3530.703906,1230.061201,63.993044,-18229.211060,1843.080144,-14033.498053,-6140.426533,-6316.982963,-3914.125730,0.008500,-0.010250,1.005000,192.000000,0.000000,0.000000,0.000000,0.000000,0.000000,0.000000,0.000000,0.000000,0.000000,1772182557.328456,0.000000
34.000000,-829.160312,2085.842441,-1129.724220,2100.482833,-26153.507966,-21281.967614,-5215.511348,-3559.291787,1182.608447,4.671515,-18278.183732,1789.011274,-14086.494039,-6193.422519,-6371.767088,-3976.174173,0.008500,-0.010250,1.005000,192.000000,0.000000,0.000000,0.000000,0.000000,0.000000,0.000000,0.000000,0.000000,0.000000,1772182557.328468,0.000000
36.000000,-783.808623,2136.558549,-1081.533859,2157.412727,-26107.955111,-21226.691750,-5164.728184,-3512.219013,1219.712343,38.199131,-18243.136197,1823.567071,-14048.160797,-6161.459525,-6342.329841,-3930.666021,0.008500,-0.010250,1.005000,192.000000,0.000000,0.000000,0.000000,0.000000,0.000000,0.000000,0.000000,0.000000,0.000000,1772182557.328480,0.000000
38.000000,-829.562644,2085.574220,-1136.116819,2104.975534,-26161.465187,-21273.339841,-5214.080836,-3559.023566,1214.169111,32.678250,-18251.629859,1814.805188,-14059.739001,-6166.555723,-6366.782649,-3932.320050,0.008500,-0.010250,1.005000,192.000000,0.000000,0.000000,0.000000,0.000000,0.000000,0.000000,0.000000,0.000000,0.000000,1772182557.328492,0.000000
40.000000,-795.185661,2128.087238,-1100.443435,2145.812171,-26124.003664,-21229.597477,-5176.440498,-3521.182063,1187.592886,9.432436,-18282.743488,1791.000580,-14084.974120,-6181.911371,-6399.125624,-3956.661100,0.009250,-0.008125,1.005500,192.000000,0.000000,40.000000,127.500000,104.000000,15.500000,56.000000,0.000000,0.000000,0.000000,1772182557.328504,0.000000
42.000000,-805.914498,2111.278726,-1112.289859,2132.512883,-26144.008475,-21244.103759,-5186.029397,-3533.520226,1231.067029,62.562533,-18229.658095,1842.409592,-14042.774027,-6138.526635,-6356.433792,-3909.007181,0.009250,-0.008125,1.005500,192.000000,0.000000,0.000000,0.000000,0.000000,0.000000,0.000000,0.000000,0.000000,0.000000,1772182557.328516,0.000000
44.000000,-834.748248,2081.014464,-1141.972976,2104.327333,-26168.684801,-21270.657631,-5211.912717,-3559.358842,1175.880572,0.692904,-18286.342119,1784.362112,-14103.771937,-6194.942438,-6412.626077,-3971.033272,0.009250,-0.008125,1.005500,192.000000,0.000000,0.000000,0.000000,0.000000,0.000000,0.000000,0.000000,0.000000,0.000000,1772182557.328529,0.000000
46.000000,-789.374207,2131.417648,-1091.256868,2157.435078,-26114.615931,-21219.628599,-5162.023623,-3512.397827,1216.113712,38.690870,-18248.008877,1821.175435,-14059.157855,-6155.871589,-6369.129583,-3931.582443,0.009250,-0.008125,1.005500,192.000000,0.000000,0.000000,0.000000,0.000000,0.000000,0.000000,0.000000,0.000000,0.000000,1772182557.328540,0.000000
48.000000,-838.123362,2077.572295,-1143.917578,2098.806453,-26162.046333,-21270.165893,-5219.467606,-3565.773793,1204.535509,29.616061,-18261.039944,1809.440769,-14069.797286,-6165.214618,-6371.096536,-3940.903120,0.009250,-0.008125,1.005500,192.000000,0.000000,0.000000,0.000000,0.000000,0.000000,0.000000,0.000000,0.000000,0.000000,1772182557.328552,0.000000
50.000000,-799.164271,2120.018258,-1093.872022,2141.230064,-26103.171838,-21225.641218,-5179.636798,-3523.886624,1185.089491,2.570451,-18285.336290,1782.171641,-14088.662158,-6188.527487,-6386.876868,-3968.261655,0.009625,-0.007063,1.004750,192.000000,0.000000,40.000000,127.500000,104.000000,15.500000,48.000000,0.000000,0.000000,0.000000,1772182557.328565,0.000000
52.000000,-801.958239,2116.576089,-1100.912821,2133.384601,-26112.157239,-21230.759767,-5188.018702,-3529.921595,1238.085477,64.976521,-18229.278115,1836.978118,-14023.484471,-6130.234138,-6327.644745,-3914.975097,0.009625,-0.007063,1.004750,192.000000,0.000000,0.000000,0.000000,0.000000,0.000000,0.000000,0.000000,0.000000,0.000000,1772182557.328576,0.000000
54.000000,-828.288594,2087.004732,-1126.840845,2102.382732,-26140.499251,-21263.795646,-5212.292697,-3554.776735,1195.214831,14.394523,-18276.060316,1786.105548,-14067.204483,-6178.469202,-6378.226743,-3971.793231,0.009625,-0.007063,1.004750,192.000000,0.000000,0.000000,0.000000,0.000000,0.000000,0.000000,0.000000,0.000000,0.000000,1772182557.328589,0.000000
56.000000,-780.925248,2136.044459,-1077.018807,2151.556570,-26091.370117,-21219.695654,-5162.291844,-3508.665086,1233.078686,50.827867,-18237.995295,1821.421304,-14038.236623,-6142.102914,-6338.775914,-3931.940071,0.009625,-0.007063,1.004750,192.000000,0.000000,0.000000,0.000000,0.000000,0.000000,0.000000,0.000000,0.000000,0.000000,1772182557.328601,0.000000
58.000000,-839.844446,2075.560638,-1142.151790,2099.164081,-26151.630420,-21273.429248,-5219.244089,-3566.064366,1216.516044,33.549968,-18251.115769,1809.261955,-14050.418323,-6159.000833,-6354.735059,-3931.761257,0.009625,-0.007063,1.004750,192.000000,0.000000,0.000000,0.000000,0.000000,0.000000,0.000000,0.000000,0.000000,0.000000,1772182557.328615,0.000000
60.000000,-807.345010,2112.664534,-1104.198528,2146.773296,-26113.967730,-21228.323427,-5181.871972,-3532.402638,1182.183764,3.844500,-18286.275063,1781.009350,-14094.294798,-6193.221354,-6382.808850,-3941.819542,0.009813,-0.005531,1.005375,192.000000,0.000000,40.000000,127.500000,112.000000,15.500000,56.000000,0.000000,0.000000,0.000000,1772182557.328627,0.000000
62.000000,-810.720123,2107.635392,-1112.982763,2133.675174,-26120.494440,-21234.559564,-5194.165432,-3542.997365,1232.832817,54.828829,-18242.108016,1832.507769,-14041.365867,-6142.706411,-6324.515501,-3882.877992,0.009813,-0.005531,1.005375,192.000000,0.000000,0.000000,0.000000,0.000000,0.000000,0.000000,0.000000,0.000000,0.000000,1772182557.328640,0.000000
64.000000,-830.210844,2088.569354,-1134.842769,2106.920136,-26155.072588,-21260.420532,-5215.511348,-3561.437555,1177.959285,4.827977,-18288.621996,1781.903420,-14094.272446,-6189.913295,-6372.012958,-3944.479399,0.009813,-0.005531,1.005375,192.000000,0.000000,0.000000,0.000000,0.000000,0.000000,0.000000,0.000000,0.000000,0.000000,1772182557.328652,0.000000
66.000000,-774.622056,2144.493418,-1083.210240,2159.983177,-26112.425460,-21215.337064,-5163.454135,-3507.972182,1226.864901,56.482858,-18244.432598,1826.405743,-14054.642803,-6145.410972,-6345.257919,-3914.706876,0.009813,-0.005531,1.005375,192.000000,0.000000,0.000000,0.000000,0.000000,0.000000,0.000000,0.000000,0.000000,0.000000,1772182557.328664,0.000000
68.000000,-830.121437,2084.523688,-1135.938005,2101.734531,-26160.839338,-21270.836445,-5213.253822,-3555.357880,1219.287660,36.366288,-18251.227528,1817.196824,-14061.661251,-6162.353595,-6367.788478,-3934.868149,0.009813,-0.005531,1.005375,192.000000,0.000000,0.000000,0.000000,0.000000,0.000000,0.000000,0.000000,0.000000,0.000000,1772182557.328676,0.000000
70.000000,-783.495698,2136.223273,-1093.201470,2145.029860,-26110.078527,-21225.149480,-5172.618350,-3511.369647,1199.104035,17.188491,-18272.685203,1795.135652,-14082.023690,-6180.838487,-6391.950714,-3966.138240,0.011906,-0.008766,1.006687,192.000000,0.000000,56.000000,127.500000,80.000000,15.500000,64.000000,0.000000,0.000000,0.000000,1772182557.328688,0.000000
72.000000,-807.233251,2118.252470,-1109.071208,2127.774313,-26123.489573,-21244.863718,-5185.269437,-3526.680592,1237.392573,70.922085,-18225.165394,1845.538836,-14036.604945,-6130.167083,-6339.379411,-3923.781684,0.011906,-0.008766,1.006687,192.000000,0.000000,0.000000,0.000000,0.000000,0.000000,0.000000,0.000000,0.000000,0.000000,1772182557.328701,0.000000
74.000000,-826.321641,2095.900726,-1132.518188,2099.141729,-26150.825757,-21274.949166,-5212.896194,-3556.520171,1175.724110,14.506282,-18286.409174,1784.049187,-14092.305492,-6186.471127,-6386.675702,-3985.919533,0.011906,-0.008766,1.006687,192.000000,0.000000,0.000000,0.000000,0.000000,0.000000,0.000000,0.000000,0.000000,0.000000,1772182557.808557,0.000000
76.000000,-777.617190,2149.522561,-1075.990626,2158.619721,-26099.059117,-21218.712177,-5162.113030,-3505.312324,1226.730791,52.370137,-18244.901984,1823.835292,-14049.390143,-6148.920196,-6340.452294,-3939.718478,0.011906,-0.008766,1.006687,192.000000,0.000000,0.000000,0.000000,0.000000,0.000000,0.000000,0.000000,0.000000,0.000000,1772182557.808624,0.000000
78.000000,-825.226405,2096.057188,-1130.953566,2101.242793,-26154.513795,-21272.244605,-5216.405417,-3557.123668,1212.962116,47.206884,-18249.081761,1819.208481,-14054.754562,-6154.575188,-6347.269576,-3938.958518,0.011906,-0.008766,1.006687,192.000000,0.000000,0.000000,0.000000,0.000000,0.000000,0.000000,0.000000,0.000000,0.000000,1772182557.808666,0.000000
80.000000,-788.726007,2137.944357,-1093.961429,2144.761639,-26116.560533,-21226.088253,-5180.463812,-3522.411409,1189.962171,20.004811,-18275.993261,1791.134690,-14084.862362,-6175.138792,-6375.164554,-3954.492981,0.011906,-0.008766,1.006687,192.000000,0.000000,0.000000,0.000000,0.000000,0.000000,0.000000,0.000000,0.000000,0.000000,1772182557.808713,0.000000
82.000000,-798.314905,2129.383639,-1111.999287,2140.671270,-26122.684911,-21229.150442,-5192.846679,-3533.386115,1238.867788,71.771451,-18232.027380,1842.946034,-14038.996582,-6133.698658,-6325.946012,-3887.840079,0.014000,-0.008000,1.004000,192.000000,0.000000,56.000000,127.500000,96.000000,15.500000,48.000000,0.000000,0.000000,0.000000,1772182557.808760,0.000000
84.000000,-826.008716,2100.326371,-1142.218845,2114.586784,-26147.115367,-21249.646991,-5219.914641,-3563.315101,1178.272209,18.015506,-18289.761935,1789.324199,-14100.083900,-6181.374929,-6380.439565,-3927.648536,0.014000,-0.008000,1.004000,192.000000,0.000000,0.000000,0.000000,0.000000,0.000000,0.000000,0.000000,0.000000,0.000000,1772182557.808801,0.000000
86.000000,-785.730873,2144.292253,-1094.564926,2167.180439,-26104.155314,-21193.812334,-5171.746632,-3519.639792,1218.974736,56.281693,-18251.093418,1824.461141,-14054.084009,-6138.727801,-6339.826446,-3869.824573,0.014000,-0.008000,1.004000,192.000000,0.000000,0.000000,0.000000,0.000000,0.000000,0.000000,0.000000,0.000000,0.000000,1772182557.808839,0.000000
88.000000,-845.097106,2082.333217,-1154.221732,2109.647049,-26174.093923,-21248.082369,-5227.782455,-3578.380177,1203.373218,38.154428,-18272.953424,1805.618621,-14076.033422,-6153.703469,-6362.021728,-3876.418337,0.014000,-0.008000,1.004000,192.000000,0.000000,0.000000,0.000000,0.000000,0.000000,0.000000,0.000000,0.000000,0.000000,1772182557.808851,0.000000
90.000000,-802.002943,2126.254395,-1106.970144,2156.362195,-26140.700417,-21212.498392,-5181.089661,-3533.408467,1165.330549,13.165177,-18301.496601,1784.026835,-14112.310304,-6178.111574,-6403.484214,-3901.921678,0.014000,-0.008000,1.004000,192.000000,0.000000,0.000000,0.000000,0.000000,0.000000,0.000000,0.000000,0.000000,0.000000,1772182557.808870,0.000000
92.000000,-803.276992,2121.873453,-1113.027467,2139.643090,-26150.222260,-21238.895802,-5185.939990,-3535.062496,1227.133122,67.278751,-18245.371371,1837.939243,-14052.072352,-6127.887205,-6362.334652,-3875.725433,0.016000,-0.006000,1.004000,192.000000,0.000000,64.000000,127.500000,104.000000,15.500000,48.000000,0.000000,0.000000,0.000000,1772182557.808882,0.000000
94.000000,-821.516016,2101.488662,-1132.562892,2108.820034,-26174.831530,-21271.976384,-5207.285906,-3549.971110,1182.250819,14.171006,-18285.515104,1792.006408,-14099.681568,-6184.057138,-6414.727141,-3960.170324,0.016000,-0.006000,1.004000,192.000000,0.000000,0.000000,0.000000,0.000000,0.000000,0.000000,0.000000,0.000000,0.000000,1772182557.808894,0.000000
96.000000,-770.464631,2156.608064,-1081.377397,2159.424384,-26124.003664,-21225.261238,-5157.933254,-3498.606801,1229.927090,60.461469,-18239.246993,1837.000470,-14052.005297,-6145.276862,-6372.638806,-3938.511483,0.016000,-0.006000,1.004000,192.000000,0.000000,0.000000,0.000000,0.000000,0.000000,0.000000,0.000000,0.000000,0.000000,1772182557.808906,0.000000
98.000000,-818.453827,2103.142691,-1135.334508,2102.561546,-26167.544862,-21278.301928,-5213.365580,-3551.871008,1219.153550,48.279768,-18250.445217,1824.014106,-14062.354155,-6155.670423,-6374.941036,-3951.877827,0.016000,-0.006000,1.004000,192.000000,0.000000,0.000000,0.000000,0.000000,0.000000,0.000000,0.000000,0.000000,0.000000,1772182557.808918,0.000000
100.000000,-778.533611,2149.187285,-1091.346275,2152.718860,-26119.354501,-21224.322465,-5173.020682,-3511.950792,1195.617163,25.659803,-18275.926206,1801.260030,-14085.398803,-6175.228199,-6391.302513,-3965.043004,0.016000,-0.006000,1.004000,192.000000,0.000000,0.000000,0.000000,0.000000,0.000000,0.000000,0.000000,0.000000,0.000000,1772182557.808929,0.000000
102.000000,-785.395597,2137.586729,-1102.365685,2141.163008,-26114.951207,-21228.502241,-5188.398682,-3525.294784,1252.167076,80.376873,-18226.506499,1850.031537,-14022.322181,-6119.102969,-6331.109265,-3898.099530,0.014000,-0.010000,1.006000,192.000000,0.000000,56.000000,127.500000,88.000000,15.500000,56.000000,0.000000,0.000000,0.000000,1772182557.808940,0.000000
104.000000,-815.235176,2108.618868,-1130.752400,2116.665496,-26139.761643,-21250.786930,-5216.986563,-3553.480334,1200.378084,25.324526,-18279.256616,1794.822728,-14082.537780,-6175.675234,-6376.662120,-3942.378335,0.014000,-0.010000,1.006000,192.000000,0.000000,0.000000,0.000000,0.000000,0.000000,0.000000,0.000000,0.000000,0.000000,1772182557.808952,0.000000
106.000000,-770.084652,2156.719822,-1084.394882,2171.404919,-26095.102858,-21197.142744,-5167.924484,-3507.927478,1232.519893,65.982350,-18244.186728,1835.189979,-14046.372658,-6133.542196,-6337.233643,-3890.812861,0.014000,-0.010000,1.006000,192.000000,0.000000,0.000000,0.000000,0.000000,0.000000,0.000000,0.000000,0.000000,0.000000,1772182557.808965,0.000000
108.000000,-824.712315,2096.213650,-1143.738764,2108.395351,-26158.201833,-21259.280593,-5222.976830,-3567.204305,1216.828968,47.765678,-18257.754237,1819.364943,-14063.069411,-6150.529522,-6352.589292,-3897.004294,0.014000,-0.010000,1.006000,192.000000,0.000000,0.000000,0.000000,0.000000,0.000000,0.000000,0.000000,0.000000,0.000000,1772182557.808978,0.000000
110.000000,-794.470405,2129.853026,-1105.360819,2152.048308,-26121.835544,-21218.287494,-5181.603751,-3534.615461,1183.748386,15.243890,-18289.761935,1784.496222,-14098.586333,-6180.771432,-6383.971141,-3913.544585,0.014000,-0.010000,1.006000,192.000000,0.000000,0.000000,0.000000,0.000000,0.000000,0.000000,0.000000,0.000000,0.000000,1772182557.808990,0.000000
112.000000,-804.372228,2116.106703,-1115.240290,2142.906444,-26128.809289,-21226.088253,-5191.572629,-3542.818551,1235.962061,64.305969,-18242.264478,1835.301737,-14043.869262,-6131.955222,-6338.820617,-3858.805163,0.010000,-0.006000,1.004000,192.000000,0.000000,40.000000,127.500000,104.000000,15.500000,48.000000,0.000000,0.000000,0.000000,1772182557.809002,0.000000
114.000000,-817.649164,2103.634429,-1130.841807,2118.878319,-26140.298085,-21248.127073,-5213.432635,-3557.213075,1184.485994,12.338163,-18293.785249,1784.585629,-14092.305492,-6181.263170,-6389.894353,-3925.972155,0.010000,-0.006000,1.004000,192.000000,0.000000,0.000000,0.000000,0.000000,0.000000,0.000000,0.000000,0.000000,0.000000,1772182557.809014,0.000000
116.000000,-761.255713,2161.525448,-1069.128641,2165.638169,-26089.269053,-21202.753032,-5162.180085,-3501.043141,1242.891102,67.166992,-18240.252821,1835.122923,-14037.923698,-6132.066981,-6341.636937,-3903.799224,0.010000,-0.006000,1.004000,192.000000,0.000000,0.000000,0.000000,0.000000,0.000000,0.000000,0.000000,0.000000,0.000000,1772182557.809025,0.000000
118.000000,-805.132187,2113.759770,-1122.772827,2105.087293,-26139.895754,-21265.628489,-5215.779569,-3548.786467,1232.721058,57.287521,-18240.521042,1827.500978,-14038.974230,-6148.964900,-6348.498922,-3940.053754,0.010000,-0.006000,1.004000,192.000000,0.000000,0.000000,0.000000,0.000000,0.000000,0.000000,0.000000,0.000000,0.000000,1772182557.809037,0.000000
120.000000,-771.246942,2153.143543,-1085.512469,2148.203808,-26108.044518,-21232.838480,-5175.814650,-3510.989667,1209.497596,33.661727,-18264.571519,1803.159929,-14071.227797,-6172.724804,-6371.588274,-3977.045891,0.010000,-0.006000,1.004000,192.000000,0.000000,0.000000,0.000000,0.000000,0.000000,0.000000,0.000000,0.000000,0.000000,1772182557.809048,0.000000
122.000000,-787.764882,2135.128037,-1098.521185,2136.200921,-26127.043501,-21249.758750,-5185.202382,-3523.685458,1251.630634,77.538202,-18225.075987,1849.629205,-14031.151120,-6132.379905,-6328.583518,-3933.705858,0.010000,-0.012000,1.006000,192.000000,0.000000,40.000000,127.500000,80.000000,15.500000,56.000000,0.000000,0.000000,0.000000,1772182557.809061,0.000000
124.000000,-816.732742,2105.377865,-1128.628985,2111.166967,-26146.042484,-21270.635279,-5214.304354,-3553.413278,1193.247878,16.786160,-18281.469438,1794.219231,-14087.477516,-6188.683950,-6384.351121,-3981.806813,0.010000,-0.012000,1.006000,192.000000,0.000000,0.000000,0.000000,0.000000,0.000000,0.000000,0.000000,0.000000,0.000000,1772182557.809073,0.000000
126.000000,-769.615265,2155.311663,-1080.997417,2164.006491,-26096.712184,-21212.498392,-5167.700966,-3510.743798,1230.552939,59.992082,-18242.845624,1831.211368,-14047.825521,-6141.834693,-6344.095629,-3920.495977,0.010000,-0.012000,1.006000,192.000000,0.000000,0.000000,0.000000,0.000000,0.000000,0.000000,0.000000,0.000000,0.000000,1772182557.809084,0.000000
128.000000,-828.892091,2092.257391,-1137.569682,2100.035799,-26147.137719,-21267.260166,-5227.469531,-3572.524020,1218.885329,45.888131,-18260.503502,1814.313449,-14059.046097,-6156.028051,-6351.538760,-3927.290908,0.010000,-0.012000,1.006000,192.000000,0.000000,0.000000,0.000000,0.000000,0.000000,0.000000,0.000000,0.000000,0.000000,1772182557.809096,0.000000
130.000000,-796.347951,2126.053229,-1099.012923,2142.951148,-26108.290387,-21221.193221,-5188.376330,-3537.901168,1188.464604,13.567509,-18294.880485,1781.836364,-14083.431850,-6180.257342,-6368.257865,-3945.015841,0.010000,-0.012000,1.006000,192.000000,0.000000,0.000000,0.000000,0.000000,0.000000,0.000000,0.000000,0.000000,0.000000,1772182557.809107,0.000000
132.000000,-805.489815,2116.397275,-1109.630002,2135.552720,-26124.808326,-21233.196108,-5198.725188,-3547.691232,1232.966928,60.237951,-18242.063313,1829.378525,-14039.533024,-6129.407123,-6320.738056,-3874.853715,0.012000,-0.008000,1.006000,192.000000,0.000000,48.000000,127.500000,96.000000,15.500000,56.000000,0.000000,0.000000,0.000000,1772182557.809119,0.000000
134.000000,-826.366344,2095.230173,-1135.289804,2112.619831,-26147.875327,-21260.800512,-5221.300450,-3570.557066,1179.613314,8.091331,-18294.254636,1781.165812,-14094.048929,-6191.008531,-6381.177173,-3920.965364,0.012000,-0.008000,1.006000,192.000000,0.000000,0.000000,0.000000,0.000000,0.000000,0.000000,0.000000,0.000000,0.000000,1772182557.809130,0.000000
136.000000,-773.727986,2150.953072,-1079.835126,2168.052157,-26091.504227,-21205.122316,-5168.684443,-3517.136397,1228.742448,53.465373,-18249.752313,1827.702144,-14045.120960,-6147.266167,-6340.496998,-3883.034454,0.012000,-0.008000,1.006000,192.000000,0.000000,0.000000,0.000000,0.000000,0.000000,0.000000,0.000000,0.000000,0.000000,1772182557.809142,0.000000
138.000000,-815.034010,2104.819072,-1127.019659,2114.631488,-26139.135795,-21252.440960,-5217.165377,-3561.370499,1225.747314,49.866742,-18253.015668,1822.427132,-14050.664193,-6149.188417,-6347.269576,-3905.721474,0.012000,-0.008000,1.006000,192.000000,0.000000,0.000000,0.000000,0.000000,0.000000,0.000000,0.000000,0.000000,0.000000,1772182557.809153,0.000000
140.000000,-769.123527,2154.194075,-1083.299647,2157.390375,-26095.684003,-21210.240866,-5177.111051,-3518.879833,1205.451930,30.554835,-18274.562749,1803.070522,-14070.579597,-6167.650958,-6371.677681,-3945.753449,0.012000,-0.008000,1.006000,192.000000,0.000000,0.000000,0.000000,0.000000,0.000000,0.000000,0.000000,0.000000,0.000000,1772182557.809165,0.000000
142.000000,-776.834879,2145.499247,-1100.063455,2143.085258,-26106.770469,-21222.467270,-5189.963304,-3529.340449,1261.241884,85.808347,-18221.611467,1854.680700,-14020.511689,-6114.699675,-6324.806073,-3899.440634,0.012000,-0.009000,1.007000,192.000000,0.000000,48.000000,127.500000,88.000000,15.500000,64.000000,0.000000,0.000000,0.000000,1772182557.809177,0.000000
144.000000,-801.891184,2120.130017,-1126.952604,2115.056171,-26134.933667,-21251.636297,-5216.673638,-3552.183932,1211.285736,31.515960,-18275.590929,1801.841176,-14072.591254,-6171.786031,-6383.166478,-3955.699975,0.012000,-0.009000,1.007000,192.000000,0.000000,0.000000,0.000000,0.000000,0.000000,0.000000,0.000000,0.000000,0.000000,1772182557.809188,0.000000
146.000000,-765.860172,2159.402032,-1080.013940,2164.475878,-26090.856027,-21207.469250,-5168.997368,-3510.363818,1241.684108,68.373986,-18238.867013,1836.061697,-14038.169567,-6136.000888,-6347.783667,-3914.349248,0.012000,-0.009000,1.007000,192.000000,0.000000,0.000000,0.000000,0.000000,0.000000,0.000000,0.000000,0.000000,0.000000,1772182557.809200,0.000000
148.000000,-824.466446,2096.995961,-1135.110990,2102.650953,-26153.373856,-21269.964727,-5223.110941,-3564.164467,1218.170073,44.099992,-18260.838778,1815.274574,-14058.822579,-6155.402202,-6360.077126,-3926.106265,0.012000,-0.009000,1.007000,192.000000,0.000000,0.000000,0.000000,0.000000,0.000000,0.000000,0.000000,0.000000,0.000000,1772182557.809211,0.000000
150.000000,-782.176945,2144.135790,-1092.776786,2150.170761,-26114.973559,-21220.835593,-5179.882667,-3521.807912,1198.299372,18.149616,-18282.005880,1792.900478,-14078.805039,-6182.693682,-6383.434699,-3946.133428,0.012000,-0.009000,1.007000,192.000000,0.000000,0.000000,0.000000,0.000000,0.000000,0.000000,0.000000,0.000000,0.000000,1772182557.809223,0.000000
152.000000,-795.722103,2127.282575,-1112.021638,2137.698488,-26130.977408,-21229.910401,-5195.886516,-3537.252967,1243.427544,69.201001,-18235.558955,1838.900368,-14035.688524,-6131.195263,-6333.791475,-3878.094718,0.011000,-0.010500,1.008500,192.000000,0.000000,40.000000,127.500000,80.000000,15.500000,72.000000,0.000000,0.000000,0.000000,1772182557.809234,0.000000
154.000000,-820.599594,2101.309848,-1137.949662,2111.055209,-26151.920992,-21257.112474,-5220.294621,-3560.409374,1189.716302,13.858082,-18292.175924,1783.177469,-14092.797231,-6180.972598,-6388.530897,-3927.804998,0.011000,-0.010500,1.008500,192.000000,0.000000,0.000000,0.000000,0.000000,0.000000,0.000000,0.000000,0.000000,0.000000,1772182557.809247,0.000000
156.000000,-778.555963,2148.941415,-1083.076129,2161.301930,-26102.545989,-21210.978474,-5169.109126,-3507.838071,1229.882387,52.057213,-18249.461740,1826.428095,-14049.524254,-6137.699620,-6344.408553,-3893.450367,0.011000,-0.010500,1.008500,192.000000,0.000000,0.000000,0.000000,0.000000,0.000000,0.000000,0.000000,0.000000,0.000000,1772182557.809258,0.000000
158.000000,-825.427571,2098.784101,-1139.223711,2105.735493,-26150.021094,-21261.314602,-5222.440388,-3557.838924,1217.253651,39.629643,-18260.972889,1817.733266,-14061.817713,-6151.490647,-6358.266635,-3912.695219,0.011000,-0.010500,1.008500,192.000000,0.000000,0.000000,0.000000,0.000000,0.000000,0.000000,0.000000,0.000000,0.000000,1772182557.809270,0.000000
160.000000,-782.869850,2143.979328,-1098.007095,2153.814096,-26108.156277,-21213.146593,-5179.837964,-3518.522205,1192.465567,19.177797,-18284.978662,1793.816900,-14083.454202,-6178.111574,-6384.015844,-3931.783608,0.011000,-0.010500,1.008500,192.000000,0.000000,0.000000,0.000000,0.000000,0.000000,0.000000,0.000000,0.000000,0.000000,1772182557.809282,0.000000
162.000000,-790.134166,2134.457485,-1110.769941,2144.091087,-26120.628550,-21224.054244,-5192.578458,-3526.658240,1248.546094,75.928876,-18233.234374,1847.170514,-14028.200689,-6121.874585,-6334.037344,-3883.347378,0.010500,-0.012250,1.008250,192.000000,0.000000,40.000000,127.500000,72.000000,15.500000,64.000000,0.000000,0.000000,0.000000,1772182557.809293,0.000000
164.000000,-810.854234,2112.619831,-1125.455037,2117.626621,-26139.001684,-21250.138730,-5214.237298,-3544.696098,1193.404340,20.317736,-18284.017537,1796.968495,-14089.310359,-6173.820039,-6392.330693,-3947.899216,0.010500,-0.012250,1.008250,192.000000,0.000000,0.000000,0.000000,0.000000,0.000000,0.000000,0.000000,0.000000,0.000000,1772182557.809305,0.000000
166.000000,-764.362605,2162.665387,-1071.252057,2166.107555,-26090.811323,-21205.234075,-5162.805934,-3493.801176,1242.399364,62.093146,-18235.894231,1841.761391,-14037.253146,-6132.446961,-6346.800190,-3911.577631,0.010500,-0.012250,1.008250,192.000000,0.000000,0.000000,0.000000,0.000000,0.000000,0.000000,0.000000,0.000000,0.000000,1772182557.809316,0.000000
168.000000,-816.598632,2106.137825,-1131.445304,2109.289421,-26150.624591,-21262.611003,-5218.841758,-3547.020679,1227.691916,45.016413,-18251.249880,1826.182225,-14052.809960,-6151.647109,-6362.468763,-3932.632975,0.010500,-0.012250,1.008250,192.000000,0.000000,0.000000,0.000000,0.000000,0.000000,0.000000,0.000000,0.000000,0.000000,1772182557.809328,0.000000
170.000000,-776.611361,2152.607102,-1089.312266,2154.507000,-26107.373966,-21222.400215,-5177.803955,-3508.910955,1201.294506,23.156407,-18275.367412,1805.350400,-14081.263731,-6172.903618,-6386.027501,-3956.169362,0.010500,-0.012250,1.008250,192.000000,0.000000,0.000000,0.000000,0.000000,0.000000,0.000000,0.000000,0.000000,0.000000,1772182557.809339,0.000000
172.000000,-794.626867,2130.031840,-1103.885603,2135.776238,-26127.490536,-21242.919116,-5194.746577,-3526.546481,1250.602454,70.720919,-18231.043903,1850.187999,-14029.474739,-6127.909556,-6333.769123,-3904.156852,0.010250,-0.014125,1.010125,192.000000,0.000000,40.000000,127.500000,64.000000,15.500000,80.000000,0.000000,0.000000,0.000000,1772182557.809351,0.000000
174.000000,-821.493664,2102.025104,-1132.294671,2109.468235,-26153.932649,-21271.752867,-5221.389857,-3552.988595,1186.318837,6.057323,-18292.846476,1789.815937,-14089.355062,-6190.203868,-6387.033330,-3954.515333,0.010250,-0.014125,1.010125,192.000000,0.000000,0.000000,0.000000,0.000000,0.000000,0.000000,0.000000,0.000000,0.000000,1772182557.809363,0.000000
176.000000,-773.638579,2154.037613,-1084.931324,2163.514753,-26104.512942,-21220.165041,-5173.780641,-3507.927478,1228.675393,49.754983,-18251.272231,1830.920795,-14048.518425,-6147.243815,-6347.202521,-3908.381332,0.010250,-0.014125,1.010125,192.000000,0.000000,0.000000,0.000000,0.000000,0.000000,0.000000,0.000000,0.000000,0.000000,1772182557.809374,0.000000
178.000000,-814.966955,2108.037723,-1135.110990,2110.742284,-26150.535184,-21263.460370,-5221.680429,-3551.558083,1220.628765,42.244797,-18260.123522,1820.169606,-14055.670983,-6151.915330,-6356.076164,-3921.054771,0.010250,-0.014125,1.010125,192.000000,0.000000,0.000000,0.000000,0.000000,0.000000,0.000000,0.000000,0.000000,0.000000,1772182557.809386,0.000000
180.000000,-765.659006,2161.681910,-1084.126661,2161.838372,-26091.995965,-21208.385671,-5176.015815,-3502.987743,1208.715285,30.666593,-18271.053525,1804.635144,-14074.401745,-6165.214618,-6374.516353,-3939.897292,0.010250,-0.014125,1.010125,192.000000,0.000000,0.000000,0.000000,0.000000,0.000000,0.000000,0.000000,0.000000,0.000000,1772182557.809398,0.000000
182.000000,-780.120585,2143.822866,-1097.582411,2146.102744,-26105.317605,-21221.215573,-5191.371464,-3516.801121,1259.476097,80.309818,-18219.130423,1854.233665,-14016.935410,-6114.744379,-6322.749713,-3883.615599,0.010125,-0.017063,1.007062,192.000000,0.000000,40.000000,127.500000,48.000000,15.500000,48.000000,0.000000,0.000000,0.000000,1772182557.809409,0.000000
184.000000,-810.876585,2113.133921,-1127.198473,2118.163063,-26132.989065,-21246.718913,-5217.344191,-3546.506589,1203.999067,17.121436,-18278.921339,1795.560336,-14068.970271,-6172.747156,-6375.768051,-3932.454161,0.010125,-0.017063,1.007062,192.000000,0.000000,0.000000,0.000000,0.000000,0.000000,0.000000,0.000000,0.000000,0.000000,1772182557.809421,0.000000
186.000000,-755.220742,2170.980235,-1073.174307,2170.890828,-26081.512997,-21191.174828,-5164.974053,-3495.052873,1247.339099,64.082451,-18237.794130,1836.754601,-14032.045189,-6124.042705,-6330.885748,-3886.588381,0.010125,-0.017063,1.007062,192.000000,0.000000,0.000000,0.000000,0.000000,0.000000,0.000000,0.000000,0.000000,0.000000,1772182557.809434,0.000000
188.000000,-807.233251,2112.798645,-1127.556101,2106.696618,-26133.346693,-21248.976439,-5221.613374,-3549.166447,1236.274986,52.705413,-18252.479226,1823.969403,-14044.852739,-6140.739458,-6339.848797,-3907.911945,0.010125,-0.017063,1.007062,192.000000,0.000000,0.000000,0.000000,0.000000,0.000000,0.000000,0.000000,0.000000,0.000000,1772182557.809445,0.000000
190.000000,-765.860172,2156.853933,-1080.505679,2146.818000,-26095.281672,-21213.548924,-5178.720376,-3505.826414,1211.106922,26.352707,-18271.366450,1800.880051,-14065.282233,-6170.199057,-6361.015899,-3944.725268,0.010125,-0.017063,1.007062,192.000000,0.000000,0.000000,0.000000,0.000000,0.000000,0.000000,0.000000,0.000000,0.000000,1772182557.809457,0.000000
192.000000,-779.382977,2143.174665,-1102.991534,2135.619776,-26113.788916,-21233.017294,-5190.969132,-3518.477502,1259.677262,73.045501,-18222.304371,1851.506752,-14019.707026,-6124.601498,-6323.643783,-3903.553355,0.011062,-0.016531,1.005531,192.000000,0.000000,48.000000,127.500000,64.000000,15.500000,48.000000,0.000000,0.000000,0.000000,1772182557.809469,0.000000
194.000000,-809.893109,2112.105741,-1130.774752,2112.441017,-26152.993876,-21263.639183,-5215.600755,-3545.612519,1200.422788,15.646221,-18280.709479,1793.459272,-14082.940112,-6175.518772,-6390.006112,-3961.600836,0.011062,-0.016531,1.005531,192.000000,0.000000,0.000000,0.000000,0.000000,0.000000,0.000000,0.000000,0.000000,0.000000,1772182558.288906,0.000000
196.000000,-760.629864,2162.464221,-1078.829298,2163.000663,-26101.003718,-21216.879334,-5164.884647,-3497.064530,1241.907625,58.405108,-18237.548260,1833.647708,-14042.662268,-6142.974632,-6349.638861,-3914.751579,0.011062,-0.016531,1.005531,192.000000,0.000000,0.000000,0.000000,0.000000,0.000000,0.000000,0.000000,0.000000,0.000000,1772182558.288991,0.000000
198.000000,-807.568527,2110.228194,-1131.735877,2106.160177,-26148.836452,-21270.814093,-5217.455949,-3547.221845,1233.860997,43.451791,-18248.679429,1820.907214,-14047.713762,-6155.111629,-6358.646614,-3927.827350,0.011062,-0.016531,1.005531,192.000000,0.000000,0.000000,0.000000,0.000000,0.000000,0.000000,0.000000,0.000000,0.000000,1772182558.289067,0.000000
200.000000,-773.862097,2151.713032,-1087.479423,2152.070660,-26112.023129,-21228.099910,-5175.658187,-3508.508624,1208.178843,16.160311,-18271.031174,1800.634182,-14076.055774,-6182.067833,-6377.287969,-3950.648481,0.011062,-0.016531,1.005531,192.000000,0.000000,0.000000,0.000000,0.000000,0.000000,0.000000,0.000000,0.000000,0.000000,1772182558.289091,0.000000
202.000000,-789.150690,2133.161084,-1105.897260,2136.379735,-26123.109594,-21235.878317,-5192.936086,-3529.496912,1248.546094,64.171858,-18230.328647,1845.538836,-14032.402817,-6133.922176,-6323.554376,-3899.395931,0.009531,-0.016266,1.004766,192.000000,0.000000,32.000000,127.500000,64.000000,15.500000,48.000000,0.000000,0.000000,0.000000,1772182558.289103,0.000000
204.000000,-801.846481,2116.397275,-1127.466694,2112.373961,-26132.005588,-21248.887032,-5219.042923,-3549.389964,1195.706570,9.655954,-18282.832895,1788.988923,-14082.068393,-6182.492516,-6366.290911,-3946.066373,0.009531,-0.016266,1.004766,192.000000,0.000000,0.000000,0.000000,0.000000,0.000000,0.000000,0.000000,0.000000,0.000000,1772182558.289182,0.000000
206.000000,-752.806753,2170.063814,-1075.901219,2167.023977,-26078.540215,-21193.857037,-5171.389004,-3499.299705,1257.687957,65.781184,-18231.133310,1840.844970,-14026.054922,-6130.368248,-6316.357114,-3890.187012,0.009531,-0.016266,1.004766,192.000000,0.000000,0.000000,0.000000,0.000000,0.000000,0.000000,0.000000,0.000000,0.000000,1772182558.289250,0.000000
208.000000,-807.836748,2112.418665,-1137.524979,2110.272898,-26138.644056,-21250.831634,-5229.056505,-3556.229598,1232.877521,50.403184,-18251.205176,1825.556377,-14046.149140,-6142.907577,-6332.740943,-3893.450367,0.009531,-0.016266,1.004766,192.000000,0.000000,0.000000,0.000000,0.000000,0.000000,0.000000,0.000000,0.000000,0.000000,1772182558.289318,0.000000
210.000000,-772.431585,2154.395241,-1091.480385,2158.776183,-26098.656785,-21208.430375,-5183.973036,-3513.873042,1208.223547,25.168064,-18277.736697,1801.260030,-14069.484361,-6164.387603,-6361.284120,-3913.477530,0.009531,-0.016266,1.004766,192.000000,0.000000,0.000000,0.000000,0.000000,0.000000,0.000000,0.000000,0.000000,0.000000,1772182558.289394,0.000000
212.000000,-789.888297,2134.032802,-1108.467711,2141.475933,-26122.640207,-21225.328293,-5198.993409,-3529.496912,1252.301187,73.671350,-18230.306295,1848.958653,-14029.944125,-6118.030085,-6317.429998,-3860.258026,0.006766,-0.016133,1.003383,192.000000,0.000000,16.000000,127.500000,64.000000,15.500000,40.000000,0.000000,0.000000,0.000000,1772182558.289471,0.000000
214.000000,-808.060266,2113.715066,-1130.461828,2115.726723,-26143.315571,-21247.590631,-5219.378200,-3549.948758,1194.454872,14.349820,-18290.141915,1792.922830,-14087.075184,-6177.396319,-6382.138298,-3922.708800,0.006766,-0.016133,1.003383,192.000000,0.000000,0.000000,0.000000,0.000000,0.000000,0.000000,0.000000,0.000000,0.000000,1772182558.289483,0.000000
216.000000,-755.466611,2168.745061,-1078.494022,2165.213485,-26100.891960,-21198.059165,-5170.696100,-3501.803100,1245.126277,64.328321,-18241.862147,1839.257996,-14040.941184,-6130.949394,-6345.995527,-3892.310428,0.006766,-0.016133,1.003383,192.000000,0.000000,0.000000,0.000000,0.000000,0.000000,0.000000,0.000000,0.000000,0.000000,1772182558.289495,0.000000
218.000000,-802.360571,2115.346744,-1132.808761,2106.942488,-26155.810196,-21260.956974,-5222.753313,-3548.607653,1230.821160,45.083469,-18251.763970,1822.963574,-14054.352230,-6148.897844,-6362.312300,-3919.937184,0.006766,-0.016133,1.003383,192.000000,0.000000,0.000000,0.000000,0.000000,0.000000,0.000000,0.000000,0.000000,0.000000,1772182558.289514,0.000000
220.000000,-753.142029,2168.767413,-1078.717539,2159.558494,-26100.959015,-21209.547962,-5172.707757,-3496.461033,1219.064143,29.392544,-18260.458798,1809.127844,-14068.836161,-6165.415784,-6379.053757,-3943.160646,0.006766,-0.016133,1.003383,192.000000,0.000000,0.000000,0.000000,0.000000,0.000000,0.000000,0.000000,0.000000,0.000000,1772182558.289526,0.000000
222.000000,-768.207105,2152.271825,-1090.876888,2139.441924,-26108.871533,-21224.613038,-5189.136289,-3514.118912,1270.271989,80.131004,-18210.748519,1856.178267,-14014.543773,-6115.750207,-6322.615602,-3890.924620,0.006766,-0.016133,1.003383,192.000000,0.000000,0.000000,0.000000,0.000000,0.000000,0.000000,0.000000,0.000000,0.000000,1772182558.289537,0.000000
224.000000,-791.944658,2126.097933,-1120.627060,2119.571223,-26126.372948,-21244.260221,-5212.739731,-3538.705830,1215.465512,25.302175,-18267.544301,1800.455368,-14068.255015,-6169.506153,-6370.604798,-3945.731097,0.008000,-0.018000,1.012000,192.000000,0.000000,32.000000,127.500000,56.000000,15.500000,80.000000,0.000000,0.000000,0.000000,1772182558.289549,0.000000
226.000000,-754.729003,2167.515715,-1076.728234,2171.762547,-26092.063021,-21199.154401,-5167.879780,-3498.092711,1253.016442,62.853105,-18232.876746,1842.767220,-14030.458216,-6129.764751,-6327.465931,-3893.517422,0.008000,-0.018000,1.012000,192.000000,0.000000,0.000000,0.000000,0.000000,0.000000,0.000000,0.000000,0.000000,0.000000,1772182558.289561,0.000000
228.000000,-812.821187,2102.650953,-1134.015755,2109.602345,-26141.862707,-21254.631430,-5223.557976,-3554.754383,1230.217663,42.468314,-18250.713438,1823.924699,-14053.078181,-6148.629623,-6342.240434,-3899.328875,0.008000,-0.018000,1.012000,192.000000,0.000000,0.000000,0.000000,0.000000,0.000000,0.000000,0.000000,0.000000,0.000000,1772182558.289572,0.000000
230.000000,-769.861134,2150.528389,-1088.172327,2158.351500,-26091.504227,-21200.070822,-5181.223772,-3512.934269,1201.138044,18.015506,-18276.216778,1794.509804,-14077.083954,-6170.690795,-6361.999376,-3908.113111,0.008000,-0.018000,1.012000,192.000000,0.000000,0.000000,0.000000,0.000000,0.000000,0.000000,0.000000,0.000000,0.000000,1772182558.289584,0.000000
232.000000,-784.099195,2135.597424,-1108.378304,2147.086221,-26110.257341,-21215.270008,-5197.473490,-3526.904109,1254.268140,73.112556,-18227.109996,1842.364888,-14020.064654,-6115.727856,-6312.154986,-3848.501009,0.008000,-0.018000,1.012000,192.000000,0.000000,0.000000,0.000000,0.000000,0.000000,0.000000,0.000000,0.000000,0.000000,1772182558.289596,0.000000
234.000000,-811.167158,2106.897784,-1134.798066,2124.332145,-26146.690684,-21251.658648,-5218.551185,-3549.725240,1194.991314,12.002887,-18285.783325,1788.005446,-14086.717556,-6173.551819,-6373.287007,-3910.460044,0.010000,-0.010000,1.008000,192.000000,0.000000,40.000000,127.500000,88.000000,15.500000,64.000000,0.000000,0.000000,0.000000,1772182558.289607,0.000000
236.000000,-763.714405,2159.737308,-1081.287990,2170.197924,-26113.498344,-21215.582933,-5167.320987,-3495.745778,1236.118524,54.381794,-18240.319877,1834.944109,-14047.579652,-6136.559681,-6340.295832,-3895.774948,0.010000,-0.010000,1.008000,192.000000,0.000000,0.000000,0.000000,0.000000,0.000000,0.000000,0.000000,0.000000,0.000000,1772182558.289619,0.000000
238.000000,-807.322658,2109.937621,-1131.154732,2109.289421,-26165.466150,-21274.546835,-5216.293659,-3539.577548,1223.758009,43.071812,-18248.500615,1828.596214,-14059.716649,-6151.267129,-6361.574693,-3933.661155,0.010000,-0.010000,1.008000,192.000000,0.000000,0.000000,0.000000,0.000000,0.000000,0.000000,0.000000,0.000000,0.000000,1772182558.289630,0.000000
240.000000,-760.942788,2159.938474,-1083.254943,2159.089107,-26121.232047,-21224.590686,-5170.673748,-3493.756472,1209.944631,22.508207,-18264.862092,1807.004429,-14078.134486,-6169.036766,-6385.625170,-3959.097440,0.010000,-0.010000,1.008000,192.000000,0.000000,0.000000,0.000000,0.000000,0.000000,0.000000,0.000000,0.000000,0.000000,1772182558.289642,0.000000
242.000000,-776.700768,2141.878264,-1100.488138,2139.888959,-26128.406957,-21238.359360,-5188.309275,-3511.794330,1260.169001,71.838507,-18218.661036,1852.244360,-14025.674942,-6124.869719,-6336.876015,-3909.677733,0.010000,-0.010000,1.008000,192.000000,0.000000,0.000000,0.000000,0.000000,0.000000,0.000000,0.000000,0.000000,0.000000,1772182558.289653,0.000000
244.000000,-796.794986,2119.682982,-1121.990516,2113.089217,-26144.500213,-21261.783989,-5212.695028,-3535.531883,1206.010724,14.394523,-18274.428639,1795.426225,-14081.822524,-6183.788918,-6383.457051,-3965.378280,0.002000,-0.010000,1.008000,192.000000,0.000000,8.000000,127.500000,88.000000,15.500000,64.000000,0.000000,0.000000,0.000000,1772182558.289665,0.000000
246.000000,-753.522009,2168.432137,-1074.135432,2164.609988,-26090.654861,-21213.705386,-5165.935179,-3489.040254,1249.686032,60.327358,-18228.026417,1842.476647,-14032.022838,-6139.554815,-6331.466893,-3916.897347,0.002000,-0.010000,1.008000,192.000000,0.000000,0.000000,0.000000,0.000000,0.000000,0.000000,0.000000,0.000000,0.000000,1772182558.289676,0.000000
248.000000,-801.287687,2116.732552,-1126.639679,2108.350647,-26140.342789,-21264.019163,-5220.518138,-3541.119819,1229.591814,43.183570,-18248.411208,1829.646746,-14049.345440,-6155.446906,-6340.564053,-3929.615489,0.002000,-0.010000,1.008000,192.000000,0.000000,0.000000,0.000000,0.000000,0.000000,0.000000,0.000000,0.000000,0.000000,1772182558.289688,0.000000
250.000000,-756.271274,2165.168782,-1075.342426,2155.937511,-26087.056230,-21211.917247,-5178.519211,-3496.259868,1217.521872,26.822093,-18264.213892,1808.747865,-14059.381373,-6168.880304,-6349.705917,-3940.590196,0.002000,-0.010000,1.008000,192.000000,0.000000,0.000000,0.000000,0.000000,0.000000,0.000000,0.000000,0.000000,0.000000,1772182558.289708,0.000000
252.000000,-783.629809,2134.904520,-1097.113025,2135.709183,-26104.781163,-21225.663570,-5199.149871,-3520.109179,1261.197181,71.547934,-18220.046844,1853.227836,-14016.644837,-6122.142806,-6295.771157,-3882.050977,0.002000,-0.010000,1.008000,192.000000,0.000000,0.000000,0.000000,0.000000,0.000000,0.000000,0.000000,0.000000,0.000000,1772182558.289720,0.000000
254.000000,-807.948507,2110.764636,-1122.146979,2119.750037,-26124.249533,-21236.213593,-5222.082761,-3547.244197,1197.472357,13.075771,-18283.458744,1795.962667,-14075.496981,-6173.887095,-6349.303585,-3916.025629,0.008000,-0.006000,1.008000,192.000000,0.000000,32.000000,127.500000,104.000000,15.500000,64.000000,0.000000,0.000000,0.000000,1772182558.289731,0.000000
0.000000,-760.965140,2161.771317,-1079.924533,2172.880134,-26090.967785,-21189.900779,-5173.981807,-3498.316228,1243.181675,63.389547,-18240.141063,1844.108325,-14032.983963,-6123.729780,-6318.994620,-3866.203590,0.008000,-0.006000,1.008000,192.000000,0.000000,0.000000,0.000000,0.000000,0.000000,0.000000,0.000000,0.000000,0.000000,1772182558.289743,0.000000
2.000000,-811.971821,2107.009543,-1142.241197,2115.413799,-26160.191138,-21259.660573,-5224.340287,-3546.104258,1225.747314,42.982405,-18254.848511,1830.138484,-14057.928509,-6145.902711,-6356.165571,-3907.509614,0.008000,-0.006000,1.008000,192.000000,0.000000,0.000000,0.000000,0.000000,0.000000,0.000000,0.000000,0.000000,0.000000,1772182558.289754,0.000000
4.000000,-765.927227,2156.853933,-1089.289914,2159.804363,-26121.388509,-21219.896820,-5175.926408,-3496.930420,1207.061256,24.519864,-18270.382973,1811.340667,-14079.162667,-6164.879342,-6389.000283,-3948.882693,0.008000,-0.006000,1.008000,192.000000,0.000000,0.000000,0.000000,0.000000,0.000000,0.000000,0.000000,0.000000,0.000000,1772182558.289766,0.000000
6.000000,-771.269294,2146.192151,-1096.040141,2143.375831,-26127.423480,-21235.297172,-5188.309275,-3508.575679,1256.592722,78.588734,-18214.682426,1860.805078,-14023.886803,-6116.018428,-6338.775914,-3909.923602,0.008000,-0.006000,1.008000,192.000000,0.000000,0.000000,0.000000,0.000000,0.000000,0.000000,0.000000,0.000000,0.000000,1772182558.289778,0.000000
8.000000,-791.944658,2124.421552,-1114.502682,2123.773351,-26141.952114,-21255.883128,-5208.716417,-3530.368630,1211.218680,21.591785,-18265.085610,1809.150196,-14069.439658,-6169.953188,-6385.155783,-3959.745641,0.014000,-0.002000,1.012000,192.000000,0.000000,56.000000,127.500000,120.000000,15.500000,80.000000,0.000000,0.000000,0.000000,1772182558.289789,0.000000
10.000000,-753.901989,2167.359253,-1072.302588,2174.489459,-26085.960994,-21205.189372,-5166.493972,-3486.983894,1256.212742,65.200039,-18223.444310,1850.500923,-14019.975247,-6124.914423,-6336.138408,-3910.504748,0.014000,-0.002000,1.012000,192.000000,0.000000,0.000000,0.000000,0.000000,0.000000,0.000000,0.000000,0.000000,0.000000,1772182558.289800,0.000000
12.000000,-806.719161,2109.512938,-1127.533749,2116.374924,-26142.019170,-21259.057076,-5222.239223,-3542.215054,1234.933881,50.917274,-18242.912679,1835.122923,-14044.092780,-6144.159275,-6349.169475,-3919.937184,0.014000,-0.002000,1.012000,192.000000,0.000000,0.000000,0.000000,0.000000,0.000000,0.000000,0.000000,0.000000,0.000000,1772182558.289812,0.000000
14.000000,-758.305282,2163.402994,-1077.979932,2162.017186,-26088.956128,-21205.457593,-5180.463812,-3500.819624,1212.224509,34.198169,-18270.427676,1811.050094,-14061.616547,-6160.453696,-6359.250111,-3933.862321,0.014000,-0.002000,1.012000,192.000000,0.000000,0.000000,0.000000,0.000000,0.000000,0.000000,0.000000,0.000000,0.000000,1772182558.289823,0.000000
16.000000,-781.819318,2135.820941,-1097.403598,2137.430267,-26107.396317,-21232.145576,-5199.574554,-3522.657278,1277.312789,89.406978,-18218.616333,1859.285159,-14003.323198,-6111.972763,-6302.588439,-3884.889649,0.014000,-0.002000,1.012000,192.000000,0.000000,0.000000,0.000000,0.000000,0.000000,0.000000,0.000000,0.000000,0.000000,1772182558.289834,0.000000
18.000000,-829.294423,2093.866717,-1126.058534,2114.005639,-26139.202850,-21258.520634,-5223.714438,-3557.280130,1187.190555,6.012619,-18290.633653,1788.519536,-14083.253036,-6185.286484,-6352.499885,-3941.081934,0.014000,-0.010000,1.004000,192.000000,0.000000,56.000000,127.500000,88.000000,15.500000,48.000000,0.000000,0.000000,0.000000,1772182558.289846,0.000000
20.000000,-794.895088,2128.780142,-1092.441510,2167.471012,-26107.284559,-21201.680148,-5180.597923,-3517.069342,1220.762875,46.379870,-18253.641516,1827.992717,-14045.411533,-6140.158312,-6315.418341,-3875.412509,0.014000,-0.010000,1.004000,192.000000,0.000000,0.000000,0.000000,0.000000,0.000000,0.000000,0.000000,0.000000,0.000000,1772182558.289857,0.000000
22.000000,-836.491684,2083.428452,-1150.488991,2116.285517,-26158.559460,-21247.456520,-5230.978755,-3560.051746,1196.801805,25.212768,-18278.429601,1810.848929,-14072.188922,-6154.843408,-6357.283158,-3877.602980,0.014000,-0.010000,1.004000,192.000000,0.000000,0.000000,0.000000,0.000000,0.000000,0.000000,0.000000,0.000000,0.000000,1772182558.289868,0.000000
24.000000,-770.509335,2153.903503,-1089.044045,2171.874305,-26108.178628,-21203.334177,-5173.981807,-3497.220993,1202.322686,25.279823,-18278.496656,1810.044266,-14073.932358,-6159.626682,-6382.048891,-3902.234602,0.014000,-0.010000,1.004000,192.000000,0.000000,0.000000,0.000000,0.000000,0.000000,0.000000,0.000000,0.000000,0.000000,1772182558.289880,0.000000
26.000000,-778.555963,2141.610043,-1100.957525,2149.030822,-26124.540105,-21229.463366,-5188.957475,-3505.178214,1260.705443,80.063949,-18219.219830,1862.392052,-14017.762425,-6111.659838,-6338.597100,-3887.840079,0.014000,-0.010000,1.004000,192.000000,0.000000,0.000000,0.000000,0.000000,0.000000,0.000000,0.000000,0.000000,0.000000,1772182558.289894,0.000000
28.000000,-780.344102,2139.710145,-1109.272374,2131.060020,-26131.782071,-21248.685866,-5204.581345,-3514.007153,1218.795922,33.572320,-18261.710496,1815.766313,-14055.045134,-6160.721917,-6385.602818,-3960.192676,0.014000,-0.004000,1.012000,192.000000,0.000000,56.000000,127.500000,112.000000,15.500000,80.000000,0.000000,0.000000,0.000000,1772182558.289907,0.000000
30.000000,-722.497788,2202.652657,-1052.275425,2180.591486,-26080.082486,-21198.014462,-5156.770963,-3464.743908,1282.140765,94.637286,-18205.294693,1868.784650,-14004.150212,-6109.312905,-6330.908100,-3920.853605,0.014000,-0.004000,1.012000,192.000000,0.000000,0.000000,0.000000,0.000000,0.000000,0.000000,0.000000,0.000000,0.000000,1772182558.289919,0.000000
32.000000,-792.503451,2126.209691,-1116.357877,2122.298136,-26134.620742,-21254.050285,-5214.661981,-3526.390019,1258.380861,74.610123,-18224.539545,1853.630168,-14024.982038,-6124.735609,-6341.838103,-3934.197597,0.014000,-0.004000,1.012000,192.000000,0.000000,0.000000,0.000000,0.000000,0.000000,0.000000,0.000000,0.000000,0.000000,1772182558.289931,0.000000
34.000000,-753.633768,2168.230971,-1078.538725,2169.750890,-26092.308890,-21208.698596,-5175.345263,-3490.783690,1229.770628,42.736535,-18253.462702,1823.723534,-14054.329879,-6150.931853,-6361.865266,-3944.769972,0.014000,-0.004000,1.012000,192.000000,0.000000,0.000000,0.000000,0.000000,0.000000,0.000000,0.000000,0.000000,0.000000,1772182558.289943,0.000000
36.000000,-779.002998,2139.710145,-1104.489101,2143.420535,-26115.308835,-21230.648009,-5196.668827,-3511.347295,1268.394443,78.141699,-18216.381158,1859.553380,-14014.566125,-6110.654010,-6317.385294,-3892.399835,0.014000,-0.004000,1.012000,192.000000,0.000000,0.000000,0.000000,0.000000,0.000000,0.000000,0.000000,0.000000,0.000000,1772182558.289954,0.000000
38.000000,-803.254640,2122.387543,-1126.282051,2123.885110,-26130.686835,-21247.970611,-5217.947688,-3532.067362,1203.663791,23.156407,-18273.042831,1803.428150,-14073.351213,-6172.657749,-6369.911894,-3941.327803,0.012000,-0.005000,1.010000,192.000000,0.000000,40.000000,127.500000,104.000000,15.500000,64.000000,0.000000,0.000000,0.000000,1772182558.289966,0.000000
40.000000,-773.482117,2154.015261,-1086.160670,2171.181401,-26083.412896,-21197.187447,-5179.726205,-3504.038275,1238.286643,61.981387,-18238.419978,1842.744868,-14032.849852,-6129.988269,-6314.099588,-3878.497050,0.012000,-0.005000,1.010000,192.000000,0.000000,0.000000,0.000000,0.000000,0.000000,0.000000,0.000000,0.000000,0.000000,1772182558.289977,0.000000
42.000000,-831.104914,2089.642237,-1145.593959,2113.625659,-26140.633361,-21246.316582,-5236.969022,-3565.371462,1212.269212,35.338108,-18269.623014,1813.821711,-14058.464951,-6151.423592,-6324.560204,-3876.284227,0.012000,-0.005000,1.010000,192.000000,0.000000,0.000000,0.000000,0.000000,0.000000,0.000000,0.000000,0.000000,0.000000,1772182558.289989,0.000000
44.000000,-781.416986,2142.124133,-1091.078054,2161.279578,-26092.152428,-21191.308938,-5187.392853,-3514.789464,1199.148738,19.110742,-18289.404308,1793.436920,-14070.981928,-6165.952225,-6342.240434,-3889.538811,0.012000,-0.005000,1.010000,192.000000,0.000000,0.000000,0.000000,0.000000,0.000000,0.000000,0.000000,0.000000,0.000000,1772182558.289999,0.000000
46.000000,-787.876640,2133.094029,-1103.080941,2139.397221,-26114.303006,-21213.951256,-5201.005066,-3519.460978,1257.330329,71.592637,-18234.262554,1844.063621,-14015.013160,-6115.750207,-6306.723512,-3864.527209,0.012000,-0.005000,1.010000,192.000000,0.000000,0.000000,0.000000,0.000000,0.000000,0.000000,0.000000,0.000000,0.000000,1772182558.290011,0.000000
48.000000,-781.394634,2137.922005,-1109.473540,2125.203863,-26137.213545,-21241.041570,-5208.984638,-3518.097522,1218.259480,28.029088,-18267.186674,1802.981115,-14066.466876,-6163.068850,-6372.594103,-3944.591158,0.013000,-0.005500,1.009000,192.000000,0.000000,56.000000,127.500000,104.000000,15.500000,64.000000,0.000000,0.000000,0.000000,1772182558.290022,0.000000
50.000000,-732.667832,2188.571058,-1061.707862,2173.416576,-26097.405088,-21206.821049,-5159.341414,-3467.493173,1283.079539,90.792786,-18204.288865,1858.949883,-14011.235715,-6110.206975,-6332.204501,-3917.545547,0.013000,-0.005500,1.009000,192.000000,0.000000,0.000000,0.000000,0.000000,0.000000,0.000000,0.000000,0.000000,0.000000,1772182558.290034,0.000000
52.000000,-798.203146,2118.028953,-1123.242214,2113.312735,-26148.501175,-21272.490474,-5217.210080,-3528.133455,1249.417812,59.723861,-18226.506499,1836.732249,-14034.526233,-6137.766676,-6356.322033,-3945.999318,0.013000,-0.005500,1.009000,192.000000,0.000000,0.000000,0.000000,0.000000,0.000000,0.000000,0.000000,0.000000,0.000000,1772182558.290045,0.000000
54.000000,-756.338329,2170.019110,-1077.398786,2165.213485,-26097.427439,-21221.953180,-5175.032339,-3488.190888,1222.752180,35.494570,-18256.055505,1815.721609,-14056.967384,-6161.817153,-6368.123754,-3960.505600,0.013000,-0.005500,1.009000,192.000000,0.000000,0.000000,0.000000,0.000000,0.000000,0.000000,0.000000,0.000000,0.000000,1772182558.290056,0.000000
56.000000,-784.434472,2138.793723,-1101.203394,2142.727630,-26106.703413,-21236.303000,-5197.518193,-3514.923574,1266.226323,79.393396,-18217.118766,1856.804115,-14012.442709,-6116.934850,-6316.312410,-3904.358018,0.013000,-0.005500,1.009000,192.000000,0.000000,0.000000,0.000000,0.000000,0.000000,0.000000,0.000000,0.000000,0.000000,1772182558.290068,0.000000
58.000000,-804.059303,2122.879281,-1121.565833,2126.544967,-26122.126117,-21245.824843,-5217.545356,-3534.637813,1200.713360,21.792951,-18278.161380,1795.046245,-14071.116039,-6169.528505,-6359.697146,-3944.255882,0.013500,-0.003750,1.009500,192.000000,0.000000,56.000000,127.500000,120.000000,15.500000,72.000000,0.000000,0.000000,0.000000,1772182558.769732,0.000000
60.000000,-762.954445,2159.826715,-1075.230667,2171.226105,-26074.315736,-21197.634482,-5178.429804,-3493.197679,1252.077669,64.909466,-18231.334475,1839.034479,-14021.919849,-6124.042705,-6309.137500,-3889.091777,0.013500,-0.003750,1.009500,192.000000,0.000000,0.000000,0.000000,0.000000,0.000000,0.000000,0.000000,0.000000,0.000000,1772182558.769803,0.000000
62.000000,-814.788141,2105.221403,-1128.249005,2112.888052,-26120.762661,-21244.014352,-5232.230453,-3541.969185,1234.643308,40.858989,-18246.287792,1816.794493,-14029.608849,-6141.991155,-6317.452349,-3897.473681,0.013500,-0.003750,1.009500,192.000000,0.000000,0.000000,0.000000,0.000000,0.000000,0.000000,0.000000,0.000000,0.000000,1772182558.769852,0.000000
64.000000,-773.504469,2153.612930,-1082.316170,2163.000663,-26082.183550,-21194.214665,-5184.531830,-3496.371626,1210.414017,24.542215,-18264.862092,1797.102606,-14057.995565,-6157.615025,-6336.630146,-3908.895422,0.013500,-0.003750,1.009500,192.000000,0.000000,0.000000,0.000000,0.000000,0.000000,0.000000,0.000000,0.000000,0.000000,1772182558.769895,0.000000
66.000000,-786.244963,2134.703354,-1102.477444,2142.414706,-26110.167934,-21216.611113,-5203.687275,-3519.416275,1260.347815,67.323454,-18224.561897,1842.856627,-14011.347474,-6115.750207,-6298.028683,-3858.402831,0.013500,-0.003750,1.009500,192.000000,0.000000,0.000000,0.000000,0.000000,0.000000,0.000000,0.000000,0.000000,0.000000,1772182558.769936,0.000000
68.000000,-801.153577,2118.833616,-1120.425894,2124.846235,-26131.335036,-21233.911363,-5219.400551,-3539.264624,1202.277983,13.433398,-18279.435430,1787.692522,-14070.087858,-6166.622778,-6361.239417,-3914.237489,0.010750,-0.004875,1.009750,192.000000,0.000000,32.000000,127.500000,104.000000,15.500000,72.000000,0.000000,0.000000,0.000000,1772182558.769978,0.000000
70.000000,-748.984605,2175.070605,-1070.313283,2176.277599,-26090.766620,-21185.586892,-5169.913789,-3487.922667,1255.676300,63.791879,-18232.250897,1835.100572,-14017.851832,-6122.567489,-6326.616565,-3872.260913,0.010750,-0.004875,1.009750,192.000000,0.000000,0.000000,0.000000,0.000000,0.000000,0.000000,0.000000,0.000000,0.000000,1772182558.770020,0.000000
72.000000,-800.728893,2119.750037,-1128.316060,2119.660630,-26151.272792,-21244.081407,-5225.077894,-3537.543540,1240.253596,49.307948,-18244.589060,1823.388257,-14037.588422,-6138.794856,-6357.014937,-3893.830346,0.010750,-0.004875,1.009750,192.000000,0.000000,0.000000,0.000000,0.000000,0.000000,0.000000,0.000000,0.000000,0.000000,1772182558.770032,0.000000
74.000000,-749.699861,2175.629398,-1080.505679,2175.428233,-26105.205846,-21198.126220,-5177.267513,-3487.028597,1226.306108,34.801666,-18257.374258,1812.458254,-14054.352230,-6153.345842,-6380.305455,-3905.229736,0.010750,-0.004875,1.009750,192.000000,0.000000,0.000000,0.000000,0.000000,0.000000,0.000000,0.000000,0.000000,0.000000,1772182558.770044,0.000000
76.000000,-770.174059,2151.623625,-1101.516319,2148.494381,-26125.076547,-21227.183488,-5201.250935,-3507.838071,1269.020291,84.601353,-18210.703815,1856.871171,-14013.225021,-6109.558774,-6335.534911,-3861.107392,0.010750,-0.004875,1.009750,192.000000,0.000000,0.000000,0.000000,0.000000,0.000000,0.000000,0.000000,0.000000,0.000000,1772182558.770056,0.000000
78.000000,-791.587030,2127.483741,-1116.357877,2122.521653,-26134.419576,-21245.422512,-5222.932127,-3530.525092,1211.039866,20.496550,-18267.052563,1792.274629,-14069.037326,-6169.953188,-6379.098461,-3926.016858,0.010375,-0.009437,1.010875,192.000000,0.000000,40.000000,127.500000,72.000000,15.500000,80.000000,0.000000,0.000000,0.000000,1772182558.770068,0.000000
80.000000,-755.377204,2168.610951,-1071.989664,2167.850991,-26090.610157,-21202.753032,-5178.988597,-3490.917801,1258.000881,64.887114,-18223.310199,1838.140409,-14016.354265,-6122.835710,-6319.061675,-3884.912000,0.010375,-0.009437,1.010875,192.000000,0.000000,0.000000,0.000000,0.000000,0.000000,0.000000,0.000000,0.000000,0.000000,1772182558.770081,0.000000
82.000000,-805.802739,2113.022162,-1130.484179,2111.301078,-26143.472033,-21257.112474,-5234.242110,-3543.712621,1232.251672,42.781239,-18248.545319,1819.744923,-14039.287155,-6146.416801,-6334.216158,-3906.414378,0.010375,-0.009437,1.010875,192.000000,0.000000,0.000000,0.000000,0.000000,0.000000,0.000000,0.000000,0.000000,0.000000,1772182558.770092,0.000000
84.000000,-763.960274,2159.871418,-1082.696150,2162.933607,-26087.391506,-21207.156325,-5187.906943,-3501.043141,1212.224509,26.509169,-18265.376182,1803.294039,-14059.783704,-6161.817153,-6344.900292,-3917.053809,0.010375,-0.009437,1.010875,192.000000,0.000000,0.000000,0.000000,0.000000,0.000000,0.000000,0.000000,0.000000,0.000000,1772182558.770105,0.000000
86.000000,-786.200259,2134.256319,-1106.009019,2140.000718,-26103.015375,-21226.490584,-5209.275211,-3527.909938,1261.510105,69.826850,-18228.205231,1843.214255,-14012.420358,-6119.952335,-6294.385349,-3865.398927,0.010375,-0.009437,1.010875,192.000000,0.000000,0.000000,0.000000,0.000000,0.000000,0.000000,0.000000,0.000000,0.000000,1772182558.770116,0.000000
88.000000,-804.506338,2115.570261,-1123.845711,2126.768485,-26121.477916,-21243.120282,-5222.641554,-3542.438572,1204.088474,11.466445,-18289.314901,1789.704179,-14068.411478,-6174.647054,-6353.170437,-3914.908041,0.012188,-0.011719,1.014438,192.000000,0.000000,56.000000,127.500000,72.000000,15.500000,104.000000,0.000000,0.000000,0.000000,1772182558.770128,0.000000
90.000000,-758.394689,2166.174610,-1076.661179,2176.612875,-26088.352631,-21195.064031,-5175.322911,-3494.941115,1250.289530,59.209771,-18242.108016,1839.839141,-14024.222079,-6128.155426,-6322.749713,-3865.644797,0.012188,-0.011719,1.014438,192.000000,0.000000,0.000000,0.000000,0.000000,0.000000,0.000000,0.000000,0.000000,0.000000,1772182558.770147,0.000000
92.000000,-800.371265,2118.028953,-1131.445304,2119.593575,-26148.836452,-21243.120282,-5229.369429,-3542.840903,1236.632614,50.023204,-18249.752313,1827.299813,-14040.628259,-6139.487760,-6350.890559,-3884.152041,0.012188,-0.011719,1.014438,192.000000,0.000000,0.000000,0.000000,0.000000,0.000000,0.000000,0.000000,0.000000,0.000000,1772182558.770159,0.000000
94.000000,-749.811619,2172.522506,-1073.956618,2171.695491,-26101.853085,-21193.186485,-5176.172277,-3489.017902,1223.735657,37.394468,-18258.827121,1813.017048,-14055.670983,-6151.401240,-6374.762222,-3911.778797,0.012188,-0.011719,1.014438,192.000000,0.000000,0.000000,0.000000,0.000000,0.000000,0.000000,0.000000,0.000000,0.000000,1772182558.770171,0.000000
96.000000,-765.524896,2155.401070,-1089.826356,2148.449677,-26116.135849,-21221.617904,-5194.277190,-3504.574717,1275.591704,87.708245,-18209.407414,1860.469801,-14004.753709,-6103.479100,-6326.661268,-3881.089852,0.012188,-0.011719,1.014438,192.000000,0.000000,0.000000,0.000000,0.000000,0.000000,0.000000,0.000000,0.000000,0.000000,1772182558.770183,0.000000
98.000000,-781.774614,2138.503151,-1104.980839,2133.585767,-26127.468184,-21241.063922,-5210.392798,-3516.778769,1223.646250,33.259396,-18264.482112,1809.463121,-14058.889634,-6154.977519,-6376.751527,-3942.557149,0.010094,-0.012859,1.012219,192.000000,0.000000,32.000000,127.500000,72.000000,15.500000,72.000000,0.000000,0.000000,0.000000,1772182558.770194,0.000000
100.000000,-735.282986,2185.642980,-1060.545571,2174.131831,-26087.816189,-21208.497430,-5169.086774,-3477.283237,1262.314768,78.119347,-18215.151812,1854.591293,-14013.359131,-6110.519899,-6323.844948,-3902.525175,0.010094,-0.012859,1.012219,192.000000,0.000000,0.000000,0.000000,0.000000,0.000000,0.000000,0.000000,0.000000,0.000000,1772182558.770206,0.000000
102.000000,-794.760978,2116.397275,-1121.744647,2115.100874,-26150.110501,-21269.763561,-5226.083723,-3538.147037,1255.966873,55.342919,-18235.223679,1831.189016,-14027.999524,-6141.410010,-6340.564053,-3929.973117,0.010094,-0.012859,1.012219,192.000000,0.000000,0.000000,0.000000,0.000000,0.000000,0.000000,0.000000,0.000000,0.000000,1772182558.770218,0.000000
104.000000,-769.749376,2155.602235,-1080.729196,2165.146430,-26105.988158,-21222.087291,-5182.117841,-3496.215164,1207.687105,19.557776,-18269.265386,1805.059827,-14069.931396,-6168.075641,-6361.597045,-3946.602815,0.010094,-0.012859,1.012219,192.000000,0.000000,0.000000,0.000000,0.000000,0.000000,0.000000,0.000000,0.000000,0.000000,1772182558.770229,0.000000
106.000000,-783.808623,2139.464276,-1103.952659,2140.827732,-26119.019225,-21238.202898,-5207.084740,-3523.014906,1252.100021,72.509059,-18228.831080,1851.283235,-14025.250259,-6119.371190,-6311.327971,-3896.266686,0.010094,-0.012859,1.012219,192.000000,0.000000,0.000000,0.000000,0.000000,0.000000,0.000000,0.000000,0.000000,0.000000,1772182558.770241,0.000000
108.000000,-802.472329,2115.369095,-1117.251947,2119.928851,-26126.708225,-21252.239794,-5224.764970,-3541.723316,1197.606468,12.673439,-18287.660871,1789.748882,-14079.721460,-6174.915275,-6356.836123,-3949.843818,0.010094,-0.012859,1.012219,192.000000,0.000000,0.000000,0.000000,0.000000,0.000000,0.000000,0.000000,0.000000,0.000000,1772182558.770252,0.000000
110.000000,-752.694995,2168.499192,-1067.586370,2165.615817,-26078.271994,-21203.222418,-5179.346225,-3490.873097,1253.239960,58.203943,-18231.423882,1838.967423,-14023.506823,-6126.277879,-6301.560259,-3903.083969,0.004000,-0.012000,1.010000,192.000000,0.000000,16.000000,127.500000,80.000000,15.500000,72.000000,0.000000,0.000000,0.000000,1772182558.770264,0.000000
112.000000,-792.525803,2125.025049,-1117.855444,2116.017296,-26129.189268,-21250.228137,-5229.816464,-3532.492045,1240.812390,50.045556,-18246.667772,1826.718667,-14038.504844,-6140.851216,-6321.363905,-3923.893443,0.004000,-0.012000,1.010000,192.000000,0.000000,0.000000,0.000000,0.000000,0.000000,0.000000,0.000000,0.000000,0.000000,1772182558.770276,0.000000
114.000000,-738.546340,2183.050177,-1062.981911,2173.640093,-26082.451771,-21195.019328,-5177.446327,-3478.914914,1227.401343,42.825942,-18252.814502,1820.951917,-14044.048076,-6147.266167,-6342.218082,-3934.063486,0.004000,-0.012000,1.010000,192.000000,0.000000,0.000000,0.000000,0.000000,0.000000,0.000000,0.000000,0.000000,0.000000,1772182558.770288,0.000000
116.000000,-754.505486,2163.179477,-1078.941057,2152.696508,-26110.279692,-21218.712177,-5194.433653,-3494.114100,1280.822013,92.893850,-18204.400623,1867.890581,-13997.154116,-6098.651123,-6310.389198,-3886.811899,0.004000,-0.012000,1.010000,192.000000,0.000000,0.000000,0.000000,0.000000,0.000000,0.000000,0.000000,0.000000,0.000000,1772182558.770300,0.000000
118.000000,-771.626922,2144.895750,-1097.984743,2135.351555,-26135.559515,-21240.907459,-5210.593964,-3506.340504,1226.909605,34.488742,-18252.009839,1816.459217,-14055.179245,-6154.686946,-6374.136373,-3945.284062,0.004000,-0.012000,1.010000,192.000000,0.000000,0.000000,0.000000,0.000000,0.000000,0.000000,0.000000,0.000000,0.000000,1772182558.770311,0.000000
120.000000,-734.500675,2185.039483,-1059.472687,2180.323265,-26091.683041,-21204.541171,-5167.656263,-3466.621455,1273.423585,77.985236,-18204.534734,1859.732194,-14009.402872,-6113.805606,-6329.231719,-3903.195727,0.002000,-0.014000,1.004000,192.000000,0.000000,8.000000,127.500000,72.000000,15.500000,48.000000,0.000000,0.000000,0.000000,1772182558.770323,0.000000
122.000000,-799.723065,2115.458502,-1126.237348,2111.904575,-26158.805330,-21274.368021,-5227.737752,-3533.363763,1241.639404,47.586864,-18236.721246,1832.708935,-14046.730285,-6142.996984,-6350.577635,-3929.056696,0.002000,-0.014000,1.004000,192.000000,0.000000,0.000000,0.000000,0.000000,0.000000,0.000000,0.000000,0.000000,0.000000,1772182558.770336,0.000000
124.000000,-758.148820,2162.106593,-1076.124737,2159.759660,-26106.189323,-21224.031892,-5182.564876,-3494.807004,1219.041791,23.648146,-18263.498636,1808.926679,-14069.350251,-6166.734536,-6362.066431,-3948.480362,0.002000,-0.014000,1.004000,192.000000,0.000000,0.000000,0.000000,0.000000,0.000000,0.000000,0.000000,0.000000,0.000000,1772182558.770347,0.000000
126.000000,-778.354797,2136.290328,-1092.955600,2133.406953,-26118.058100,-21245.668381,-5203.039074,-3517.382266,1263.298245,66.004701,-18223.109033,1846.969348,-14019.684675,-6125.495568,-6309.383370,-3906.257916,0.002000,-0.014000,1.004000,192.000000,0.000000,0.000000,0.000000,0.000000,0.000000,0.000000,0.000000,0.000000,0.000000,1772182558.770359,0.000000
128.000000,-774.711463,2136.983232,-1106.612516,2123.505130,-26120.069757,-21248.462349,-5219.467606,-3525.361839,1217.655983,11.712314,-18270.293566,1793.727493,-14064.723440,-6178.916237,-6355.338556,-3954.828257,0.002000,-0.014000,1.004000,192.000000,0.000000,0.000000,0.000000,0.000000,0.000000,0.000000,0.000000,0.000000,0.000000,1772182558.770370,0.000000
130.000000,-739.306300,2179.943285,-1067.608722,2173.662445,-26068.593689,-21194.818162,-5177.669844,-3484.413443,1281.269047,76.331207,-18215.241219,1850.679737,-14006.206573,-6116.152539,-6303.795433,-3893.919753,0.008000,-0.012000,1.006000,192.000000,0.000000,32.000000,127.500000,80.000000,15.500000,56.000000,0.000000,0.000000,0.000000,1772182558.770382,0.000000
132.000000,-794.515108,2117.894842,-1121.744647,2118.140712,-26112.939550,-21240.326314,-5234.309165,-3538.974051,1257.933826,53.443021,-18243.113845,1830.540816,-14026.144329,-6134.056286,-6321.050980,-3908.850719,0.008000,-0.012000,1.006000,192.000000,0.000000,0.000000,0.000000,0.000000,0.000000,0.000000,0.000000,0.000000,0.000000,1772182558.770393,0.000000
134.000000,-759.936960,2161.033709,-1070.246228,2168.163916,-26069.107779,-21190.370165,-5188.018702,-3494.739949,1226.328460,29.593710,-18257.486016,1812.771179,-14041.276460,-6149.747211,-6324.426094,-3918.931355,0.008000,-0.012000,1.006000,192.000000,0.000000,0.000000,0.000000,0.000000,0.000000,0.000000,0.000000,0.000000,0.000000,1772182558.770405,0.000000
136.000000,-771.381053,2146.192151,-1093.693208,2145.946282,-26088.710259,-21209.480907,-5208.850528,-3514.141263,1274.049434,85.629533,-18214.436557,1857.564075,-14002.809108,-6099.187565,-6283.164773,-3872.909114,0.008000,-0.012000,1.006000,192.000000,0.000000,0.000000,0.000000,0.000000,0.000000,0.000000,0.000000,0.000000,0.000000,1772182558.770416,0.000000
138.000000,-791.095292,2122.879281,-1108.445359,2131.887034,-26105.854047,-21223.741320,-5220.339325,-3527.194682,1219.064143,22.888186,-18266.829046,1803.495205,-14057.727344,-6151.222426,-6342.620414,-3928.564957,0.008000,-0.012000,1.006000,192.000000,0.000000,0.000000,0.000000,0.000000,0.000000,0.000000,0.000000,0.000000,0.000000,1772182558.770429,0.000000
140.000000,-739.842741,2178.602180,-1064.635940,2179.496250,-26074.449846,-21183.821104,-5176.909885,-3481.753586,1279.078576,78.655789,-18213.766004,1855.664176,-14002.809108,-6105.602515,-6305.874146,-3877.871201,0.006000,-0.010000,1.010000,192.000000,0.000000,24.000000,127.500000,88.000000,15.500000,72.000000,0.000000,0.000000,0.000000,1772182558.770440,0.000000
142.000000,-803.209937,2117.716028,-1125.745609,2116.799607,-26138.018207,-21252.038628,-5233.660964,-3538.012926,1244.343966,56.438155,-18241.169243,1836.285214,-14035.017971,-6132.804588,-6343.402725,-3909.007181,0.006000,-0.010000,1.010000,192.000000,0.000000,0.000000,0.000000,0.000000,0.000000,0.000000,0.000000,0.000000,0.000000,1772182558.770452,0.000000
144.000000,-757.053585,2168.745061,-1076.191792,2168.521544,-26107.083393,-21210.442032,-5184.151850,-3491.834222,1223.489788,44.122344,-18259.564729,1822.784760,-14058.643765,-6150.976557,-6367.028519,-3931.783608,0.006000,-0.010000,1.010000,192.000000,0.000000,0.000000,0.000000,0.000000,0.000000,0.000000,0.000000,0.000000,0.000000,1772182558.770464,0.000000
146.000000,-783.585105,2133.965747,-1102.186871,2139.419572,-26129.345730,-21240.885108,-5210.415150,-3519.773903,1264.371129,74.140736,-18219.488051,1858.927531,-14017.225983,-6118.365361,-6326.124826,-3887.013064,0.006000,-0.010000,1.010000,192.000000,0.000000,0.000000,0.000000,0.000000,0.000000,0.000000,0.000000,0.000000,0.000000,1772182558.770475,0.000000
148.000000,-797.353780,2120.711162,-1116.983726,2120.800569,-26133.681969,-21251.010448,-5225.614336,-3534.302537,1208.268250,15.042724,-18273.892197,1801.572955,-14076.592216,-6174.557647,-6376.550362,-3940.813713,0.006000,-0.010000,1.010000,192.000000,0.000000,0.000000,0.000000,0.000000,0.000000,0.000000,0.000000,0.000000,0.000000,1772182558.770486,0.000000
150.000000,-761.121602,2159.446735,-1073.107251,2166.979273,-26084.776352,-21202.708328,-5181.134365,-3492.527126,1255.609245,66.161164,-18227.489975,1848.690432,-14023.238602,-6124.020353,-6315.798320,-3890.432881,0.010000,-0.008000,1.010000,192.000000,0.000000,40.000000,127.500000,96.000000,15.500000,72.000000,0.000000,0.000000,0.000000,1772182558.770498,0.000000
152.000000,-809.669591,2103.276801,-1128.763095,2108.909441,-26132.966713,-21257.090122,-5236.499636,-3544.070249,1235.671489,36.254530,-18249.595851,1824.908176,-14046.327954,-6146.707373,-6332.405666,-3916.763236,0.010000,-0.008000,1.010000,192.000000,0.000000,0.000000,0.000000,0.000000,0.000000,0.000000,0.000000,0.000000,0.000000,1772182558.770509,0.000000
154.000000,-769.838783,2153.255302,-1083.321999,2161.592503,-26081.624756,-21200.674319,-5192.287885,-3502.764225,1215.286698,27.112666,-18265.711458,1812.391199,-14060.856588,-6156.318624,-6340.966385,-3922.954669,0.010000,-0.008000,1.010000,192.000000,0.000000,0.000000,0.000000,0.000000,0.000000,0.000000,0.000000,0.000000,0.000000,1772182558.770522,0.000000
156.000000,-808.306135,2110.496415,-1109.428836,2133.518712,-26114.884152,-21229.284552,-5218.484130,-3531.240348,1243.606358,55.499381,-18235.938935,1842.856627,-14029.899422,-6123.014524,-6300.688541,-3879.972265,0.010000,-0.008000,1.010000,192.000000,0.000000,0.000000,0.000000,0.000000,0.000000,0.000000,0.000000,0.000000,0.000000,1772182558.770534,0.000000
158.000000,-816.844501,2097.778272,-1119.665935,2121.716991,-26114.839448,-21234.067826,-5231.716362,-3546.193665,1195.415997,-0.290573,-18289.873694,1785.613809,-14080.257902,-6174.624702,-6344.877940,-3925.770989,0.010000,-0.008000,1.010000,192.000000,0.000000,0.000000,0.000000,0.000000,0.000000,0.000000,0.000000,0.000000,0.000000,1772182558.770545,0.000000
160.000000,-780.567620,2139.218407,-1078.069339,2168.812116,-26062.335201,-21187.755011,-5188.957475,-3505.848766,1249.551922,51.409012,-18239.291696,1834.295909,-14024.512652,-6123.975649,-6282.002483,-3867.947026,0.010000,-0.014000,1.012000,192.000000,0.000000,40.000000,127.500000,72.000000,15.500000,80.000000,0.000000,0.000000,0.000000,1772182558.770557,0.000000
162.000000,-827.483931,2087.496470,-1135.759191,2107.300116,-26116.225256,-21242.159157,-5243.071049,-3555.179066,1224.652079,29.705468,-18262.246938,1810.781874,-14046.976155,-6143.980461,-6310.188032,-3894.210326,0.010000,-0.014000,1.012000,192.000000,0.000000,0.000000,0.000000,0.000000,0.000000,0.000000,0.000000,0.000000,0.000000,1772182558.770569,0.000000
164.000000,-766.642483,2158.150334,-1078.225801,2165.526410,-26073.488721,-21191.823029,-5188.108109,-3494.449376,1218.997087,29.504303,-18269.488903,1805.171586,-14048.563129,-6147.154408,-6345.101457,-3918.484320,0.010000,-0.014000,1.012000,192.000000,0.000000,0.000000,0.000000,0.000000,0.000000,0.000000,0.000000,0.000000,0.000000,1772182558.770580,0.000000
166.000000,-788.457786,2129.048363,-1100.376380,2139.441924,-26109.005643,-21229.776291,-5210.057522,-3515.996458,1271.590742,79.102824,-18216.984655,1857.340557,-14004.373730,-6106.697751,-6320.045152,-3888.175355,0.010000,-0.014000,1.012000,192.000000,0.000000,0.000000,0.000000,0.000000,0.000000,0.000000,0.000000,0.000000,0.000000,1772182558.770592,0.000000
168.000000,-801.533556,2122.566357,-1111.529900,2127.416686,-26129.390434,-21244.237869,-5223.602679,-3529.541615,1208.089436,14.618041,-18276.149723,1799.807167,-14071.339556,-6171.003720,-6384.865211,-3953.040117,0.010000,-0.014000,1.012000,192.000000,0.000000,0.000000,0.000000,0.000000,0.000000,0.000000,0.000000,0.000000,0.000000,1772182558.770604,0.000000
170.000000,-764.563771,2158.575017,-1072.257885,2170.242628,-26092.532407,-21203.960026,-5182.855449,-3491.856574,1264.326425,72.889039,-18224.651304,1851.193828,-14018.298867,-6116.376056,-6330.326954,-3903.888631,0.011000,-0.011000,1.011000,192.000000,0.000000,48.000000,127.500000,96.000000,15.500000,72.000000,0.000000,0.000000,0.000000,1772182558.770615,0.000000
172.000000,-816.911556,2100.907517,-1137.390868,2108.305944,-26147.383588,-21262.320431,-5243.965118,-3549.702889,1232.363431,43.474143,-18251.741618,1822.136560,-14044.740980,-6143.935757,-6348.968309,-3928.050867,0.011000,-0.011000,1.011000,192.000000,0.000000,0.000000,0.000000,0.000000,0.000000,0.000000,0.000000,0.000000,0.000000,1772182558.770627,0.000000
174.000000,-783.026312,2145.521599,-1089.535783,2158.150334,-26099.953187,-21207.178677,-5197.495842,-3507.212222,1208.871747,22.642317,-18275.210950,1804.478682,-14066.735097,-6160.274882,-6358.579559,-3938.176207,0.011000,-0.011000,1.011000,192.000000,0.000000,0.000000,0.000000,0.000000,0.000000,0.000000,0.000000,0.000000,0.000000,1772182558.770638,0.000000
176.000000,-805.288649,2121.158197,-1112.826301,2135.329203,-26111.285521,-21220.947352,-5221.345153,-3533.475522,1242.913454,64.127155,-18238.576441,1843.035441,-14027.396027,-6116.845443,-6311.015047,-3883.056805,0.011000,-0.011000,1.011000,192.000000,0.000000,0.000000,0.000000,0.000000,0.000000,0.000000,0.000000,0.000000,0.000000,1772182558.770650,0.000000
178.000000,-816.576280,2102.248621,-1129.232482,2121.560528,-26116.404070,-21228.703407,-5237.751333,-3549.993461,1199.461663,6.750227,-18290.991281,1785.211478,-14073.552379,-6169.528505,-6356.456143,-3924.876919,0.011000,-0.011000,1.011000,192.000000,0.000000,0.000000,0.000000,0.000000,0.000000,0.000000,0.000000,0.000000,0.000000,1772182559.250723,0.000000
180.000000,-785.105024,2137.922005,-1089.826356,2164.252360,-26080.306003,-21187.509142,-5199.082816,-3516.711714,1248.032003,49.777335,-18244.767874,1830.205539,-14024.579707,-6123.908594,-6301.202631,-3866.047128,0.014500,-0.008500,1.010500,192.000000,0.000000,72.000000,127.500000,104.000000,15.500000,72.000000,0.000000,0.000000,0.000000,1772182559.250815,0.000000
182.000000,-839.218597,2079.740415,-1140.475409,2106.696618,-26120.516791,-21243.701427,-5250.916511,-3567.114898,1212.604488,24.318698,-18275.702688,1801.774121,-14048.876053,-6149.993080,-6311.663248,-3885.001407,0.014500,-0.008500,1.010500,192.000000,0.000000,0.000000,0.000000,0.000000,0.000000,0.000000,0.000000,0.000000,0.000000,1772182559.250862,0.000000
184.000000,-767.581256,2152.808267,-1074.336597,2167.895695,-26060.792930,-21187.419735,-5193.651342,-3500.417292,1213.923241,16.160311,-18274.294528,1799.337780,-14051.200634,-6155.737478,-6314.613678,-3899.083006,0.014500,-0.008500,1.010500,192.000000,0.000000,0.000000,0.000000,0.000000,0.000000,0.000000,0.000000,0.000000,0.000000,1772182559.250908,0.000000
186.000000,-780.768786,2140.112476,-1092.888545,2145.208674,-26088.509093,-21212.274875,-5210.996295,-3514.029505,1274.138841,80.600391,-18217.431690,1858.324034,-13999.076366,-6101.512146,-6284.371768,-3866.717680,0.014500,-0.008500,1.010500,192.000000,0.000000,0.000000,0.000000,0.000000,0.000000,0.000000,0.000000,0.000000,0.000000,1772182559.250974,0.000000
188.000000,-785.619114,2134.725706,-1102.365685,2136.916177,-26104.512942,-21227.921096,-5221.278098,-3520.913842,1228.295413,29.303137,-18265.644403,1811.005391,-14048.160797,-6153.658766,-6353.036327,-3935.248129,0.014500,-0.008500,1.010500,192.000000,0.000000,0.000000,0.000000,0.000000,0.000000,0.000000,0.000000,0.000000,0.000000,1772182559.251020,0.000000
190.000000,-750.571579,2167.895695,-1063.808926,2182.089052,-26077.355573,-21195.555770,-5181.223772,-3486.670969,1270.495507,74.453661,-18214.816536,1858.256979,-13997.668206,-6105.043722,-6314.680733,-3893.673884,0.013250,-0.008250,1.014250,192.000000,0.000000,48.000000,127.500000,96.000000,15.500000,104.000000,0.000000,0.000000,0.000000,1772182559.251066,0.000000
192.000000,-810.474254,2105.176700,-1125.544444,2118.721857,-26146.198946,-21258.878262,-5235.627918,-3540.717487,1243.762820,41.104858,-18244.253784,1827.478627,-14029.877070,-6135.620908,-6348.275405,-3921.658268,0.013250,-0.008250,1.014250,192.000000,0.000000,0.000000,0.000000,0.000000,0.000000,0.000000,0.000000,0.000000,0.000000,1772182559.251112,0.000000
194.000000,-769.570562,2157.300968,-1078.449318,2168.320378,-26102.188361,-21208.452726,-5187.951647,-3492.996513,1220.829930,26.375058,-18258.782418,1814.760484,-14053.234643,-6155.245740,-6364.659234,-3936.186902,0.013250,-0.008250,1.014250,192.000000,0.000000,0.000000,0.000000,0.000000,0.000000,0.000000,0.000000,0.000000,0.000000,1772182559.251168,0.000000
196.000000,-799.946582,2122.544005,-1113.519205,2138.570206,-26123.221352,-21229.888049,-5219.489958,-3526.144150,1248.210817,67.323454,-18228.406397,1850.456220,-14024.177375,-6116.711332,-6323.956707,-3888.980018,0.013250,-0.008250,1.014250,192.000000,0.000000,0.000000,0.000000,0.000000,0.000000,0.000000,0.000000,0.000000,0.000000,1772182559.251213,0.000000
198.000000,-804.372228,2112.932755,-1131.467656,2126.723781,-26123.400166,-21233.933715,-5239.673583,-3545.701926,1201.518023,3.039837,-18288.934921,1787.111376,-14073.574731,-6171.383699,-6375.745699,-3931.448332,0.013250,-0.008250,1.014250,192.000000,0.000000,0.000000,0.000000,0.000000,0.000000,0.000000,0.000000,0.000000,0.000000,1772182559.251279,0.000000
200.000000,-776.678416,2154.730517,-1091.547440,2167.918046,-26094.633471,-21192.203008,-5204.581345,-3513.671877,1246.802657,64.618893,-18241.370409,1837.715726,-14025.294963,-6115.705504,-6320.827463,-3873.289093,0.012625,-0.010125,1.013125,192.000000,0.000000,48.000000,127.500000,80.000000,15.500000,80.000000,0.000000,0.000000,0.000000,1772182559.251324,0.000000
202.000000,-833.965937,2081.640313,-1144.588130,2105.489624,-26140.767472,-21248.708218,-5259.387822,-3568.277188,1215.487863,31.873588,-18272.908720,1807.093836,-14057.526178,-6148.428458,-6339.222948,-3893.159794,0.012625,-0.010125,1.013125,192.000000,0.000000,0.000000,0.000000,0.000000,0.000000,0.000000,0.000000,0.000000,0.000000,1772182559.251340,0.000000
204.000000,-776.924286,2143.062907,-1085.735987,2164.319416,-26075.656840,-21187.911473,-5207.844699,-3518.477502,1210.369314,11.220576,-18281.827066,1792.855775,-14060.789533,-6159.090240,-6337.814789,-3889.315294,0.012625,-0.010125,1.013125,192.000000,0.000000,0.000000,0.000000,0.000000,0.000000,0.000000,0.000000,0.000000,0.000000,1772182559.251351,0.000000
206.000000,-792.726969,2125.449732,-1102.902127,2140.425401,-26089.649032,-21212.408985,-5228.497711,-3537.543540,1258.738489,65.177687,-18237.034170,1833.848874,-14008.173526,-6108.843518,-6283.589457,-3846.243482,0.012625,-0.010125,1.013125,192.000000,0.000000,0.000000,0.000000,0.000000,0.000000,0.000000,0.000000,0.000000,0.000000,1772182559.251362,0.000000
208.000000,-801.019466,2116.710200,-1113.072170,2128.623680,-26101.160181,-21229.619828,-5237.036078,-3543.645566,1207.754160,12.382866,-18284.866903,1783.892725,-14059.359021,-6159.023185,-6334.998469,-3913.924565,0.012625,-0.010125,1.013125,192.000000,0.000000,0.000000,0.000000,0.000000,0.000000,0.000000,0.000000,0.000000,0.000000,1772182559.251374,0.000000
210.000000,-752.404422,2170.667311,-1066.088804,2176.769337,-26071.365305,-21187.375031,-5189.404510,-3492.683589,1265.064033,72.397300,-18226.975885,1845.449429,-14005.580724,-6110.385789,-6291.770195,-3879.681692,0.010313,-0.009063,1.013562,192.000000,0.000000,32.000000,127.500000,96.000000,15.500000,88.000000,0.000000,0.000000,0.000000,1772182559.251419,0.000000
212.000000,-803.992248,2114.475025,-1125.410333,2117.023124,-26138.956981,-21250.518709,-5241.819351,-3544.629043,1244.343966,50.738460,-18245.304316,1826.606909,-14031.285230,-6133.743362,-6328.404704,-3917.299678,0.010313,-0.009063,1.013562,192.000000,0.000000,0.000000,0.000000,0.000000,0.000000,0.000000,0.000000,0.000000,0.000000,1772182559.251431,0.000000
214.000000,-762.328596,2164.185305,-1074.940094,2172.656616,-26095.102858,-21202.350700,-5191.930257,-3501.914859,1221.858111,32.275919,-18265.577348,1808.189071,-14050.708896,-6151.445943,-6354.489190,-3938.131504,0.010313,-0.009063,1.013562,192.000000,0.000000,0.000000,0.000000,0.000000,0.000000,0.000000,0.000000,0.000000,0.000000,1772182559.251442,0.000000
216.000000,-782.422815,2139.106648,-1102.991534,2148.270863,-26121.835544,-21224.903610,-5218.551185,-3525.071266,1268.662664,77.404091,-18223.377254,1851.082069,-14011.727454,-6105.893088,-6315.865376,-3892.131614,0.010313,-0.009063,1.013562,192.000000,0.000000,0.000000,0.000000,0.000000,0.000000,0.000000,0.000000,0.000000,0.000000,1772182559.251454,0.000000
218.000000,-801.041818,2119.772389,-1120.716467,2130.344764,-26139.091091,-21239.164023,-5235.113828,-3541.969185,1208.849395,20.295384,-18279.524836,1796.566164,-14074.535856,-6159.760792,-6375.566885,-3941.148989,0.010313,-0.009063,1.013562,192.000000,0.000000,0.000000,0.000000,0.000000,0.000000,0.000000,0.000000,0.000000,0.000000,1772182559.251467,0.000000
220.000000,-771.045777,2150.237817,-1089.222859,2163.335939,-26095.840466,-21196.941578,-5203.307295,-3512.934269,1255.586893,62.853105,-18240.051656,1834.787647,-14027.418378,-6117.828920,-6327.957669,-3885.627256,0.009156,-0.009531,1.011781,192.000000,0.000000,32.000000,127.500000,88.000000,15.500000,72.000000,0.000000,0.000000,0.000000,1772182559.251478,0.000000
222.000000,-824.891129,2094.134938,-1142.174142,2100.773406,-26150.982219,-21252.843291,-5260.214837,-3566.332587,1223.556843,29.370192,-18274.719211,1800.343609,-14056.699164,-6149.188417,-6352.097553,-3907.129634,0.009156,-0.009531,1.011781,192.000000,0.000000,0.000000,0.000000,0.000000,0.000000,0.000000,0.000000,0.000000,0.000000,1772182559.251490,0.000000
224.000000,-776.678416,2145.901578,-1083.545516,2159.044404,-26091.571282,-21196.472191,-5207.844699,-3516.935231,1210.659887,16.629698,-18277.557883,1795.560336,-14059.470780,-6161.794801,-6349.661213,-3907.174338,0.009156,-0.009531,1.011781,192.000000,0.000000,0.000000,0.000000,0.000000,0.000000,0.000000,0.000000,0.000000,0.000000,1772182559.251501,0.000000
226.000000,-805.400408,2115.145578,-1111.664010,2136.156218,-26117.633416,-21233.643142,-5232.543377,-3543.042069,1248.836666,54.717070,-18241.303353,1833.915929,-14022.210422,-6125.383809,-6304.555393,-3860.906227,0.009156,-0.009531,1.011781,192.000000,0.000000,0.000000,0.000000,0.000000,0.000000,0.000000,0.000000,0.000000,0.000000,1772182559.251512,0.000000
228.000000,-810.429550,2109.244717,-1119.107141,2130.411819,-26121.902600,-21244.640201,-5241.282909,-3551.535732,1194.030189,-0.223517,-18294.098174,1781.121109,-14072.993585,-6177.910409,-6346.509617,-3920.071294,0.009156,-0.009531,1.011781,192.000000,0.000000,0.000000,0.000000,0.000000,0.000000,0.000000,0.000000,0.000000,0.000000,1772182559.251523,0.000000
230.000000,-755.556018,2164.632340,-1072.794327,2180.010340,-26070.024201,-21197.030985,-5194.500708,-3501.043141,1259.096117,65.289446,-18233.882574,1842.208426,-14012.956800,-6117.650106,-6286.226962,-3877.178297,0.007578,-0.012766,1.008891,192.000000,0.000000,24.000000,127.500000,64.000000,15.500000,56.000000,0.000000,0.000000,0.000000,1772182559.251535,0.000000
232.000000,-794.850385,2124.466255,-1120.582357,2124.957994,-26130.239800,-21247.501224,-5240.746467,-3539.309328,1241.773515,51.297254,-18248.299449,1828.730324,-14034.101550,-6132.379905,-6319.441655,-3908.224870,0.007578,-0.012766,1.008891,192.000000,0.000000,0.000000,0.000000,0.000000,0.000000,0.000000,0.000000,0.000000,0.000000,1772182559.251547,0.000000
234.000000,-744.916587,2179.697416,-1065.015920,2178.401015,-26083.390544,-21195.175790,-5187.526964,-3485.083995,1240.477114,45.374041,-18250.400513,1825.154045,-14038.616602,-6139.577167,-6339.759390,-3922.775855,0.007578,-0.012766,1.008891,192.000000,0.000000,0.000000,0.000000,0.000000,0.000000,0.000000,0.000000,0.000000,0.000000,1772182559.251558,0.000000
