Sample_index,EXG Channel 0,EXG Channel 1,EXG Channel 2,EXG Channel 3,EXG Channel 4,EXG Channel 5,EXG Channel 6,EXG Channel 7,EXG Channel 8,EXG Channel 9,EXG Channel 10,EXG Channel 11,EXG Channel 12,EXG Channel 13,EXG Channel 14,EXG Channel 15,Accel Channel 0,Accel Channel 1,Accel Channel 2,Not Used,Digital Channel 0 (D11),Digital Channel 1 (D12),Digital Channel 2 (D13),Digital Channel 3 (D17),Not Used,Digital Channel 4 (D18),Analog Channel 0,Analog Channel 1,Analog Channel 2,Timestamp,Marker Channel
90.000000,-895.902621,1918.852558,-1513.168396,1627.363459,-25779.339764,-21877.887473,-4647.084134,-3893.807995,1278.050396,-185.497127,-18548.259860,1929.916672,-14086.426984,-7909.723569,-6910.019447,-5951.464886,0.004000,-0.012000,1.008000,192.000000,0.000000,0.000000,0.000000,0.000000,0.000000,0.000000,0.000000,0.000000,0.000000,1772181966.876047,101.000000
92.000000,-849.388641,1970.194515,-1464.665111,1672.737500,-25733.228115,-21829.048911,-4599.206698,-3843.985956,1247.182637,-215.671982,-18578.099439,1899.808872,-14120.826318,-7941.887729,-6954.924101,-5999.498784,0.004000,-0.012000,1.008000,192.000000,0.000000,0.000000,0.000000,0.000000,0.000000,0.000000,0.000000,0.000000,0.000000,1772181966.876099,0.000000
94.000000,-862.777336,1954.391832,-1472.488221,1663.617988,-25741.587668,-21835.553269,-4607.856823,-3853.865427,1307.420588,-153.936464,-18513.681711,1963.019605,-14056.632108,-7860.773249,-6894.082653,-5938.769095,0.004000,-0.018000,1.000000,192.000000,0.000000,16.000000,127.500000,56.000000,15.500000,32.000000,0.000000,0.000000,0.000000,1772181966.876146,0.000000
96.000000,-901.781130,1914.113988,-1513.503672,1623.228386,-25773.997697,-21872.411295,-4651.085097,-3897.540736,1244.098096,-219.874110,-18580.267558,1897.506642,-14117.406501,-7946.916872,-6954.857046,-5996.749520,0.004000,-0.018000,1.000000,192.000000,0.000000,0.000000,0.000000,0.000000,0.000000,0.000000,0.000000,0.000000,0.000000,1772181966.876184,0.000000
98.000000,-839.911501,1979.694006,-1449.510628,1686.483823,-25714.050318,-21806.384242,-4590.802442,-3838.688593,1283.347760,-173.427185,-18542.090779,1937.695079,-14068.009146,-7880.889819,-6910.108854,-5951.844865,0.004000,-0.018000,1.000000,192.000000,0.000000,0.000000,0.000000,0.000000,0.000000,0.000000,0.000000,0.000000,0.000000,1772181966.876221,0.000000
100.000000,-916.220357,1901.418197,-1522.511425,1615.226461,-25780.569110,-21875.697002,-4661.635120,-3915.198614,1274.161193,-185.832403,-18554.607755,1923.233500,-14086.672853,-7922.978154,-6912.008752,-5958.282168,0.004000,-0.018000,1.000000,192.000000,0.000000,0.000000,0.000000,0.000000,0.000000,0.000000,0.000000,0.000000,0.000000,1772181966.876259,0.000000
102.000000,-879.608200,1943.640643,-1480.825422,1662.701567,-25732.892839,-21822.991588,-4623.637155,-3880.776928,1225.948480,-232.614605,-18605.033291,1876.764223,-14118.948772,-7958.338613,-6944.396430,-5979.248104,0.004000,-0.018000,1.000000,192.000000,0.000000,0.000000,0.000000,0.000000,0.000000,0.000000,0.000000,0.000000,0.000000,1772181966.876284,0.000000
104.000000,-887.096034,1933.716468,-1492.224812,1653.269130,-25737.899630,-21829.987684,-4634.768323,-3890.276419,1288.108681,-168.956836,-18541.196709,1935.929291,-14077.396879,-7885.583685,-6876.067147,-5904.123891,0.002000,-0.012000,1.000000,192.000000,0.000000,8.000000,127.500000,80.000000,15.500000,32.000000,0.000000,0.000000,0.000000,1772181966.876295,0.000000
106.000000,-917.695572,1899.697113,-1528.188768,1611.001982,-25770.510825,-21862.800045,-4673.101565,-3924.139312,1225.769666,-238.247244,-18607.424928,1869.030520,-14139.266508,-7935.115151,-6935.925118,-5963.959511,0.002000,-0.012000,1.000000,192.000000,0.000000,0.000000,0.000000,0.000000,0.000000,0.000000,0.000000,0.000000,0.000000,1772181966.876307,0.000000
108.000000,-849.679214,1971.557971,-1455.366785,1681.477032,-25708.462382,-21800.326920,-4603.565288,-3850.803238,1275.770518,-187.821709,-18554.943032,1918.986668,-14086.181114,-7897.854793,-6891.378092,-5929.023734,0.002000,-0.012000,1.000000,192.000000,0.000000,0.000000,0.000000,0.000000,0.000000,0.000000,0.000000,0.000000,0.000000,1772181966.876318,0.000000
110.000000,-908.218432,1908.950735,-1520.812693,1621.529653,-25780.367944,-21872.701868,-4663.669129,-3908.113111,1272.194239,-190.705084,-18555.278308,1924.664012,-14087.410460,-7904.627371,-6906.107891,-5935.729258,0.002000,-0.012000,1.000000,192.000000,0.000000,0.000000,0.000000,0.000000,0.000000,0.000000,0.000000,0.000000,0.000000,1772181966.876329,0.000000
112.000000,-859.446926,1961.902018,-1470.275399,1671.552857,-25736.044435,-21825.986722,-4613.422407,-3858.671052,1238.085477,-223.852721,-18589.521180,1894.690322,-14121.072188,-7940.703087,-6951.034898,-5974.084851,0.002000,-0.012000,1.000000,192.000000,0.000000,0.000000,0.000000,0.000000,0.000000,0.000000,0.000000,0.000000,0.000000,1772181966.876340,0.000000
114.000000,-864.140792,1956.492896,-1480.601904,1662.612160,-25741.475909,-21833.921592,-4619.904413,-3864.862486,1305.252469,-155.255217,-18523.784700,1961.097355,-14056.632108,-7878.788755,-6887.645350,-5918.451359,0.004000,-0.013000,0.997000,192.000000,0.000000,24.000000,127.500000,72.000000,15.500000,8.000000,0.000000,0.000000,0.000000,1772181966.876351,0.000000
116.000000,-898.428368,1920.171311,-1518.733981,1624.323621,-25778.132770,-21873.171255,-4659.042318,-3900.245297,1239.895968,-221.550491,-18589.968215,1893.908011,-14119.775786,-7955.388183,-6956.041688,-5990.535735,0.004000,-0.013000,0.997000,192.000000,0.000000,0.000000,0.000000,0.000000,0.000000,0.000000,0.000000,0.000000,0.000000,1772181966.876362,0.000000
118.000000,-834.636490,1988.634704,-1449.778849,1690.238916,-25706.897760,-21805.110193,-4593.708169,-3835.604052,1285.270010,-174.656531,-18540.459101,1941.293709,-14063.717611,-7893.518554,-6911.271144,-5951.621348,0.004000,-0.013000,0.997000,192.000000,0.000000,0.000000,0.000000,0.000000,0.000000,0.000000,0.000000,0.000000,0.000000,1772181966.876373,0.000000
120.000000,-898.785996,1919.478407,-1519.337478,1621.999040,-25775.316450,-21867.806836,-4662.663300,-3904.201556,1280.777309,-184.178374,-18548.416322,1931.838922,-14079.028556,-7900.984037,-6916.724970,-5956.628139,0.004000,-0.013000,0.997000,192.000000,0.000000,0.000000,0.000000,0.000000,0.000000,0.000000,0.000000,0.000000,0.000000,1772181966.876384,0.000000
122.000000,-857.882304,1966.774698,-1476.377425,1669.585904,-25730.054168,-21813.402690,-4621.491387,-3865.801259,1240.231245,-216.454293,-18592.873942,1893.796252,-14132.806853,-7935.383372,-6954.901749,-5978.175220,0.004000,-0.013000,0.997000,192.000000,0.000000,0.000000,0.000000,0.000000,0.000000,0.000000,0.000000,0.000000,0.000000,1772181966.876403,0.000000
124.000000,-866.040691,1956.202323,-1486.905096,1657.918293,-25736.647932,-21821.605780,-4631.326155,-3874.250218,1306.012429,-151.880104,-18530.445520,1957.006986,-14064.052887,-7882.320330,-6889.589952,-5901.687551,0.005000,-0.012500,0.996500,192.000000,0.000000,24.000000,127.500000,80.000000,15.500000,16.000000,0.000000,0.000000,0.000000,1772181966.876415,0.000000
126.000000,-905.737389,1914.315154,-1524.366620,1617.752208,-25776.411686,-21869.192644,-4667.625388,-3911.734094,1234.933881,-224.679735,-18598.126602,1888.141261,-14130.571679,-7946.492189,-6951.906616,-5965.434726,0.005000,-0.012500,0.996500,192.000000,0.000000,0.000000,0.000000,0.000000,0.000000,0.000000,0.000000,0.000000,0.000000,1772181966.876426,0.000000
128.000000,-848.852199,1972.206172,-1461.357052,1681.767605,-25713.893856,-21807.837106,-4603.587640,-3852.881950,1277.066919,-184.580706,-18553.266651,1928.732029,-14086.449335,-7896.357226,-6903.917420,-5926.006249,0.005000,-0.012500,0.996500,192.000000,0.000000,0.000000,0.000000,0.000000,0.000000,0.000000,0.000000,0.000000,0.000000,1772181966.876437,0.000000
130.000000,-912.733485,1905.217994,-1531.139199,1613.371267,-25789.867436,-21878.110990,-4667.468925,-3914.058675,1263.454707,-198.841119,-18565.336593,1915.477445,-14099.189830,-7908.829499,-6916.792025,-5937.048010,0.005000,-0.012500,0.996500,192.000000,0.000000,0.000000,0.000000,0.000000,0.000000,0.000000,0.000000,0.000000,0.000000,1772181966.876448,0.000000
132.000000,-852.987272,1964.405413,-1477.159736,1663.550933,-25742.124110,-21832.759301,-4617.803349,-3858.894570,1233.168093,-233.106343,-18593.477439,1885.883735,-14131.689266,-7955.455238,-6954.946453,-5984.433709,0.005000,-0.012500,0.996500,192.000000,0.000000,0.000000,0.000000,0.000000,0.000000,0.000000,0.000000,0.000000,0.000000,1772181966.876459,0.000000
134.000000,-870.823964,1949.183875,-1487.128614,1652.911502,-25752.517671,-21846.840900,-4625.917032,-3867.276474,1308.471120,-160.530229,-18518.934371,1956.492896,-14053.458161,-7883.817897,-6887.175964,-5927.414409,0.005500,-0.013250,0.999250,192.000000,0.000000,24.000000,127.500000,72.000000,15.500000,40.000000,0.000000,0.000000,0.000000,1772181966.876471,0.000000
136.000000,-912.889947,1907.073189,-1524.098399,1617.931022,-25789.956843,-21887.811647,-4658.908207,-3902.122844,1222.729829,-235.989718,-18592.270445,1887.761281,-14141.881662,-7953.287119,-6954.097087,-5994.559049,0.005500,-0.013250,0.999250,192.000000,0.000000,0.000000,0.000000,0.000000,0.000000,0.000000,0.000000,0.000000,0.000000,1772181966.876482,0.000000
138.000000,-855.781240,1969.434556,-1460.150058,1683.600448,-25724.868563,-21821.963408,-4594.781052,-3843.136590,1265.578123,-190.168642,-18547.991639,1933.180026,-14097.982836,-7920.519462,-6906.934906,-5947.106295,0.005500,-0.013250,0.999250,192.000000,0.000000,0.000000,0.000000,0.000000,0.000000,0.000000,0.000000,0.000000,0.000000,1772181966.876493,0.000000
140.000000,-913.940479,1907.408465,-1532.279138,1612.253679,-25794.717764,-21886.358784,-4665.479620,-3910.482396,1251.541227,-199.645781,-18563.190825,1920.908918,-14109.985722,-7928.409627,-6922.603479,-5955.443496,0.005500,-0.013250,0.999250,192.000000,0.000000,0.000000,0.000000,0.000000,0.000000,0.000000,0.000000,0.000000,0.000000,1772181966.876504,0.000000
142.000000,-857.234103,1965.902980,-1473.024663,1665.562590,-25729.651836,-21825.450280,-4614.092960,-3854.737145,1230.128256,-224.746790,-18592.829239,1891.158747,-14135.891394,-7940.144293,-6959.327395,-5988.144098,0.005500,-0.013250,0.999250,192.000000,0.000000,0.000000,0.000000,0.000000,0.000000,0.000000,0.000000,0.000000,0.000000,1772181966.876515,0.000000
144.000000,-859.826906,1963.377233,-1476.131556,1661.181648,-25738.391368,-21829.294780,-4616.506948,-3856.681747,1306.168891,-150.471944,-18515.693368,1963.958378,-14047.445541,-7869.781002,-6881.588028,-5916.819682,0.008750,-0.012625,1.000625,192.000000,0.000000,48.000000,127.500000,80.000000,15.500000,40.000000,0.000000,0.000000,0.000000,1772181966.876526,0.000000
146.000000,-901.021171,1921.311250,-1514.867129,1621.663764,-25789.219235,-21874.579415,-4654.773135,-3895.126748,1237.325518,-215.739037,-18583.732079,1899.048912,-14127.934173,-7940.993660,-6952.554816,-5981.550334,0.008750,-0.012625,1.000625,192.000000,0.000000,0.000000,0.000000,0.000000,0.000000,0.000000,0.000000,0.000000,0.000000,1772181966.876536,0.000000
148.000000,-840.090315,1985.036073,-1452.103430,1686.617933,-25726.008502,-21817.716577,-4592.635285,-3834.262947,1278.050396,-177.405796,-18540.839081,1942.321890,-14092.149030,-7911.042322,-6909.617115,-5943.038278,0.008750,-0.012625,1.000625,192.000000,0.000000,0.000000,0.000000,0.000000,0.000000,0.000000,0.000000,0.000000,0.000000,1772181966.876548,0.000000
150.000000,-902.943421,1916.438570,-1524.187806,1618.780389,-25792.281424,-21883.006022,-4659.131725,-3901.295829,1270.763728,-185.899459,-18550.360924,1931.593052,-14099.011016,-7907.667209,-6919.429531,-5956.739897,0.008750,-0.012625,1.000625,192.000000,0.000000,0.000000,0.000000,0.000000,0.000000,0.000000,0.000000,0.000000,0.000000,1772181966.876559,0.000000
152.000000,-861.637397,1961.320872,-1482.300637,1661.472221,-25748.851985,-21836.156766,-4616.216375,-3861.152096,1231.424657,-225.037363,-18591.555189,1892.097520,-14141.501682,-7957.556302,-6959.685023,-5991.742729,0.008750,-0.012625,1.000625,192.000000,0.000000,0.000000,0.000000,0.000000,0.000000,0.000000,0.000000,0.000000,0.000000,1772181966.876570,0.000000
154.000000,-872.679159,1950.860256,-1487.508594,1651.816267,-25750.126034,-21844.516318,-4622.072532,-3868.461116,1296.132957,-161.066671,-18528.791491,1956.314082,-14063.628204,-7881.426261,-6894.730853,-5930.208377,0.008375,-0.010313,1.002312,192.000000,0.000000,32.000000,127.500000,96.000000,15.500000,48.000000,0.000000,0.000000,0.000000,1772181966.876581,0.000000
156.000000,-916.130950,1906.290878,-1527.607623,1612.253679,-25791.677927,-21887.968110,-4663.356204,-3912.874033,1223.892119,-231.161741,-18600.741756,1886.956619,-14145.972031,-7950.090820,-6958.232159,-5992.726206,0.008375,-0.010313,1.002312,192.000000,0.000000,0.000000,0.000000,0.000000,0.000000,0.000000,0.000000,0.000000,0.000000,1772181966.876593,0.000000
158.000000,-847.645205,1977.659998,-1458.965416,1681.789956,-25716.419603,-21812.530972,-4599.005532,-3850.266796,1271.411928,-185.877107,-18557.893462,1928.128532,-14094.272446,-7912.942220,-6905.504394,-5944.848769,0.008375,-0.010313,1.002312,192.000000,0.000000,0.000000,0.000000,0.000000,0.000000,0.000000,0.000000,0.000000,0.000000,1772181966.876604,0.000000
160.000000,-909.179557,1912.214090,-1521.840873,1614.980592,-25774.802360,-21872.053668,-4666.105469,-3914.237489,1267.321559,-189.922773,-18565.381296,1920.148959,-14098.385167,-7909.745921,-6897.524821,-5938.992612,0.008375,-0.010313,1.002312,192.000000,0.000000,0.000000,0.000000,0.000000,0.000000,0.000000,0.000000,0.000000,0.000000,1772181966.876616,0.000000
162.000000,-853.255493,1968.875762,-1470.051881,1666.255494,-25718.297150,-21812.240399,-4618.317439,-3857.821686,1237.347870,-225.774971,-18592.650425,1887.314247,-14128.515318,-7959.746773,-6923.274031,-5974.084851,0.008375,-0.010313,1.002312,192.000000,0.000000,0.000000,0.000000,0.000000,0.000000,0.000000,0.000000,0.000000,0.000000,1772181966.876627,0.000000
164.000000,-858.038766,1964.897152,-1476.511535,1661.583979,-25727.975455,-21821.762243,-4622.117236,-3860.839172,1313.164987,-151.254255,-18514.016988,1962.773736,-14047.490245,-7874.765441,-6860.577388,-5913.198699,0.006188,-0.013156,1.009156,192.000000,0.000000,16.000000,127.500000,64.000000,15.500000,96.000000,0.000000,0.000000,0.000000,1772181966.876638,0.000000
166.000000,-895.723807,1927.726201,-1519.471588,1619.361534,-25768.208595,-21869.840845,-4660.472829,-3900.267649,1244.701593,-217.124846,-18584.089706,1895.785558,-14114.724292,-7927.180282,-6944.552892,-5991.139232,0.006188,-0.013156,1.009156,192.000000,0.000000,0.000000,0.000000,0.000000,0.000000,0.000000,0.000000,0.000000,0.000000,1772181966.876650,0.000000
168.000000,-834.368269,1991.428672,-1453.645701,1686.908506,-25720.107641,-21811.368681,-4591.830622,-3834.709982,1286.968742,-173.874220,-18541.353171,1941.517227,-14086.806963,-7893.473851,-6916.657915,-5958.617444,0.006188,-0.013156,1.009156,192.000000,0.000000,0.000000,0.000000,0.000000,0.000000,0.000000,0.000000,0.000000,0.000000,1772181966.876661,0.000000
170.000000,-899.054217,1921.400657,-1519.203367,1617.618098,-25788.191055,-21879.809723,-4659.109373,-3902.972210,1276.776347,-183.641932,-18548.975116,1933.425895,-14108.801080,-7920.206537,-6926.202110,-5969.681557,0.006188,-0.013156,1.009156,192.000000,0.000000,0.000000,0.000000,0.000000,0.000000,0.000000,0.000000,0.000000,0.000000,1772181966.876672,0.000000
172.000000,-849.768621,1970.909771,-1466.609712,1662.545104,-25735.396234,-21831.038216,-4614.718808,-3857.799334,1243.718117,-222.355154,-18584.000299,1890.979933,-14141.188758,-7949.889654,-6957.405145,-6006.070197,0.006188,-0.013156,1.009156,192.000000,0.000000,0.000000,0.000000,0.000000,0.000000,0.000000,0.000000,0.000000,0.000000,1772181966.876683,0.000000
174.000000,-863.604351,1954.749460,-1476.399777,1651.324529,-25738.637237,-21836.648504,-4625.179425,-3869.556352,1311.332144,-155.232865,-18515.827479,1951.463753,-14067.182132,-7873.267874,-6881.610379,-5938.970260,0.005094,-0.013578,1.009578,192.000000,0.000000,16.000000,127.500000,72.000000,15.500000,72.000000,0.000000,0.000000,0.000000,1772181966.876694,0.000000
176.000000,-906.206775,1913.801064,-1520.320954,1615.248813,-25773.528310,-21871.561929,-4666.396042,-3913.276364,1236.543207,-228.010145,-18592.471611,1879.647598,-14133.365647,-7953.555340,-6944.776409,-5999.409378,0.005094,-0.013578,1.009578,192.000000,0.000000,0.000000,0.000000,0.000000,0.000000,0.000000,0.000000,0.000000,0.000000,1772181966.876706,0.000000
178.000000,-845.521789,1979.850469,-1457.087869,1685.500346,-25706.853057,-21799.343443,-4602.604163,-3851.920825,1278.832707,-182.926677,-18551.612622,1927.413276,-14088.483344,-7909.656514,-6897.234249,-5943.015926,0.005094,-0.013578,1.009578,192.000000,0.000000,0.000000,0.000000,0.000000,0.000000,0.000000,0.000000,0.000000,0.000000,1772181966.876717,0.000000
180.000000,-905.625630,1915.477445,-1523.919585,1619.383886,-25776.188168,-21858.508510,-4670.106431,-3914.416303,1269.668492,-189.252220,-18560.665078,1920.037200,-14102.766109,-7905.007351,-6903.604496,-5939.506702,0.005094,-0.013578,1.009578,192.000000,0.000000,0.000000,0.000000,0.000000,0.000000,0.000000,0.000000,0.000000,0.000000,1772181966.876728,0.000000
182.000000,-852.272016,1972.541448,-1468.777832,1672.961017,-25717.648949,-21801.332748,-4621.983125,-3860.973282,1237.772553,-220.254090,-18593.969177,1885.548459,-14120.446339,-7918.351342,-6936.170988,-5962.976034,0.005094,-0.013578,1.009578,192.000000,0.000000,0.000000,0.000000,0.000000,0.000000,0.000000,0.000000,0.000000,0.000000,1772181966.876741,0.000000
184.000000,-858.485801,1965.143021,-1476.958570,1667.909523,-25723.460403,-21805.221952,-4626.229957,-3867.187067,1310.438074,-142.715888,-18521.907153,1959.599788,-14073.351213,-7867.523476,-6869.451030,-5891.338693,0.005094,-0.013578,1.009578,192.000000,0.000000,0.000000,0.000000,0.000000,0.000000,0.000000,0.000000,0.000000,0.000000,1772181966.876753,0.000000
186.000000,-899.143624,1922.294727,-1517.214062,1628.637508,-25758.440883,-21845.522147,-4664.943178,-3909.521271,1244.992166,-214.241471,-18591.018747,1890.957581,-14142.641621,-7934.086971,-6936.685078,-5949.676746,0.006000,-0.010000,1.000000,192.000000,0.000000,24.000000,127.500000,88.000000,15.500000,32.000000,0.000000,0.000000,0.000000,1772181966.876765,0.000000
188.000000,-834.860007,1990.176975,-1453.198666,1699.917221,-25695.006632,-21783.607815,-4600.056064,-3846.958738,1287.840460,-166.431089,-18548.706895,1935.973994,-14093.467783,-7897.877145,-6889.768766,-5908.884812,0.006000,-0.010000,1.000000,192.000000,0.000000,0.000000,0.000000,0.000000,0.000000,0.000000,0.000000,0.000000,0.000000,1772181966.876777,0.000000
190.000000,-898.495424,1923.188796,-1520.231547,1624.636546,-25775.271747,-21861.213071,-4665.412565,-3909.208347,1282.587800,-177.383444,-18555.188901,1929.782561,-14116.333618,-7899.754691,-6900.497603,-5930.498949,0.006000,-0.010000,1.000000,192.000000,0.000000,0.000000,0.000000,0.000000,0.000000,0.000000,0.000000,0.000000,0.000000,1772181966.876788,0.000000
192.000000,-857.211752,1968.652245,-1472.510573,1665.070851,-25733.764557,-21824.533859,-4619.815006,-3864.706023,1241.371184,-213.615622,-18593.991529,1894.131529,-14175.185761,-7937.663250,-6944.172912,-5987.630008,0.006000,-0.010000,1.000000,192.000000,0.000000,0.000000,0.000000,0.000000,0.000000,0.000000,0.000000,0.000000,0.000000,1772181966.876799,0.000000
194.000000,-862.173839,1958.728070,-1478.567896,1654.409069,-25742.012351,-21837.296705,-4627.280489,-3870.830401,1306.817091,-152.841229,-18525.975171,1953.386003,-14120.468690,-7876.195952,-6880.291626,-5936.578624,0.006000,-0.010000,1.000000,192.000000,0.000000,0.000000,0.000000,0.000000,0.000000,0.000000,0.000000,0.000000,0.000000,1772181966.876810,0.000000
196.000000,-906.989087,1913.331677,-1523.807826,1612.052514,-25782.826636,-21879.027412,-4670.687577,-3914.349248,1238.241939,-221.662250,-18595.176172,1884.967313,-14186.719261,-7928.566090,-6948.509151,-6001.532793,0.008000,-0.008000,1.006000,192.000000,0.000000,32.000000,127.500000,96.000000,15.500000,56.000000,0.000000,0.000000,0.000000,1772181966.876821,0.000000
198.000000,-842.750173,1979.828117,-1460.284169,1684.583924,-25713.849153,-21807.367719,-4604.749930,-3850.982052,1277.178678,-180.378578,-18555.725343,1926.183930,-14159.472485,-7897.094834,-6904.833842,-5948.961490,0.008000,-0.008000,1.006000,192.000000,0.000000,0.000000,0.000000,0.000000,0.000000,0.000000,0.000000,0.000000,0.000000,1772181966.876832,0.000000
200.000000,-903.256345,1914.270450,-1525.774780,1619.294479,-25778.132770,-21866.085752,-4670.017024,-3914.908041,1272.820088,-186.033569,-18560.888596,1918.830206,-14160.701830,-7916.406741,-6909.393598,-5946.167522,0.008000,-0.008000,1.006000,192.000000,0.000000,0.000000,0.000000,0.000000,0.000000,0.000000,0.000000,0.000000,0.000000,1772181966.876844,0.000000
202.000000,-856.675310,1964.740689,-1477.249143,1669.652959,-25722.141650,-21803.925550,-4624.464169,-3866.784736,1240.275948,-221.103456,-18595.064413,1882.039235,-14196.978712,-7944.301718,-6941.289537,-5965.814706,0.008000,-0.008000,1.006000,192.000000,0.000000,0.000000,0.000000,0.000000,0.000000,0.000000,0.000000,0.000000,0.000000,1772181966.876854,0.000000
204.000000,-860.720975,1960.315044,-1484.356998,1667.797764,-25727.349606,-21804.171420,-4628.912166,-3870.204552,1311.354495,-146.336871,-18523.583534,1956.984634,-14109.404577,-7866.562351,-6869.048699,-5880.453394,0.008000,-0.008000,1.006000,192.000000,0.000000,0.000000,0.000000,0.000000,0.000000,0.000000,0.000000,0.000000,0.000000,1772181966.876866,0.000000
206.000000,-905.983258,1914.449264,-1526.534739,1625.843540,-25773.438904,-21852.697057,-4670.732280,-3915.265669,1239.650099,-215.828444,-18596.182000,1888.878869,-14201.694930,-7941.440695,-6935.500435,-5939.909034,0.008000,-0.008000,1.004000,192.000000,0.000000,32.000000,127.500000,96.000000,15.500000,48.000000,0.000000,0.000000,0.000000,1772181966.876876,0.000000
208.000000,-844.784182,1978.352902,-1456.842000,1690.149509,-25713.200952,-21799.164629,-4601.933611,-3850.646776,1278.095100,-177.204630,-18554.071314,1928.173235,-14157.572586,-7897.452461,-6893.233287,-5911.879946,0.008000,-0.008000,1.004000,192.000000,0.000000,0.000000,0.000000,0.000000,0.000000,0.000000,0.000000,0.000000,0.000000,1772181966.876887,0.000000
210.000000,-906.162072,1910.627116,-1521.550300,1616.075828,-25786.671136,-21877.574548,-4665.099641,-3913.768102,1269.824954,-188.291095,-18558.452256,1920.126607,-14162.624080,-7908.561278,-6907.314886,-5947.508627,0.008000,-0.008000,1.004000,192.000000,0.000000,0.000000,0.000000,0.000000,0.000000,0.000000,0.000000,0.000000,0.000000,1772181967.357023,0.000000
212.000000,-857.770545,1961.991425,-1471.661207,1665.920218,-25737.519650,-21830.144147,-4616.618707,-3865.845962,1237.660794,-224.724439,-18591.778707,1884.766148,-14197.135174,-7942.692392,-6946.899825,-5997.107148,0.008000,-0.008000,1.004000,192.000000,0.000000,0.000000,0.000000,0.000000,0.000000,0.000000,0.000000,0.000000,0.000000,1772181967.357136,0.000000
214.000000,-865.347787,1955.397660,-1482.971189,1662.634511,-25741.788833,-21834.972124,-4623.078361,-3868.729337,1303.330219,-157.937426,-18525.103453,1955.509419,-14136.807816,-7870.518609,-6883.957313,-5927.593223,0.008000,-0.008000,1.004000,192.000000,0.000000,0.000000,0.000000,0.000000,0.000000,0.000000,0.000000,0.000000,0.000000,1772181967.357212,0.000000
216.000000,-900.507081,1918.137302,-1520.902100,1622.267261,-25785.307680,-21878.267453,-4663.557370,-3906.682599,1235.917358,-224.746790,-18590.325843,1890.130566,-14203.550125,-7944.949918,-6953.068906,-5988.702892,0.010000,-0.010000,1.004000,192.000000,0.000000,40.000000,127.500000,88.000000,15.500000,48.000000,0.000000,0.000000,0.000000,1772181967.357302,0.000000
218.000000,-842.101972,1979.582248,-1456.260855,1691.132985,-25718.744185,-21812.419213,-4600.816023,-3849.126857,1281.559620,-181.853793,-18543.677752,1932.889454,-14157.013793,-7909.365941,-6907.672513,-5945.787543,0.010000,-0.010000,1.004000,192.000000,0.000000,0.000000,0.000000,0.000000,0.000000,0.000000,0.000000,0.000000,0.000000,1772181967.357386,0.000000
220.000000,-906.072665,1912.370552,-1525.864187,1621.954336,-25788.392221,-21876.076982,-4670.218190,-3918.797245,1269.914361,-190.012180,-18557.669944,1921.087732,-14164.747496,-7914.015104,-6914.243926,-5952.023679,0.010000,-0.010000,1.004000,192.000000,0.000000,0.000000,0.000000,0.000000,0.000000,0.000000,0.000000,0.000000,0.000000,1772181967.357431,0.000000
222.000000,-857.725842,1963.779564,-1481.361864,1667.060157,-25737.765519,-21827.260772,-4627.772227,-3871.746823,1233.056335,-225.797322,-18597.567808,1883.581505,-14191.211962,-7944.346421,-6951.280767,-5981.952665,0.010000,-0.010000,1.004000,192.000000,0.000000,0.000000,0.000000,0.000000,0.000000,0.000000,0.000000,0.000000,0.000000,1772181967.357487,0.000000
224.000000,-859.223409,1959.778602,-1481.607733,1661.695738,-25737.810223,-21822.097519,-4629.940346,-3872.260913,1306.884147,-152.952987,-18524.745825,1954.972977,-14136.003153,-7871.211513,-6880.202220,-5907.409597,0.010000,-0.010000,1.004000,192.000000,0.000000,0.000000,0.000000,0.000000,0.000000,0.000000,0.000000,0.000000,0.000000,1772181967.357554,0.000000
226.000000,-906.542052,1913.823415,-1523.249033,1620.948508,-25775.763485,-21857.390923,-4672.609827,-3918.752541,1240.655928,-220.567014,-18592.628073,1887.046026,-14194.967055,-7926.643840,-6937.132113,-5957.924540,0.006000,0.000000,1.002000,192.000000,0.000000,24.000000,0.000000,0.000000,15.500000,40.000000,0.000000,0.000000,0.000000,1772181967.357610,0.000000
228.000000,-843.398374,1981.303332,-1454.517419,1693.859898,-25707.769478,-21786.222969,-4606.023980,-3851.630253,1279.659722,-179.462156,-18554.607755,1925.200453,-14161.148865,-7918.194880,-6899.201202,-5900.838184,0.006000,0.000000,1.002000,192.000000,0.000000,0.000000,0.000000,0.000000,0.000000,0.000000,0.000000,0.000000,0.000000,1772181967.357666,0.000000
230.000000,-905.290354,1915.768017,-1518.398704,1625.642374,-25771.516653,-21856.429798,-4668.675920,-3911.354114,1277.290437,-184.066616,-18555.121846,1922.317078,-14163.093467,-7906.929601,-6905.839670,-5914.070417,0.006000,0.000000,1.002000,192.000000,0.000000,0.000000,0.000000,0.000000,0.000000,0.000000,0.000000,0.000000,0.000000,1772181967.357678,0.000000
232.000000,-861.302121,1961.723204,-1471.638855,1668.110689,-25728.266028,-21817.694225,-4621.983125,-3867.097660,1239.560692,-222.288099,-18593.164515,1883.961485,-14194.140040,-7937.484436,-6949.738497,-5974.531886,0.006000,0.000000,1.002000,192.000000,0.000000,0.000000,0.000000,0.000000,0.000000,0.000000,0.000000,0.000000,0.000000,1772181967.357689,0.000000
234.000000,-868.097051,1953.430707,-1476.243314,1656.912465,-25740.671246,-21836.804967,-4627.280489,-3874.250218,1307.532347,-155.702252,-18523.717645,1949.720317,-14122.078016,-7871.524438,-6888.002978,-5931.929461,0.006000,0.000000,1.002000,192.000000,0.000000,0.000000,0.000000,0.000000,0.000000,0.000000,0.000000,0.000000,0.000000,1772181967.357701,0.000000
236.000000,-900.015342,1919.009020,-1511.961402,1617.908671,-25776.411686,-21875.205264,-4665.792545,-3910.594155,1241.035907,-222.668078,-18589.610587,1884.073244,-14196.822250,-7936.322145,-6951.772505,-5996.190726,0.006000,0.000000,1.002000,192.000000,0.000000,0.000000,127.500000,104.000000,15.500000,64.000000,0.000000,0.000000,0.000000,1772181967.357713,0.000000
238.000000,-830.233196,1995.697855,-1444.280320,1688.562535,-25713.916208,-21806.272484,-4598.603201,-3836.699287,1297.451710,-167.772194,-18540.459101,1935.146980,-14143.423932,-7898.145365,-6903.112758,-5949.475580,0.006000,0.000000,1.002000,192.000000,0.000000,0.000000,0.000000,0.000000,0.000000,0.000000,0.000000,0.000000,0.000000,1772181967.357724,0.000000
240.000000,-908.553709,1914.382209,-1517.638745,1617.416932,-25784.726534,-21877.619252,-4668.921789,-3909.700085,1275.837574,-172.399005,-18551.634973,1931.883625,-14154.510397,-7901.453424,-6906.867851,-5949.632043,0.006000,0.000000,1.002000,192.000000,0.000000,0.000000,0.000000,0.000000,0.000000,0.000000,0.000000,0.000000,0.000000,1772181967.357736,0.000000
242.000000,-863.447888,1956.649358,-1471.035358,1667.484840,-25728.869525,-21827.640751,-4624.352410,-3867.477640,1238.286643,-225.529102,-18597.165477,1883.380340,-14191.748404,-7952.035421,-6946.117514,-5984.724281,0.006000,0.000000,1.002000,192.000000,0.000000,0.000000,0.000000,0.000000,0.000000,0.000000,0.000000,0.000000,0.000000,1772181967.357747,0.000000
244.000000,-873.662636,1944.333547,-1480.579553,1660.980482,-25740.827708,-21831.976990,-4632.264928,-3874.071404,1308.672286,-164.710005,-18527.986828,1947.596901,-14124.402597,-7871.725604,-6879.732833,-5911.432911,0.006000,0.000000,1.002000,192.000000,0.000000,0.000000,0.000000,0.000000,0.000000,0.000000,0.000000,0.000000,0.000000,1772181967.357759,0.000000
246.000000,-911.392380,1913.644602,-1518.488111,1622.826054,-25774.891767,-21865.504606,-4671.402832,-3911.331762,1237.839608,-223.919776,-18593.991529,1884.408520,-14205.941761,-7948.280328,-6945.536369,-5967.669900,0.006000,0.000000,1.002000,192.000000,0.000000,0.000000,127.500000,88.000000,15.500000,64.000000,0.000000,0.000000,0.000000,1772181967.357771,0.000000
248.000000,-844.851237,1978.487012,-1454.651529,1688.651942,-25712.932731,-21791.654443,-4609.399093,-3849.953872,1281.604324,-172.823688,-18550.092703,1928.195587,-14151.783484,-7899.151194,-6897.189545,-5905.710865,0.006000,0.000000,1.002000,192.000000,0.000000,0.000000,0.000000,0.000000,0.000000,0.000000,0.000000,0.000000,0.000000,1772181967.357782,0.000000
250.000000,-910.207738,1909.598936,-1524.925414,1623.138979,-25779.183302,-21852.138263,-4675.962588,-3913.254012,1272.283646,-191.800319,-18560.732133,1915.186872,-14157.460828,-7896.759557,-6909.415950,-5896.747815,0.006000,0.000000,1.002000,192.000000,0.000000,0.000000,0.000000,0.000000,0.000000,0.000000,0.000000,0.000000,0.000000,1772181967.357796,0.000000
252.000000,-859.201057,1964.025434,-1475.662169,1671.172878,-25731.663493,-21799.499905,-4628.509835,-3862.448497,1243.181675,-221.282270,-18594.729137,1883.536802,-14199.415052,-7929.750732,-6953.203017,-5936.779790,0.006000,0.000000,1.002000,192.000000,0.000000,0.000000,0.000000,0.000000,0.000000,0.000000,0.000000,0.000000,0.000000,1772181967.357807,0.000000
254.000000,-856.943531,1968.227562,-1479.439614,1665.830811,-25732.378749,-21813.425042,-4633.091942,-3866.605922,1312.919118,-146.336871,-18524.097624,1957.990463,-14119.440510,-7868.641063,-6886.013673,-5890.891658,0.006000,0.000000,1.002000,192.000000,0.000000,0.000000,0.000000,0.000000,0.000000,0.000000,0.000000,0.000000,0.000000,1772181967.357820,0.000000
0.000000,-886.716054,1937.091581,-1515.269460,1630.626813,-25770.779046,-21857.122702,-4666.954835,-3898.390102,1255.788059,-204.317296,-18585.855494,1897.976029,-14185.646377,-7934.265785,-6952.688927,-5975.515363,0.005000,-0.005000,1.005000,192.000000,0.000000,16.000000,127.500000,88.000000,15.500000,64.000000,0.000000,0.000000,0.000000,1772181967.357832,0.000000
2.000000,-821.247795,2006.672562,-1448.169523,1701.615954,-25708.775307,-21792.347347,-4598.022055,-3828.384439,1301.318562,-156.618673,-18537.508671,1946.769887,-14139.154749,-7882.923828,-6909.572412,-5940.736048,0.005000,-0.005000,1.005000,192.000000,0.000000,0.000000,0.000000,0.000000,0.000000,0.000000,0.000000,0.000000,0.000000,1772181967.357843,0.000000
4.000000,-890.314685,1933.291785,-1518.801036,1628.682211,-25778.311584,-21865.191682,-4664.742013,-3895.372617,1292.310809,-166.252275,-18545.644706,1938.611500,-14157.147903,-7890.456365,-6917.484929,-5948.715621,0.005000,-0.005000,1.005000,192.000000,0.000000,0.000000,0.000000,0.000000,0.000000,0.000000,0.000000,0.000000,0.000000,1772181967.357855,0.000000
6.000000,-844.627719,1983.471451,-1470.588323,1676.894924,-25722.968665,-21813.737966,-4620.865538,-3852.054936,1253.955216,-206.820691,-18586.794268,1900.010037,-14178.426764,-7933.662287,-6950.386697,-5984.187840,0.005000,-0.005000,1.005000,192.000000,0.000000,0.000000,0.000000,0.000000,0.000000,0.000000,0.000000,0.000000,0.000000,1772181967.357866,0.000000
8.000000,-856.071813,1972.541448,-1478.076157,1668.311854,-25734.479813,-21823.729196,-4630.432085,-3864.326044,1317.992964,-137.195007,-18523.538831,1966.215904,-14129.409388,-7853.061897,-6875.709519,-5912.326981,0.005000,-0.005000,1.005000,192.000000,0.000000,0.000000,0.000000,0.000000,0.000000,0.000000,0.000000,0.000000,0.000000,1772181967.357878,0.000000
10.000000,-897.042560,1928.463808,-1520.097437,1627.139941,-25771.829578,-21858.128531,-4669.771155,-3902.703989,1246.020346,-211.581613,-18593.902122,1894.153880,-14198.945665,-7926.733247,-6944.932871,-5970.799145,0.005500,-0.008500,1.004500,192.000000,0.000000,24.000000,127.500000,80.000000,15.500000,48.000000,0.000000,0.000000,0.000000,1772181967.357908,0.000000
12.000000,-830.188493,1996.681332,-1453.332776,1694.686913,-25704.953158,-21787.094687,-4605.219317,-3838.509779,1292.154347,-169.314464,-18547.790473,1935.057573,-14149.794179,-7900.648761,-6899.558830,-5917.356124,0.005500,-0.008500,1.004500,192.000000,0.000000,0.000000,0.000000,0.000000,0.000000,0.000000,0.000000,0.000000,0.000000,1772181967.357919,0.000000
14.000000,-899.836528,1922.205320,-1524.232510,1623.876586,-25782.826636,-21855.938060,-4672.520420,-3907.956649,1284.554754,-177.003464,-18558.787532,1925.513378,-14156.589109,-7900.179374,-6903.202165,-5910.874118,0.005500,-0.008500,1.004500,192.000000,0.000000,0.000000,0.000000,0.000000,0.000000,0.000000,0.000000,0.000000,0.000000,1772181967.357930,0.000000
16.000000,-861.682100,1965.791221,-1483.150003,1672.312817,-25736.402063,-21812.732138,-4630.342678,-3863.901361,1237.191407,-222.086933,-18601.904047,1888.007151,-14208.288694,-7950.336689,-6943.949395,-5941.831284,0.005500,-0.008500,1.004500,192.000000,0.000000,0.000000,0.000000,0.000000,0.000000,0.000000,0.000000,0.000000,0.000000,1772181967.357942,0.000000
18.000000,-862.889095,1963.488992,-1486.279248,1663.036843,-25739.888935,-21821.203449,-4635.595338,-3869.198724,1300.983286,-156.886894,-18536.681656,1950.860256,-14139.467673,-7877.827630,-6876.313016,-5884.968446,0.005500,-0.008500,1.004500,192.000000,0.000000,0.000000,0.000000,0.000000,0.000000,0.000000,0.000000,0.000000,0.000000,1772181967.357954,0.000000
20.000000,-884.167955,1940.824323,-1519.024553,1621.909633,-25774.377677,-21863.157673,-4671.425184,-3899.172413,1246.422678,-212.408628,-18595.422041,1888.700055,-14188.753270,-7935.204558,-6941.468351,-5965.278264,0.004750,-0.010250,1.007250,192.000000,0.000000,16.000000,127.500000,80.000000,15.500000,72.000000,0.000000,0.000000,0.000000,1772181967.357965,0.000000
22.000000,-828.467408,1996.658980,-1448.840076,1687.959038,-25713.536228,-21804.216123,-4603.811157,-3832.474808,1294.411873,-167.213400,-18543.320125,1936.733954,-14155.292708,-7887.952970,-6898.597705,-5938.724391,0.004750,-0.010250,1.007250,192.000000,0.000000,0.000000,0.000000,0.000000,0.000000,0.000000,0.000000,0.000000,0.000000,1772181967.357976,0.000000
24.000000,-888.593601,1928.329698,-1512.274326,1621.663764,-25773.103627,-21872.053668,-4666.977187,-3894.992637,1288.265143,-177.830479,-18549.131578,1928.888491,-14150.241214,-7882.253275,-6907.627810,-5954.124743,0.004750,-0.010250,1.007250,192.000000,0.000000,0.000000,0.000000,0.000000,0.000000,0.000000,0.000000,0.000000,0.000000,1772181967.357988,0.000000
26.000000,-847.935778,1969.456907,-1468.330797,1667.373081,-25739.039569,-21834.212164,-4623.883024,-3850.199741,1252.256483,-229.552416,-18585.676680,1890.845822,-14192.441308,-7967.636939,-6947.838598,-5992.972075,0.004750,-0.010250,1.007250,192.000000,0.000000,0.000000,0.000000,0.000000,0.000000,0.000000,0.000000,0.000000,0.000000,1772181967.358001,0.000000
28.000000,-853.702528,1964.584227,-1477.919695,1660.354633,-25743.264048,-21838.280182,-4629.225091,-3856.346471,1321.301022,-154.405851,-18518.464985,1962.103184,-14127.040103,-7896.312522,-6880.582199,-5921.111217,0.004750,-0.010250,1.007250,192.000000,0.000000,0.000000,0.000000,0.000000,0.000000,0.000000,0.000000,0.000000,0.000000,1772181967.358012,0.000000
30.000000,-890.292333,1930.319003,-1518.890443,1622.937813,-25781.150255,-21867.315098,-4668.810030,-3896.445500,1248.747259,-227.630166,-18591.488134,1889.281200,-14202.119613,-7954.270596,-6943.189435,-5980.365691,0.005375,-0.012125,1.005625,192.000000,0.000000,24.000000,127.500000,72.000000,15.500000,48.000000,0.000000,0.000000,0.000000,1772181967.358024,0.000000
32.000000,-822.968879,2002.582193,-1450.650567,1694.664561,-25706.674243,-21788.100515,-4604.325247,-3832.899491,1299.485719,-167.459269,-18542.917793,1940.891378,-14156.857330,-7891.976284,-6898.061263,-5921.558252,0.005375,-0.012125,1.005625,192.000000,0.000000,0.000000,0.000000,0.000000,0.000000,0.000000,0.000000,0.000000,0.000000,1772181967.358035,0.000000
34.000000,-887.632476,1931.436590,-1517.683449,1627.609328,-25768.700334,-21850.372475,-4673.973283,-3901.519346,1293.540155,-176.556429,-18553.624279,1930.766038,-14148.296612,-7894.122051,-6902.710426,-5910.851766,0.005375,-0.012125,1.005625,192.000000,0.000000,0.000000,0.000000,0.000000,0.000000,0.000000,0.000000,0.000000,0.000000,1772181967.358047,0.000000
36.000000,-836.514036,1983.493803,-1465.581532,1678.236029,-25715.078499,-21798.985815,-4628.219262,-3852.367860,1263.812335,-210.531081,-18586.570750,1893.326866,-14188.507401,-7925.459197,-6935.880415,-5929.068438,0.005375,-0.012125,1.005625,192.000000,0.000000,0.000000,0.000000,0.000000,0.000000,0.000000,0.000000,0.000000,0.000000,1772181967.358058,0.000000
38.000000,-843.130153,1976.564762,-1469.694253,1668.423613,-25729.473022,-21814.632036,-4629.873291,-3853.351337,1333.460371,-144.705194,-18513.458194,1961.007948,-14109.762205,-7864.215417,-6864.533647,-5872.831449,0.005375,-0.012125,1.005625,192.000000,0.000000,0.000000,0.000000,0.000000,0.000000,0.000000,0.000000,0.000000,0.000000,1772181967.358070,0.000000
40.000000,-880.792842,1938.008003,-1511.715533,1624.480084,-25778.266880,-21866.152807,-4668.072423,-3889.047073,1261.063070,-211.223985,-18582.838009,1899.115968,-14190.027319,-7942.982965,-6940.082543,-5964.048918,0.005687,-0.012063,1.005812,192.000000,0.000000,24.000000,127.500000,80.000000,15.500000,56.000000,0.000000,0.000000,0.000000,1772181967.358081,0.000000
42.000000,-816.486873,2004.839719,-1447.387212,1692.608201,-25713.960912,-21802.115059,-4602.134776,-3825.545767,1307.644106,-162.854810,-18538.335686,1945.026451,-14145.323830,-7895.418453,-6900.944638,-5936.779790,0.005687,-0.012063,1.005812,192.000000,0.000000,0.000000,0.000000,0.000000,0.000000,0.000000,0.000000,0.000000,0.000000,1772181967.358093,0.000000
44.000000,-885.151432,1930.207244,-1514.822425,1624.077752,-25780.770276,-21870.824322,-4667.647739,-3894.791471,1295.998847,-173.673054,-18549.802130,1935.057573,-14164.278110,-7907.398988,-6910.935868,-5950.146133,0.005687,-0.012063,1.005812,192.000000,0.000000,0.000000,0.000000,0.000000,0.000000,0.000000,0.000000,0.000000,0.000000,1772181967.358104,0.000000
46.000000,-841.990214,1977.212963,-1466.006215,1671.798727,-25731.641141,-21822.008112,-4622.698381,-3850.892645,1258.671434,-219.784703,-18589.677643,1891.181098,-14194.229447,-7943.362945,-6943.234139,-5985.417185,0.005687,-0.012063,1.005812,192.000000,0.000000,0.000000,0.000000,0.000000,0.000000,0.000000,0.000000,0.000000,0.000000,1772181967.358115,0.000000
48.000000,-842.996042,1978.710530,-1474.365768,1669.272979,-25732.915191,-21826.232591,-4628.576890,-3850.445610,1328.207711,-143.297034,-18519.671979,1966.595884,-14118.591144,-7866.450592,-6877.788231,-5912.394036,0.005687,-0.012063,1.005812,192.000000,0.000000,0.000000,0.000000,0.000000,0.000000,0.000000,0.000000,0.000000,0.000000,1772181967.358127,0.000000
50.000000,-872.634455,1945.898169,-1508.675695,1632.079677,-25768.901499,-21861.011906,-4668.050071,-3886.096643,1268.573257,-202.350343,-18580.714593,1910.247136,-14190.831982,-7937.797360,-6943.859988,-5973.637816,0.006844,-0.010031,1.006906,192.000000,0.000000,32.000000,127.500000,96.000000,15.500000,64.000000,0.000000,0.000000,0.000000,1772181967.358138,0.000000
52.000000,-814.654030,2007.454873,-1440.748744,1698.218488,-25703.232074,-21788.301681,-4604.548765,-3828.630308,1314.819016,-152.975339,-18535.921697,1949.921483,-14129.454092,-7877.827630,-6896.697807,-5928.129664,0.006844,-0.010031,1.006906,192.000000,0.000000,0.000000,0.000000,0.000000,0.000000,0.000000,0.000000,0.000000,0.000000,1772181967.358150,0.000000
54.000000,-884.570287,1931.458942,-1509.949745,1628.793970,-25766.196938,-21857.815606,-4672.140440,-3898.300695,1304.425455,-164.732357,-18547.455197,1936.242215,-14148.810702,-7905.454386,-6901.659894,-5929.448417,0.006844,-0.010031,1.006906,192.000000,0.000000,0.000000,0.000000,0.000000,0.000000,0.000000,0.000000,0.000000,0.000000,1772181967.358161,0.000000
56.000000,-844.940644,1976.676521,-1467.168506,1674.950323,-25722.096946,-21808.150030,-4628.621594,-3853.954834,1263.834687,-207.670058,-18590.437602,1895.182061,-14188.239180,-7932.991735,-6938.964956,-5960.137362,0.006844,-0.010031,1.006906,192.000000,0.000000,0.000000,0.000000,0.000000,0.000000,0.000000,0.000000,0.000000,0.000000,1772181967.358173,0.000000
58.000000,-853.791935,1968.026396,-1477.472660,1668.378910,-25737.139671,-21811.212219,-4634.835379,-3857.151134,1323.647955,-142.201798,-18525.729302,1963.176067,-14123.843804,-7864.081307,-6875.731871,-5880.766318,0.006844,-0.010031,1.006906,192.000000,0.000000,0.000000,0.000000,0.000000,0.000000,0.000000,0.000000,0.000000,0.000000,1772181967.358186,0.000000
60.000000,-888.303028,1931.213073,-1515.940012,1625.441209,-25774.444732,-21856.563909,-4672.833344,-3890.432881,1255.564541,-207.535947,-18589.454125,1898.892450,-14197.381043,-7940.971308,-6950.252587,-5950.906092,0.006422,-0.009016,1.007453,192.000000,0.000000,24.000000,127.500000,96.000000,15.500000,64.000000,0.000000,0.000000,0.000000,1772181967.358197,0.000000
62.000000,-819.549062,2000.995219,-1443.229788,1694.061064,-25710.474039,-21795.700108,-4604.571117,-3821.678915,1307.174719,-158.227999,-18536.838119,1945.585244,-14154.152769,-7879.459307,-6906.845499,-5926.900318,0.006422,-0.009016,1.007453,192.000000,0.000000,0.000000,0.000000,0.000000,0.000000,0.000000,0.000000,0.000000,0.000000,1772181967.358209,0.000000
64.000000,-881.038711,1933.068267,-1506.194652,1625.128284,-25773.952994,-21862.822397,-4669.301768,-3887.795375,1306.884147,-167.302807,-18542.649572,1939.483218,-14146.687287,-7889.763461,-6910.444130,-5945.653432,0.006422,-0.009016,1.007453,192.000000,0.000000,0.000000,0.000000,0.000000,0.000000,0.000000,0.000000,0.000000,0.000000,1772181967.358220,0.000000
66.000000,-838.793914,1982.599733,-1463.301654,1673.251590,-25724.198010,-21819.415309,-4627.951041,-3847.830456,1267.545076,-205.524290,-18583.285044,1900.792348,-14190.250837,-7940.054886,-6945.938700,-5988.904058,0.006422,-0.009016,1.007453,192.000000,0.000000,0.000000,0.000000,0.000000,0.000000,0.000000,0.000000,0.000000,0.000000,1772181967.358232,0.000000
68.000000,-843.420725,1972.586152,-1470.655378,1667.708357,-25726.746109,-21822.343388,-4635.841207,-3853.932482,1333.505074,-136.502103,-18519.895496,1967.624064,-14107.459975,-7879.124031,-6872.200295,-5916.394999,0.006422,-0.009016,1.007453,192.000000,0.000000,0.000000,0.000000,0.000000,0.000000,0.000000,0.000000,0.000000,0.000000,1772181967.358243,0.000000
70.000000,-890.091168,1927.659145,-1511.760236,1626.447037,-25768.543871,-21859.357877,-4676.096699,-3894.657361,1263.231190,-206.418360,-18589.208256,1899.831223,-14182.114802,-7941.574805,-6939.300232,-5974.822459,0.006422,-0.009016,1.007453,192.000000,0.000000,0.000000,0.000000,0.000000,0.000000,0.000000,0.000000,0.000000,0.000000,1772181967.358255,0.000000
72.000000,-820.800760,2002.939821,-1441.218131,1699.559593,-25695.677185,-21786.491190,-4606.135739,-3825.232843,1300.268030,-161.312540,-18546.069389,1944.110029,-14147.961336,-7893.675017,-6889.947580,-5923.972240,0.004000,-0.012000,1.012000,192.000000,0.000000,16.000000,127.500000,80.000000,15.500000,80.000000,0.000000,0.000000,0.000000,1772181967.358268,0.000000
74.000000,-887.833642,1930.698983,-1510.463835,1630.403296,-25766.755732,-21855.379266,-4673.012158,-3889.672922,1300.290382,-159.591455,-18548.997468,1942.433648,-14155.091543,-7888.936447,-6897.301304,-5926.185063,0.004000,-0.012000,1.012000,192.000000,0.000000,0.000000,0.000000,0.000000,0.000000,0.000000,0.000000,0.000000,0.000000,1772181967.838370,0.000000
76.000000,-849.992138,1968.026396,-1468.800183,1675.151488,-25728.534249,-21808.775879,-4629.739181,-3851.876122,1256.972701,-215.493168,-18592.225741,1895.450282,-14195.145869,-7937.305622,-6939.032011,-5958.326871,0.004000,-0.012000,1.012000,192.000000,0.000000,0.000000,0.000000,0.000000,0.000000,0.000000,0.000000,0.000000,0.000000,1772181967.838442,0.000000
78.000000,-864.856048,1959.778602,-1479.126689,1673.810384,-25731.417624,-21808.641769,-4636.243538,-3862.850829,1312.717952,-147.834438,-18533.239488,1959.331567,-14132.181005,-7864.260121,-6875.016615,-5872.697338,0.004000,-0.012000,1.012000,192.000000,0.000000,0.000000,0.000000,0.000000,0.000000,0.000000,0.000000,0.000000,0.000000,1772181967.838496,0.000000
80.000000,-894.069778,1925.423971,-1512.877823,1631.230310,-25764.967592,-21848.494929,-4675.001463,-3901.318181,1251.407117,-205.211366,-18597.970140,1895.427930,-14198.968017,-7926.599136,-6942.183607,-5937.472694,0.004000,-0.012000,1.012000,192.000000,0.000000,0.000000,0.000000,0.000000,0.000000,0.000000,0.000000,0.000000,0.000000,1772181967.838551,0.000000
82.000000,-826.612213,1991.540431,-1440.748744,1694.821023,-25704.662586,-21791.252111,-4608.482672,-3834.531168,1310.147501,-161.312540,-18545.801168,1940.869026,-14140.004115,-7892.848002,-6895.468461,-5916.350295,0.008000,-0.004000,1.004000,192.000000,0.000000,32.000000,127.500000,112.000000,15.500000,48.000000,0.000000,0.000000,0.000000,1772181967.838605,0.000000
84.000000,-893.734502,1923.054686,-1506.976963,1623.049572,-25768.230947,-21868.700906,-4673.079213,-3898.121881,1302.480853,-170.990845,-18553.043133,1934.744648,-14142.149883,-7889.294075,-6903.224516,-5940.557234,0.008000,-0.004000,1.004000,192.000000,0.000000,0.000000,0.000000,0.000000,0.000000,0.000000,0.000000,0.000000,0.000000,1772181967.838634,0.000000
86.000000,-846.728783,1972.608503,-1456.819648,1669.138869,-25724.041548,-21822.768071,-4628.107503,-3853.418392,1266.539248,-211.559261,-18591.152858,1894.958543,-14170.558950,-7940.188997,-6938.875549,-5981.885610,0.008000,-0.004000,1.004000,192.000000,0.000000,0.000000,0.000000,0.000000,0.000000,0.000000,0.000000,0.000000,0.000000,1772181967.838663,0.000000
88.000000,-852.294368,1968.719300,-1463.234599,1664.735575,-25724.667397,-21824.869135,-4633.561329,-3856.905264,1333.058039,-140.659528,-18525.036398,1960.359747,-14123.843804,-7883.415566,-6869.831010,-5913.243403,0.008000,-0.004000,1.004000,192.000000,0.000000,0.000000,0.000000,0.000000,0.000000,0.000000,0.000000,0.000000,0.000000,1772181967.838689,0.000000
90.000000,-890.068816,1928.396753,-1503.423036,1627.654031,-25767.873319,-21861.973031,-4671.849867,-3892.064559,1265.354605,-201.188052,-18588.336538,1896.836090,-14179.924331,-7938.467912,-6934.002868,-5975.045976,0.008000,-0.004000,1.004000,192.000000,0.000000,0.000000,0.000000,0.000000,0.000000,0.000000,0.000000,0.000000,0.000000,1772181967.838726,0.000000
92.000000,-829.249719,1994.222640,-1441.776924,1695.424520,-25704.014385,-21792.392050,-4607.320381,-3824.048200,1303.240812,-161.960740,-18547.008162,1941.137247,-14146.396714,-7888.712929,-6890.349911,-5929.291955,0.010000,-0.004000,1.006000,192.000000,0.000000,40.000000,127.500000,112.000000,15.500000,56.000000,0.000000,0.000000,0.000000,1772181967.838753,0.000000
94.000000,-885.307894,1935.437552,-1505.971134,1631.252662,-25761.413665,-21854.664010,-4670.888742,-3886.566029,1299.508071,-161.983092,-18549.511558,1941.249006,-14152.096409,-7883.840249,-6893.903839,-5929.560176,0.010000,-0.004000,1.006000,192.000000,0.000000,0.000000,0.000000,0.000000,0.000000,0.000000,0.000000,0.000000,0.000000,1772181967.838780,0.000000
96.000000,-844.001871,1978.442309,-1458.384270,1676.112613,-25708.440031,-21804.305530,-4629.068628,-3847.763401,1267.008634,-196.695351,-18586.906026,1903.385151,-14179.656110,-7934.332840,-6932.013563,-5965.390022,0.010000,-0.004000,1.006000,192.000000,0.000000,0.000000,0.000000,0.000000,0.000000,0.000000,0.000000,0.000000,0.000000,1772181967.838808,0.000000
98.000000,-851.467353,1970.842716,-1464.016910,1670.055290,-25716.039624,-21806.317187,-4636.310594,-3857.955796,1329.839388,-129.595414,-18525.259915,1966.260608,-14095.770013,-7842.489522,-6864.399536,-5891.651617,0.010000,-0.004000,1.006000,192.000000,0.000000,0.000000,0.000000,0.000000,0.000000,0.000000,0.000000,0.000000,0.000000,1772181967.838834,0.000000
100.000000,-889.711188,1930.453113,-1500.941992,1633.621947,-25756.205709,-21839.509528,-4674.397966,-3896.311390,1268.662664,-194.549584,-18590.929340,1900.568831,-14185.668729,-7930.823616,-6927.610270,-5947.821551,0.010000,-0.004000,1.006000,192.000000,0.000000,0.000000,0.000000,0.000000,0.000000,0.000000,0.000000,0.000000,0.000000,1772181967.838861,0.000000
102.000000,-819.593766,2003.945649,-1433.640889,1705.281640,-25689.373993,-21768.788608,-4607.275678,-3825.210491,1316.651859,-148.840266,-18543.633049,1945.249968,-14132.918612,-7877.626464,-6881.945656,-5892.612742,0.012000,-0.008000,1.006000,192.000000,0.000000,48.000000,127.500000,96.000000,15.500000,56.000000,0.000000,0.000000,0.000000,1772181967.838888,0.000000
104.000000,-886.671351,1932.576529,-1504.048884,1635.633604,-25760.609002,-21849.009019,-4671.760460,-3887.415396,1314.774312,-155.121107,-18548.282212,1943.059497,-14124.201432,-7882.722662,-6887.667702,-5899.921763,0.012000,-0.008000,1.006000,192.000000,0.000000,0.000000,0.000000,0.000000,0.000000,0.000000,0.000000,0.000000,0.000000,1772181967.838914,0.000000
106.000000,-851.042670,1971.423861,-1460.485334,1674.749157,-25726.991979,-21814.788498,-4626.945213,-3844.477695,1265.712233,-200.316334,-18593.790364,1900.971162,-14188.730918,-7929.504863,-6934.092275,-5948.335641,0.012000,-0.008000,1.006000,192.000000,0.000000,0.000000,0.000000,0.000000,0.000000,0.000000,0.000000,0.000000,0.000000,1772181967.838941,0.000000
108.000000,-857.904656,1964.360710,-1463.592227,1666.479011,-25732.468156,-21826.590219,-4629.694477,-3849.305671,1326.106647,-139.586644,-18529.529098,1964.025434,-14124.447301,-7861.041470,-6872.267350,-5894.132661,0.012000,-0.008000,1.006000,192.000000,0.000000,0.000000,0.000000,0.000000,0.000000,0.000000,0.000000,0.000000,0.000000,1772181967.838968,0.000000
110.000000,-896.908450,1925.066343,-1501.389027,1627.229348,-25772.544834,-21868.164464,-4669.949969,-3889.494108,1256.995053,-207.871223,-18597.321939,1897.774863,-14185.601674,-7940.814846,-6937.310927,-5965.747650,0.012000,-0.008000,1.006000,192.000000,0.000000,0.000000,0.000000,0.000000,0.000000,0.000000,0.000000,0.000000,0.000000,1772181967.838995,0.000000
112.000000,-837.586920,1987.695931,-1438.312404,1692.921125,-25710.742260,-21800.751603,-4607.074512,-3829.971412,1299.508071,-167.034586,-18556.306488,1937.270395,-14142.753380,-7893.138575,-6892.674493,-5926.676801,0.006000,-0.018000,1.008000,192.000000,0.000000,24.000000,127.500000,56.000000,15.500000,64.000000,0.000000,0.000000,0.000000,1772181967.839022,0.000000
114.000000,-901.334095,1919.277241,-1507.021666,1626.737610,-25773.908290,-21866.666897,-4672.431013,-3893.316256,1291.193222,-174.500069,-18562.587328,1932.263605,-14152.185816,-7909.410645,-6900.296438,-5931.080095,0.006000,-0.018000,1.008000,192.000000,0.000000,0.000000,0.000000,0.000000,0.000000,0.000000,0.000000,0.000000,0.000000,1772181967.839049,0.000000
116.000000,-855.222446,1966.081794,-1465.358015,1669.496497,-25725.539115,-21818.811812,-4633.069591,-3852.300805,1257.062108,-214.554395,-18598.260712,1893.952715,-14197.984540,-7941.574805,-6935.299270,-5970.374461,0.006000,-0.018000,1.008000,192.000000,0.000000,0.000000,0.000000,0.000000,0.000000,0.000000,0.000000,0.000000,0.000000,1772181967.839075,0.000000
118.000000,-854.708356,1961.834963,-1466.386195,1666.791936,-25722.834554,-21816.353120,-4637.428181,-3862.314387,1328.654746,-143.386441,-18531.518403,1958.616311,-14112.824394,-7867.277606,-6865.807696,-5901.687551,0.006000,-0.018000,1.008000,192.000000,0.000000,0.000000,0.000000,0.000000,0.000000,0.000000,0.000000,0.000000,0.000000,1772181967.839102,0.000000
120.000000,-894.606220,1922.071209,-1506.865204,1632.057325,-25758.105607,-21844.516318,-4680.499992,-3905.520309,1267.656835,-203.870261,-18598.841858,1893.639790,-14182.092450,-7941.172474,-6927.140883,-5952.783639,0.006000,-0.018000,1.008000,192.000000,0.000000,0.000000,0.000000,0.000000,0.000000,0.000000,0.000000,0.000000,0.000000,1772181967.839128,0.000000
122.000000,-834.055344,1984.857259,-1441.016965,1700.565422,-25699.678147,-21781.015012,-4615.434064,-3840.499084,1310.125150,-157.289226,-18558.116979,1939.662032,-14137.523071,-7886.723624,-6884.851382,-5898.446548,0.012000,-0.020000,1.010000,192.000000,0.000000,48.000000,127.500000,48.000000,15.500000,72.000000,0.000000,0.000000,0.000000,1772181967.839158,0.000000
124.000000,-903.479863,1914.516320,-1512.207271,1633.867816,-25775.785837,-21856.988592,-4679.360053,-3902.055788,1304.291344,-169.537982,-18565.001317,1932.151846,-14142.149883,-7891.283380,-6898.016560,-5903.565097,0.012000,-0.020000,1.010000,192.000000,0.000000,0.000000,0.000000,0.000000,0.000000,0.000000,0.000000,0.000000,0.000000,1772181967.839184,0.000000
126.000000,-855.848295,1963.645454,-1463.793393,1678.727767,-25737.720816,-21820.152917,-4631.773190,-3851.317328,1259.654911,-211.581613,-18603.066337,1891.382264,-14185.512267,-7945.732229,-6944.150560,-5950.839037,0.012000,-0.020000,1.010000,192.000000,0.000000,0.000000,0.000000,0.000000,0.000000,0.000000,0.000000,0.000000,0.000000,1772181967.839211,0.000000
128.000000,-865.995987,1951.843733,-1470.141288,1667.887171,-25752.249450,-21833.832185,-4634.365992,-3852.501971,1322.932699,-146.806258,-18532.568935,1955.978806,-14125.900164,-7868.976339,-6883.711443,-5893.529164,0.012000,-0.020000,1.010000,192.000000,0.000000,0.000000,0.000000,0.000000,0.000000,0.000000,0.000000,0.000000,0.000000,1772181967.839239,0.000000
130.000000,-901.736427,1914.784541,-1510.754408,1626.782313,-25789.107476,-21875.741705,-4672.766289,-3887.415396,1250.468344,-215.515520,-18601.188791,1891.896354,-14207.729901,-7942.468875,-6950.811380,-5965.725299,0.012000,-0.020000,1.010000,192.000000,0.000000,0.000000,0.000000,0.000000,0.000000,0.000000,0.000000,0.000000,0.000000,1772181967.839265,0.000000
132.000000,-841.945510,1981.437442,-1442.425125,1694.999837,-25715.704348,-21809.267617,-4608.035637,-3824.808159,1292.601382,-168.286284,-18560.218043,1937.091581,-14161.417086,-7905.275572,-6903.045702,-5927.369705,0.008000,-0.016000,1.018000,192.000000,0.000000,32.000000,127.500000,64.000000,15.500000,104.000000,0.000000,0.000000,0.000000,1772181967.839292,0.000000
134.000000,-902.876366,1917.511453,-1506.462873,1627.139941,-25783.586595,-21875.875816,-4672.721585,-3889.561163,1285.314713,-174.321255,-18567.035325,1933.068267,-14160.701830,-7915.691485,-6904.520917,-5936.757438,0.008000,-0.016000,1.018000,192.000000,0.000000,0.000000,0.000000,0.000000,0.000000,0.000000,0.000000,0.000000,0.000000,1772181967.839319,0.000000
136.000000,-846.237045,1976.564762,-1456.618483,1674.056253,-25723.549810,-21817.470708,-4630.253271,-3844.567102,1253.776402,-203.892613,-18603.558076,1897.953677,-14188.865028,-7936.232738,-6940.976613,-5976.163563,0.008000,-0.016000,1.018000,192.000000,0.000000,0.000000,0.000000,0.000000,0.000000,0.000000,0.000000,0.000000,0.000000,1772181967.839345,0.000000
138.000000,-855.378909,1966.417070,-1459.546561,1669.652959,-25715.503182,-21814.319112,-4636.712925,-3856.905264,1332.700411,-127.337888,-18524.835232,1966.662939,-14111.326827,-7850.223225,-6863.349004,-5901.754606,0.008000,-0.016000,1.018000,192.000000,0.000000,0.000000,0.000000,0.000000,0.000000,0.000000,0.000000,0.000000,0.000000,1772181967.839372,0.000000
140.000000,-898.271906,1921.378305,-1507.066370,1630.470351,-25752.227098,-21848.919612,-4681.148193,-3903.531003,1260.325463,-201.232755,-18598.104250,1891.583430,-14180.907807,-7928.566090,-6927.006772,-5958.304519,0.008000,-0.016000,1.018000,192.000000,0.000000,0.000000,0.000000,0.000000,0.000000,0.000000,0.000000,0.000000,0.000000,1772181967.839399,0.000000
142.000000,-834.882359,1987.494765,-1444.190913,1702.465320,-25691.855036,-21780.277405,-4615.344657,-3839.560311,1304.179585,-158.317406,-18557.178206,1935.795180,-14133.142130,-7900.626409,-6883.756147,-5904.548574,0.010000,-0.016000,1.021000,192.000000,0.000000,48.000000,127.500000,64.000000,16.000000,0.000000,0.000000,0.000000,0.000000,1772181967.839425,0.000000
144.000000,-902.004647,1916.125645,-1514.598908,1630.939738,-25772.321316,-21855.334563,-4680.611751,-3905.788530,1294.054245,-167.973360,-18563.414343,1931.816570,-14155.225653,-7889.651703,-6897.927153,-5908.035446,0.010000,-0.016000,1.021000,192.000000,0.000000,0.000000,0.000000,0.000000,0.000000,0.000000,0.000000,0.000000,0.000000,1772181967.839453,0.000000
146.000000,-855.602426,1966.148849,-1471.638855,1673.117479,-25742.481737,-21821.494022,-4635.416524,-3859.699233,1251.518876,-211.313392,-18605.189753,1892.253982,-14205.405319,-7947.319203,-6949.179703,-5959.220941,0.010000,-0.016000,1.021000,192.000000,0.000000,0.000000,0.000000,0.000000,0.000000,0.000000,0.000000,0.000000,0.000000,1772181967.839480,0.000000
148.000000,-856.474144,1965.612407,-1471.325931,1665.406128,-25745.946258,-21828.914801,-4637.294070,-3858.022852,1324.430266,-140.100734,-18528.567973,1963.690157,-14127.062455,-7873.022005,-6885.611342,-5904.906202,0.010000,-0.016000,1.021000,192.000000,0.000000,0.000000,0.000000,0.000000,0.000000,0.000000,0.000000,0.000000,0.000000,1772181967.839507,0.000000
150.000000,-889.800595,1927.256814,-1504.048884,1624.189511,-25777.328107,-21866.979822,-4674.979112,-3896.870184,1264.214666,-206.306601,-18588.425945,1898.266601,-14184.417031,-7929.191939,-6948.643261,-5972.833153,0.010000,-0.016000,1.021000,192.000000,0.000000,0.000000,0.000000,0.000000,0.000000,0.000000,0.000000,0.000000,0.000000,1772181967.839534,0.000000
152.000000,-825.829902,1992.702722,-1436.144285,1692.965829,-25705.780173,-21797.957635,-4609.689666,-3833.190064,1315.221347,-160.664339,-18543.186014,1942.634814,-14135.556118,-7909.276534,-6897.815394,-5926.609746,0.011000,-0.015000,1.016500,192.000000,0.000000,48.000000,127.500000,72.000000,15.500000,80.000000,0.000000,0.000000,0.000000,1772181967.839558,0.000000
154.000000,-886.201964,1931.391887,-1501.634896,1628.235177,-25763.291212,-21859.849615,-4672.632178,-3895.506727,1308.247603,-163.815935,-18551.947898,1938.052706,-14144.228595,-7902.056921,-6897.480118,-5928.643755,0.011000,-0.015000,1.016500,192.000000,0.000000,0.000000,0.000000,0.000000,0.000000,0.000000,0.000000,0.000000,0.000000,1772181967.839574,0.000000
156.000000,-843.666594,1977.928219,-1459.524209,1675.464413,-25715.413775,-21814.207353,-4630.923823,-3855.139477,1266.405137,-201.523328,-18595.556151,1900.345314,-14175.744554,-7926.196805,-6933.645241,-5967.804011,0.011000,-0.015000,1.016500,192.000000,0.000000,0.000000,0.000000,0.000000,0.000000,0.000000,0.000000,0.000000,0.000000,1772181967.839588,0.000000
158.000000,-845.119458,1976.140079,-1463.458116,1670.099994,-25724.577990,-21821.516373,-4634.813027,-3859.162791,1339.696507,-127.673164,-18520.856621,1971.803841,-14112.243248,-7867.277606,-6865.405365,-5900.614667,0.011000,-0.015000,1.016500,192.000000,0.000000,0.000000,0.000000,0.000000,0.000000,0.000000,0.000000,0.000000,0.000000,1772181967.839601,0.000000
160.000000,-887.811290,1932.062439,-1503.579498,1626.536444,-25763.022991,-21861.324830,-4675.582609,-3900.871146,1269.489678,-200.182223,-18586.235474,1901.127625,-14185.735784,-7939.473741,-6931.588880,-5968.921598,0.011000,-0.015000,1.016500,192.000000,0.000000,0.000000,0.000000,0.000000,0.000000,0.000000,0.000000,0.000000,0.000000,1772181967.839613,0.000000
162.000000,-821.538367,2001.017571,-1436.971299,1695.335113,-25684.501312,-21781.864379,-4613.154186,-3837.392192,1312.807359,-157.758612,-18542.783683,1939.617329,-14142.999249,-7888.802336,-6880.895124,-5920.887699,0.009500,-0.014500,1.011250,192.000000,0.000000,32.000000,127.500000,72.000000,15.500000,56.000000,0.000000,0.000000,0.000000,1772181967.839625,0.000000
164.000000,-882.402168,1935.281090,-1504.026533,1631.342069,-25749.321371,-21843.532842,-4678.622446,-3901.228774,1313.835539,-155.277569,-18547.522253,1939.885550,-14119.976952,-7888.422357,-6882.057414,-5913.601031,0.009500,-0.014500,1.011250,192.000000,0.000000,0.000000,0.000000,0.000000,0.000000,0.000000,0.000000,0.000000,0.000000,1772181967.839638,0.000000
166.000000,-841.207903,1979.090509,-1463.122840,1675.643227,-25714.922037,-21804.305530,-4635.930614,-3860.906227,1274.138841,-193.610810,-18588.515352,1902.714599,-14179.186723,-7935.852758,-6934.673421,-5955.287034,0.009500,-0.014500,1.011250,192.000000,0.000000,0.000000,0.000000,0.000000,0.000000,0.000000,0.000000,0.000000,0.000000,1772181967.839650,0.000000
168.000000,-850.796801,1965.545352,-1467.749651,1663.461526,-25737.318484,-21829.294780,-4639.261024,-3865.287169,1339.584749,-133.126990,-18523.002389,1964.159544,-14117.764129,-7862.874313,-6877.609417,-5906.135548,0.009500,-0.014500,1.011250,192.000000,0.000000,0.000000,0.000000,0.000000,0.000000,0.000000,0.000000,0.000000,0.000000,1772181967.839662,0.000000
170.000000,-890.225278,1925.312212,-1506.373466,1620.680287,-25782.491360,-21878.893301,-4676.633141,-3898.859489,1270.942541,-209.413494,-18586.369584,1893.237459,-14182.517133,-7944.771104,-6950.341994,-5981.304464,0.009500,-0.014500,1.011250,192.000000,0.000000,0.000000,0.000000,0.000000,0.000000,0.000000,0.000000,0.000000,0.000000,1772181967.839675,0.000000
172.000000,-825.226405,1994.177937,-1437.217168,1690.529488,-25713.066842,-21807.613588,-4609.242631,-3833.324174,1313.857891,-160.239656,-18539.185052,1941.628986,-14139.937060,-7902.436900,-6906.934906,-5940.780752,0.006750,-0.014250,1.007625,192.000000,0.000000,16.000000,127.500000,72.000000,15.500000,48.000000,0.000000,0.000000,0.000000,1772181967.839687,0.000000
174.000000,-891.678142,1924.574605,-1503.825367,1621.462598,-25773.103627,-21873.059496,-4677.527210,-3901.966381,1306.861795,-169.225057,-18551.143235,1930.006078,-14149.481255,-7910.774101,-6906.934906,-5944.669955,0.006750,-0.014250,1.007625,192.000000,0.000000,0.000000,0.000000,0.000000,0.000000,0.000000,0.000000,0.000000,0.000000,1772181967.839700,0.000000
176.000000,-846.237045,1971.625027,-1459.680672,1667.328378,-25724.108603,-21821.538725,-4636.556463,-3865.398927,1265.175791,-211.134578,-18597.366643,1887.627171,-14189.200305,-7956.103439,-6942.362421,-5981.662092,0.006750,-0.014250,1.007625,192.000000,0.000000,0.000000,0.000000,0.000000,0.000000,0.000000,0.000000,0.000000,0.000000,1772181967.839712,0.000000
178.000000,-841.207903,1970.887419,-1463.391061,1663.036843,-25722.365167,-21820.734062,-4640.780943,-3870.204552,1348.927778,-135.988013,-18525.841060,1956.805820,-14103.928400,-7867.992862,-6867.573484,-5909.600068,0.006750,-0.014250,1.007625,192.000000,0.000000,0.000000,0.000000,0.000000,0.000000,0.000000,0.000000,0.000000,0.000000,1772181967.839724,0.000000
180.000000,-898.048389,1919.836035,-1508.027495,1621.462598,-25765.034648,-21861.973031,-4682.601056,-3914.125730,1261.398347,-211.983944,-18598.104250,1888.521241,-14177.264473,-7946.469837,-6928.325525,-5970.977959,0.006750,-0.014250,1.007625,192.000000,0.000000,0.000000,0.000000,0.000000,0.000000,0.000000,0.000000,0.000000,0.000000,1772181967.839736,0.000000
182.000000,-828.981498,1995.004951,-1437.038355,1697.570288,-25693.017327,-21783.451353,-4613.958849,-3840.387325,1306.258298,-157.535095,-18549.980944,1936.957471,-14146.530824,-7888.020025,-6880.291626,-5921.111217,0.006375,-0.014125,1.005812,192.000000,0.000000,24.000000,127.500000,72.000000,15.500000,48.000000,0.000000,0.000000,0.000000,1772181967.839749,0.000000
184.000000,-880.301104,1939.483218,-1501.724303,1637.444095,-25750.818938,-21839.464824,-4675.180277,-3896.400797,1299.932754,-155.836362,-18548.818654,1939.036183,-14148.028391,-7878.073499,-6882.191525,-5918.227842,0.006375,-0.014125,1.005812,192.000000,0.000000,0.000000,0.000000,0.000000,0.000000,0.000000,0.000000,0.000000,0.000000,1772181967.839761,0.000000
186.000000,-845.030051,1981.258629,-1459.814782,1684.226296,-25704.528475,-21792.280292,-4631.817893,-3855.452401,1264.549943,-187.307619,-18586.079012,1903.631020,-14177.733860,-7920.832386,-6917.417874,-5949.006194,0.006375,-0.014125,1.005812,192.000000,0.000000,0.000000,0.000000,0.000000,0.000000,0.000000,0.000000,0.000000,0.000000,1772181967.839775,0.000000
188.000000,-855.267150,1970.686253,-1473.315236,1673.408052,-25723.750976,-21809.066452,-4641.049163,-3866.941198,1320.161083,-122.196987,-18526.422206,1966.864105,-14122.703865,-7855.453534,-6858.006937,-5874.396071,0.006375,-0.014125,1.005812,192.000000,0.000000,0.000000,0.000000,0.000000,0.000000,0.000000,0.000000,0.000000,0.000000,1772181967.839787,0.000000
190.000000,-894.628572,1929.424933,-1512.006105,1628.793970,-25773.930642,-21864.968165,-4677.035472,-3902.860451,1254.514009,-194.191956,-18598.506582,1897.618401,-14199.012720,-7931.024782,-6937.087409,-5945.631080,0.006375,-0.014125,1.005812,192.000000,0.000000,0.000000,0.000000,0.000000,0.000000,0.000000,0.000000,0.000000,0.000000,1772181967.839800,0.000000
192.000000,-832.758943,1994.602620,-1441.039317,1694.508099,-25720.286455,-21804.573751,-4607.968582,-3835.671107,1296.043550,-153.243560,-18554.853625,1941.226654,-14142.865138,-7907.175470,-6897.033083,-5919.658353,0.006188,-0.012063,1.006906,192.000000,0.000000,24.000000,127.500000,88.000000,15.500000,64.000000,0.000000,0.000000,0.000000,1772181967.839813,0.000000
194.000000,-899.903584,1922.853520,-1507.558108,1621.328488,-25788.369869,-21880.793200,-4676.141402,-3907.174338,1285.225306,-162.251313,-18563.012011,1932.889454,-14160.098333,-7910.215307,-6904.766787,-5937.427990,0.006188,-0.012063,1.006906,192.000000,0.000000,0.000000,0.000000,0.000000,0.000000,0.000000,0.000000,0.000000,0.000000,1772181968.318341,0.000000
196.000000,-861.324473,1966.998216,-1469.694253,1664.668520,-25741.989999,-21834.279219,-4638.411658,-3873.199686,1243.561655,-205.904270,-18606.508506,1888.923572,-14204.533601,-7954.002375,-6943.815284,-5984.321950,0.006188,-0.012063,1.006906,192.000000,0.000000,0.000000,0.000000,0.000000,0.000000,0.000000,0.000000,0.000000,0.000000,1772181968.318406,0.000000
198.000000,-866.063042,1963.868971,-1476.802108,1661.762793,-25734.211592,-21826.634923,-4642.971413,-3878.362939,1305.140710,-139.251368,-18546.717590,1950.770849,-14134.237365,-7864.684804,-6874.837801,-5914.897432,0.006188,-0.012063,1.006906,192.000000,0.000000,0.000000,0.000000,0.000000,0.000000,0.000000,0.000000,0.000000,0.000000,1772181968.318451,0.000000
200.000000,-896.886098,1930.028430,-1510.597946,1626.558796,-25761.659534,-21853.993458,-4680.298827,-3911.421169,1248.546094,-198.304677,-18606.553210,1889.638828,-14193.491840,-7936.456255,-6932.393543,-5970.977959,0.006188,-0.012063,1.006906,192.000000,0.000000,0.000000,0.000000,0.000000,0.000000,0.000000,0.000000,0.000000,0.000000,1772181968.318496,0.000000
202.000000,-824.533501,2003.968001,-1437.016003,1700.006628,-25684.881292,-21775.091800,-4613.668277,-3838.666241,1298.591649,-148.996729,-18555.434770,1938.298576,-14147.648412,-7892.780947,-6881.208048,-5916.149129,0.007094,-0.007031,1.011453,192.000000,0.000000,32.000000,127.500000,120.000000,15.500000,96.000000,0.000000,0.000000,0.000000,1772181968.318553,0.000000
204.000000,-886.760758,1939.192645,-1505.814672,1634.717182,-25743.129938,-21832.848708,-4681.706987,-3903.285134,1301.095045,-149.041432,-18554.160721,1939.125590,-14134.527938,-7878.118202,-6877.832935,-5908.594240,0.007094,-0.007031,1.011453,192.000000,0.000000,0.000000,0.000000,0.000000,0.000000,0.000000,0.000000,0.000000,0.000000,1772181968.318628,0.000000
206.000000,-852.339071,1977.436480,-1465.380366,1682.438157,-25706.920112,-21787.742887,-4639.082210,-3863.499029,1259.789021,-188.402854,-18597.746622,1898.467767,-14177.376232,-7928.052000,-6911.137034,-5930.610708,0.007094,-0.007031,1.011453,192.000000,0.000000,0.000000,0.000000,0.000000,0.000000,0.000000,0.000000,0.000000,0.000000,1772181968.318674,0.000000
208.000000,-868.164106,1959.130402,-1474.745747,1671.418747,-25728.154269,-21812.553324,-4644.424277,-3876.038358,1315.914251,-131.003574,-18539.788549,1956.649358,-14126.168385,-7872.686729,-6851.949615,-5866.014167,0.007094,-0.007031,1.011453,192.000000,0.000000,0.000000,0.000000,0.000000,0.000000,0.000000,0.000000,0.000000,0.000000,1772181968.318720,0.000000
210.000000,-912.711133,1912.258793,-1519.493940,1626.268223,-25779.473875,-21864.096447,-4684.836231,-3922.261765,1242.444067,-205.703104,-18613.571657,1883.335636,-14204.041863,-7937.752657,-6930.672458,-5937.897377,0.007094,-0.007031,1.011453,192.000000,0.000000,0.000000,0.000000,0.000000,0.000000,0.000000,0.000000,0.000000,0.000000,1772181968.318757,0.000000
212.000000,-843.018394,1986.444233,-1446.917826,1699.850166,-25713.223304,-21797.756469,-4611.701323,-3846.824628,1284.711216,-162.720700,-18571.103343,1928.329698,-14147.156673,-7898.413586,-6895.468461,-5904.436815,0.007094,-0.007031,1.011453,192.000000,0.000000,0.000000,0.000000,0.000000,0.000000,0.000000,0.000000,0.000000,0.000000,1772181968.318769,0.000000
214.000000,-900.238860,1923.255852,-1511.693181,1630.179778,-25779.742095,-21869.907900,-4674.532077,-3905.095626,1287.393425,-163.368900,-18566.320070,1932.107142,-14159.986575,-7899.598229,-6906.219650,-5921.692362,0.014000,0.000000,1.008000,192.000000,0.000000,56.000000,0.000000,0.000000,15.500000,64.000000,0.000000,0.000000,0.000000,1772181968.318782,0.000000
216.000000,-859.581037,1967.579361,-1470.409509,1674.033901,-25741.587668,-21827.283123,-4631.370858,-3861.308558,1248.970777,-204.071427,-18605.346215,1894.265639,-14188.842677,-7921.882918,-6952.599520,-5972.319063,0.014000,0.000000,1.008000,192.000000,0.000000,0.000000,0.000000,0.000000,0.000000,0.000000,0.000000,0.000000,0.000000,1772181968.318794,0.000000
218.000000,-860.519810,1962.460811,-1473.002311,1669.921180,-25747.600287,-21835.039179,-4634.835379,-3864.303692,1312.181510,-133.261100,-18536.771063,1960.650320,-14133.812682,-7885.896610,-6886.036025,-5910.181214,0.014000,0.000000,1.008000,192.000000,0.000000,0.000000,0.000000,0.000000,0.000000,0.000000,0.000000,0.000000,0.000000,1772181968.318815,0.000000
220.000000,-907.257307,1915.008058,-1517.214062,1626.245871,-25783.899520,-21870.980784,-4679.136536,-3910.907079,1245.685070,-201.702142,-18602.842820,1891.315209,-14204.444194,-7945.687526,-6945.446962,-5976.320025,0.014000,0.000000,1.008000,192.000000,0.000000,0.000000,0.000000,0.000000,0.000000,0.000000,0.000000,0.000000,0.000000,1772181968.318827,0.000000
222.000000,-849.232179,1977.659998,-1452.192837,1696.609163,-25709.334100,-21797.443545,-4616.171672,-3854.111296,1283.213649,-162.452479,-18567.303546,1928.866140,-14159.964223,-7903.196860,-6899.134147,-5927.213243,0.014000,0.000000,1.008000,192.000000,0.000000,0.000000,0.000000,0.000000,0.000000,0.000000,0.000000,0.000000,0.000000,1772181968.318838,0.000000
224.000000,-909.000744,1910.872985,-1515.001239,1627.139941,-25771.941337,-21861.324830,-4684.031568,-3919.892480,1277.558658,-170.543810,-18577.540645,1919.634869,-14156.611461,-7901.252258,-6899.044740,-5925.492159,0.014000,-0.004000,1.004000,192.000000,0.000000,56.000000,127.500000,112.000000,15.500000,48.000000,0.000000,0.000000,0.000000,1772181968.318850,0.000000
226.000000,-860.810382,1961.656149,-1470.074233,1676.447889,-25721.336987,-21811.256923,-4643.038469,-3875.881896,1246.422678,-203.579688,-18610.688282,1882.642732,-14197.381043,-7947.363907,-6930.493645,-5955.197627,0.014000,-0.004000,1.004000,192.000000,0.000000,0.000000,0.000000,0.000000,0.000000,0.000000,0.000000,0.000000,0.000000,1772181968.318862,0.000000
228.000000,-862.039728,1962.304349,-1479.931352,1680.404148,-25726.097909,-21804.305530,-4647.665280,-3880.642817,1312.427379,-132.367031,-18545.532947,1952.201361,-14133.075074,-7858.113391,-6861.024423,-5873.569056,0.014000,-0.004000,1.004000,192.000000,0.000000,0.000000,0.000000,0.000000,0.000000,0.000000,0.000000,0.000000,0.000000,1772181968.318874,0.000000
230.000000,-903.144586,1919.925442,-1520.432713,1641.355651,-25758.485586,-21836.469690,-4689.440690,-3924.094608,1249.551922,-193.834328,-18615.493907,1888.878869,-14191.547238,-7922.397008,-6918.893089,-5924.195757,0.014000,-0.004000,1.004000,192.000000,0.000000,0.000000,0.000000,0.000000,0.000000,0.000000,0.000000,0.000000,0.000000,1772181968.318886,0.000000
232.000000,-833.295385,1989.506422,-1446.537846,1702.062989,-25694.470190,-21775.091800,-4619.993820,-3855.608863,1295.529460,-148.326176,-18568.644651,1931.704811,-14144.943851,-7883.437918,-6877.274141,-5893.953847,0.014000,-0.004000,1.004000,192.000000,0.000000,0.000000,0.000000,0.000000,0.000000,0.000000,0.000000,0.000000,0.000000,1772181968.318898,0.000000
234.000000,-903.099883,1914.985706,-1512.341382,1627.206996,-25769.057962,-21858.709676,-4684.165679,-3919.333687,1290.969705,-159.412641,-18571.036288,1922.182968,-14152.208168,-7884.868429,-6891.914534,-5920.842996,0.012000,-0.012000,1.006000,192.000000,0.000000,48.000000,127.500000,80.000000,15.500000,56.000000,0.000000,0.000000,0.000000,1772181968.318910,0.000000
236.000000,-858.552856,1965.321835,-1469.984826,1675.397357,-25728.623656,-21822.432795,-4638.434009,-3870.830401,1248.456687,-202.171529,-18611.336483,1885.459052,-14190.697872,-7939.317279,-6940.753095,-5973.257836,0.012000,-0.012000,1.006000,192.000000,0.000000,0.000000,0.000000,0.000000,0.000000,0.000000,0.000000,0.000000,0.000000,1772181968.318922,0.000000
238.000000,-858.843429,1963.198419,-1475.326893,1668.714186,-25735.910325,-21832.155804,-4640.289204,-3873.222038,1317.389466,-130.377725,-18543.409532,1959.063346,-14123.106196,-7869.915112,-6882.258580,-5918.160786,0.012000,-0.012000,1.006000,192.000000,0.000000,0.000000,0.000000,0.000000,0.000000,0.000000,0.000000,0.000000,0.000000,1772181968.318933,0.000000
240.000000,-899.367142,1920.953622,-1513.771893,1624.323621,-25782.133732,-21869.796141,-4679.538867,-3914.170434,1252.480001,-200.897479,-18608.028425,1890.555250,-14193.491840,-7939.071410,-6944.865816,-5978.018758,0.012000,-0.012000,1.006000,192.000000,0.000000,0.000000,0.000000,0.000000,0.000000,0.000000,0.000000,0.000000,0.000000,1772181968.318946,0.000000
242.000000,-831.887225,1989.864050,-1445.666128,1689.546012,-25711.211647,-21802.718556,-4616.685762,-3849.395078,1297.116434,-159.434993,-18563.459046,1928.150884,-14155.069191,-7902.950991,-6899.402368,-5937.003307,0.012000,-0.012000,1.006000,192.000000,0.000000,0.000000,0.000000,0.000000,0.000000,0.000000,0.000000,0.000000,0.000000,1772181968.318958,0.000000
244.000000,-889.197098,1931.302480,-1511.290850,1631.565587,-25773.975345,-21858.821435,-4677.035472,-3907.062579,1291.819071,-158.987958,-18564.107247,1929.067305,-14151.247043,-7891.350435,-6901.794005,-5938.165598,0.014000,-0.014000,1.006000,192.000000,0.000000,56.000000,127.500000,72.000000,15.500000,56.000000,0.000000,0.000000,0.000000,1772181968.318970,0.000000
246.000000,-850.863856,1972.317931,-1468.911942,1675.822041,-25727.081386,-21812.754490,-4637.204663,-3869.154020,1259.721966,-190.302752,-18600.518239,1895.584392,-14197.336340,-7938.780837,-6936.394505,-5965.814706,0.014000,-0.014000,1.006000,192.000000,0.000000,0.000000,0.000000,0.000000,0.000000,0.000000,0.000000,0.000000,0.000000,1772181968.318982,0.000000
248.000000,-860.206885,1961.902018,-1473.069367,1671.664616,-25726.947275,-21810.675777,-4643.261986,-3878.139422,1318.574109,-130.042449,-18543.700104,1952.089602,-14126.280144,-7863.298996,-6868.713423,-5885.974274,0.014000,-0.014000,1.006000,192.000000,0.000000,0.000000,0.000000,0.000000,0.000000,0.000000,0.000000,0.000000,0.000000,1772181968.318994,0.000000
250.000000,-900.395322,1920.081904,-1510.977925,1632.996098,-25760.832520,-21844.784539,-4682.399891,-3918.350210,1256.212742,-193.029665,-18607.648445,1888.208316,-14189.736747,-7932.142369,-6923.206976,-5929.537824,0.014000,-0.014000,1.006000,192.000000,0.000000,0.000000,0.000000,0.000000,0.000000,0.000000,0.000000,0.000000,0.000000,1772181968.319021,0.000000
252.000000,-845.544141,1977.928219,-1452.103430,1692.205869,-25713.782098,-21793.889617,-4621.022000,-3860.727413,1290.857946,-156.819839,-18569.583424,1923.702887,-14153.616327,-7890.411662,-6883.666740,-5897.775995,0.014000,-0.014000,1.006000,192.000000,0.000000,0.000000,0.000000,0.000000,0.000000,0.000000,0.000000,0.000000,0.000000,1772181968.319034,0.000000
254.000000,-905.178595,1911.275317,-1514.598908,1623.764828,-25786.157046,-21868.835016,-4680.142365,-3919.356038,1283.101890,-171.549639,-18577.071259,1915.589203,-14154.063362,-7916.116168,-6898.105967,-5922.742894,0.018000,-0.014000,1.008000,192.000000,0.000000,72.000000,127.500000,72.000000,15.500000,64.000000,0.000000,0.000000,0.000000,1772181968.319046,0.000000
0.000000,-865.660711,1954.391832,-1470.074233,1662.768622,-25745.655685,-21831.798176,-4639.641004,-3876.194820,1245.372146,-210.084046,-18616.231515,1876.563057,-14218.972828,-7939.607851,-6945.670479,-5974.934217,0.018000,-0.014000,1.008000,192.000000,0.000000,0.000000,0.000000,0.000000,0.000000,0.000000,0.000000,0.000000,0.000000,1772181968.319058,0.000000
2.000000,-859.737499,1962.281997,-1468.822535,1665.696700,-25746.348589,-21834.301571,-4639.864521,-3870.830401,1313.723780,-140.301900,-18544.035380,1945.272320,-14143.803912,-7884.443746,-6880.872772,-5911.879946,0.018000,-0.014000,1.008000,192.000000,0.000000,0.000000,0.000000,0.000000,0.000000,0.000000,0.000000,0.000000,0.000000,1772181968.319070,0.000000
4.000000,-895.142662,1922.607651,-1507.803977,1628.726915,-25781.418476,-21872.299537,-4678.980074,-3907.241393,1255.162210,-200.249279,-18601.613474,1888.521241,-14191.390776,-7944.704049,-6942.876511,-5972.900209,0.018000,-0.014000,1.008000,192.000000,0.000000,0.000000,0.000000,0.000000,0.000000,0.000000,0.000000,0.000000,0.000000,1772181968.319083,0.000000
6.000000,-830.367307,1994.602620,-1442.536884,1698.196137,-25718.967702,-21807.658292,-4613.981201,-3842.019003,1298.971629,-153.467077,-18558.273442,1933.336488,-14153.772790,-7901.207554,-6901.525784,-5931.057743,0.018000,-0.014000,1.008000,192.000000,0.000000,0.000000,0.000000,0.000000,0.000000,0.000000,0.000000,0.000000,0.000000,1772181968.319094,0.000000
8.000000,-894.472110,1927.189759,-1507.245184,1629.375116,-25784.413610,-21873.573586,-4677.437803,-3905.833233,1293.249582,-157.602150,-18562.743790,1928.866140,-14159.450133,-7900.738168,-6906.130243,-5938.545577,0.012000,-0.010000,1.004000,192.000000,0.000000,48.000000,127.500000,88.000000,15.500000,48.000000,0.000000,0.000000,0.000000,1772181968.319106,0.000000
10.000000,-856.094164,1966.774698,-1461.558218,1669.451793,-25737.877278,-21833.206336,-4636.981146,-3864.191933,1254.134030,-199.757540,-18600.942922,1889.147090,-14197.537505,-7953.689450,-6940.998964,-5981.706796,0.012000,-0.010000,1.004000,192.000000,0.000000,0.000000,0.000000,0.000000,0.000000,0.000000,0.000000,0.000000,0.000000,1772181968.319118,0.000000
12.000000,-863.671406,1957.968111,-1464.754518,1662.522753,-25739.777176,-21841.454129,-4643.418448,-3871.836230,1319.624641,-140.883045,-18534.647648,1950.636739,-14127.777711,-7893.183278,-6871.730908,-5917.512586,0.012000,-0.010000,1.004000,192.000000,0.000000,0.000000,0.000000,0.000000,0.000000,0.000000,0.000000,0.000000,0.000000,1772181968.319130,0.000000
14.000000,-902.116406,1921.512416,-1507.647515,1627.452866,-25779.987965,-21870.109066,-4682.913981,-3911.354114,1248.680204,-208.474721,-18607.559038,1883.782671,-14188.619159,-7945.329898,-6930.605403,-5971.894380,0.012000,-0.010000,1.004000,192.000000,0.000000,0.000000,0.000000,0.000000,0.000000,0.000000,0.000000,0.000000,0.000000,1772181968.319142,0.000000
16.000000,-837.072830,1991.652190,-1444.839113,1697.994971,-25717.805412,-21797.711765,-4617.177500,-3843.941253,1291.103815,-157.602150,-18564.755447,1932.777695,-14161.014755,-7885.248409,-6890.260505,-5919.837167,0.012000,-0.010000,1.004000,192.000000,0.000000,0.000000,0.000000,0.000000,0.000000,0.000000,0.000000,0.000000,0.000000,1772181968.319170,0.000000
18.000000,-896.081435,1928.754381,-1513.347210,1633.890168,-25784.748886,-21862.777694,-4677.571914,-3903.575707,1284.398292,-160.820801,-18568.868168,1933.358840,-14164.926310,-7915.445616,-6906.912554,-5923.614612,0.010000,-0.010000,1.002000,192.000000,0.000000,40.000000,127.500000,88.000000,15.500000,40.000000,0.000000,0.000000,0.000000,1772181968.319181,0.000000
20.000000,-854.149563,1972.742614,-1468.800183,1672.022244,-25748.941392,-21825.137356,-4637.562291,-3864.393099,1249.641329,-194.773101,-18606.821431,1898.378360,-14202.946627,-7937.953822,-6950.520808,-5965.054746,0.010000,-0.010000,1.002000,192.000000,0.000000,0.000000,0.000000,0.000000,0.000000,0.000000,0.000000,0.000000,0.000000,1772181968.319193,0.000000
22.000000,-859.022243,1965.120669,-1471.683558,1664.646168,-25756.161005,-21838.593106,-4641.138570,-3867.812916,1315.824844,-133.506970,-18542.560165,1959.532733,-14142.529862,-7880.599246,-6884.560810,-5913.399865,0.010000,-0.010000,1.002000,192.000000,0.000000,0.000000,0.000000,0.000000,0.000000,0.000000,0.000000,0.000000,0.000000,1772181968.319205,0.000000
24.000000,-900.887060,1918.919613,-1513.369562,1620.769694,-25791.834389,-21882.849560,-4678.957722,-3907.509614,1247.964948,-206.954802,-18609.995378,1889.929401,-14206.701721,-7955.634052,-6943.971746,-5979.873953,0.010000,-0.010000,1.002000,192.000000,0.000000,0.000000,0.000000,0.000000,0.000000,0.000000,0.000000,0.000000,0.000000,1772181968.319217,0.000000
26.000000,-836.670498,1988.388835,-1446.582549,1692.429387,-25729.674188,-21815.257885,-4610.248460,-3839.001517,1290.992056,-162.340720,-18565.224834,1934.230558,-14159.047801,-7890.344607,-6900.408196,-5940.400772,0.010000,-0.010000,1.002000,192.000000,0.000000,0.000000,0.000000,0.000000,0.000000,0.000000,0.000000,0.000000,0.000000,1772181968.319231,0.000000
28.000000,-900.372970,1922.473541,-1512.900175,1631.856159,-25793.354308,-21880.860255,-4676.119051,-3905.319143,1284.040664,-165.827592,-18569.739886,1932.934157,-14169.866046,-7923.715761,-6907.605458,-5940.199606,0.010000,-0.010000,1.004000,192.000000,0.000000,40.000000,127.500000,88.000000,15.500000,56.000000,0.000000,0.000000,0.000000,1772181968.319243,0.000000
30.000000,-861.927970,1962.036128,-1470.141288,1673.855087,-25746.527403,-21833.027522,-4639.462190,-3868.394061,1244.031041,-205.680752,-18612.498774,1890.331732,-14205.382968,-7954.047078,-6945.916348,-5975.157735,0.010000,-0.010000,1.004000,192.000000,0.000000,0.000000,0.000000,0.000000,0.000000,0.000000,0.000000,0.000000,0.000000,1772181968.319255,0.000000
32.000000,-863.000853,1961.902018,-1469.068404,1670.658788,-25748.516708,-21833.698074,-4643.194931,-3870.182201,1309.767522,-139.094906,-18547.186976,1955.889399,-14146.642583,-7887.148307,-6878.637597,-5905.397940,0.010000,-0.010000,1.004000,192.000000,0.000000,0.000000,0.000000,0.000000,0.000000,0.000000,0.000000,0.000000,0.000000,1772181968.319267,0.000000
34.000000,-896.327304,1926.250985,-1509.815634,1635.924177,-25782.245491,-21864.230557,-4681.170545,-3905.162681,1251.138896,-200.361037,-18606.687320,1895.897316,-14197.202229,-7934.511654,-6933.801703,-5956.494028,0.010000,-0.010000,1.004000,192.000000,0.000000,0.000000,0.000000,0.000000,0.000000,0.000000,0.000000,0.000000,0.000000,1772181968.319279,0.000000
36.000000,-834.412972,1993.373274,-1451.857561,1707.315648,-25722.007540,-21795.811867,-4618.831529,-3841.259043,1288.309847,-157.333929,-18571.460971,1940.712564,-14160.344203,-7902.749825,-6895.289647,-5896.457243,0.010000,-0.010000,1.004000,192.000000,0.000000,0.000000,0.000000,0.000000,0.000000,0.000000,0.000000,0.000000,0.000000,1772181968.319290,0.000000
38.000000,-895.790863,1927.390924,-1517.459931,1638.941662,-25785.061811,-21856.094522,-4681.684635,-3901.631105,1287.862812,-163.123031,-18573.807904,1936.912768,-14170.067211,-7896.603095,-6904.945601,-5894.400882,0.010000,-0.012000,1.006000,192.000000,0.000000,40.000000,127.500000,72.000000,15.500000,64.000000,0.000000,0.000000,0.000000,1772181968.319302,0.000000
40.000000,-855.155391,1971.937951,-1467.213210,1672.491631,-25741.073578,-21818.945923,-4640.177445,-3860.034509,1246.646195,-204.227889,-18613.348140,1894.444453,-14210.702683,-7938.534968,-6948.039764,-5953.722412,0.010000,-0.012000,1.006000,192.000000,0.000000,0.000000,0.000000,0.000000,0.000000,0.000000,0.000000,0.000000,0.000000,1772181968.319314,0.000000
42.000000,-859.715147,1967.802878,-1468.420204,1664.333244,-25746.370941,-21838.861327,-4643.284338,-3864.348395,1315.981307,-138.558464,-18542.627220,1961.767907,-14130.437568,-7890.188144,-6878.078804,-5918.339600,0.010000,-0.012000,1.006000,192.000000,0.000000,0.000000,0.000000,0.000000,0.000000,0.000000,0.000000,0.000000,0.000000,1772181968.319326,0.000000
44.000000,-903.278697,1922.384134,-1510.508539,1625.485912,-25793.175494,-21885.107086,-4680.947027,-3906.235564,1247.808486,-205.345476,-18611.068262,1897.305476,-14197.649264,-7944.324070,-6944.195264,-5992.614447,0.010000,-0.012000,1.006000,192.000000,0.000000,0.000000,0.000000,0.000000,0.000000,0.000000,0.000000,0.000000,0.000000,1772181968.319338,0.000000
46.000000,-843.264263,1986.176012,-1448.437744,1694.329285,-25727.014330,-21815.056719,-4615.299954,-3844.790619,1284.130071,-168.062767,-18573.964366,1934.744648,-14165.842732,-7917.166700,-6901.458728,-5941.741877,0.010000,-0.012000,1.006000,192.000000,0.000000,0.000000,0.000000,0.000000,0.000000,0.000000,0.000000,0.000000,0.000000,1772181968.319349,0.000000
48.000000,-912.219395,1912.035276,-1513.034286,1621.552005,-25788.503979,-21882.760153,-4685.037397,-3916.025629,1273.200068,-179.775081,-18585.721384,1923.702887,-14183.902941,-7919.491281,-6901.816356,-5939.260833,0.010000,-0.013000,1.005000,192.000000,0.000000,40.000000,127.500000,72.000000,15.500000,48.000000,0.000000,0.000000,0.000000,1772181968.319361,0.000000
50.000000,-867.828830,1957.811649,-1467.593189,1663.148601,-25738.301961,-21832.848708,-4646.771210,-3880.352244,1237.906663,-222.757485,-18625.976876,1878.887639,-14212.356712,-7957.712764,-6931.924156,-5968.519267,0.010000,-0.013000,1.005000,192.000000,0.000000,0.000000,0.000000,0.000000,0.000000,0.000000,0.000000,0.000000,0.000000,1772181968.319373,0.000000
52.000000,-872.746214,1953.631872,-1477.606771,1665.651997,-25742.884069,-21828.244248,-4650.682765,-3886.275457,1305.297173,-151.969511,-18561.313279,1943.059497,-14143.446284,-7904.783834,-6864.466591,-5895.898449,0.010000,-0.013000,1.005000,192.000000,0.000000,0.000000,0.000000,0.000000,0.000000,0.000000,0.000000,0.000000,0.000000,1772181968.319385,0.000000
54.000000,-909.939517,1914.650430,-1520.455065,1630.604462,-25785.575901,-21867.426856,-4685.417376,-3919.266632,1242.421716,-211.425151,-18625.216916,1883.134470,-14211.864974,-7949.822599,-6934.896938,-5953.722412,0.010000,-0.013000,1.005000,192.000000,0.000000,0.000000,0.000000,0.000000,0.000000,0.000000,0.000000,0.000000,0.000000,1772181968.319397,0.000000
56.000000,-841.945510,1988.411187,-1452.326948,1700.587773,-25719.615903,-21797.532952,-4617.333963,-3850.557369,1284.063015,-164.620598,-18581.519256,1929.827265,-14156.745572,-7901.453424,-6898.575353,-5912.058760,0.010000,-0.013000,1.005000,192.000000,0.000000,0.000000,0.000000,0.000000,0.000000,0.000000,0.000000,0.000000,0.000000,1772181968.319409,0.000000
58.000000,-898.450720,1927.413276,-1515.381219,1633.577244,-25778.088066,-21860.900147,-4682.042263,-3914.349248,1287.058149,-163.726528,-18582.994471,1928.374401,-14164.792200,-7906.437863,-6896.496641,-5913.958658,0.010000,-0.013500,1.002500,192.000000,0.000000,40.000000,127.500000,72.000000,15.500000,32.000000,0.000000,0.000000,0.000000,1772181968.799245,0.000000
60.000000,-862.933798,1967.042919,-1475.438651,1673.609218,-25733.317522,-21815.995492,-4643.709021,-3877.245352,1247.070878,-205.948973,-18624.278143,1885.973142,-14195.928180,-7949.017936,-6933.421723,-5952.157790,0.010000,-0.013500,1.002500,192.000000,0.000000,0.000000,0.000000,0.000000,0.000000,0.000000,0.000000,0.000000,0.000000,1772181968.799329,0.000000
62.000000,-869.728729,1959.309215,-1480.244277,1670.368215,-25741.967647,-21816.442527,-4649.319309,-3883.123861,1307.532347,-139.184313,-18560.776837,1948.267454,-14151.783484,-7874.586627,-6866.969987,-5880.609856,0.010000,-0.013500,1.002500,192.000000,0.000000,0.000000,0.000000,0.000000,0.000000,0.000000,0.000000,0.000000,0.000000,1772181968.799388,0.000000
64.000000,-913.225223,1913.689305,-1521.751466,1624.435380,-25784.570072,-21871.405467,-4689.127766,-3925.480416,1243.874579,-206.194843,-18628.368512,1880.653427,-14210.121537,-7950.336689,-6936.126284,-5949.341470,0.010000,-0.013500,1.002500,192.000000,0.000000,0.000000,0.000000,0.000000,0.000000,0.000000,0.000000,0.000000,0.000000,1772181968.799446,0.000000
66.000000,-842.057269,1986.980675,-1448.817724,1688.048445,-25727.796641,-21818.700054,-4622.921899,-3853.261930,1286.521707,-167.705139,-18583.441506,1922.294727,-14168.681403,-7920.497110,-6900.184679,-5927.146188,0.010000,-0.013500,1.002500,192.000000,0.000000,0.000000,0.000000,0.000000,0.000000,0.000000,0.000000,0.000000,0.000000,1772181968.799505,0.000000
68.000000,-899.680066,1926.563910,-1509.458007,1621.306136,-25794.382488,-21889.331566,-4683.986865,-3906.950820,1284.890030,-170.744976,-18581.519256,1924.619308,-14163.048764,-7920.631220,-6906.197298,-5947.709793,0.008000,-0.011750,1.002250,192.000000,0.000000,24.000000,127.500000,88.000000,15.500000,40.000000,0.000000,0.000000,0.000000,1772181968.799543,0.000000
70.000000,-859.692795,1969.680425,-1471.102413,1665.584942,-25751.578897,-21843.823414,-4640.602129,-3864.884837,1248.411983,-210.441674,-18618.287875,1887.984799,-14208.422805,-7964.865323,-6948.419744,-5989.105223,0.008000,-0.011750,1.002250,192.000000,0.000000,0.000000,0.000000,0.000000,0.000000,0.000000,0.000000,0.000000,0.000000,1772181968.799570,0.000000
72.000000,-868.186458,1961.209114,-1481.741843,1663.349767,-25753.590554,-21844.806891,-4644.357222,-3874.093756,1314.237870,-143.766420,-18550.338572,1952.357823,-14140.875833,-7894.636142,-6880.313978,-5914.718618,0.008000,-0.011750,1.002250,192.000000,0.000000,0.000000,0.000000,0.000000,0.000000,0.000000,0.000000,0.000000,0.000000,1772181968.799598,0.000000
74.000000,-911.995877,1916.818549,-1527.786437,1623.630717,-25787.945186,-21875.808761,-4688.367806,-3921.613565,1243.584006,-209.793473,-18628.189698,1881.391034,-14205.047691,-7944.815808,-6946.117514,-5968.474563,0.008000,-0.011750,1.002250,192.000000,0.000000,0.000000,0.000000,0.000000,0.000000,0.000000,0.000000,0.000000,0.000000,1772181968.799624,0.000000
76.000000,-847.376984,1984.924315,-1455.478544,1696.162128,-25721.359339,-21795.431888,-4624.285355,-3856.122953,1283.370111,-171.303770,-18592.829239,1916.259756,-14170.693060,-7919.446578,-6899.603534,-5909.890641,0.008000,-0.011750,1.002250,192.000000,0.000000,0.000000,0.000000,0.000000,0.000000,0.000000,0.000000,0.000000,0.000000,1772181968.799651,0.000000
78.000000,-911.437084,1918.986668,-1523.651364,1630.649165,-25783.921872,-21856.742723,-4692.391120,-3921.859434,1282.699559,-172.577819,-18595.220875,1915.276279,-14175.878665,-7924.743941,-6895.133185,-5896.457243,0.008000,-0.010875,1.005125,192.000000,0.000000,32.000000,127.500000,88.000000,15.500000,64.000000,0.000000,0.000000,0.000000,1772181968.799678,0.000000
80.000000,-871.136888,1963.466640,-1485.452233,1673.855087,-25743.956953,-21807.971216,-4651.710946,-3881.626294,1238.778381,-214.777912,-18638.538556,1872.919723,-14213.228430,-7951.320166,-6937.467389,-5928.599051,0.008000,-0.010875,1.005125,192.000000,0.000000,0.000000,0.000000,0.000000,0.000000,0.000000,0.000000,0.000000,0.000000,1772181968.799706,0.000000
82.000000,-867.113574,1965.590056,-1485.899268,1675.307950,-25751.891822,-21811.636902,-4650.638062,-3877.155945,1308.113493,-143.565255,-18567.258843,1945.026451,-14150.598842,-7873.826668,-6879.732833,-5873.166725,0.008000,-0.010875,1.005125,192.000000,0.000000,0.000000,0.000000,0.000000,0.000000,0.000000,0.000000,0.000000,0.000000,1772181968.799781,0.000000
84.000000,-903.725732,1926.876834,-1519.829216,1631.140903,-25787.252282,-21864.632888,-4689.418338,-3914.684524,1249.753088,-201.880956,-18622.847631,1886.420177,-14204.019511,-7948.660308,-6942.787104,-5946.323984,0.008000,-0.010875,1.005125,192.000000,0.000000,0.000000,0.000000,0.000000,0.000000,0.000000,0.000000,0.000000,0.000000,1772181968.799823,0.000000
86.000000,-830.791990,2000.168204,-1445.084983,1691.960000,-25724.466231,-21806.898332,-4623.838320,-3845.438820,1294.791853,-154.741127,-18574.210235,1932.665936,-14163.272281,-7913.590421,-6899.067092,-5926.341525,0.008000,-0.010875,1.005125,192.000000,0.000000,0.000000,0.000000,0.000000,0.000000,0.000000,0.000000,0.000000,0.000000,1772181968.799851,0.000000
88.000000,-897.914278,1925.893358,-1509.525062,1619.361534,-25791.543817,-21883.207188,-4691.117071,-3912.650515,1292.199050,-167.526325,-18577.652404,1920.864215,-14162.825246,-7914.484491,-6903.515089,-5942.568891,0.006000,-0.011437,1.005562,192.000000,0.000000,16.000000,127.500000,80.000000,15.500000,56.000000,0.000000,0.000000,0.000000,1772181968.799878,0.000000
90.000000,-858.061118,1972.161469,-1465.089794,1665.249665,-25744.828671,-21836.782615,-4648.469943,-3872.730300,1253.038794,-210.352267,-18618.690207,1876.898334,-14202.343130,-7949.219102,-6939.300232,-5980.969188,0.006000,-0.011437,1.005562,192.000000,0.000000,0.000000,0.000000,0.000000,0.000000,0.000000,0.000000,0.000000,0.000000,1772181968.799915,0.000000
92.000000,-854.015452,1975.313064,-1470.253047,1666.188439,-25743.755787,-21835.262696,-4649.587530,-3871.120974,1323.737362,-135.250406,-18547.276383,1951.553160,-14134.371476,-7878.922865,-6869.339272,-5909.242440,0.006000,-0.011437,1.005562,192.000000,0.000000,0.000000,0.000000,0.000000,0.000000,0.000000,0.000000,0.000000,0.000000,1772181968.799942,0.000000
94.000000,-886.716054,1941.271358,-1513.458969,1629.688040,-25776.299927,-21869.885548,-4688.770138,-3906.056751,1263.007672,-194.683694,-18610.777689,1892.432796,-14203.281904,-7947.542721,-6936.416857,-5969.860371,0.006000,-0.011437,1.005562,192.000000,0.000000,0.000000,0.000000,0.000000,0.000000,0.000000,0.000000,0.000000,0.000000,1772181968.799970,0.000000
96.000000,-824.086466,2008.326591,-1449.711794,1694.955134,-25713.335063,-21805.177248,-4624.419466,-3842.711907,1305.721856,-149.443763,-18568.219968,1938.924425,-14151.336450,-7913.456310,-6894.552039,-5924.642792,0.006000,-0.011437,1.005562,192.000000,0.000000,0.000000,0.000000,0.000000,0.000000,0.000000,0.000000,0.000000,0.000000,1772181968.799996,0.000000
98.000000,-887.476014,1937.270395,-1514.263632,1631.163255,-25783.899520,-21870.444342,-4688.591324,-3908.090759,1302.547908,-157.624502,-18571.438619,1930.386058,-14154.264528,-7899.642932,-6899.067092,-5924.307516,0.006000,-0.011437,1.005562,192.000000,0.000000,0.000000,0.000000,0.000000,0.000000,0.000000,0.000000,0.000000,0.000000,1772181968.800023,0.000000
100.000000,-850.193304,1977.436480,-1471.415337,1679.465375,-25740.514784,-21819.191792,-4646.950024,-3868.885800,1258.537323,-201.746845,-18611.939980,1884.989665,-14197.492802,-7956.997509,-6940.529578,-5953.968281,0.012000,-0.016000,1.006000,192.000000,0.000000,48.000000,127.500000,64.000000,15.500000,56.000000,0.000000,0.000000,0.000000,1772181968.800050,0.000000
102.000000,-855.445964,1973.010835,-1474.432823,1678.593657,-25736.513822,-21808.708824,-4648.738164,-3871.568009,1323.782065,-132.009403,-18543.253069,1951.553160,-14138.953583,-7860.303862,-6873.720214,-5871.177420,0.012000,-0.016000,1.006000,192.000000,0.000000,0.000000,0.000000,0.000000,0.000000,0.000000,0.000000,0.000000,0.000000,1772181968.800077,0.000000
104.000000,-886.827813,1940.131419,-1512.721361,1637.131171,-25765.168758,-21838.973086,-4689.977132,-3909.163643,1262.828858,-191.196822,-18608.274294,1890.711712,-14194.207095,-7944.257014,-6932.795874,-5925.134531,0.012000,-0.016000,1.006000,192.000000,0.000000,0.000000,0.000000,0.000000,0.000000,0.000000,0.000000,0.000000,0.000000,1772181968.800104,0.000000
106.000000,-814.899899,2014.048638,-1445.174390,1698.576116,-25704.751993,-21772.588405,-4626.542881,-3839.984994,1310.482777,-145.621615,-18565.046020,1933.202378,-14140.339391,-7876.598284,-6890.126394,-5896.099615,0.012000,-0.016000,1.006000,192.000000,0.000000,0.000000,0.000000,0.000000,0.000000,0.000000,0.000000,0.000000,0.000000,1772181968.800132,0.000000
108.000000,-873.640284,1951.955492,-1504.384161,1630.760924,-25773.349497,-21849.098426,-4687.876068,-3897.317218,1313.992001,-145.554560,-18561.089761,1934.498779,-14155.516226,-7891.864525,-6895.356702,-5920.731237,0.012000,-0.016000,1.006000,192.000000,0.000000,0.000000,0.000000,0.000000,0.000000,0.000000,0.000000,0.000000,0.000000,1772181968.800159,0.000000
110.000000,-835.441153,1993.529736,-1455.433840,1670.211753,-25731.261162,-21819.527068,-4642.345565,-3852.278453,1276.910457,-188.671075,-18596.137297,1895.785558,-14185.780488,-7945.754581,-6933.175854,-5979.046938,0.012000,-0.012000,1.008000,192.000000,0.000000,48.000000,127.500000,80.000000,15.500000,64.000000,0.000000,0.000000,0.000000,1772181968.800186,0.000000
112.000000,-838.905673,1989.349960,-1461.133535,1667.507192,-25740.067749,-21835.955600,-4642.211454,-3851.004404,1336.857836,-126.153246,-18530.713741,1964.718338,-14106.744719,-7883.594380,-6869.473382,-5926.162711,0.012000,-0.012000,1.008000,192.000000,0.000000,0.000000,0.000000,0.000000,0.000000,0.000000,0.000000,0.000000,0.000000,1772181968.800214,0.000000
114.000000,-875.584886,1951.351994,-1506.060541,1626.223520,-25775.964651,-21877.507493,-4683.159850,-3888.175355,1273.155364,-189.743959,-18592.583369,1906.290878,-14188.708566,-7935.539834,-6933.667592,-5987.294732,0.012000,-0.012000,1.008000,192.000000,0.000000,0.000000,0.000000,0.000000,0.000000,0.000000,0.000000,0.000000,0.000000,1772181968.800241,0.000000
116.000000,-813.022353,2019.122484,-1443.877988,1694.485747,-25716.419603,-21809.826411,-4615.098788,-3823.467055,1314.439036,-149.868447,-18550.092703,1946.412259,-14156.186778,-7911.042322,-6895.379054,-5942.278319,0.012000,-0.012000,1.008000,192.000000,0.000000,0.000000,0.000000,0.000000,0.000000,0.000000,0.000000,0.000000,0.000000,1772181968.800268,0.000000
118.000000,-889.644133,1937.560968,-1517.057600,1622.446075,-25784.838293,-21874.311194,-4683.696292,-3899.083006,1305.766559,-156.998653,-18561.201520,1936.197512,-14154.465694,-7902.571011,-6900.519955,-5939.998441,0.012000,-0.012000,1.008000,192.000000,0.000000,0.000000,0.000000,0.000000,0.000000,0.000000,0.000000,0.000000,0.000000,1772181968.800295,0.000000
120.000000,-860.855086,1969.188687,-1477.539715,1661.114593,-25748.159081,-21833.496908,-4646.950024,-3868.908151,1254.066974,-214.844968,-18615.493907,1882.888601,-14196.196401,-7957.064564,-6943.211787,-5969.949778,0.010000,-0.014000,1.008000,192.000000,0.000000,40.000000,127.500000,72.000000,15.500000,64.000000,0.000000,0.000000,0.000000,1772181968.800323,0.000000
122.000000,-866.845353,1964.114841,-1483.440576,1665.093203,-25751.310676,-21826.836089,-4655.443687,-3876.552448,1310.505129,-152.125973,-18555.501825,1947.373384,-14146.329659,-7908.449520,-6876.916513,-5893.059777,0.010000,-0.014000,1.008000,192.000000,0.000000,0.000000,0.000000,0.000000,0.000000,0.000000,0.000000,0.000000,0.000000,1772181968.800352,0.000000
124.000000,-905.580927,1924.194625,-1525.081876,1624.502435,-25777.149293,-21863.939984,-4699.946010,-3919.221928,1245.416849,-215.962555,-18620.813623,1881.189869,-14203.125441,-7960.171456,-6935.634546,-5936.220996,0.010000,-0.014000,1.008000,192.000000,0.000000,0.000000,0.000000,0.000000,0.000000,0.000000,0.000000,0.000000,0.000000,1772181968.800380,0.000000
126.000000,-839.352708,1990.780472,-1456.663186,1688.718997,-25715.659644,-21795.878922,-4633.516626,-3854.737145,1288.198088,-174.812993,-18576.646576,1920.193663,-14169.083735,-7907.980133,-6887.086557,-5885.571943,0.010000,-0.014000,1.008000,192.000000,0.000000,0.000000,0.000000,0.000000,0.000000,0.000000,0.000000,0.000000,0.000000,1772181968.800406,0.000000
128.000000,-893.063950,1926.608613,-1522.533777,1619.965031,-25787.699316,-21863.761170,-4694.425129,-3916.249146,1294.143652,-178.679845,-18577.674756,1911.118854,-14170.558950,-7921.860566,-6893.836784,-5893.126833,0.010000,-0.014000,1.008000,192.000000,0.000000,0.000000,0.000000,0.000000,0.000000,0.000000,0.000000,0.000000,0.000000,1772181968.800433,0.000000
130.000000,-866.465374,1963.556047,-1475.282189,1664.824982,-25754.596383,-21832.200507,-4647.844094,-3868.461116,1244.411021,-226.378468,-18616.007998,1873.254999,-14211.283828,-7968.709823,-6942.407124,-5951.084906,0.010000,-0.010000,1.004000,192.000000,0.000000,40.000000,127.500000,88.000000,15.500000,48.000000,0.000000,0.000000,0.000000,1772181968.800460,0.000000
132.000000,-858.083470,1972.474393,-1472.085890,1665.853163,-25756.608040,-21838.928382,-4644.647794,-3861.845000,1310.147501,-150.449592,-18538.156872,1951.396698,-14146.195548,-7895.932543,-6876.581237,-5902.492214,0.010000,-0.010000,1.004000,192.000000,0.000000,0.000000,0.000000,0.000000,0.000000,0.000000,0.000000,0.000000,0.000000,1772181968.800488,0.000000
134.000000,-890.314685,1937.270395,-1508.519233,1625.597671,-25788.079296,-21874.221787,-4686.803184,-3898.613620,1253.575236,-207.290078,-18598.752451,1888.789462,-14189.245008,-7960.260863,-6941.803627,-5980.097470,0.010000,-0.010000,1.004000,192.000000,0.000000,0.000000,0.000000,0.000000,0.000000,0.000000,0.000000,0.000000,0.000000,1772181968.800505,0.000000
136.000000,-816.665687,2015.948536,-1439.050012,1701.191270,-25710.652853,-21796.370661,-4619.837358,-3827.289203,1303.151405,-151.947159,-18552.685505,1939.371459,-14147.044915,-7884.220229,-6894.820260,-5932.689420,0.010000,-0.010000,1.004000,192.000000,0.000000,0.000000,0.000000,0.000000,0.000000,0.000000,0.000000,0.000000,0.000000,1772181968.800519,0.000000
138.000000,-885.062025,1944.937044,-1511.492015,1636.460619,-25784.547720,-21868.633851,-4685.819708,-3893.875050,1302.994943,-153.847057,-18559.502788,1943.662994,-14159.405429,-7896.468985,-6898.418891,-5929.806045,0.010000,-0.010000,1.004000,192.000000,0.000000,0.000000,0.000000,0.000000,0.000000,0.000000,0.000000,0.000000,0.000000,1772181968.800533,0.000000
140.000000,-853.143734,1979.917524,-1479.841945,1677.207849,-25748.673171,-21832.982818,-4646.994727,-3859.878046,1251.720041,-204.049075,-18611.783518,1898.512471,-14205.539430,-7956.729288,-6942.384773,-5965.702947,0.012000,-0.010000,1.004000,192.000000,0.000000,48.000000,127.500000,88.000000,15.500000,48.000000,0.000000,0.000000,0.000000,1772181968.800546,0.000000
142.000000,-870.086356,1962.259646,-1489.497899,1668.378910,-25756.295116,-21840.738874,-4653.499085,-3874.183163,1308.515824,-144.928711,-18552.841968,1953.475410,-14146.776694,-7903.532136,-6873.831972,-5896.054911,0.012000,-0.010000,1.004000,192.000000,0.000000,0.000000,0.000000,0.000000,0.000000,0.000000,0.000000,0.000000,0.000000,1772181968.800558,0.000000
144.000000,-911.258270,1916.349163,-1527.965251,1624.904767,-25788.682793,-21877.529845,-4700.348342,-3922.328821,1239.717154,-221.505788,-18626.021579,1874.327883,-14211.932029,-7966.094669,-6935.098104,-5954.437668,0.012000,-0.010000,1.004000,192.000000,0.000000,0.000000,0.000000,0.000000,0.000000,0.000000,0.000000,0.000000,0.000000,1772181968.800571,0.000000
146.000000,-841.766696,1991.741597,-1457.020814,1696.095073,-25710.339929,-21791.229760,-4633.024887,-3854.290110,1287.393425,-174.410662,-18579.038212,1918.606689,-14166.781505,-7913.121034,-6881.766842,-5896.323132,0.012000,-0.010000,1.004000,192.000000,0.000000,0.000000,0.000000,0.000000,0.000000,0.000000,0.000000,0.000000,0.000000,1772181968.800584,0.000000
148.000000,-894.986200,1936.868064,-1522.779646,1633.845464,-25779.228005,-21845.455092,-4693.732225,-3910.638858,1287.102853,-168.956836,-18581.631015,1920.595994,-14160.657127,-7903.085101,-6888.919400,-5889.841126,0.012000,-0.010000,1.004000,192.000000,0.000000,0.000000,0.000000,0.000000,0.000000,0.000000,0.000000,0.000000,0.000000,1772181968.800596,0.000000
150.000000,-847.712260,1986.421881,-1477.651474,1674.592695,-25742.057054,-21805.624283,-4651.487428,-3864.638968,1254.603416,-197.902345,-18616.812660,1888.141261,-14197.850430,-7938.803189,-6938.227348,-5936.533920,0.006000,-0.012000,1.008000,192.000000,0.000000,24.000000,127.500000,80.000000,15.500000,64.000000,0.000000,0.000000,0.000000,1772181968.800609,0.000000
152.000000,-846.795839,1987.248896,-1473.292884,1669.362386,-25746.348589,-21821.874001,-4648.581701,-3859.073384,1328.028897,-127.337888,-18542.806034,1959.488029,-14132.806853,-7868.506952,-6876.871810,-5892.903315,0.006000,-0.012000,1.008000,192.000000,0.000000,0.000000,0.000000,0.000000,0.000000,0.000000,0.000000,0.000000,0.000000,1772181968.800621,0.000000
154.000000,-887.587772,1944.959396,-1509.390951,1620.210900,-25792.102610,-21877.283976,-4685.417376,-3895.663189,1261.912437,-193.253183,-18603.289855,1899.138319,-14200.890267,-7946.805113,-6940.797799,-5979.292807,0.006000,-0.012000,1.008000,192.000000,0.000000,0.000000,0.000000,0.000000,0.000000,0.000000,0.000000,0.000000,0.000000,1772181968.800635,0.000000
156.000000,-818.386771,2015.613260,-1435.607843,1693.368160,-25724.980322,-21816.084899,-4613.288297,-3825.076380,1302.704370,-155.881066,-18556.351192,1941.249006,-14153.549272,-7904.739130,-6899.827051,-5954.661185,0.006000,-0.012000,1.008000,192.000000,0.000000,0.000000,0.000000,0.000000,0.000000,0.000000,0.000000,0.000000,0.000000,1772181968.800647,0.000000
158.000000,-886.447833,1943.171256,-1504.741788,1626.223520,-25791.320299,-21889.465676,-4679.628274,-3894.143271,1302.950240,-156.864543,-18556.440599,1939.550273,-14154.711563,-7923.983982,-6900.788176,-5959.042127,0.006000,-0.012000,1.008000,192.000000,0.000000,0.000000,0.000000,0.000000,0.000000,0.000000,0.000000,0.000000,0.000000,1772181968.800660,0.000000
160.000000,-852.182609,1979.626951,-1467.883762,1666.993101,-25753.411740,-21846.662086,-4641.004460,-3859.520419,1254.893989,-209.234680,-18605.547381,1889.325904,-14207.729901,-7964.910026,-6944.664651,-6000.929296,0.010000,-0.010000,1.006000,192.000000,0.000000,40.000000,127.500000,88.000000,15.500000,56.000000,0.000000,0.000000,0.000000,1772181968.800673,0.000000
162.000000,-860.385699,1971.021530,-1478.322027,1663.506229,-25749.790758,-21845.477443,-4645.832437,-3868.282302,1316.741266,-143.811124,-18546.292907,1950.457925,-14141.278165,-7892.043339,-6870.926246,-5923.145225,0.010000,-0.010000,1.006000,192.000000,0.000000,0.000000,0.000000,0.000000,0.000000,0.000000,0.000000,0.000000,0.000000,1772181968.800686,0.000000
164.000000,-900.887060,1928.083828,-1526.579443,1623.854235,-25783.877168,-21874.378249,-4692.324065,-3912.650515,1246.154457,-212.498035,-18622.847631,1882.173345,-14203.639532,-7947.855645,-6929.241947,-5968.139287,0.010000,-0.010000,1.006000,192.000000,0.000000,0.000000,0.000000,0.000000,0.000000,0.000000,0.000000,0.000000,0.000000,1772181968.800698,0.000000
166.000000,-827.998022,2004.951478,-1458.607788,1699.626648,-25711.435164,-21792.727326,-4626.989916,-3843.315404,1292.087292,-164.330025,-18577.115962,1927.882663,-14165.619214,-7910.505880,-6884.404347,-5906.157900,0.010000,-0.010000,1.006000,192.000000,0.000000,0.000000,0.000000,0.000000,0.000000,0.000000,0.000000,0.000000,0.000000,1772181968.800710,0.000000
168.000000,-883.787976,1944.892340,-1522.399667,1636.952357,-25768.074485,-21845.186871,-4691.206478,-3907.017876,1298.882222,-157.691557,-18575.305471,1928.888491,-14152.811665,-7896.558392,-6885.723100,-5894.467937,0.010000,-0.010000,1.006000,192.000000,0.000000,0.000000,0.000000,0.000000,0.000000,0.000000,0.000000,0.000000,0.000000,1772181968.800723,0.000000
170.000000,-839.196246,1992.792129,-1476.936218,1679.465375,-25735.016255,-21804.394937,-4648.671108,-3863.744898,1260.012538,-198.327029,-18616.946771,1886.308418,-14190.049671,-7952.393049,-6934.114627,-5934.455208,0.012000,-0.010000,1.002000,192.000000,0.000000,56.000000,127.500000,88.000000,15.500000,24.000000,0.000000,0.000000,0.000000,1772181968.800735,0.000000
172.000000,-834.502379,1998.827100,-1471.862372,1678.012511,-25746.952086,-21820.957580,-4644.781905,-3856.346471,1339.852970,-117.123141,-18536.726360,1966.215904,-14118.524089,-7859.230978,-6874.726042,-5879.447565,0.012000,-0.010000,1.002000,192.000000,0.000000,0.000000,0.000000,0.000000,0.000000,0.000000,0.000000,0.000000,0.000000,1772181968.800748,0.000000
174.000000,-889.666485,1940.779619,-1513.570728,1631.520883,-25798.539913,-21879.921482,-4684.724472,-3897.674846,1258.380861,-197.857642,-18604.474497,1901.038218,-14210.725035,-7952.325994,-6949.269110,-5964.473601,0.012000,-0.010000,1.002000,192.000000,0.000000,0.000000,0.000000,0.000000,0.000000,0.000000,0.000000,0.000000,0.000000,1772181968.800761,0.000000
176.000000,-825.405219,2006.739617,-1447.007233,1697.413826,-25733.339874,-21817.940094,-4620.418503,-3834.642927,1297.295248,-162.497182,-18561.693258,1941.628986,-14157.974918,-7916.809072,-6908.052493,-5939.014964,0.012000,-0.010000,1.002000,192.000000,0.000000,0.000000,0.000000,0.000000,0.000000,0.000000,0.000000,0.000000,0.000000,1772181968.800773,0.000000
178.000000,-891.901659,1933.694116,-1505.211175,1628.481046,-25793.600177,-21884.123610,-4684.657417,-3902.055788,1289.226268,-176.958761,-18566.968270,1927.525035,-14158.868987,-7905.856717,-6906.063188,-5946.972185,0.012000,-0.010000,1.002000,192.000000,0.000000,0.000000,0.000000,0.000000,0.000000,0.000000,0.000000,0.000000,0.000000,1772181969.279382,0.000000
180.000000,-846.728783,1979.649303,-1455.456192,1669.161221,-25743.956953,-21843.801063,-4641.987937,-3859.363956,1256.548018,-215.761389,-18605.055643,1884.520279,-14202.141965,-7965.826448,-6936.215691,-5986.668883,0.012000,-0.011000,1.004000,192.000000,0.000000,48.000000,127.500000,80.000000,15.500000,56.000000,0.000000,0.000000,0.000000,1772181969.279505,0.000000
182.000000,-845.365327,1983.292637,-1463.771041,1665.786107,-25748.159081,-21844.672781,-4645.228940,-3858.022852,1328.095952,-144.794601,-18535.318200,1956.492896,-14126.771882,-7894.144403,-6865.025385,-5918.764284,0.012000,-0.011000,1.004000,192.000000,0.000000,0.000000,0.000000,0.000000,0.000000,0.000000,0.000000,0.000000,0.000000,1772181969.279601,0.000000
184.000000,-882.648037,1944.311195,-1516.610565,1623.027220,-25796.327090,-21879.653261,-4689.060711,-3897.831309,1261.845381,-203.736151,-18601.948750,1894.623267,-14177.867970,-7957.735116,-6932.460598,-5975.358900,0.012000,-0.011000,1.004000,192.000000,0.000000,0.000000,0.000000,0.000000,0.000000,0.000000,0.000000,0.000000,0.000000,1772181969.279696,0.000000
186.000000,-821.359553,2009.622992,-1450.695270,1696.430349,-25723.750976,-21805.736042,-4621.670201,-3836.185197,1301.832652,-162.988921,-18562.855549,1931.190721,-14170.849522,-7902.705121,-6894.641446,-5928.487292,0.012000,-0.011000,1.004000,192.000000,0.000000,0.000000,0.000000,0.000000,0.000000,0.000000,0.000000,0.000000,0.000000,1772181969.279801,0.000000
188.000000,-884.726749,1944.355898,-1519.493940,1634.158389,-25772.701296,-21859.424932,-4688.032530,-3904.559184,1297.496414,-162.586589,-18571.058639,1927.368573,-14168.636700,-7907.913078,-6890.372263,-5914.271583,0.012000,-0.011000,1.004000,192.000000,0.000000,0.000000,0.000000,0.000000,0.000000,0.000000,0.000000,0.000000,0.000000,1772181969.279896,0.000000
190.000000,-840.492647,1992.658018,-1479.014931,1678.727767,-25713.580932,-21802.986777,-4650.056916,-3863.588436,1259.833724,-197.388255,-18617.080881,1887.738930,-14195.503497,-7935.450427,-6919.407179,-5938.858502,0.010000,-0.013500,1.004000,192.000000,0.000000,32.000000,127.500000,64.000000,15.500000,48.000000,0.000000,0.000000,0.000000,1772181969.279980,0.000000
192.000000,-840.313833,1992.702722,-1477.942047,1679.778299,-25730.769423,-21807.680644,-4649.051088,-3861.733241,1333.326260,-125.192121,-18545.354133,1960.560913,-14123.419121,-7878.699348,-6858.699841,-5866.997643,0.010000,-0.013500,1.004000,192.000000,0.000000,0.000000,0.000000,0.000000,0.000000,0.000000,0.000000,0.000000,0.000000,1772181969.280040,0.000000
194.000000,-882.357464,1948.960358,-1510.955573,1631.587938,-25784.570072,-21859.760208,-4690.513574,-3899.150062,1265.175791,-190.660380,-18608.095480,1897.260773,-14183.768831,-7942.737096,-6931.320659,-5943.619423,0.010000,-0.013500,1.004000,192.000000,0.000000,0.000000,0.000000,0.000000,0.000000,0.000000,0.000000,0.000000,0.000000,1772181969.280064,0.000000
196.000000,-818.811455,2016.663792,-1435.250215,1697.302067,-25724.533287,-21807.859457,-4620.172634,-3831.223110,1302.927888,-152.170676,-18562.095590,1937.046878,-14145.636755,-7898.771214,-6893.322694,-5925.715676,0.010000,-0.013500,1.004000,192.000000,0.000000,0.000000,0.000000,0.000000,0.000000,0.000000,0.000000,0.000000,0.000000,1772181969.280087,0.000000
198.000000,-887.565421,1941.718393,-1505.568803,1626.111761,-25802.898503,-21889.152752,-4684.568010,-3898.904192,1299.239850,-162.497182,-18561.693258,1932.598881,-14160.813589,-7913.456310,-6898.865926,-5945.698136,0.010000,-0.013500,1.004000,192.000000,0.000000,0.000000,0.000000,0.000000,0.000000,0.000000,0.000000,0.000000,0.000000,1772181969.280112,0.000000
200.000000,-843.174856,1985.103129,-1466.944989,1665.964921,-25758.060903,-21845.365685,-4642.680841,-3859.229846,1254.871637,-207.804168,-18605.748547,1886.598991,-14208.668674,-7955.499942,-6943.614119,-5993.128537,0.009000,-0.012750,1.008000,192.000000,0.000000,32.000000,127.500000,80.000000,15.500000,80.000000,0.000000,0.000000,0.000000,1772181969.280136,0.000000
202.000000,-835.955243,1992.568611,-1471.884724,1670.345863,-25757.703275,-21840.872984,-4642.703193,-3853.865427,1329.168836,-135.540978,-18532.256011,1957.163448,-14147.514301,-7891.104566,-6873.072013,-5921.468845,0.009000,-0.012750,1.008000,192.000000,0.000000,0.000000,0.000000,0.000000,0.000000,0.000000,0.000000,0.000000,0.000000,1772181969.280159,0.000000
204.000000,-870.846316,1956.939931,-1518.309297,1629.531578,-25789.018069,-21868.611499,-4687.071405,-3893.740939,1271.389576,-192.850851,-18593.186866,1897.953677,-14198.722148,-7951.588386,-6937.087409,-5971.670863,0.009000,-0.012750,1.008000,192.000000,0.000000,0.000000,0.000000,0.000000,0.000000,0.000000,0.000000,0.000000,0.000000,1772181969.280183,0.000000
206.000000,-804.260469,2027.727905,-1447.968358,1703.694666,-25711.882199,-21788.704012,-4618.116274,-3825.165787,1315.511920,-145.129877,-18551.657325,1939.952605,-14147.134322,-7886.053072,-6894.529688,-5917.356124,0.009000,-0.012750,1.008000,192.000000,0.000000,0.000000,0.000000,0.000000,0.000000,0.000000,0.000000,0.000000,0.000000,1772181969.280206,0.000000
208.000000,-867.962941,1959.219808,-1512.319030,1642.249720,-25771.337840,-21854.395789,-4680.343530,-3888.018893,1314.349629,-145.375746,-18555.770046,1941.047840,-14142.038124,-7905.812014,-6897.658932,-5908.728350,0.009000,-0.012750,1.008000,192.000000,0.000000,0.000000,0.000000,0.000000,0.000000,0.000000,0.000000,0.000000,0.000000,1772181969.280229,0.000000
210.000000,-838.950376,1991.540431,-1472.957608,1678.995988,-25730.545906,-21815.928437,-4643.910187,-3856.659395,1270.853134,-193.253183,-18601.345253,1898.110139,-14183.969996,-7940.859549,-6939.903729,-5945.027583,0.009500,-0.014375,1.009000,192.000000,0.000000,40.000000,127.500000,64.000000,15.500000,72.000000,0.000000,0.000000,0.000000,1772181969.280253,0.000000
212.000000,-852.249664,1977.481184,-1480.646608,1669.541200,-25736.759691,-21827.551344,-4650.883931,-3866.292997,1327.134827,-135.742144,-18542.202537,1956.604654,-14120.848670,-7880.956874,-6867.327615,-5877.413556,0.009500,-0.014375,1.009000,192.000000,0.000000,0.000000,0.000000,0.000000,0.000000,0.000000,0.000000,0.000000,0.000000,1772181969.280277,0.000000
214.000000,-900.082397,1925.982764,-1522.623184,1625.731781,-25793.175494,-21875.853464,-4693.084025,-3913.388123,1253.619940,-213.034476,-18609.727157,1883.313284,-14205.181802,-7956.706936,-6927.833787,-5930.856577,0.009500,-0.014375,1.009000,192.000000,0.000000,0.000000,0.000000,0.000000,0.000000,0.000000,0.000000,0.000000,0.000000,1772181969.280300,0.000000
216.000000,-839.375060,1989.148794,-1456.573779,1689.814233,-25737.385540,-21819.325902,-4628.867463,-3855.564160,1285.918210,-182.479642,-18575.350174,1913.398732,-14182.785354,-7932.522348,-6890.126394,-5888.365911,0.009500,-0.014375,1.009000,192.000000,0.000000,0.000000,0.000000,0.000000,0.000000,0.000000,0.000000,0.000000,0.000000,1772181969.280324,0.000000
218.000000,-894.963848,1926.250985,-1518.041076,1620.859101,-25805.804229,-21894.941854,-4689.194821,-3914.349248,1285.225306,-187.687598,-18579.351137,1905.732084,-14182.226560,-7935.383372,-6898.865926,-5917.937269,0.009500,-0.014375,1.009000,192.000000,0.000000,0.000000,0.000000,0.000000,0.000000,0.000000,0.000000,0.000000,0.000000,1772181969.280349,0.000000
220.000000,-845.946472,1979.626951,-1467.548486,1669.518849,-25753.903479,-21840.180080,-4642.457323,-3863.811954,1257.397384,-220.365849,-18608.229590,1873.299703,-14204.332436,-7952.683622,-6940.328412,-5975.180087,0.009750,-0.013188,1.009500,192.000000,0.000000,40.000000,127.500000,80.000000,15.500000,72.000000,0.000000,0.000000,0.000000,1772181969.280369,0.000000
222.000000,-841.051440,1983.449099,-1468.420204,1667.529543,-25752.785892,-21835.329751,-4645.117181,-3859.095735,1333.326260,-141.933577,-18531.518403,1948.893303,-14126.414254,-7884.533153,-6870.747432,-5909.264792,0.009750,-0.013188,1.009500,192.000000,0.000000,0.000000,0.000000,0.000000,0.000000,0.000000,0.000000,0.000000,0.000000,1772181969.280383,0.000000
224.000000,-877.283618,1945.249968,-1507.468701,1623.854235,-25781.194959,-21872.411295,-4687.518440,-3897.093701,1270.316693,-205.926622,-18593.790364,1883.648560,-14199.437404,-7966.251131,-6935.254566,-5967.312272,0.009750,-0.013188,1.009500,192.000000,0.000000,0.000000,0.000000,0.000000,0.000000,0.000000,0.000000,0.000000,0.000000,1772181969.280422,0.000000
226.000000,-800.192451,2023.011687,-1434.311442,1695.759797,-25712.463345,-21800.662196,-4617.266907,-3831.089000,1321.256318,-157.423336,-18545.108264,1927.390924,-14132.516281,-7898.167717,-6886.080728,-5922.139397,0.009750,-0.013188,1.009500,192.000000,0.000000,0.000000,0.000000,0.000000,0.000000,0.000000,0.000000,0.000000,0.000000,1772181969.280435,0.000000
228.000000,-869.549915,1950.212055,-1503.534794,1628.235177,-25778.311584,-21871.807798,-4682.668112,-3902.525175,1330.085257,-153.064746,-18550.003296,1926.094523,-14140.294688,-7906.639028,-6890.305208,-5921.424141,0.009750,-0.013188,1.009500,192.000000,0.000000,0.000000,0.000000,0.000000,0.000000,0.000000,0.000000,0.000000,0.000000,1772181969.280447,0.000000
230.000000,-852.473182,1978.062329,-1471.616503,1668.736538,-25746.281534,-21835.128586,-4647.374707,-3870.606884,1256.548018,-212.118055,-18610.867096,1876.250133,-14199.325645,-7968.061622,-6939.568453,-5964.831229,0.009875,-0.014594,1.009750,192.000000,0.000000,40.000000,127.500000,64.000000,15.500000,72.000000,0.000000,0.000000,0.000000,1772181969.280460,0.000000
