Sample_index,EXG Channel 0,EXG Channel 1,EXG Channel 2,EXG Channel 3,EXG Channel 4,EXG Channel 5,EXG Channel 6,EXG Channel 7,EXG Channel 8,EXG Channel 9,EXG Channel 10,EXG Channel 11,EXG Channel 12,EXG Channel 13,EXG Channel 14,EXG Channel 15,Accel Channel 0,Accel Channel 1,Accel Channel 2,Not Used,Digital Channel 0 (D11),Digital Channel 1 (D12),Digital Channel 2 (D13),Digital Channel 3 (D17),Not Used,Digital Channel 4 (D18),Analog Channel 0,Analog Channel 1,Analog Channel 2,Timestamp,Marker Channel
90.000000,-809.289611,1817.487397,-1203.775549,1246.087402,-25888.505684,-22728.326646,-4395.805823,-3970.563885,1223.780361,-298.261678,-18588.962387,2168.141564,-14028.871242,-9271.615359,-7542.774980,-7124.797359,0.008000,-0.008000,1.012000,192.000000,0.000000,0.000000,0.000000,0.000000,0.000000,0.000000,0.000000,0.000000,0.000000,1772181571.483009,101.000000
92.000000,-876.702473,1753.851980,-1260.258408,1194.633686,-25939.288847,-22782.641385,-4454.345042,-4031.807665,1136.139171,-388.272153,-18684.314929,2076.030025,-14131.041066,-9361.491723,-7626.348153,-7203.654314,0.008000,-0.008000,1.012000,192.000000,0.000000,0.000000,0.000000,0.000000,0.000000,0.000000,0.000000,0.000000,0.000000,1772181571.483087,0.000000
94.000000,-786.624943,1849.070412,-1168.437441,1294.993019,-25839.600067,-22672.961375,-4360.557122,-3939.517312,1187.995218,-325.128475,-18624.591067,2137.676136,-14063.918777,-9290.122603,-7553.079135,-7133.246318,0.006000,-0.010000,1.008000,192.000000,0.000000,24.000000,127.500000,88.000000,15.500000,64.000000,0.000000,0.000000,0.000000,1772181571.483156,0.000000
96.000000,-883.653865,1751.728565,-1271.590742,1209.207023,-25931.398682,-22762.927146,-4452.378089,-4035.115723,1176.864049,-327.453056,-18639.298515,2132.624642,-14076.771030,-9290.346121,-7558.756478,-7122.696295,0.006000,-0.010000,1.008000,192.000000,0.000000,0.000000,0.000000,0.000000,0.000000,0.000000,0.000000,0.000000,0.000000,1772181571.483205,0.000000
98.000000,-834.435324,1809.954859,-1219.712343,1274.205896,-25882.269547,-22693.502628,-4393.123614,-3977.627036,1103.907955,-388.249801,-18709.035958,2076.387653,-14149.570662,-9356.999023,-7623.062446,-7163.510580,0.006000,-0.010000,1.008000,192.000000,0.000000,0.000000,0.000000,0.000000,0.000000,0.000000,0.000000,0.000000,0.000000,1772181571.483257,0.000000
100.000000,-840.067964,1805.708028,-1227.870730,1272.440108,-25891.925501,-22697.637701,-4401.572573,-3984.645484,1187.928163,-294.417178,-18614.085747,2172.656616,-14058.643765,-9251.901120,-7531.554405,-7067.353376,0.006000,-0.010000,1.008000,192.000000,0.000000,0.000000,0.000000,0.000000,0.000000,0.000000,0.000000,0.000000,0.000000,1772181571.483309,0.000000
102.000000,-899.680066,1743.123143,-1289.405082,1207.195366,-25955.158586,-22762.658925,-4464.895065,-4048.012680,1100.309324,-387.869822,-18708.454813,2073.616037,-14154.018659,-9342.872720,-7622.347191,-7148.311394,0.006000,-0.010000,1.008000,192.000000,0.000000,0.000000,0.000000,0.000000,0.000000,0.000000,0.000000,0.000000,0.000000,1772181571.483364,0.000000
104.000000,-807.657934,1835.435848,-1195.505404,1292.310809,-25864.231689,-22674.078962,-4369.028433,-3954.828257,1155.764002,-336.505513,-18650.049704,2128.891901,-14099.100423,-9310.507394,-7559.784658,-7090.710949,0.008000,-0.010000,1.006000,192.000000,0.000000,32.000000,127.500000,88.000000,15.500000,56.000000,0.000000,0.000000,0.000000,1772181571.483384,0.000000
106.000000,-900.037694,1739.904492,-1288.198088,1191.079759,-25970.000144,-22786.150609,-4460.536475,-4045.576339,1144.878703,-347.614330,-18660.532672,2120.442941,-14116.445376,-9315.894165,-7573.575684,-7114.023818,0.008000,-0.010000,1.006000,192.000000,0.000000,0.000000,0.000000,0.000000,0.000000,0.000000,0.000000,0.000000,0.000000,1772181571.483400,0.000000
108.000000,-826.992193,1814.089932,-1219.958212,1254.670472,-25895.814704,-22717.486050,-4396.945762,-3978.230533,1097.850632,-397.414016,-18710.488821,2066.865810,-14163.853426,-9361.849351,-7641.837912,-7186.443470,0.008000,-0.010000,1.006000,192.000000,0.000000,0.000000,0.000000,0.000000,0.000000,0.000000,0.000000,0.000000,0.000000,1772181571.483415,0.000000
110.000000,-819.012620,1817.934432,-1213.453855,1258.224399,-25892.886626,-22719.341245,-4395.828175,-3974.587199,1205.027247,-290.259753,-18598.908913,2171.851953,-14054.776913,-9265.200408,-7542.350297,-7107.854737,0.008000,-0.010000,1.006000,192.000000,0.000000,0.000000,0.000000,0.000000,0.000000,0.000000,0.000000,0.000000,0.000000,1772181571.483432,0.000000
112.000000,-876.322493,1762.390347,-1265.801640,1201.406264,-25945.524984,-22774.952385,-4451.975757,-4030.935947,1125.767961,-372.558877,-18683.733783,2085.305999,-14132.404522,-9344.839674,-7627.465740,-7201.732063,0.008000,-0.010000,1.006000,192.000000,0.000000,0.000000,0.000000,0.000000,0.000000,0.000000,0.000000,0.000000,0.000000,1772181571.483446,0.000000
114.000000,-787.764882,1853.786630,-1171.589037,1291.752016,-25846.104425,-22677.744648,-4360.445364,-3942.132466,1180.194459,-314.578451,-18627.787367,2142.973500,-14078.335652,-9286.456917,-7557.817704,-7145.897406,0.009000,-0.008000,1.002000,192.000000,0.000000,40.000000,127.500000,104.000000,15.500000,24.000000,0.000000,0.000000,0.000000,1772181571.483461,0.000000
116.000000,-885.933743,1756.109507,-1269.757899,1207.217718,-25938.484185,-22769.453856,-4455.619091,-4039.183741,1168.437441,-322.848597,-18643.075960,2132.758752,-14081.643710,-9290.167307,-7557.281263,-7141.896444,0.009000,-0.008000,1.002000,192.000000,0.000000,0.000000,0.000000,0.000000,0.000000,0.000000,0.000000,0.000000,0.000000,1772181571.483477,0.000000
118.000000,-823.035934,1821.063676,-1212.760951,1274.563524,-25870.780751,-22695.179009,-4396.252858,-3981.180964,1111.216976,-376.135156,-18705.549086,2076.275894,-14141.702848,-9351.835770,-7610.076083,-7174.775860,0.009000,-0.008000,1.002000,192.000000,0.000000,0.000000,0.000000,0.000000,0.000000,0.000000,0.000000,0.000000,0.000000,1772181571.483494,0.000000
120.000000,-833.429496,1808.837272,-1225.657907,1266.896876,-25874.245271,-22691.066288,-4407.674600,-3995.441377,1204.043770,-279.061530,-18612.699939,2169.393262,-14048.429018,-9240.971117,-7516.466977,-7068.783887,0.009000,-0.008000,1.002000,192.000000,0.000000,0.000000,0.000000,0.000000,0.000000,0.000000,0.000000,0.000000,0.000000,1772181571.483512,0.000000
122.000000,-898.651886,1743.011384,-1288.041626,1205.630744,-25944.407397,-22746.073931,-4465.096231,-4055.500514,1109.160615,-376.872763,-18714.221563,2071.291455,-14146.955508,-9343.811493,-7611.350132,-7138.342516,0.009000,-0.008000,1.002000,192.000000,0.000000,0.000000,0.000000,0.000000,0.000000,0.000000,0.000000,0.000000,0.000000,1772181571.483524,0.000000
124.000000,-817.246833,1826.137522,-1205.206061,1290.880298,-25865.908070,-22661.293764,-4377.812669,-3969.938036,1156.725127,-329.151789,-18660.242100,2122.655764,-14098.742795,-9286.367510,-7562.176295,-7072.941312,0.008500,-0.004000,1.003000,192.000000,0.000000,32.000000,0.000000,0.000000,15.500000,48.000000,0.000000,0.000000,0.000000,1772181571.483538,0.000000
126.000000,-902.295220,1737.736373,-1295.171832,1200.176919,-25961.238260,-22762.658925,-4466.638501,-4057.154543,1141.816514,-347.323757,-18672.870835,2108.037723,-14113.897278,-9308.786310,-7581.309388,-7083.826611,0.008500,-0.004000,1.003000,192.000000,0.000000,0.000000,0.000000,0.000000,0.000000,0.000000,0.000000,0.000000,0.000000,1772181571.483551,0.000000
128.000000,-823.102990,1817.979135,-1222.707477,1261.979492,-25889.220940,-22691.714488,-4400.432634,-3981.113908,1102.611554,-392.451929,-18714.378025,2062.417813,-14158.287842,-9354.719145,-7637.836950,-7151.775915,0.008500,-0.004000,1.003000,192.000000,0.000000,0.000000,0.000000,0.000000,0.000000,0.000000,0.000000,0.000000,0.000000,1772181571.483562,0.000000
130.000000,-814.184644,1825.981060,-1218.214776,1259.856076,-25885.778771,-22692.921483,-4399.359751,-3973.335501,1215.666677,-282.503698,-18600.227666,2172.857782,-14045.724457,-9254.382164,-7542.752629,-7080.965588,0.008500,-0.004000,1.003000,192.000000,0.000000,0.000000,0.000000,0.000000,0.000000,0.000000,0.000000,0.000000,0.000000,1772181571.483647,0.000000
132.000000,-867.024167,1773.677978,-1266.360434,1200.154567,-25939.624124,-22757.875652,-4452.936882,-4025.191548,1135.423915,-363.104089,-18687.175952,2089.396368,-14121.496871,-9324.700752,-7630.684391,-7182.509563,0.008500,-0.004000,1.003000,192.000000,0.000000,0.000000,0.000000,0.000000,0.000000,0.000000,0.000000,0.000000,0.000000,1772181571.483661,0.000000
134.000000,-767.268332,1877.524183,-1165.397604,1290.925001,-25834.705035,-22663.931270,-4359.350128,-3931.403629,1199.416959,-297.702884,-18621.819451,2150.126058,-14062.711783,-9277.806792,-7561.014004,-7136.844949,0.010250,-0.004000,1.006500,192.000000,0.000000,48.000000,127.500000,112.000000,15.500000,72.000000,0.000000,0.000000,0.000000,1772181571.483676,0.000000
136.000000,-859.312816,1777.164850,-1255.385727,1199.036980,-25924.134365,-22762.033077,-4450.746411,-4026.018563,1199.036980,-299.491024,-18623.674646,2142.839389,-14059.068448,-9275.124583,-7560.321100,-7143.952804,0.010250,-0.004000,1.006500,192.000000,0.000000,0.000000,0.000000,0.000000,0.000000,0.000000,0.000000,0.000000,0.000000,1772181571.483689,0.000000
138.000000,-813.759960,1825.086990,-1201.003933,1259.923131,-25864.343448,-22699.627006,-4394.352960,-3973.469612,1140.318947,-371.396586,-18685.767792,2079.874525,-14123.597935,-9350.673479,-7610.701932,-7195.585334,0.010250,-0.004000,1.006500,192.000000,0.000000,0.000000,0.000000,0.000000,0.000000,0.000000,0.000000,0.000000,0.000000,1772181571.483704,0.000000
140.000000,-818.587937,1826.808074,-1213.252689,1260.884256,-25871.853634,-22700.834000,-4400.276172,-3978.208182,1219.242957,-274.769995,-18600.451183,2175.227067,-14033.274535,-9252.683431,-7515.952887,-7096.276533,0.010250,-0.004000,1.006500,192.000000,0.000000,0.000000,0.000000,0.000000,0.000000,0.000000,0.000000,0.000000,0.000000,1772181571.483814,0.000000
142.000000,-871.338054,1769.721719,-1271.456632,1207.016552,-25929.275266,-22752.153605,-4453.898007,-4032.813493,1131.691174,-356.555028,-18694.999062,2089.753996,-14131.868080,-9334.848444,-7610.389007,-7168.450316,0.010250,-0.004000,1.006500,192.000000,0.000000,0.000000,0.000000,0.000000,0.000000,0.000000,0.000000,0.000000,0.000000,1772181571.483826,0.000000
144.000000,-790.178870,1854.993624,-1188.576363,1289.069806,-25839.667122,-22661.561985,-4369.698986,-3953.174228,1184.843622,-309.415198,-18636.124568,2138.614909,-14074.804077,-9276.309225,-7548.094696,-7106.692446,0.011125,-0.002000,1.008250,192.000000,0.000000,48.000000,0.000000,0.000000,15.500000,72.000000,0.000000,0.000000,0.000000,1772181571.483838,0.000000
146.000000,-910.855938,1727.901605,-1294.993019,1191.482090,-25959.226603,-22770.593795,-4465.699728,-4058.830924,1157.865066,-333.577434,-18659.660954,2116.330220,-14095.770013,-9297.945714,-7566.490181,-7104.278458,0.011125,-0.002000,1.008250,192.000000,0.000000,0.000000,0.000000,0.000000,0.000000,0.000000,0.000000,0.000000,0.000000,1772181571.483849,0.000000
148.000000,-831.261376,1808.457292,-1229.882387,1255.698652,-25896.976995,-22696.810686,-4401.706684,-3991.842746,1094.743740,-406.153548,-18725.218621,2054.237074,-14171.363613,-9368.890151,-7641.860264,-7156.536836,0.011125,-0.002000,1.008250,192.000000,0.000000,0.000000,0.000000,0.000000,0.000000,0.000000,0.000000,0.000000,0.000000,1772181571.483859,0.000000
150.000000,-826.031068,1807.227946,-1226.261404,1250.982434,-25894.495951,-22698.822343,-4404.210079,-3988.534688,1208.402360,-295.847690,-18614.018692,2157.904465,-14059.962518,-9246.491998,-7548.429972,-7076.338777,0.011125,-0.002000,1.008250,192.000000,0.000000,0.000000,0.000000,0.000000,0.000000,0.000000,0.000000,0.000000,0.000000,1772181571.483871,0.000000
152.000000,-871.516868,1758.858771,-1270.741376,1198.679352,-25946.866089,-22758.479149,-4454.568559,-4035.719220,1128.673688,-386.595772,-18695.826077,2071.492621,-14140.697019,-9364.419802,-7638.060467,-7179.447374,0.011125,-0.002000,1.008250,192.000000,0.000000,0.000000,0.000000,0.000000,0.000000,0.000000,0.000000,0.000000,0.000000,1772181571.483882,0.000000
154.000000,-773.392710,1863.308473,-1170.672616,1294.389521,-25839.890640,-22663.461883,-4358.679576,-3940.031402,1196.690046,-315.047838,-18622.802928,2139.844255,-14063.114114,-9291.217839,-7571.094641,-7133.067505,0.010562,-0.004000,1.009125,192.000000,0.000000,40.000000,127.500000,104.000000,15.500000,72.000000,0.000000,0.000000,0.000000,1772181571.483893,0.000000
156.000000,-864.900752,1767.754765,-1262.493582,1205.876613,-25929.074100,-22760.893138,-4447.348946,-4032.187645,1191.638552,-317.484178,-18631.743626,2135.843293,-14075.452277,-9291.776632,-7571.184048,-7140.220063,0.010562,-0.004000,1.009125,192.000000,0.000000,0.000000,0.000000,0.000000,0.000000,0.000000,0.000000,0.000000,0.000000,1772181571.483904,0.000000
158.000000,-805.780388,1829.534987,-1199.528718,1267.858001,-25865.237518,-22700.364614,-4385.926352,-3968.708690,1139.335470,-369.876667,-18687.578283,2081.617961,-14122.547403,-9344.124418,-7621.587231,-7193.059587,0.010562,-0.004000,1.009125,192.000000,0.000000,0.000000,0.000000,0.000000,0.000000,0.000000,0.000000,0.000000,0.000000,1772181571.483914,0.000000
160.000000,-819.884338,1814.939298,-1209.654058,1256.011576,-25879.609690,-22716.457870,-4394.822347,-3978.543458,1225.143817,-282.794271,-18593.276273,2172.187230,-14036.560242,-9247.721344,-7520.333829,-7105.597211,0.010562,-0.004000,1.009125,192.000000,0.000000,0.000000,0.000000,0.000000,0.000000,0.000000,0.000000,0.000000,0.000000,1772181571.483925,0.000000
162.000000,-888.839470,1744.218379,-1274.116489,1190.498613,-25943.714493,-22781.523798,-4455.037946,-4045.241063,1122.683421,-389.188574,-18699.201190,2069.436260,-14137.835996,-9362.564607,-7613.339438,-7194.154822,0.010562,-0.004000,1.009125,192.000000,0.000000,0.000000,0.000000,0.000000,0.000000,0.000000,0.000000,0.000000,0.000000,1772181571.483944,0.000000
164.000000,-797.197318,1840.442638,-1187.592886,1284.487699,-25841.254096,-22676.045916,-4365.161582,-3956.214065,1174.606523,-331.744591,-18641.757207,2127.260223,-14083.789478,-9307.288743,-7549.234635,-7127.926603,0.008281,-0.004000,1.008563,192.000000,0.000000,24.000000,127.500000,112.000000,15.500000,64.000000,0.000000,0.000000,0.000000,1772181571.483956,0.000000
166.000000,-898.338961,1736.775248,-1290.902649,1190.968000,-25940.071158,-22767.956289,-4466.146763,-4058.294482,1158.893247,-343.591016,-18659.280975,2113.022162,-14100.665045,-9315.290667,-7559.337623,-7122.428074,0.008281,-0.004000,1.008563,192.000000,0.000000,0.000000,0.000000,0.000000,0.000000,0.000000,0.000000,0.000000,0.000000,1772181571.483966,0.000000
168.000000,-834.591786,1804.858661,-1230.284718,1259.744318,-25876.212225,-22685.590110,-4401.952553,-3992.937981,1099.281144,-400.431502,-18720.122423,2056.338138,-14158.958394,-9373.494610,-7616.848662,-7158.123810,0.008281,-0.004000,1.008563,192.000000,0.000000,0.000000,0.000000,0.000000,0.000000,0.000000,0.000000,0.000000,0.000000,1772181571.483977,0.000000
170.000000,-848.047536,1790.330027,-1243.114620,1249.037832,-25908.935178,-22705.729032,-4411.854376,-4002.683342,1188.956343,-303.536690,-18623.652294,2154.596407,-14065.952786,-9263.032289,-7530.213300,-7058.435030,0.008281,-0.004000,1.008563,192.000000,0.000000,0.000000,0.000000,0.000000,0.000000,0.000000,0.000000,0.000000,0.000000,1772181571.483988,0.000000
172.000000,-907.950212,1728.393343,-1298.234021,1185.849450,-25979.320822,-22779.690955,-4467.554923,-4056.618101,1091.838013,-409.595717,-18726.045635,2051.644272,-14173.442325,-9372.757002,-7644.453066,-7162.951787,0.008281,-0.004000,1.008563,192.000000,0.000000,0.000000,0.000000,0.000000,0.000000,0.000000,0.000000,0.000000,0.000000,1772181571.483998,0.000000
174.000000,-799.834824,1839.280348,-1188.419901,1289.248620,-25869.104370,-22678.281090,-4361.495896,-3948.122734,1158.937950,-341.266434,-18649.468559,2121.918156,-14102.028501,-9309.970952,-7583.701024,-7116.124882,0.009141,-0.006000,1.008281,192.000000,0.000000,40.000000,127.500000,96.000000,15.500000,64.000000,0.000000,0.000000,0.000000,1772181571.484008,0.000000
176.000000,-894.159185,1743.458419,-1279.816184,1196.511232,-25960.344191,-22780.585024,-4453.719193,-4041.642432,1158.893247,-341.266434,-18648.529786,2122.655764,-14092.104327,-9310.417987,-7586.472641,-7133.268670,0.009141,-0.006000,1.008281,192.000000,0.000000,0.000000,0.000000,0.000000,0.000000,0.000000,0.000000,0.000000,0.000000,1772181571.484019,0.000000
178.000000,-820.711353,1819.208481,-1210.793997,1263.097079,-25882.940100,-22708.455945,-4386.060463,-3970.899161,1109.920574,-393.234240,-18703.179801,2067.335196,-14148.676592,-9371.527656,-7639.088647,-7198.245191,0.009141,-0.006000,1.008281,192.000000,0.000000,0.000000,0.000000,0.000000,0.000000,0.000000,0.000000,0.000000,0.000000,1772181571.484029,0.000000
180.000000,-826.031068,1813.240565,-1218.728866,1257.844419,-25881.017850,-22711.316968,-4391.558992,-3974.095461,1213.923241,-284.537707,-18594.617378,2173.304817,-14042.394047,-9263.993414,-7527.642849,-7103.205574,0.009141,-0.006000,1.008281,192.000000,0.000000,0.000000,0.000000,0.000000,0.000000,0.000000,0.000000,0.000000,0.000000,1772181571.484040,0.000000
182.000000,-891.387569,1746.520608,-1283.526574,1195.684218,-25953.437502,-22777.679298,-4454.121525,-4039.898996,1114.905013,-384.606467,-18699.894094,2071.917304,-14152.677554,-9350.159389,-7626.616374,-7194.333636,0.009141,-0.006000,1.008281,192.000000,0.000000,0.000000,0.000000,0.000000,0.000000,0.000000,0.000000,0.000000,0.000000,1772181571.484051,0.000000
184.000000,-791.363512,1849.383336,-1184.642456,1294.210707,-25852.877003,-22673.251948,-4354.253930,-3942.154818,1174.360654,-321.082809,-18635.543422,2138.749020,-14085.063527,-9299.108004,-7556.767172,-7129.468874,0.009141,-0.006000,1.008281,192.000000,0.000000,0.000000,0.000000,0.000000,0.000000,0.000000,0.000000,0.000000,0.000000,1772181571.484061,0.000000
186.000000,-894.337999,1745.894759,-1291.394388,1187.950514,-25963.585194,-22782.619033,-4458.167190,-4048.638528,1161.843677,-330.269376,-18652.821321,2126.723781,-14099.279237,-9305.522955,-7570.021757,-7133.849816,0.006000,-0.008000,1.008000,192.000000,0.000000,24.000000,127.500000,96.000000,15.500000,64.000000,0.000000,0.000000,0.000000,1772181571.484072,0.000000
188.000000,-837.273996,1805.462158,-1228.653041,1248.434335,-25891.254949,-22711.339320,-4396.923411,-3990.546345,1097.448301,-398.129272,-18720.144775,2057.522781,-14166.803857,-9373.606369,-7634.797112,-7184.878848,0.006000,-0.008000,1.008000,192.000000,0.000000,0.000000,0.000000,0.000000,0.000000,0.000000,0.000000,0.000000,0.000000,1772181571.484084,0.000000
190.000000,-844.739478,1795.225059,-1239.404230,1244.567483,-25897.111106,-22709.953512,-4405.484129,-3999.017656,1188.799881,-300.318039,-18622.355893,2154.685814,-14063.918777,-9271.794173,-7530.727390,-7080.853829,0.006000,-0.008000,1.008000,192.000000,0.000000,0.000000,0.000000,0.000000,0.000000,0.000000,0.000000,0.000000,0.000000,1772181571.484094,0.000000
192.000000,-903.748084,1733.847169,-1297.407007,1184.955381,-25960.813577,-22761.116655,-4466.124411,-4058.294482,1093.223821,-398.933935,-18725.218621,2054.013557,-14168.234368,-9347.074848,-7636.004107,-7160.247226,0.006000,-0.008000,1.008000,192.000000,0.000000,0.000000,0.000000,0.000000,0.000000,0.000000,0.000000,0.000000,0.000000,1772181571.484104,0.000000
194.000000,-797.487890,1841.940205,-1191.415035,1291.841423,-25859.671934,-22658.477444,-4362.747593,-3952.414269,1161.374290,-332.236330,-18652.486044,2122.387543,-14099.323940,-9301.879621,-7575.788507,-7091.180335,0.006000,-0.008000,1.008000,192.000000,0.000000,0.000000,0.000000,0.000000,0.000000,0.000000,0.000000,0.000000,0.000000,1772181571.484116,0.000000
196.000000,-891.298162,1745.134800,-1286.745225,1197.047674,-25966.379162,-22772.001955,-4455.216760,-4042.201226,1159.496744,-333.957414,-18653.447169,2123.952165,-14102.162612,-9315.603592,-7589.803051,-7099.383426,0.002000,-0.010000,1.008000,192.000000,0.000000,8.000000,127.500000,88.000000,15.500000,64.000000,0.000000,0.000000,0.000000,1772181571.484127,0.000000
198.000000,-810.876585,1826.137522,-1210.034038,1262.493582,-25887.365745,-22705.058480,-4386.239277,-3965.847667,1109.652353,-389.188574,-18705.012644,2071.649083,-14149.280089,-9363.145752,-7646.196502,-7174.060604,0.002000,-0.010000,1.008000,192.000000,0.000000,0.000000,0.000000,0.000000,0.000000,0.000000,0.000000,0.000000,0.000000,1772181571.484270,0.000000
200.000000,-802.427626,1837.156932,-1208.625878,1256.950349,-25885.532902,-22715.139117,-4392.095434,-3967.792269,1228.474227,-272.758338,-18588.291834,2183.094881,-14034.190957,-9258.316071,-7532.895509,-7098.332894,0.002000,-0.010000,1.008000,192.000000,0.000000,0.000000,0.000000,0.000000,0.000000,0.000000,0.000000,0.000000,0.000000,1772181571.484281,0.000000
202.000000,-874.176726,1766.145440,-1271.657797,1191.862070,-25942.619257,-22780.339155,-4454.143876,-4031.718258,1133.613424,-363.685234,-18689.008795,2085.663627,-14134.684400,-9349.913520,-7627.801016,-7203.117872,0.002000,-0.010000,1.008000,192.000000,0.000000,0.000000,0.000000,0.000000,0.000000,0.000000,0.000000,0.000000,0.000000,1772181571.484292,0.000000
204.000000,-786.446129,1852.579636,-1171.857258,1286.991094,-25844.316285,-22675.822398,-4353.695137,-3939.718478,1186.207078,-315.561928,-18629.039065,2141.632395,-14074.737021,-9298.526859,-7555.895454,-7144.578653,0.002000,-0.010000,1.008000,192.000000,0.000000,0.000000,0.000000,0.000000,0.000000,0.000000,0.000000,0.000000,0.000000,1772181571.484306,0.000000
206.000000,-888.973580,1748.509914,-1277.446899,1186.140023,-25944.340342,-22776.673469,-4453.696841,-4043.587034,1171.074947,-330.850521,-18644.171196,2128.511921,-14083.163629,-9295.732891,-7558.845885,-7145.964461,0.004000,-0.014000,1.006000,192.000000,0.000000,16.000000,127.500000,72.000000,15.500000,56.000000,0.000000,0.000000,0.000000,1772181571.484370,0.000000
208.000000,-827.059248,1811.832406,-1222.640422,1242.019384,-25877.039239,-22709.215904,-4401.259649,-3986.567734,1108.892394,-396.899926,-18713.461603,2060.562618,-14155.918557,-9354.115648,-7622.861281,-7200.055683,0.004000,-0.014000,1.006000,192.000000,0.000000,0.000000,0.000000,0.000000,0.000000,0.000000,0.000000,0.000000,0.000000,1772181571.484386,0.000000
210.000000,-829.942623,1808.792568,-1231.983451,1242.756992,-25882.202492,-22709.841753,-4405.327666,-3990.211068,1208.469416,-295.937097,-18612.118794,2158.709128,-14049.725419,-9280.667815,-7520.512643,-7097.863507,0.004000,-0.014000,1.006000,192.000000,0.000000,0.000000,0.000000,0.000000,0.000000,0.000000,0.000000,0.000000,0.000000,1772181571.963948,0.000000
212.000000,-892.147528,1746.520608,-1297.630524,1191.839718,-25940.004103,-22759.484978,-4464.313920,-4052.326566,1107.886566,-390.149699,-18716.993179,2061.657853,-14154.868025,-9370.141848,-7623.576537,-7173.747679,0.004000,-0.014000,1.006000,192.000000,0.000000,0.000000,0.000000,0.000000,0.000000,0.000000,0.000000,0.000000,0.000000,1772181571.964002,0.000000
214.000000,-790.044760,1849.450391,-1199.372256,1299.396312,-25837.901335,-22645.155805,-4365.966244,-3954.582388,1176.551125,-323.541501,-18649.356800,2129.584805,-14086.494039,-9294.123565,-7559.650547,-7084.743033,0.004000,-0.014000,1.006000,192.000000,0.000000,0.000000,0.000000,0.000000,0.000000,0.000000,0.000000,0.000000,0.000000,1772181571.964047,0.000000
216.000000,-889.979409,1749.448687,-1295.574164,1204.043770,-25948.587173,-22751.036018,-4462.905760,-4052.706546,1166.582247,-330.269376,-18661.069114,2121.538177,-14093.981873,-9298.146879,-7576.816687,-7071.644911,0.002000,-0.010000,1.006000,192.000000,0.000000,8.000000,127.500000,88.000000,15.500000,56.000000,0.000000,0.000000,0.000000,1772181571.964098,0.000000
218.000000,-824.421742,1816.481568,-1224.629727,1259.833724,-25895.434725,-22694.709622,-4396.252858,-3985.606609,1108.624173,-389.143871,-18717.306103,2062.484868,-14160.500665,-9351.031107,-7639.692144,-7139.661269,0.002000,-0.010000,1.006000,192.000000,0.000000,0.000000,0.000000,0.000000,0.000000,0.000000,0.000000,0.000000,0.000000,1772181571.964152,0.000000
220.000000,-826.545158,1810.960688,-1227.691916,1248.479038,-25907.906998,-22712.233390,-4398.264515,-3986.925362,1208.581174,-290.662085,-18607.939018,2161.190171,-14058.241434,-9253.733963,-7545.926576,-7078.126917,0.002000,-0.010000,1.006000,192.000000,0.000000,0.000000,0.000000,0.000000,0.000000,0.000000,0.000000,0.000000,0.000000,1772181571.964194,0.000000
222.000000,-880.994008,1754.768402,-1279.324446,1187.279962,-25964.881595,-22783.200179,-4450.969929,-4038.066153,1119.174197,-383.913563,-18702.151621,2068.050452,-14152.901072,-9375.863895,-7646.107095,-7196.054720,0.002000,-0.010000,1.006000,192.000000,0.000000,0.000000,0.000000,0.000000,0.000000,0.000000,0.000000,0.000000,0.000000,1772181571.964211,0.000000
224.000000,-781.215820,1854.792458,-1178.026340,1280.866716,-25858.152015,-22685.634814,-4354.432744,-3939.137332,1186.832927,-319.339373,-18628.010884,2137.363212,-14077.374527,-9304.137147,-7571.608731,-7148.132580,0.002000,-0.010000,1.006000,192.000000,0.000000,0.000000,0.000000,0.000000,0.000000,0.000000,0.000000,0.000000,0.000000,1772181571.964226,0.000000
226.000000,-883.363293,1750.454515,-1277.648065,1182.004950,-25958.600755,-22788.788115,-4455.797905,-4041.754191,1176.953456,-329.844693,-18637.823300,2125.337973,-14092.529010,-9311.870851,-7573.173353,-7158.459086,0.006000,-0.004000,1.006000,192.000000,0.000000,24.000000,127.500000,112.000000,15.500000,56.000000,0.000000,0.000000,0.000000,1772181571.964242,0.000000
228.000000,-818.386771,1818.649688,-1220.606413,1247.137934,-25886.337565,-22716.301407,-4393.749463,-3979.616342,1117.341354,-388.652133,-18703.090394,2063.311882,-14155.270357,-9373.785183,-7629.812673,-7209.577526,0.006000,-0.004000,1.006000,192.000000,0.000000,0.000000,0.000000,0.000000,0.000000,0.000000,0.000000,0.000000,0.000000,1772181571.964256,0.000000
230.000000,-826.142827,1809.261955,-1230.508236,1239.270120,-25896.127629,-22723.118689,-4404.098320,-3988.154708,1210.369314,-290.438567,-18604.921532,2163.447698,-14051.826483,-9274.565789,-7527.709905,-7112.772121,0.006000,-0.004000,1.006000,192.000000,0.000000,0.000000,0.000000,0.000000,0.000000,0.000000,0.000000,0.000000,0.000000,1772181571.964267,0.000000
232.000000,-887.096034,1745.045393,-1289.315675,1182.072006,-25955.315048,-22782.730792,-4461.922283,-4045.710450,1115.150883,-390.462624,-18707.180763,2062.887199,-14156.365592,-9357.043726,-7622.056618,-7195.853555,0.006000,-0.004000,1.006000,192.000000,0.000000,0.000000,0.000000,0.000000,0.000000,0.000000,0.000000,0.000000,0.000000,1772181571.964278,0.000000
234.000000,-789.038931,1846.187037,-1193.806671,1282.632504,-25856.855614,-22676.828227,-4365.809782,-3949.285024,1178.205154,-330.269376,-18640.326695,2128.668383,-14086.784612,-9318.330505,-7564.433821,-7129.312411,0.006000,-0.004000,1.006000,192.000000,0.000000,0.000000,0.000000,0.000000,0.000000,0.000000,0.000000,0.000000,0.000000,1772181571.964288,0.000000
236.000000,-884.793804,1752.644986,-1291.081463,1194.700741,-25957.550223,-22767.531606,-4461.609359,-4046.805685,1170.873782,-332.906882,-18651.927251,2123.326316,-14090.159725,-9306.931115,-7583.544562,-7123.992696,0.008000,-0.008000,1.012000,192.000000,0.000000,32.000000,127.500000,96.000000,15.500000,80.000000,0.000000,0.000000,0.000000,1772181571.964299,0.000000
238.000000,-815.101065,1826.338688,-1221.634593,1268.528553,-25885.287033,-22687.557064,-4393.637704,-3977.939961,1118.682458,-382.863031,-18708.924199,2070.620903,-14154.264528,-9358.742459,-7643.447237,-7160.850723,0.008000,-0.008000,1.012000,192.000000,0.000000,0.000000,0.000000,0.000000,0.000000,0.000000,0.000000,0.000000,0.000000,1772181571.964341,0.000000
240.000000,-819.929042,1816.638031,-1225.814369,1257.687957,-25905.560065,-22704.365576,-4402.086663,-3983.214972,1213.163282,-284.604762,-18607.246114,2171.360215,-14061.147161,-9258.047850,-7549.368745,-7067.241617,0.008000,-0.008000,1.012000,192.000000,0.000000,0.000000,0.000000,0.000000,0.000000,0.000000,0.000000,0.000000,0.000000,1772181571.964352,0.000000
242.000000,-871.494516,1761.384518,-1275.569353,1200.333381,-25960.679467,-22766.793998,-4451.104039,-4034.780447,1125.477389,-380.180821,-18699.022376,2076.052377,-14154.108066,-9359.189494,-7645.123618,-7160.716612,0.008000,-0.008000,1.012000,192.000000,0.000000,0.000000,0.000000,0.000000,0.000000,0.000000,0.000000,0.000000,0.000000,1772181571.964362,0.000000
244.000000,-776.097271,1861.095650,-1179.747424,1291.014408,-25857.593221,-22667.194625,-4356.980843,-3942.221873,1189.202212,-312.745608,-18635.744588,2138.927834,-14082.604835,-9282.657121,-7576.123783,-7106.737150,0.008000,-0.008000,1.012000,192.000000,0.000000,0.000000,0.000000,0.000000,0.000000,0.000000,0.000000,0.000000,0.000000,1772181571.964372,0.000000
246.000000,-863.202019,1768.693539,-1267.455669,1195.393645,-25944.429749,-22767.732771,-4447.639519,-4031.785313,1186.989389,-320.635774,-18643.254774,2129.696563,-14081.934283,-9302.393711,-7578.381309,-7123.299792,0.006000,-0.008000,1.012000,192.000000,0.000000,24.000000,127.500000,96.000000,15.500000,80.000000,0.000000,0.000000,0.000000,1772181571.964383,0.000000
248.000000,-803.589917,1830.384353,-1207.038904,1250.356585,-25879.453227,-22709.417070,-4389.547335,-3971.547362,1140.564816,-380.247877,-18694.373214,2073.169002,-14130.929307,-9362.095220,-7627.108112,-7188.455127,0.006000,-0.008000,1.012000,192.000000,0.000000,0.000000,0.000000,0.000000,0.000000,0.000000,0.000000,0.000000,0.000000,1772181571.964394,0.000000
250.000000,-817.179777,1814.984002,-1222.394553,1240.611224,-25896.149981,-22725.398567,-4400.477338,-3980.666874,1223.601547,-290.215050,-18601.144087,2163.470049,-14044.718628,-9275.504562,-7536.427085,-7109.352304,0.006000,-0.008000,1.012000,192.000000,0.000000,0.000000,0.000000,0.000000,0.000000,0.000000,0.000000,0.000000,0.000000,1772181571.964414,0.000000
252.000000,-878.982351,1752.197951,-1282.677207,1185.514174,-25950.710589,-22781.724963,-4455.373222,-4040.457790,1125.030354,-388.316856,-18703.269208,2066.597589,-14148.363668,-9372.533485,-7633.366601,-7201.352084,0.006000,-0.008000,1.012000,192.000000,0.000000,0.000000,0.000000,0.000000,0.000000,0.000000,0.000000,0.000000,0.000000,1772181571.964429,0.000000
254.000000,-796.660876,1838.073354,-1200.847471,1275.725815,-25862.220032,-22685.008965,-4370.816573,-3961.489077,1176.215848,-330.805818,-18649.334448,2125.159159,-14086.248170,-9309.590973,-7564.210303,-7134.274499,0.006000,-0.008000,1.012000,192.000000,0.000000,0.000000,0.000000,0.000000,0.000000,0.000000,0.000000,0.000000,0.000000,1772181571.964442,0.000000
0.000000,-886.805461,1746.118277,-1295.216536,1195.170128,-25951.671714,-22764.871748,-4461.877580,-4053.690023,1164.078851,-340.417068,-18667.931100,2112.753941,-14098.519277,-9294.592952,-7580.035338,-7127.524272,0.006000,-0.010000,1.012000,192.000000,0.000000,24.000000,127.500000,80.000000,15.500000,80.000000,0.000000,0.000000,0.000000,1772181571.964455,0.000000
2.000000,-822.119513,1814.559318,-1231.826989,1266.896876,-25886.225806,-22689.255797,-4398.085701,-3990.009903,1113.876833,-388.540374,-18721.105900,2062.015481,-14157.080848,-9368.532523,-7645.213025,-7157.006223,0.006000,-0.010000,1.012000,192.000000,0.000000,0.000000,0.000000,0.000000,0.000000,0.000000,0.000000,0.000000,0.000000,1772181571.964468,0.000000
4.000000,-832.110743,1805.037475,-1231.849340,1258.783192,-25897.155809,-22704.298521,-4401.438463,-3994.144975,1202.881480,-296.495890,-18624.389902,2161.726613,-14063.538797,-9279.930208,-7553.325004,-7061.810143,0.006000,-0.010000,1.012000,192.000000,0.000000,0.000000,0.000000,0.000000,0.000000,0.000000,0.000000,0.000000,0.000000,1772181571.964482,0.000000
6.000000,-889.398264,1746.878236,-1280.620847,1198.031151,-25953.526909,-22768.470379,-4453.070993,-4046.023374,1112.468673,-388.652133,-18715.495612,2071.425566,-14157.572586,-9366.654976,-7642.061429,-7160.068412,0.006000,-0.010000,1.012000,192.000000,0.000000,0.000000,0.000000,0.000000,0.000000,0.000000,0.000000,0.000000,0.000000,1772181571.964496,0.000000
8.000000,-795.923268,1840.912025,-1184.530697,1282.498393,-25863.047047,-22679.264567,-4362.121744,-3954.314167,1169.756194,-333.778600,-18651.636678,2127.394334,-14093.758356,-9312.966086,-7574.603865,-7113.777949,0.006000,-0.010000,1.012000,192.000000,0.000000,0.000000,0.000000,0.000000,0.000000,0.000000,0.000000,0.000000,0.000000,1772181571.964509,0.000000
10.000000,-884.927915,1750.655681,-1279.771481,1190.476261,-25955.069179,-22774.259481,-4454.702670,-4042.581206,1163.654168,-342.004042,-18657.694001,2118.855967,-14092.573713,-9318.889298,-7580.929408,-7133.983926,0.008000,-0.009000,1.009000,192.000000,0.000000,40.000000,127.500000,96.000000,15.500000,56.000000,0.000000,0.000000,0.000000,1772181571.964522,0.000000
12.000000,-820.286670,1818.761446,-1221.098151,1251.496524,-25889.891492,-22707.427765,-4393.548297,-3977.403519,1116.447284,-390.395569,-18710.153545,2066.239961,-14150.621194,-9367.012604,-7635.266499,-7191.025578,0.008000,-0.009000,1.009000,192.000000,0.000000,0.000000,0.000000,0.000000,0.000000,0.000000,0.000000,0.000000,0.000000,1772181571.964535,0.000000
14.000000,-830.121437,1808.457292,-1233.391611,1240.611224,-25901.603806,-22722.314027,-4405.461777,-3985.785423,1203.060294,-299.200451,-18616.365625,2158.217389,-14062.465914,-9261.087687,-7540.606861,-7106.692446,0.008000,-0.009000,1.009000,192.000000,0.000000,0.000000,0.000000,0.000000,0.000000,0.000000,0.000000,0.000000,0.000000,1772181571.964549,0.000000
16.000000,-888.683008,1748.509914,-1288.086329,1184.485994,-25952.923411,-22785.100077,-4460.782344,-4043.207055,1113.541557,-393.882441,-18714.199211,2065.994092,-14157.751400,-9383.955226,-7634.931223,-7200.033331,0.008000,-0.009000,1.009000,192.000000,0.000000,0.000000,0.000000,0.000000,0.000000,0.000000,0.000000,0.000000,0.000000,1772181571.964561,0.000000
18.000000,-801.779425,1836.307566,-1199.908698,1273.512992,-25857.526166,-22694.575512,-4372.247085,-3955.007071,1170.247933,-335.209112,-18655.816454,2124.756828,-14095.792365,-9307.020522,-7568.971225,-7146.836179,0.008000,-0.009000,1.009000,192.000000,0.000000,0.000000,0.000000,0.000000,0.000000,0.000000,0.000000,0.000000,0.000000,1772181571.964576,0.000000
20.000000,-894.025075,1741.044431,-1296.848213,1184.441290,-25958.086664,-22790.397440,-4466.169115,-4048.124438,1157.105107,-347.994309,-18668.936928,2114.586784,-14107.057644,-9333.887319,-7583.209286,-7154.189903,0.008000,-0.009500,1.011500,192.000000,0.000000,32.000000,127.500000,88.000000,15.500000,88.000000,0.000000,0.000000,0.000000,1772181571.964591,0.000000
22.000000,-824.578205,1812.525310,-1232.609300,1252.524704,-25890.718507,-22709.752346,-4403.070140,-3984.176097,1105.629039,-397.659886,-18722.826984,2062.261350,-14164.166351,-9383.552895,-7639.960365,-7194.378340,0.008000,-0.009500,1.011500,192.000000,0.000000,0.000000,0.000000,0.000000,0.000000,0.000000,0.000000,0.000000,0.000000,1772181571.964602,0.000000
24.000000,-828.266243,1807.563222,-1233.436314,1252.278835,-25899.301577,-22713.820364,-4405.707646,-3986.992417,1204.200233,-296.630001,-18620.366588,2160.497267,-14065.148123,-9270.073088,-7548.653489,-7094.398987,0.008000,-0.009500,1.011500,192.000000,0.000000,0.000000,0.000000,0.000000,0.000000,0.000000,0.000000,0.000000,0.000000,1772181571.964613,0.000000
26.000000,-881.396339,1753.494353,-1279.458556,1197.248840,-25954.152757,-22770.459684,-4457.027251,-4037.619118,1122.035220,-383.310066,-18707.538391,2072.386691,-14151.492912,-9352.439267,-7644.006031,-7181.280217,0.008000,-0.009500,1.011500,192.000000,0.000000,0.000000,0.000000,0.000000,0.000000,0.000000,0.000000,0.000000,0.000000,1772181571.964635,0.000000
28.000000,-784.747396,1852.803153,-1177.556953,1290.321504,-25852.608782,-22675.353012,-4363.507553,-3943.317109,1183.748386,-320.009925,-18638.315038,2135.284500,-14079.274425,-9300.940848,-7574.805030,-7124.439731,0.008000,-0.009500,1.011500,192.000000,0.000000,0.000000,0.000000,0.000000,0.000000,0.000000,0.000000,0.000000,0.000000,1772181571.964647,0.000000
30.000000,-875.808403,1758.478792,-1271.009597,1198.969924,-25939.177089,-22771.621975,-4454.434449,-4036.501531,1182.072006,-326.827207,-18643.321829,2128.288404,-14084.750603,-9314.329542,-7577.196667,-7130.497054,0.007000,-0.007750,1.008750,192.000000,0.000000,24.000000,127.500000,104.000000,15.500000,56.000000,0.000000,0.000000,0.000000,1772181571.964661,0.000000
32.000000,-811.793007,1824.707010,-1213.006820,1259.051413,-25875.184044,-22700.990462,-4394.241201,-3981.717406,1126.416162,-383.131252,-18704.163278,2067.692824,-14140.987592,-9365.827962,-7628.806845,-7183.001302,0.007000,-0.007750,1.008750,192.000000,0.000000,0.000000,0.000000,0.000000,0.000000,0.000000,0.000000,0.000000,0.000000,1772181571.964679,0.000000
34.000000,-825.338164,1810.983039,-1229.860035,1245.036870,-25887.991594,-22711.026396,-4406.579364,-3996.603667,1219.041791,-288.650428,-18611.291779,2158.530314,-14046.238547,-9263.345213,-7529.341582,-7093.393158,0.007000,-0.007750,1.008750,192.000000,0.000000,0.000000,0.000000,0.000000,0.000000,0.000000,0.000000,0.000000,0.000000,1772181571.964694,0.000000
36.000000,-883.184479,1752.443821,-1288.131033,1186.877631,-25945.547336,-22773.097190,-4460.938807,-4052.684194,1117.274298,-388.741540,-18717.462566,2057.522781,-14152.588147,-9364.442154,-7627.890423,-7195.272409,0.007000,-0.007750,1.008750,192.000000,0.000000,0.000000,0.000000,0.000000,0.000000,0.000000,0.000000,0.000000,0.000000,1772181571.964705,0.000000
38.000000,-787.362550,1849.383336,-1195.572459,1282.766614,-25845.098596,-22672.424933,-4368.067308,-3959.499772,1183.390758,-321.775713,-18646.607536,2125.762656,-14076.100478,-9291.195487,-7552.654451,-7132.329897,0.007000,-0.007750,1.008750,192.000000,0.000000,0.000000,0.000000,0.000000,0.000000,0.000000,0.000000,0.000000,0.000000,1772181571.964715,0.000000
40.000000,-900.931764,1732.796637,-1303.933716,1176.752290,-25961.506481,-22787.737583,-4473.411080,-4069.135078,1160.480220,-339.590054,-18670.389792,2104.953182,-14106.945885,-9304.159499,-7570.088812,-7140.935319,0.005500,-0.010875,1.009375,192.000000,0.000000,16.000000,127.500000,72.000000,15.500000,72.000000,0.000000,0.000000,0.000000,1772181571.964727,0.000000
42.000000,-834.278862,1802.131748,-1237.169056,1242.801695,-25888.505684,-22716.055538,-4405.305315,-4001.856327,1093.514394,-408.701647,-18738.584964,2038.300280,-14170.827171,-9400.406110,-7640.049772,-7197.775805,0.005500,-0.010875,1.009375,192.000000,0.000000,0.000000,0.000000,0.000000,0.000000,0.000000,0.000000,0.000000,0.000000,1772181571.964737,0.000000
44.000000,-838.771562,1796.968495,-1242.891102,1240.432410,-25900.866199,-22719.184782,-4410.401512,-4005.790234,1197.874689,-303.089655,-18632.145957,2145.700412,-14071.585425,-9281.964216,-7542.864387,-7100.903344,0.005500,-0.010875,1.009375,192.000000,0.000000,0.000000,0.000000,0.000000,0.000000,0.000000,0.000000,0.000000,0.000000,1772181571.964748,0.000000
46.000000,-889.062987,1744.732469,-1294.009542,1190.766834,-25959.628935,-22773.186597,-4465.453859,-4058.003909,1106.299592,-393.927144,-18732.661752,2049.811429,-14168.144961,-9372.175857,-7650.890368,-7188.633941,0.005500,-0.010875,1.009375,192.000000,0.000000,0.000000,0.000000,0.000000,0.000000,0.000000,0.000000,0.000000,0.000000,1772181571.964759,0.000000
48.000000,-780.880544,1853.049022,-1186.676465,1298.524594,-25854.888660,-22667.373439,-4361.339433,-3950.246149,1182.854317,-319.942870,-18649.736780,2126.634374,-14086.069356,-9296.850478,-7577.420184,-7121.019914,0.005500,-0.010875,1.009375,192.000000,0.000000,0.000000,0.000000,0.000000,0.000000,0.000000,0.000000,0.000000,0.000000,1772181571.964770,0.000000
50.000000,-882.357464,1749.918073,-1288.019274,1198.947573,-25955.851490,-22776.986394,-4458.256597,-4048.549121,1174.695930,-329.352955,-18654.408294,2123.415723,-14095.054757,-9303.757167,-7586.740862,-7133.268670,0.007750,-0.008438,1.009688,192.000000,0.000000,40.000000,127.500000,104.000000,15.500000,72.000000,0.000000,0.000000,0.000000,1772181571.964781,0.000000
52.000000,-812.284745,1822.293022,-1217.611279,1263.208838,-25882.157789,-22702.108050,-4388.809727,-3981.650350,1118.905976,-389.881479,-18710.935856,2062.797792,-14153.236348,-9353.512150,-7641.569691,-7189.550363,0.007750,-0.008438,1.009688,192.000000,0.000000,0.000000,0.000000,0.000000,0.000000,0.000000,0.000000,0.000000,0.000000,1772181571.964791,0.000000
54.000000,-824.645260,1808.881975,-1230.329422,1249.440163,-25892.528998,-22714.602675,-4402.980733,-3993.809699,1216.225471,-292.338466,-18608.318997,2157.368023,-14046.998506,-9270.967158,-7535.220091,-7096.142423,0.007750,-0.008438,1.009688,192.000000,0.000000,0.000000,0.000000,0.000000,0.000000,0.000000,0.000000,0.000000,0.000000,1772181571.964804,0.000000
56.000000,-887.833642,1746.475905,-1290.634428,1190.140985,-25948.855394,-22772.516045,-4462.972815,-4056.998081,1115.597918,-391.423749,-18717.976656,2056.919283,-14150.665897,-9378.121421,-7634.730057,-7185.504697,0.007750,-0.008438,1.009688,192.000000,0.000000,0.000000,0.000000,0.000000,0.000000,0.000000,0.000000,0.000000,0.000000,1772181571.964818,0.000000
58.000000,-793.665742,1843.460124,-1196.220660,1284.822975,-25845.120948,-22668.692192,-4368.603750,-3966.495868,1177.065215,-326.760152,-18655.168254,2123.683944,-14085.622321,-9301.700807,-7560.566969,-7112.548603,0.007750,-0.008438,1.009688,192.000000,0.000000,0.000000,0.000000,0.000000,0.000000,0.000000,0.000000,0.000000,0.000000,1772181571.964837,0.000000
60.000000,-904.284525,1731.433181,-1302.369094,1173.980674,-25950.621182,-22783.066068,-4474.796888,-4076.377043,1157.596845,-347.413164,-18675.284824,2100.929868,-14094.451260,-9312.384941,-7565.976091,-7121.802225,0.009875,-0.008219,1.005844,192.000000,0.000000,48.000000,127.500000,96.000000,15.500000,40.000000,0.000000,0.000000,0.000000,1772181571.964851,0.000000
62.000000,-837.765734,1800.656533,-1231.894044,1239.314823,-25872.971222,-22708.925332,-4409.485091,-4009.947659,1095.257830,-410.467435,-18739.635496,2035.819237,-14173.934063,-9381.273017,-7616.848662,-7185.348235,0.009875,-0.008219,1.005844,192.000000,0.000000,0.000000,0.000000,0.000000,0.000000,0.000000,0.000000,0.000000,0.000000,1772181571.964865,0.000000
64.000000,-836.558740,1800.611830,-1236.967890,1238.376050,-25875.586376,-22708.791221,-4415.274193,-4010.171176,1198.232317,-306.598879,-18635.185794,2140.581863,-14061.638899,-9276.912722,-7514.947059,-7092.163812,0.009875,-0.008219,1.005844,192.000000,0.000000,0.000000,0.000000,0.000000,0.000000,0.000000,0.000000,0.000000,0.000000,1772181571.964876,0.000000
66.000000,-884.056197,1751.125068,-1290.947353,1188.419901,-25933.611504,-22758.657963,-4465.967949,-4056.104011,1114.033295,-392.206060,-18723.318723,2055.377013,-14149.593013,-9379.216657,-7619.508519,-7175.535819,0.009875,-0.008219,1.005844,192.000000,0.000000,0.000000,0.000000,0.000000,0.000000,0.000000,0.000000,0.000000,0.000000,1772181571.964887,0.000000
68.000000,-778.645370,1857.385261,-1191.929125,1291.103815,-25834.056834,-22657.516319,-4362.457021,-3951.073164,1188.688122,-316.254832,-18642.517166,2129.875377,-14077.910969,-9293.073033,-7555.359013,-7110.246373,0.009875,-0.008219,1.005844,192.000000,0.000000,0.000000,0.000000,0.000000,0.000000,0.000000,0.000000,0.000000,0.000000,1772181571.964897,0.000000
70.000000,-880.055234,1752.957911,-1291.193222,1197.338247,-25944.563859,-22770.482036,-4455.194408,-4047.096258,1179.523907,-328.816513,-18650.027353,2124.935642,-14086.650501,-9302.974856,-7566.356071,-7119.209423,0.009875,-0.008219,1.005844,192.000000,0.000000,0.000000,0.000000,0.000000,0.000000,0.000000,0.000000,0.000000,0.000000,1772181571.964908,0.000000
72.000000,-822.477141,1813.642897,-1224.115637,1259.453745,-25887.052821,-22714.289750,-4387.625085,-3987.014769,1114.256813,-391.423749,-18714.243914,2063.669510,-14157.863159,-9370.722994,-7630.237356,-7187.292837,0.012000,-0.008000,1.008000,192.000000,0.000000,48.000000,127.500000,96.000000,15.500000,64.000000,0.000000,0.000000,0.000000,1772181571.964918,0.000000
74.000000,-838.637452,1796.588516,-1235.336213,1244.858056,-25900.352109,-22735.233335,-4399.270344,-4000.962257,1202.725017,-302.888489,-18618.623152,2154.350538,-14063.225873,-9280.533705,-7535.309498,-7107.228888,0.012000,-0.008000,1.008000,192.000000,0.000000,0.000000,0.000000,0.000000,0.000000,0.000000,0.000000,0.000000,0.000000,1772181572.444088,0.000000
76.000000,-898.920107,1734.338908,-1293.160175,1181.177936,-25954.264516,-22792.565559,-4460.581179,-4062.228389,1102.700961,-406.578232,-18722.469356,2048.783249,-14165.619214,-9374.254569,-7631.936089,-7200.770938,0.012000,-0.008000,1.008000,192.000000,0.000000,0.000000,0.000000,0.000000,0.000000,0.000000,0.000000,0.000000,0.000000,1772181572.444139,0.000000
78.000000,-801.734722,1834.474723,-1198.768759,1275.345835,-25851.334733,-22683.824323,-4369.319006,-3969.066318,1168.705662,-342.875760,-18654.855329,2114.452674,-14093.445431,-9327.002982,-7553.749687,-7128.686563,0.012000,-0.008000,1.008000,192.000000,0.000000,0.000000,0.000000,0.000000,0.000000,0.000000,0.000000,0.000000,0.000000,1772181572.444156,0.000000
80.000000,-909.760703,1725.062934,-1303.151405,1174.964151,-25960.321839,-22786.351774,-4471.734699,-4074.790069,1151.204246,-354.945702,-18675.910673,2100.751054,-14107.527030,-9322.376170,-7562.310405,-7128.172472,0.012000,-0.008000,1.008000,192.000000,0.000000,0.000000,0.000000,0.000000,0.000000,0.000000,0.000000,0.000000,0.000000,1772181572.444175,0.000000
82.000000,-849.992138,1789.145385,-1241.728811,1237.370221,-25899.189818,-22717.039015,-4408.613373,-4017.077865,1088.664065,-415.228357,-18740.842490,2036.735658,-14175.029299,-9381.630645,-7620.134368,-7177.167496,0.010000,-0.012000,1.004000,192.000000,0.000000,40.000000,127.500000,80.000000,15.500000,48.000000,0.000000,0.000000,0.000000,1772181572.444188,0.000000
84.000000,-858.150525,1780.450556,-1257.196219,1233.615128,-25906.767059,-22729.041902,-4417.978754,-4024.878624,1173.064253,-321.485141,-18646.182853,2131.283537,-14080.839048,-9295.978760,-7530.056838,-7091.381501,0.010000,-0.012000,1.004000,192.000000,0.000000,0.000000,0.000000,0.000000,0.000000,0.000000,0.000000,0.000000,0.000000,1772181572.444202,0.000000
86.000000,-900.998819,1737.043469,-1310.236908,1190.319799,-25957.080836,-22769.699725,-4466.862019,-4066.966959,1087.233554,-408.880461,-18739.903717,2044.335251,-14178.739688,-9380.624816,-7634.752409,-7177.145145,0.010000,-0.012000,1.004000,192.000000,0.000000,0.000000,0.000000,0.000000,0.000000,0.000000,0.000000,0.000000,0.000000,1772181572.444216,0.000000
88.000000,-781.796966,1858.301682,-1199.774587,1297.250545,-25842.863422,-22657.985706,-4361.004157,-3949.843818,1170.829078,-325.329641,-18654.095370,2132.356421,-14095.479440,-9298.728025,-7568.390080,-7105.373693,0.010000,-0.012000,1.004000,192.000000,0.000000,0.000000,0.000000,0.000000,0.000000,0.000000,0.000000,0.000000,0.000000,1772181572.444264,0.000000
90.000000,-869.818135,1766.681882,-1284.152422,1203.909660,-25941.501670,-22758.680315,-4451.171094,-4035.115723,1181.803785,-319.406428,-18643.344181,2140.179532,-14088.483344,-9296.381092,-7573.642739,-7118.315353,0.010000,-0.012000,1.004000,192.000000,0.000000,0.000000,0.000000,0.000000,0.000000,0.000000,0.000000,0.000000,0.000000,1772181572.444293,0.000000
92.000000,-804.036952,1830.116133,-1212.090398,1267.723890,-25875.653431,-22692.250930,-4384.115861,-3972.530839,1131.177083,-376.492784,-18695.423746,2080.902705,-14139.400618,-9351.209921,-7630.863205,-7176.541647,0.008000,-0.010000,1.004000,192.000000,0.000000,32.000000,127.500000,88.000000,15.500000,48.000000,0.000000,0.000000,0.000000,1772181572.444340,0.000000
94.000000,-824.220577,1808.904327,-1229.547111,1255.363376,-25898.027527,-22713.373329,-4399.203288,-3993.385016,1218.974736,-289.566849,-18601.859343,2167.627474,-14045.567995,-9251.342327,-7534.683649,-7088.833402,0.008000,-0.010000,1.004000,192.000000,0.000000,0.000000,0.000000,0.000000,0.000000,0.000000,0.000000,0.000000,0.000000,1772181572.444381,0.000000
96.000000,-883.273886,1748.375803,-1286.722873,1199.305200,-25958.578403,-22777.098152,-4453.562731,-4050.828999,1115.083827,-394.105958,-18711.114670,2065.368243,-14156.365592,-9362.676366,-7638.127522,-7182.174287,0.008000,-0.010000,1.004000,192.000000,0.000000,0.000000,0.000000,0.000000,0.000000,0.000000,0.000000,0.000000,0.000000,1772181572.444422,0.000000
98.000000,-794.157480,1840.912025,-1196.287715,1280.777309,-25865.863367,-22683.936081,-4366.480335,-3961.936112,1175.634703,-331.431667,-18645.936983,2131.216482,-14086.047004,-9304.450071,-7568.546542,-7124.886766,0.008000,-0.010000,1.004000,192.000000,0.000000,0.000000,0.000000,0.000000,0.000000,0.000000,0.000000,0.000000,0.000000,1772181572.444463,0.000000
100.000000,-890.135871,1740.664451,-1292.668437,1179.970942,-25963.428731,-22784.228359,-4465.319749,-4061.110802,1161.687215,-348.173123,-18662.790199,2110.764636,-14110.745682,-9308.540441,-7579.990635,-7139.907138,0.008000,-0.010000,1.004000,192.000000,0.000000,0.000000,0.000000,0.000000,0.000000,0.000000,0.000000,0.000000,0.000000,1772181572.444489,0.000000
102.000000,-829.584995,1803.294039,-1226.708439,1244.545131,-25889.176236,-22709.126497,-4403.450120,-4003.845633,1112.111045,-403.001953,-18717.976656,2050.727850,-14157.952566,-9379.417822,-7625.342324,-7184.744738,0.012000,-0.006000,1.004000,192.000000,0.000000,48.000000,127.500000,104.000000,15.500000,48.000000,0.000000,0.000000,0.000000,1772181572.444499,0.000000
104.000000,-844.493609,1789.927696,-1243.852227,1238.353698,-25901.045013,-22714.848544,-4418.023457,-4019.469502,1199.238145,-312.700905,-18628.279105,2138.994889,-14062.890597,-9296.537554,-7527.173463,-7085.994731,0.012000,-0.006000,1.004000,192.000000,0.000000,0.000000,0.000000,0.000000,0.000000,0.000000,0.000000,0.000000,0.000000,1772181572.444510,0.000000
106.000000,-893.019246,1741.714983,-1302.771426,1195.147776,-25948.095435,-22756.735713,-4471.578237,-4068.241008,1103.483272,-402.823139,-18732.035903,2047.553903,-14166.759153,-9375.729784,-7621.766045,-7158.637900,0.012000,-0.006000,1.004000,192.000000,0.000000,0.000000,0.000000,0.000000,0.000000,0.000000,0.000000,0.000000,0.000000,1772181572.444521,0.000000
108.000000,-793.263411,1843.929511,-1208.938802,1293.607210,-25834.526221,-22648.709732,-4380.964265,-3973.670778,1176.551125,-327.520112,-18658.789236,2121.851101,-14092.171382,-9294.190621,-7549.011117,-7075.400004,0.012000,-0.006000,1.004000,192.000000,0.000000,0.000000,0.000000,0.000000,0.000000,0.000000,0.000000,0.000000,0.000000,1772181572.444531,0.000000
110.000000,-879.630551,1753.673166,-1294.702446,1205.697799,-25928.269437,-22735.389797,-4468.001958,-4058.495648,1170.739671,-330.314080,-18664.555986,2114.251508,-14090.182077,-9297.029292,-7557.057745,-7075.176486,0.012000,-0.006000,1.004000,192.000000,0.000000,0.000000,0.000000,0.000000,0.000000,0.000000,0.000000,0.000000,0.000000,1772181572.444541,0.000000
112.000000,-807.054437,1828.842083,-1217.946555,1273.468289,-25860.767169,-22667.954584,-4394.799995,-3983.393786,1128.651336,-376.850412,-18709.505345,2069.100984,-14143.088656,-9334.535519,-7612.445368,-7124.238565,0.014000,-0.004000,1.004000,192.000000,0.000000,56.000000,127.500000,112.000000,15.500000,48.000000,0.000000,0.000000,0.000000,1772181572.444552,0.000000
114.000000,-814.497568,1823.678830,-1226.730791,1262.404175,-25890.584396,-22699.247026,-4402.377236,-3988.355874,1224.585023,-279.955599,-18607.670797,2169.840296,-14046.327954,-9242.222815,-7527.441684,-7051.304823,0.014000,-0.004000,1.004000,192.000000,0.000000,0.000000,0.000000,0.000000,0.000000,0.000000,0.000000,0.000000,0.000000,1772181572.444561,0.000000
116.000000,-866.107746,1770.347568,-1277.469251,1207.664753,-25954.488034,-22768.738600,-4452.065164,-4040.815418,1132.875816,-370.077833,-18701.548124,2079.472194,-14143.915670,-9345.890206,-7633.165435,-7167.019804,0.014000,-0.004000,1.004000,192.000000,0.000000,0.000000,0.000000,0.000000,0.000000,0.000000,0.000000,0.000000,0.000000,1772181572.444576,0.000000
118.000000,-783.071015,1853.361947,-1191.549145,1287.996922,-25870.892509,-22690.418087,-4364.289864,-3956.906969,1191.258572,-314.623155,-18634.738759,2137.854950,-14076.100478,-9290.502583,-7571.116992,-7130.899385,0.014000,-0.004000,1.004000,192.000000,0.000000,0.000000,0.000000,0.000000,0.000000,0.000000,0.000000,0.000000,0.000000,1772181572.444586,0.000000
120.000000,-881.396339,1752.443821,-1288.242792,1189.626895,-25969.575461,-22792.051469,-4455.820257,-4052.639491,1174.315950,-336.080830,-18653.782446,2119.258299,-14106.476498,-9321.593859,-7588.529001,-7155.128676,0.014000,-0.004000,1.004000,192.000000,0.000000,0.000000,0.000000,0.000000,0.000000,0.000000,0.000000,0.000000,0.000000,1772181572.444596,0.000000
122.000000,-821.024277,1815.945127,-1222.685125,1251.898855,-25893.735992,-22717.329588,-4394.442367,-3992.312132,1119.241252,-392.362522,-18710.533525,2061.702557,-14161.193569,-9376.556799,-7639.021592,-7206.247116,0.008000,-0.016000,1.000000,192.000000,0.000000,32.000000,127.500000,64.000000,15.500000,32.000000,0.000000,0.000000,0.000000,1772181572.444609,0.000000
124.000000,-838.458638,1796.610868,-1243.539303,1233.995108,-25912.019719,-22727.544335,-4414.849510,-4014.440359,1201.585078,-304.967201,-18624.658123,2144.515770,-14070.356079,-9278.790269,-7542.082076,-7113.800301,0.008000,-0.016000,1.000000,192.000000,0.000000,0.000000,0.000000,0.000000,0.000000,0.000000,0.000000,0.000000,0.000000,1772181572.444619,0.000000
126.000000,-891.096996,1743.145495,-1300.938583,1187.458776,-25961.640592,-22778.372202,-4465.699728,-4066.899904,1107.663048,-401.817310,-18724.503365,2046.436315,-14167.586168,-9380.825982,-7637.300508,-7190.846764,0.008000,-0.016000,1.000000,192.000000,0.000000,0.000000,0.000000,0.000000,0.000000,0.000000,0.000000,0.000000,0.000000,1772181572.444629,0.000000
128.000000,-806.585050,1832.820694,-1218.371239,1281.894896,-25874.111161,-22681.812666,-4378.013835,-3981.538592,1165.889343,-334.560911,-18662.812550,2114.318563,-14103.459013,-9303.824223,-7576.168487,-7114.247336,0.008000,-0.016000,1.000000,192.000000,0.000000,0.000000,0.000000,0.000000,0.000000,0.000000,0.000000,0.000000,0.000000,1772181572.444639,0.000000
130.000000,-893.734502,1743.681937,-1306.906498,1196.041846,-25964.412208,-22773.074838,-4468.046661,-4069.582113,1151.718337,-346.653205,-18680.761001,2104.684961,-14114.389016,-9330.020467,-7592.574667,-7113.017990,0.008000,-0.016000,1.000000,192.000000,0.000000,0.000000,0.000000,0.000000,0.000000,0.000000,0.000000,0.000000,0.000000,1772181572.444649,0.000000
132.000000,-820.577242,1815.989830,-1230.977622,1258.604379,-25879.296765,-22696.944797,-4400.767911,-3998.704731,1114.569737,-387.601601,-18720.412996,2058.394499,-14162.892301,-9364.732726,-7633.858339,-7154.726345,0.006000,-0.014000,1.010000,192.000000,0.000000,24.000000,127.500000,72.000000,15.500000,72.000000,0.000000,0.000000,0.000000,1772181572.444659,0.000000
134.000000,-829.964975,1805.372751,-1237.951367,1246.668547,-25882.135437,-22710.355843,-4411.049713,-4008.315981,1208.491767,-299.669838,-18622.713521,2147.779125,-14062.667079,-9268.888446,-7523.463073,-7071.041414,0.006000,-0.014000,1.010000,192.000000,0.000000,0.000000,0.000000,0.000000,0.000000,0.000000,0.000000,0.000000,0.000000,1772181572.444669,0.000000
136.000000,-873.260304,1762.502106,-1282.610152,1199.640477,-25941.322856,-22761.988373,-4456.088478,-4051.387793,1121.945813,-387.087510,-18712.276961,2058.260388,-14151.135284,-9350.092334,-7611.126615,-7169.165572,0.006000,-0.014000,1.010000,192.000000,0.000000,0.000000,0.000000,0.000000,0.000000,0.000000,0.000000,0.000000,0.000000,1772181572.444679,0.000000
138.000000,-777.214858,1861.788554,-1191.146814,1291.394388,-25850.507718,-22676.828227,-4363.261683,-3955.118830,1193.471395,-309.996344,-18638.359742,2132.781104,-14075.407574,-9292.581295,-7547.737068,-7123.277440,0.006000,-0.014000,1.010000,192.000000,0.000000,0.000000,0.000000,0.000000,0.000000,0.000000,0.000000,0.000000,0.000000,1772181572.444690,0.000000
140.000000,-873.126194,1762.569161,-1286.834632,1191.571497,-25959.472473,-22785.055373,-4458.390708,-4051.119572,1180.954418,-326.894263,-18654.251832,2119.861796,-14088.237475,-9317.436435,-7575.006196,-7152.759391,0.006000,-0.014000,1.010000,192.000000,0.000000,0.000000,0.000000,0.000000,0.000000,0.000000,0.000000,0.000000,0.000000,1772181572.444701,0.000000
142.000000,-806.070960,1830.697278,-1215.957250,1254.469306,-25893.892454,-22722.403434,-4388.921486,-3983.326731,1132.987575,-381.432519,-18702.799821,2066.955217,-14146.821397,-9368.443116,-7636.339383,-7214.606668,0.008000,-0.015000,1.011000,192.000000,0.000000,40.000000,127.500000,64.000000,15.500000,80.000000,0.000000,0.000000,0.000000,1772181572.444711,0.000000
144.000000,-820.577242,1815.788664,-1237.057297,1243.271082,-25909.516324,-22734.227506,-4404.701818,-3997.050702,1219.622936,-290.773844,-18607.782556,2158.887942,-14047.557300,-9277.516219,-7546.015983,-7129.200653,0.008000,-0.015000,1.011000,192.000000,0.000000,0.000000,0.000000,0.000000,0.000000,0.000000,0.000000,0.000000,0.000000,1772181572.444721,0.000000
146.000000,-877.171859,1757.495315,-1301.229155,1189.939820,-25959.427769,-22784.787152,-4461.966987,-4056.416935,1120.023563,-388.607429,-18714.892115,2056.963987,-14165.753325,-9373.852238,-7645.593005,-7214.606668,0.008000,-0.015000,1.011000,192.000000,0.000000,0.000000,0.000000,0.000000,0.000000,0.000000,0.000000,0.000000,0.000000,1772181572.444731,0.000000
148.000000,-781.998132,1856.714708,-1209.229375,1288.868641,-25860.342486,-22674.213073,-4367.754384,-3964.551266,1187.414072,-315.249004,-18648.507434,2128.221348,-14092.327844,-9291.776632,-7568.390080,-7132.821635,0.008000,-0.015000,1.011000,192.000000,0.000000,0.000000,0.000000,0.000000,0.000000,0.000000,0.000000,0.000000,0.000000,1772181572.444741,0.000000
150.000000,-891.387569,1745.067745,-1316.115417,1185.536526,-25967.563804,-22776.695821,-4475.176868,-4075.304160,1166.425784,-334.158580,-18672.557911,2109.781159,-14105.783594,-9310.373284,-7585.645626,-7129.088894,0.008000,-0.015000,1.011000,192.000000,0.000000,0.000000,0.000000,0.000000,0.000000,0.000000,0.000000,0.000000,0.000000,1772181572.444751,0.000000
152.000000,-812.552966,1826.383391,-1237.303166,1260.504277,-25877.396867,-22686.864160,-4401.907850,-3998.123586,1113.474502,-389.054464,-18728.996066,2052.225417,-14165.865083,-9377.786145,-7640.005069,-7163.868208,0.011000,-0.012500,1.010500,192.000000,0.000000,56.000000,127.500000,88.000000,15.500000,72.000000,0.000000,0.000000,0.000000,1772181572.444761,0.000000
154.000000,-822.186568,1813.642897,-1246.154457,1252.390594,-25884.817646,-22690.261625,-4415.184786,-4008.964182,1217.544224,-282.213125,-18618.645503,2154.663462,-14054.598100,-9260.864170,-7523.194852,-7046.275681,0.011000,-0.012500,1.010500,192.000000,0.000000,0.000000,0.000000,0.000000,0.000000,0.000000,0.000000,0.000000,0.000000,1772181572.444773,0.000000
156.000000,-885.330246,1750.722736,-1297.496414,1194.767796,-25941.948705,-22753.673524,-4468.828972,-4065.223523,1115.374400,-389.769720,-18728.794900,2047.844475,-14158.489008,-9362.430497,-7612.624182,-7127.121941,0.011000,-0.012500,1.010500,192.000000,0.000000,0.000000,0.000000,0.000000,0.000000,0.000000,0.000000,0.000000,0.000000,1772181572.444784,0.000000
158.000000,-774.934980,1863.621397,-1190.789186,1293.674266,-25829.005340,-22659.460921,-4362.658186,-3955.431754,1190.006875,-319.138207,-18646.965164,2125.427380,-14081.062565,-9289.675568,-7537.365858,-7083.804260,0.011000,-0.012500,1.010500,192.000000,0.000000,0.000000,0.000000,0.000000,0.000000,0.000000,0.000000,0.000000,0.000000,1772181572.444794,0.000000
160.000000,-865.012510,1769.073518,-1287.236963,1193.247878,-25943.379217,-22773.857149,-4456.803734,-4045.665746,1190.208041,-321.596899,-18648.216861,2122.432246,-14083.990644,-9292.827164,-7563.562103,-7128.395990,0.011000,-0.012500,1.010500,192.000000,0.000000,0.000000,0.000000,0.000000,0.000000,0.000000,0.000000,0.000000,0.000000,1772181572.444804,0.000000
162.000000,-791.967010,1842.297833,-1216.493692,1259.833724,-25880.593166,-22708.366538,-4383.802937,-3971.100327,1141.905921,-373.676464,-18699.357653,2068.586894,-14141.792255,-9352.908653,-7635.512368,-7201.955581,0.011500,-0.008250,1.010250,192.000000,0.000000,48.000000,127.500000,112.000000,15.500000,72.000000,0.000000,0.000000,0.000000,1772181572.444814,0.000000
164.000000,-815.816321,1819.096722,-1237.437277,1242.913454,-25912.623216,-22738.720207,-4399.560916,-3989.942847,1228.742448,-282.302532,-18601.859343,2166.398128,-14050.619489,-9281.070147,-7545.725411,-7122.584536,0.011500,-0.008250,1.010250,192.000000,0.000000,0.000000,0.000000,0.000000,0.000000,0.000000,0.000000,0.000000,0.000000,1772181572.444824,0.000000
166.000000,-880.614028,1754.299015,-1300.558603,1182.720206,-25982.025383,-22804.814315,-4458.390708,-4053.667671,1116.782560,-396.050560,-18715.853240,2056.382842,-14168.144961,-9379.842505,-7659.473438,-7224.776712,0.011500,-0.008250,1.010250,192.000000,0.000000,0.000000,0.000000,0.000000,0.000000,0.000000,0.000000,0.000000,0.000000,1772181572.444834,0.000000
168.000000,-783.585105,1854.837162,-1204.446102,1278.318617,-25871.227785,-22692.474448,-4366.703852,-3961.623187,1184.418939,-327.743629,-18645.333486,2125.405029,-14089.600931,-9322.845557,-7580.929408,-7152.088839,0.011500,-0.008250,1.010250,192.000000,0.000000,0.000000,0.000000,0.000000,0.000000,0.000000,0.000000,0.000000,0.000000,1772181572.444845,0.000000
170.000000,-887.118386,1749.158114,-1309.655763,1177.668712,-25977.510330,-22793.772554,-4470.326539,-4067.056366,1170.069119,-342.004042,-18663.728972,2104.953182,-14114.031388,-9329.036990,-7593.222868,-7152.088839,0.011500,-0.008250,1.010250,192.000000,0.000000,0.000000,0.000000,0.000000,0.000000,0.000000,0.000000,0.000000,0.000000,1772181572.444856,0.000000
172.000000,-816.419818,1821.153083,-1243.293434,1248.724907,-25903.883684,-22714.848544,-4400.902021,-3998.525917,1113.876833,-398.218679,-18728.526679,2046.592778,-14158.041973,-9381.205962,-7654.936034,-7196.948790,0.011750,-0.009125,1.012125,192.000000,0.000000,48.000000,127.500000,88.000000,15.500000,88.000000,0.000000,0.000000,0.000000,1772181572.444866,0.000000
174.000000,-829.875568,1808.390237,-1254.066974,1240.275948,-25906.610597,-22720.123556,-4414.782454,-4010.573508,1209.207023,-296.853518,-18630.894259,2151.020128,-14074.021765,-9267.256769,-7552.073306,-7090.085100,0.011750,-0.009125,1.012125,192.000000,0.000000,0.000000,0.000000,0.000000,0.000000,0.000000,0.000000,0.000000,0.000000,1772181572.444876,0.000000
176.000000,-870.309874,1765.698405,-1294.680094,1194.857203,-25937.210135,-22757.294507,-4463.553961,-4056.841619,1120.850577,-393.815386,-18727.029112,2052.046603,-14161.081810,-9364.509209,-7637.144045,-7168.830296,0.011750,-0.009125,1.012125,192.000000,0.000000,0.000000,0.000000,0.000000,0.000000,0.000000,0.000000,0.000000,0.000000,1772181572.444886,0.000000
178.000000,-764.161439,1877.278313,-1191.482090,1298.368132,-25819.617608,-22642.272430,-4364.267512,-3950.827295,1207.575346,-306.464768,-18637.309210,2135.575072,-14067.070373,-9280.980740,-7543.400829,-7086.821745,0.011750,-0.009125,1.012125,192.000000,0.000000,0.000000,0.000000,0.000000,0.000000,0.000000,0.000000,0.000000,0.000000,1772181572.444896,0.000000
180.000000,-872.165069,1767.307731,-1290.790891,1197.092378,-25926.727167,-22754.299373,-4460.916455,-4052.818305,1190.610372,-318.042972,-18652.508396,2125.606194,-14081.442545,-9294.347083,-7547.871178,-7099.472833,0.011750,-0.009125,1.012125,192.000000,0.000000,0.000000,0.000000,0.000000,0.000000,0.000000,0.000000,0.000000,0.000000,1772181572.444906,0.000000
182.000000,-809.088446,1829.914967,-1220.360544,1260.258408,-25874.804065,-22697.637701,-4392.430710,-3991.552173,1126.594976,-381.700740,-18716.456737,2064.854153,-14144.675630,-9369.940683,-7602.901173,-7156.805057,0.008875,-0.012563,1.012063,192.000000,0.000000,24.000000,127.500000,64.000000,15.500000,80.000000,0.000000,0.000000,0.000000,1772181572.444916,0.000000
184.000000,-829.473237,1807.652629,-1242.689936,1241.482942,-25913.494934,-22729.511288,-4408.613373,-4008.919479,1212.492730,-296.808815,-18622.467652,2151.422459,-14055.939204,-9271.123620,-7512.331904,-7075.869390,0.008875,-0.012563,1.012063,192.000000,0.000000,0.000000,0.000000,0.000000,0.000000,0.000000,0.000000,0.000000,0.000000,1772181572.444926,0.000000
186.000000,-884.123252,1752.689690,-1300.335085,1189.626895,-25974.314031,-22791.224455,-4458.055432,-4060.194380,1111.775769,-400.409150,-18724.704531,2048.336214,-14164.971014,-9388.135003,-7635.914700,-7182.956598,0.008875,-0.012563,1.012063,192.000000,0.000000,0.000000,0.000000,0.000000,0.000000,0.000000,0.000000,0.000000,0.000000,1772181572.444938,0.000000
188.000000,-796.102082,1846.254092,-1211.285736,1278.117451,-25882.336602,-22700.208151,-4366.189762,-3967.904027,1174.293598,-331.945757,-18652.351934,2118.431284,-14101.290894,-9309.523917,-7579.342434,-7127.188996,0.008875,-0.012563,1.012063,192.000000,0.000000,0.000000,0.000000,0.000000,0.000000,0.000000,0.000000,0.000000,0.000000,1772181572.444948,0.000000
190.000000,-891.588735,1746.431201,-1306.906498,1178.138098,-25977.577386,-22799.740469,-4462.615187,-4061.714299,1160.144944,-348.687214,-18668.199321,2104.908479,-14116.691246,-9331.942717,-7597.067368,-7144.824522,0.008875,-0.012563,1.012063,192.000000,0.000000,0.000000,0.000000,0.000000,0.000000,0.000000,0.000000,0.000000,0.000000,1772181572.444959,0.000000
192.000000,-822.946527,1817.643859,-1237.616090,1243.159323,-25906.320024,-22727.991370,-4397.035169,-3995.620191,1110.702885,-402.711380,-18723.296371,2052.091307,-14162.020583,-9391.398357,-7646.196502,-7198.424005,0.009438,-0.014281,1.010031,192.000000,0.000000,40.000000,127.500000,64.000000,15.500000,64.000000,0.000000,0.000000,0.000000,1772181572.444971,0.000000
194.000000,-835.374097,1804.031647,-1257.732661,1233.928053,-25929.409376,-22739.882498,-4410.893251,-4011.400522,1201.741541,-309.437550,-18629.955486,2146.035689,-14075.988719,-9283.238266,-7554.755515,-7108.435882,0.009438,-0.014281,1.010031,192.000000,0.000000,0.000000,0.000000,0.000000,0.000000,0.000000,0.000000,0.000000,0.000000,1772181572.926009,0.000000
196.000000,-892.438101,1746.699422,-1315.042533,1187.659942,-25982.807694,-22786.463533,-4462.324615,-4068.598636,1100.823414,-408.500482,-18736.886232,2044.111734,-14182.405374,-9387.956189,-7663.340290,-7193.014883,0.009438,-0.014281,1.010031,192.000000,0.000000,0.000000,0.000000,0.000000,0.000000,0.000000,0.000000,0.000000,0.000000,1772181572.926092,0.000000
198.000000,-787.876640,1854.412479,-1214.124407,1290.746187,-25867.562099,-22671.575567,-4364.759250,-3965.154763,1172.706625,-331.565777,-18659.437437,2120.420589,-14094.384205,-9311.803795,-7587.344359,-7109.799339,0.009438,-0.014281,1.010031,192.000000,0.000000,0.000000,0.000000,0.000000,0.000000,0.000000,0.000000,0.000000,0.000000,1772181572.926168,0.000000
200.000000,-878.535316,1760.490449,-1303.173757,1200.288677,-25946.150833,-22758.568556,-4457.697804,-4056.394584,1168.169220,-337.332527,-18665.427705,2113.737418,-14106.744719,-9306.439377,-7584.997426,-7103.987885,0.009438,-0.014281,1.010031,192.000000,0.000000,0.000000,0.000000,0.000000,0.000000,0.000000,0.000000,0.000000,0.000000,1772181572.926257,0.000000
202.000000,-815.570452,1824.148217,-1234.531550,1258.112640,-25867.584451,-22690.798067,-4397.191631,-3998.749435,1120.694115,-386.685179,-18717.730787,2058.930941,-14156.790275,-9349.511188,-7613.071217,-7137.962537,0.009719,-0.013141,1.014016,192.000000,0.000000,40.000000,127.500000,80.000000,15.500000,104.000000,0.000000,0.000000,0.000000,1772181572.926342,0.000000
204.000000,-827.327469,1808.613754,-1248.859018,1243.069916,-25889.846789,-22716.837849,-4411.273230,-4011.534633,1209.363485,-303.447283,-18625.775710,2142.593520,-14062.220044,-9275.951597,-7506.229878,-7062.681861,0.009719,-0.013141,1.014016,192.000000,0.000000,0.000000,0.000000,0.000000,0.000000,0.000000,0.000000,0.000000,0.000000,1772181572.926411,0.000000
206.000000,-869.728729,1763.664396,-1294.456577,1195.617163,-25947.491938,-22777.545187,-4452.512199,-4052.192456,1116.760208,-400.096226,-18723.095205,2047.755068,-14160.925348,-9391.711282,-7609.763159,-7172.764203,0.009719,-0.013141,1.014016,192.000000,0.000000,0.000000,0.000000,0.000000,0.000000,0.000000,0.000000,0.000000,0.000000,1772181572.926513,0.000000
208.000000,-767.625960,1867.734118,-1197.472357,1288.108681,-25853.636963,-22682.349108,-4358.165486,-3948.614472,1193.493747,-324.547329,-18639.566736,2128.578976,-14082.649539,-9309.613324,-7546.910053,-7122.025743,0.009719,-0.013141,1.014016,192.000000,0.000000,0.000000,0.000000,0.000000,0.000000,0.000000,0.000000,0.000000,0.000000,1772181572.926571,0.000000
210.000000,-854.306025,1779.288266,-1289.650952,1193.449043,-25956.812615,-22781.389687,-4450.031155,-4036.389772,1184.776567,-329.710582,-18645.400541,2123.594537,-14091.947865,-9315.782406,-7575.944969,-7143.975156,0.009719,-0.013141,1.014016,192.000000,0.000000,0.000000,0.000000,0.000000,0.000000,0.000000,0.000000,0.000000,0.000000,1772181572.926587,0.000000
212.000000,-787.094329,1849.495095,-1223.780361,1253.441126,-25889.802085,-22714.267399,-4387.267457,-3975.235400,1141.168313,-373.855278,-18692.361557,2076.857040,-14145.770865,-9357.446057,-7632.271365,-7196.188831,0.009719,-0.013141,1.014016,192.000000,0.000000,0.000000,0.000000,0.000000,0.000000,0.000000,0.000000,0.000000,0.000000,1772181572.926602,0.000000
214.000000,-813.089408,1820.504882,-1245.238035,1237.124352,-25913.249065,-22737.937896,-4403.628934,-3996.558964,1221.791055,-292.785501,-18606.083823,2158.530314,-14062.465914,-9274.185809,-7551.067478,-7121.779874,0.012000,-0.012000,1.014000,192.000000,0.000000,48.000000,127.500000,80.000000,15.500000,88.000000,0.000000,0.000000,0.000000,1772181572.926616,0.000000
216.000000,-866.688891,1766.100736,-1297.027027,1190.006875,-25968.659040,-22788.028155,-4452.355737,-4046.850389,1120.135322,-393.345999,-18709.348882,2059.132106,-14163.764019,-9375.372157,-7649.795133,-7207.498814,0.012000,-0.012000,1.014000,192.000000,0.000000,0.000000,0.000000,0.000000,0.000000,0.000000,0.000000,0.000000,0.000000,1772181572.926631,0.000000
218.000000,-778.131280,1859.218104,-1211.911584,1283.414815,-25873.909995,-22686.998270,-4364.736899,-3962.338443,1184.731863,-327.989498,-18643.746512,2125.695601,-14097.669911,-9310.797967,-7580.370615,-7133.447484,0.012000,-0.012000,1.014000,192.000000,0.000000,0.000000,0.000000,0.000000,0.000000,0.000000,0.000000,0.000000,0.000000,1772181572.926654,0.000000
220.000000,-872.276827,1764.469059,-1307.688809,1195.170128,-25963.115807,-22775.399420,-4458.122487,-4055.634624,1167.252799,-344.619196,-18666.522940,2112.820996,-14110.298647,-9324.499586,-7592.731129,-7132.352249,0.012000,-0.012000,1.014000,192.000000,0.000000,0.000000,0.000000,0.000000,0.000000,0.000000,0.000000,0.000000,0.000000,1772181572.926669,0.000000
222.000000,-801.041818,1837.425153,-1234.911529,1263.387652,-25874.558195,-22694.620215,-4393.034207,-3990.568696,1126.840845,-387.668656,-18711.695816,2067.156382,-14155.940909,-9374.031052,-7630.706743,-7164.650519,0.012000,-0.012000,1.014000,192.000000,0.000000,0.000000,0.000000,0.000000,0.000000,0.000000,0.000000,0.000000,0.000000,1772181572.926679,0.000000
224.000000,-820.241966,1813.933470,-1251.138896,1243.248730,-25888.282167,-22715.340282,-4411.005010,-4008.338333,1214.772608,-302.486158,-18621.573582,2148.270863,-14062.756486,-9279.349062,-7524.737123,-7074.729452,0.012000,-0.006000,1.008000,192.000000,0.000000,48.000000,127.500000,104.000000,15.500000,64.000000,0.000000,0.000000,0.000000,1772181572.926691,0.000000
226.000000,-865.727766,1766.547771,-1289.963876,1189.515136,-25926.391891,-22771.711382,-4456.311996,-4054.025299,1123.152807,-398.084569,-18719.921257,2048.716193,-14151.336450,-9364.129229,-7599.213135,-7172.205409,0.012000,-0.006000,1.008000,192.000000,0.000000,0.000000,0.000000,0.000000,0.000000,0.000000,0.000000,0.000000,0.000000,1772181572.926706,0.000000
228.000000,-773.102137,1862.056775,-1197.517061,1275.345835,-25841.365855,-22685.523055,-4367.240294,-3960.952635,1193.650209,-326.871911,-18643.947678,2121.627584,-14066.511579,-9305.746473,-7515.505852,-7125.154987,0.012000,-0.006000,1.008000,192.000000,0.000000,0.000000,0.000000,0.000000,0.000000,0.000000,0.000000,0.000000,0.000000,1772181572.926720,0.000000
230.000000,-863.649054,1771.845135,-1290.925001,1188.218735,-25955.069179,-22785.681222,-4455.149705,-4043.497627,1179.546258,-339.277129,-18652.910728,2113.424493,-14101.134431,-9336.524825,-7550.821608,-7149.674851,0.012000,-0.006000,1.008000,192.000000,0.000000,0.000000,0.000000,0.000000,0.000000,0.000000,0.000000,0.000000,0.000000,1772181572.926735,0.000000
232.000000,-787.496661,1849.606854,-1221.142855,1261.890085,-25892.305481,-22709.886457,-4383.087681,-3968.887504,1138.441400,-384.450005,-18696.116650,2072.252580,-14150.330621,-9373.852238,-7625.029400,-7199.496889,0.012000,-0.006000,1.008000,192.000000,0.000000,0.000000,0.000000,0.000000,0.000000,0.000000,0.000000,0.000000,0.000000,1772181572.926750,0.000000
234.000000,-804.483986,1833.401839,-1237.325518,1247.026175,-25910.231580,-22723.856297,-4398.733902,-3984.198449,1228.697744,-289.879774,-18603.781593,2167.761584,-14056.833274,-9270.475420,-7548.027640,-7110.045208,0.016000,-0.002000,1.006000,192.000000,0.000000,64.000000,127.500000,120.000000,15.500000,56.000000,0.000000,0.000000,0.000000,1772181572.926765,0.000000
236.000000,-854.149563,1782.573972,-1289.874469,1190.945648,-25954.845662,-22774.013612,-4451.484019,-4040.256624,1136.027412,-383.421824,-18705.034996,2065.547057,-14152.968127,-9357.043726,-7648.901063,-7199.072206,0.016000,-0.002000,1.006000,192.000000,0.000000,0.000000,0.000000,0.000000,0.000000,0.000000,0.000000,0.000000,0.000000,1772181572.926780,0.000000
238.000000,-763.602646,1872.427985,-1200.623953,1277.670417,-25856.609745,-22680.024526,-4364.043994,-3954.157705,1204.222584,-317.372420,-18636.482195,2128.131941,-14078.112135,-9300.426757,-7575.028548,-7135.883824,0.016000,-0.002000,1.006000,192.000000,0.000000,0.000000,0.000000,0.000000,0.000000,0.000000,0.000000,0.000000,0.000000,1772181572.926795,0.000000
240.000000,-864.699586,1769.609960,-1299.351609,1186.497651,-25955.158586,-22777.679298,-4460.290606,-4053.287691,1188.174032,-337.645452,-18656.889338,2109.825863,-14089.109193,-9319.515147,-7586.629103,-7146.255034,0.016000,-0.002000,1.006000,192.000000,0.000000,0.000000,0.000000,0.000000,0.000000,0.000000,0.000000,0.000000,0.000000,1772181572.926810,0.000000
242.000000,-800.505376,1839.526217,-1233.235149,1257.196219,-25880.280242,-22699.202323,-4394.330608,-3987.148879,1133.613424,-384.226487,-18710.466470,2063.915380,-14142.418104,-9375.863895,-7633.388952,-7182.084880,0.016000,-0.002000,1.006000,192.000000,0.000000,0.000000,0.000000,0.000000,0.000000,0.000000,0.000000,0.000000,0.000000,1772181572.926824,0.000000
244.000000,-823.058286,1817.934432,-1255.072803,1241.840570,-25893.847751,-22711.540486,-4415.050675,-4008.181871,1212.537433,-294.752454,-18625.172213,2150.617796,-14060.409553,-9278.656158,-7538.215225,-7086.620580,0.014000,-0.006000,1.006000,192.000000,0.000000,56.000000,127.500000,104.000000,15.500000,56.000000,0.000000,0.000000,0.000000,1772181572.926839,0.000000
246.000000,-876.233086,1761.228056,-1306.392408,1187.861107,-25937.187783,-22757.518024,-4470.058318,-4068.129250,1117.430761,-394.575345,-18730.694798,2047.263330,-14149.950641,-9367.929026,-7623.397723,-7161.163647,0.014000,-0.006000,1.006000,192.000000,0.000000,0.000000,0.000000,0.000000,0.000000,0.000000,0.000000,0.000000,0.000000,1772181572.926854,0.000000
248.000000,-785.909687,1849.271578,-1214.280869,1274.205896,-25842.259925,-22665.741761,-4382.215963,-3982.656179,1185.648285,-330.872873,-18665.383001,2110.004677,-14091.366719,-9309.322752,-7535.734181,-7087.157021,0.014000,-0.006000,1.006000,192.000000,0.000000,0.000000,0.000000,0.000000,0.000000,0.000000,0.000000,0.000000,0.000000,1772181572.926869,0.000000
250.000000,-890.202926,1743.391364,-1313.567318,1170.806726,-25953.415150,-22778.618071,-4481.256542,-4083.574305,1168.884476,-354.409260,-18684.381984,2086.401234,-14106.364740,-9334.222595,-7544.876044,-7114.135577,0.014000,-0.006000,1.006000,192.000000,0.000000,0.000000,0.000000,0.000000,0.000000,0.000000,0.000000,0.000000,0.000000,1772181572.926887,0.000000
252.000000,-800.192451,1836.598138,-1225.277928,1246.020346,-25867.383285,-22703.270340,-4397.795129,-3993.139147,1122.929290,-398.464548,-18730.091301,2040.289586,-14149.883586,-9373.852238,-7597.402644,-7183.470688,0.014000,-0.006000,1.006000,192.000000,0.000000,0.000000,0.000000,0.000000,0.000000,0.000000,0.000000,0.000000,0.000000,1772181572.926899,0.000000
254.000000,-806.428588,1827.031592,-1234.419791,1233.570425,-25890.472637,-22724.169221,-4406.489957,-3995.799005,1233.413963,-290.751492,-18610.151840,2149.813133,-14044.942146,-9267.212065,-7509.560288,-7110.492243,0.012000,-0.010000,1.004000,192.000000,0.000000,48.000000,127.500000,88.000000,15.500000,48.000000,0.000000,0.000000,0.000000,1772181572.926908,0.000000
0.000000,-858.619912,1773.990902,-1288.689827,1179.970942,-25950.777644,-22782.350812,-4457.071955,-4048.035031,1138.329642,-390.797900,-18709.326531,2051.666624,-14147.179025,-9383.619950,-7632.405476,-7214.807834,0.012000,-0.010000,1.004000,192.000000,0.000000,0.000000,0.000000,0.000000,0.000000,0.000000,0.000000,0.000000,0.000000,1772181572.926920,0.000000
2.000000,-760.719271,1872.763261,-1195.684218,1275.703463,-25850.261849,-22678.526959,-4362.434669,-3953.777725,1209.408189,-318.378248,-18633.643524,2124.801531,-14069.394954,-9302.974856,-7567.473658,-7145.852702,0.012000,-0.010000,1.004000,192.000000,0.000000,0.000000,0.000000,0.000000,0.000000,0.000000,0.000000,0.000000,0.000000,1772181572.926934,0.000000
4.000000,-864.565476,1768.045338,-1298.502242,1179.501555,-25960.344191,-22780.272100,-4461.743469,-4054.114706,1194.656038,-334.292690,-18651.793140,2107.657743,-14089.533876,-9329.014639,-7589.803051,-7153.005261,0.012000,-0.010000,1.004000,192.000000,0.000000,0.000000,0.000000,0.000000,0.000000,0.000000,0.000000,0.000000,0.000000,1772181572.926947,0.000000
6.000000,-789.016579,1847.394031,-1226.306108,1259.476097,-25881.733105,-22695.693099,-4384.629951,-3977.515278,1138.508456,-383.555935,-18707.471336,2061.434336,-14144.139188,-9369.560703,-7648.297566,-7190.042101,0.012000,-0.010000,1.004000,192.000000,0.000000,0.000000,0.000000,0.000000,0.000000,0.000000,0.000000,0.000000,0.000000,1772181572.926957,0.000000
8.000000,-813.983478,1823.745885,-1249.395460,1245.305091,-25902.363766,-22714.133288,-4404.232431,-4000.984609,1228.518930,-287.532841,-18610.397710,2157.837410,-14053.815788,-9265.982719,-7545.010155,-7086.262952,0.010000,-0.006000,1.010000,192.000000,0.000000,40.000000,127.500000,104.000000,15.500000,72.000000,0.000000,0.000000,0.000000,1772181572.926967,0.000000
10.000000,-872.589752,1763.150306,-1308.225251,1188.688122,-25951.872879,-22769.006821,-4464.269217,-4064.485915,1123.912766,-393.413054,-18724.302199,2047.576254,-14158.734877,-9370.298311,-7643.357830,-7172.563037,0.010000,-0.006000,1.010000,192.000000,0.000000,0.000000,0.000000,0.000000,0.000000,0.000000,0.000000,0.000000,0.000000,1772181572.926978,0.000000
12.000000,-774.577352,1861.743851,-1206.636573,1283.504222,-25843.913954,-22663.618346,-4370.078965,-3969.893333,1194.544279,-322.625079,-18650.899071,2116.866662,-14083.521257,-9300.359702,-7557.124800,-7096.432995,0.010000,-0.006000,1.010000,192.000000,0.000000,0.000000,0.000000,0.000000,0.000000,0.000000,0.000000,0.000000,0.000000,1772181572.926988,0.000000
14.000000,-880.971656,1751.840323,-1306.861795,1179.568610,-25945.122653,-22769.207986,-4474.595723,-4075.997064,1176.819346,-343.367498,-18669.898053,2094.850194,-14094.183039,-9329.461673,-7562.332757,-7104.524327,0.010000,-0.006000,1.010000,192.000000,0.000000,0.000000,0.000000,0.000000,0.000000,0.000000,0.000000,0.000000,0.000000,1772181572.926999,0.000000
16.000000,-808.127321,1826.450446,-1233.212797,1247.562617,-25870.736047,-22699.157619,-4402.444291,-4003.935040,1124.985650,-399.626839,-18726.045635,2039.797847,-14150.889415,-9383.485840,-7604.443443,-7149.049002,0.010000,-0.006000,1.010000,192.000000,0.000000,0.000000,0.000000,0.000000,0.000000,0.000000,0.000000,0.000000,0.000000,1772181572.927014,0.000000
18.000000,-825.807551,1807.473815,-1247.920245,1229.390649,-25896.194684,-22729.712454,-4417.643478,-4016.295554,1215.465512,-309.191681,-18625.842765,2133.541063,-14059.314318,-9290.502583,-7505.268753,-7075.511763,0.014000,0.002000,1.008000,192.000000,0.000000,56.000000,0.000000,8.000000,15.500000,64.000000,0.000000,0.000000,0.000000,1772181572.927025,0.000000
20.000000,-868.477031,1763.664396,-1294.166004,1178.227505,-25943.334513,-22781.926129,-4464.403327,-4059.546180,1122.906938,-407.807578,-18722.335246,2035.081629,-14157.326717,-9374.768659,-7604.085815,-7190.287970,0.014000,0.002000,1.008000,192.000000,0.000000,0.000000,0.000000,0.000000,0.000000,0.000000,0.000000,0.000000,0.000000,1772181572.927035,0.000000
22.000000,-763.982625,1872.048005,-1196.108901,1274.854097,-25840.181212,-22675.777695,-4366.748556,-3957.890446,1202.009762,-323.876777,-18640.080826,2115.100874,-14075.072297,-9316.654124,-7539.355163,-7135.325031,0.014000,0.002000,1.008000,192.000000,0.000000,0.000000,0.000000,0.000000,0.000000,0.000000,0.000000,0.000000,0.000000,1772181572.927045,0.000000
24.000000,-848.762792,1782.708083,-1288.913344,1185.402415,-25944.921487,-22771.756085,-4455.932016,-4045.621043,1199.953401,-325.776675,-18645.892280,2109.065903,-14083.968292,-9320.543327,-7569.887646,-7153.318185,0.014000,0.002000,1.008000,192.000000,0.000000,0.000000,0.000000,0.000000,0.000000,0.000000,0.000000,0.000000,0.000000,1772181572.927054,0.000000
26.000000,-777.259562,1859.575732,-1216.381933,1259.811373,-25870.803102,-22691.043936,-4383.601771,-3972.910818,1156.479258,-371.553048,-18692.674481,2063.356586,-14129.141167,-9351.478142,-7634.327726,-7192.813717,0.014000,0.002000,1.008000,192.000000,0.000000,0.000000,0.000000,0.000000,0.000000,0.000000,0.000000,0.000000,0.000000,1772181572.927066,0.000000
28.000000,-794.515108,1840.375583,-1235.962061,1249.238998,-25895.390021,-22706.511343,-4397.683370,-3990.255772,1245.819181,-277.005169,-18594.550323,2162.732442,-14041.924660,-9263.680490,-7544.451361,-7094.957780,0.013000,0.002000,1.007000,192.000000,0.000000,48.000000,0.000000,8.000000,15.500000,56.000000,0.000000,0.000000,0.000000,1772181572.927076,0.000000
30.000000,-856.407089,1776.494298,-1295.820033,1193.113767,-25949.034208,-22763.932975,-4453.339214,-4053.064174,1143.604653,-382.080720,-18702.688063,2060.629673,-14148.006040,-9366.610273,-7643.804865,-7176.519296,0.013000,0.002000,1.007000,192.000000,0.000000,0.000000,0.000000,0.000000,0.000000,0.000000,0.000000,0.000000,0.000000,1772181572.927086,0.000000
32.000000,-773.549172,1860.738022,-1207.441235,1278.475079,-25853.949887,-22670.457979,-4368.737861,-3971.614417,1202.277983,-324.569681,-18642.360704,2116.553738,-14081.576655,-9309.926249,-7567.652472,-7110.358132,0.013000,0.002000,1.007000,192.000000,0.000000,0.000000,0.000000,0.000000,0.000000,0.000000,0.000000,0.000000,0.000000,1772181572.927096,0.000000
34.000000,-869.304045,1764.245542,-1307.107664,1183.413110,-25949.995333,-22767.263385,-4467.621978,-4069.805630,1182.250819,-343.188684,-18665.047725,2095.856022,-14101.536763,-9310.261525,-7576.526115,-7113.688542,0.013000,0.002000,1.007000,192.000000,0.000000,0.000000,0.000000,0.000000,0.000000,0.000000,0.000000,0.000000,0.000000,1772181572.927106,0.000000
36.000000,-801.600611,1834.340612,-1238.532512,1250.647158,-25871.250137,-22690.105163,-4401.214945,-4002.906859,1134.552197,-392.988371,-18719.854202,2045.966929,-14151.470560,-9379.931912,-7620.424941,-7148.534912,0.013000,0.002000,1.007000,192.000000,0.000000,0.000000,0.000000,0.000000,0.000000,0.000000,0.000000,0.000000,0.000000,1772181572.927116,0.000000
38.000000,-827.282766,1806.646801,-1258.671434,1228.563634,-25889.802085,-22711.048747,-4420.929184,-4025.146845,1219.421771,-305.928326,-18628.927306,2132.870511,-14059.649594,-9277.069184,-7523.083094,-7056.624538,0.014500,-0.003000,1.005500,192.000000,0.000000,64.000000,127.500000,96.000000,15.500000,48.000000,0.000000,0.000000,0.000000,1772181572.927126,0.000000
40.000000,-873.908505,1757.294149,-1303.866661,1179.658017,-25944.116824,-22763.843568,-4466.549095,-4073.292503,1119.889452,-405.527700,-18732.795862,2028.934899,-14163.249929,-9388.984369,-7618.547394,-7154.078144,0.014500,-0.003000,1.005500,192.000000,0.000000,0.000000,0.000000,0.000000,0.000000,0.000000,0.000000,0.000000,0.000000,1772181572.927136,0.000000
42.000000,-776.097271,1854.993624,-1210.145797,1269.333216,-25844.897431,-22669.787427,-4375.152811,-3976.844725,1194.879555,-330.694059,-18656.241138,2100.907517,-14084.147106,-9302.036083,-7544.719582,-7104.881955,0.014500,-0.003000,1.005500,192.000000,0.000000,0.000000,0.000000,0.000000,0.000000,0.000000,0.000000,0.000000,0.000000,1772181572.927145,0.000000
44.000000,-858.910484,1769.766422,-1297.407007,1181.624971,-25939.780586,-22767.084571,-4462.570484,-4060.104973,1187.794052,-338.181894,-18664.488931,2091.810357,-14095.032405,-9328.992287,-7558.555312,-7137.649612,0.014500,-0.003000,1.005500,192.000000,0.000000,0.000000,0.000000,0.000000,0.000000,0.000000,0.000000,0.000000,0.000000,1772181572.927155,0.000000
46.000000,-776.566658,1854.121906,-1220.271137,1258.090288,-25866.355105,-22696.989500,-4387.043939,-3979.303417,1153.662938,-375.241086,-18698.955321,2055.846400,-14139.445321,-9366.051479,-7609.852566,-7191.405558,0.014500,-0.003000,1.005500,192.000000,0.000000,0.000000,0.000000,0.000000,0.000000,0.000000,0.000000,0.000000,0.000000,1772181572.927165,0.000000
48.000000,-789.217745,1842.297833,-1234.419791,1249.641329,-25894.026565,-22714.401509,-4398.331570,-3986.523031,1244.746297,-278.033349,-18597.836029,2155.758697,-14044.472759,-9264.865132,-7532.470826,-7108.502937,0.011250,-0.007500,1.007750,192.000000,0.000000,32.000000,127.500000,80.000000,15.500000,72.000000,0.000000,0.000000,0.000000,1772181572.927175,0.000000
50.000000,-839.687984,1792.900478,-1285.292361,1207.105959,-25945.636743,-22762.524815,-4443.370336,-4030.488912,1151.338357,-373.765871,-18694.619083,2066.307016,-14138.618307,-9359.413011,-7640.362697,-7188.790403,0.011250,-0.007500,1.007750,192.000000,0.000000,0.000000,0.000000,0.000000,0.000000,0.000000,0.000000,0.000000,0.000000,1772181572.927185,0.000000
52.000000,-760.004015,1876.943037,-1206.346000,1292.310809,-25859.828396,-22671.039125,-4359.730108,-3950.693184,1214.772608,-304.296649,-18627.854422,2137.385564,-14073.060640,-9290.927266,-7575.117955,-7113.822653,0.011250,-0.007500,1.007750,192.000000,0.000000,0.000000,0.000000,0.000000,0.000000,0.000000,0.000000,0.000000,0.000000,1772181572.927195,0.000000
54.000000,-867.515906,1767.598303,-1306.235946,1192.867898,-25959.874804,-22767.866882,-4459.061260,-4054.002947,1184.530697,-333.108048,-18659.437437,2109.289421,-14105.873001,-9316.274144,-7593.356978,-7122.025743,0.011250,-0.007500,1.007750,192.000000,0.000000,0.000000,0.000000,0.000000,0.000000,0.000000,0.000000,0.000000,0.000000,1772181572.927204,0.000000
56.000000,-797.979629,1835.525255,-1236.453800,1254.022271,-25879.766152,-22696.095430,-4396.275210,-3989.764034,1134.954528,-386.014627,-18711.986388,2055.287606,-14157.661993,-9367.213770,-7630.349115,-7154.748697,0.011250,-0.007500,1.007750,192.000000,0.000000,0.000000,0.000000,0.000000,0.000000,0.000000,0.000000,0.000000,0.000000,1772181572.927214,0.000000
58.000000,-819.236138,1812.100626,-1254.625768,1232.586948,-25895.255911,-22710.221733,-4417.598774,-4010.349990,1221.254614,-306.353010,-18622.355893,2132.848159,-14062.041230,-9275.504562,-7532.806102,-7063.195951,0.008625,-0.011750,1.007875,192.000000,0.000000,24.000000,127.500000,64.000000,15.500000,64.000000,0.000000,0.000000,0.000000,1772181573.405376,0.000000
60.000000,-862.106784,1771.174582,-1302.726722,1189.872764,-25941.971057,-22750.298411,-4465.029176,-4058.763869,1127.019659,-396.274077,-18719.943609,2039.171998,-14155.471522,-9371.013566,-7623.285964,-7144.243377,0.008625,-0.011750,1.007875,192.000000,0.000000,0.000000,0.000000,0.000000,0.000000,0.000000,0.000000,0.000000,0.000000,1772181573.405487,0.000000
62.000000,-773.146841,1861.430926,-1210.056390,1276.150498,-25847.669047,-22663.014849,-4377.879724,-3974.788365,1198.254669,-323.072114,-18645.892280,2111.904575,-14089.712690,-9290.815507,-7547.178274,-7084.452460,0.008625,-0.011750,1.007875,192.000000,0.000000,0.000000,0.000000,0.000000,0.000000,0.000000,0.000000,0.000000,0.000000,1772181573.405580,0.000000
64.000000,-870.019301,1765.698405,-1304.380751,1181.960247,-25947.469586,-22766.659888,-4470.147725,-4066.251703,1175.366482,-343.076926,-18670.278033,2090.491604,-14109.829260,-9323.694923,-7563.338585,-7123.143330,0.008625,-0.011750,1.007875,192.000000,0.000000,0.000000,0.000000,0.000000,0.000000,0.000000,0.000000,0.000000,0.000000,1772181573.405664,0.000000
66.000000,-783.696864,1853.853685,-1223.981526,1257.352681,-25859.001381,-22685.344241,-4390.508460,-3981.382129,1139.782505,-375.442252,-18707.024301,2057.321615,-14141.032295,-9358.317776,-7597.045016,-7179.536781,0.008625,-0.011750,1.007875,192.000000,0.000000,0.000000,0.000000,0.000000,0.000000,0.000000,0.000000,0.000000,0.000000,1772181573.405748,0.000000
68.000000,-794.001018,1840.956729,-1241.147666,1240.700631,-25873.194739,-22704.611445,-4406.288791,-3992.222725,1236.990242,-281.922553,-18606.866134,2151.310700,-14043.489283,-9275.124583,-7510.119082,-7105.060769,0.010313,-0.013875,1.009937,192.000000,0.000000,48.000000,127.500000,64.000000,15.500000,80.000000,0.000000,0.000000,0.000000,1772181573.405831,0.000000
70.000000,-827.998022,1805.663324,-1281.716082,1201.115692,-25919.731071,-22753.651172,-4446.588987,-4030.153636,1155.719299,-370.055481,-18694.663786,2065.815278,-14134.013848,-9359.882398,-7617.072179,-7192.590200,0.010313,-0.013875,1.009937,192.000000,0.000000,0.000000,0.000000,0.000000,0.000000,0.000000,0.000000,0.000000,0.000000,1772181573.405881,0.000000
72.000000,-748.582274,1889.527069,-1196.466529,1290.388559,-25848.674875,-22667.798122,-4360.601826,-3947.273367,1225.747314,-297.121739,-18620.098367,2144.202846,-14059.694297,-9277.426812,-7558.845885,-7123.925641,0.010313,-0.013875,1.009937,192.000000,0.000000,0.000000,0.000000,0.000000,0.000000,0.000000,0.000000,0.000000,0.000000,1772181573.405908,0.000000
74.000000,-843.241911,1788.698350,-1291.573202,1196.466529,-25952.945763,-22772.091362,-4455.172057,-4047.409182,1198.835814,-322.580376,-18645.758169,2121.605232,-14088.483344,-9305.992342,-7591.971170,-7141.605871,0.010313,-0.013875,1.009937,192.000000,0.000000,0.000000,0.000000,0.000000,0.000000,0.000000,0.000000,0.000000,0.000000,1772181573.405931,0.000000
76.000000,-782.668684,1850.746793,-1226.127294,1260.705443,-25888.483332,-22700.543428,-4389.927315,-3987.730025,1160.033185,-372.715339,-18696.183705,2067.715176,-14130.884603,-9363.726898,-7637.434618,-7181.615493,0.010313,-0.013875,1.009937,192.000000,0.000000,0.000000,0.000000,0.000000,0.000000,0.000000,0.000000,0.000000,0.000000,1772181573.405955,0.000000
78.000000,-816.665687,1821.756580,-1252.882332,1235.917358,-25915.059556,-22725.510326,-4411.943783,-4010.193528,1217.208948,-298.105216,-18617.684378,2145.834523,-14067.360946,-9277.203295,-7548.787600,-7093.996655,0.010156,-0.013938,1.006969,192.000000,0.000000,40.000000,127.500000,72.000000,15.500000,48.000000,0.000000,0.000000,0.000000,1772181573.405977,0.000000
80.000000,-865.571304,1776.293132,-1302.436149,1188.822232,-25952.476377,-22762.591870,-4458.569522,-4056.394584,1116.536691,-395.424711,-18720.569458,2047.911530,-14164.903958,-9382.144735,-7646.665889,-7174.798211,0.010156,-0.013938,1.006969,192.000000,0.000000,0.000000,0.000000,0.000000,0.000000,0.000000,0.000000,0.000000,0.000000,1772181573.406001,0.000000
82.000000,-771.224591,1869.835182,-1212.336268,1277.826879,-25856.028599,-22660.690267,-4375.063404,-3970.429775,1189.984523,-321.574547,-18647.389847,2121.471121,-14092.439603,-9297.766900,-7565.104373,-7094.466042,0.010156,-0.013938,1.006969,192.000000,0.000000,0.000000,0.000000,0.000000,0.000000,0.000000,0.000000,0.000000,0.000000,1772181573.406025,0.000000
84.000000,-864.699586,1773.007425,-1305.341876,1192.465567,-25947.961324,-22754.746408,-4468.292531,-4063.301273,1176.774642,-338.494818,-18665.383001,2102.561546,-14106.431795,-9307.400502,-7578.180144,-7103.719664,0.010156,-0.013938,1.006969,192.000000,0.000000,0.000000,0.000000,0.000000,0.000000,0.000000,0.000000,0.000000,0.000000,1772181573.406048,0.000000
86.000000,-802.226460,1837.536912,-1237.191407,1257.889123,-25867.986783,-22685.053669,-4401.796091,-4003.912688,1131.154732,-388.450967,-18715.741481,2052.158362,-14150.554138,-9347.343069,-7615.373446,-7146.232682,0.010156,-0.013938,1.006969,192.000000,0.000000,0.000000,0.000000,0.000000,0.000000,0.000000,0.000000,0.000000,0.000000,1772181573.406071,0.000000
88.000000,-821.851292,1813.866414,-1252.345890,1230.485884,-25891.277300,-22715.697910,-4419.185748,-4023.202243,1214.169111,-305.257774,-18630.536631,2130.903558,-14059.403725,-9289.250885,-7516.399922,-7077.702234,0.011078,-0.013969,1.007484,192.000000,0.000000,48.000000,127.500000,72.000000,15.500000,64.000000,0.000000,0.000000,0.000000,1772181573.406095,0.000000
90.000000,-856.541199,1778.930638,-1290.567373,1185.134195,-25925.922504,-22762.524815,-4461.341138,-4058.696813,1126.147941,-397.995162,-18723.855165,2035.618071,-14148.207205,-9378.456697,-7603.281153,-7187.248133,0.011078,-0.013969,1.007484,192.000000,0.000000,0.000000,0.000000,0.000000,0.000000,0.000000,0.000000,0.000000,0.000000,1772181573.406128,0.000000
92.000000,-753.410250,1883.939133,-1193.896078,1283.615981,-25821.696320,-22662.187834,-4369.542524,-3958.717460,1211.173977,-310.689248,-18634.962277,2121.135845,-14059.202559,-9290.994321,-7524.357143,-7123.165682,0.011078,-0.013969,1.007484,192.000000,0.000000,0.000000,0.000000,0.000000,0.000000,0.000000,0.000000,0.000000,0.000000,1772181573.406150,0.000000
94.000000,-842.660766,1792.520498,-1286.633466,1199.998105,-25923.352054,-22756.087513,-4459.038908,-4045.621043,1202.836776,-317.841806,-18645.065265,2114.005639,-14071.741888,-9291.083728,-7556.811876,-7135.794417,0.011078,-0.013969,1.007484,192.000000,0.000000,0.000000,0.000000,0.000000,0.000000,0.000000,0.000000,0.000000,0.000000,1772181573.406174,0.000000
96.000000,-766.329559,1873.612627,-1219.399419,1276.597533,-25855.335695,-22676.604709,-4384.540544,-3970.630940,1161.977787,-358.097298,-18689.031147,2073.146650,-14119.619324,-9336.770694,-7620.871976,-7176.318130,0.011078,-0.013969,1.007484,192.000000,0.000000,0.000000,0.000000,0.000000,0.000000,0.000000,0.000000,0.000000,0.000000,1772181573.406197,0.000000
98.000000,-790.424739,1846.209389,-1247.652024,1250.937730,-25898.474562,-22707.070137,-4406.087626,-3990.479289,1246.020346,-268.422099,-18596.897256,2165.258189,-14039.845948,-9241.686373,-7539.869254,-7088.453423,0.011078,-0.013969,1.007484,192.000000,0.000000,0.000000,0.000000,0.000000,0.000000,0.000000,0.000000,0.000000,0.000000,1772181573.406220,0.000000
100.000000,-845.477086,1790.441786,-1301.407969,1195.527756,-25959.964211,-22764.223547,-4457.407231,-4044.838732,1139.424877,-378.817365,-18704.789126,2057.053394,-14145.726162,-9356.864912,-7652.633804,-7186.376415,0.010000,-0.006000,1.014000,192.000000,0.000000,40.000000,127.500000,104.000000,15.500000,88.000000,0.000000,0.000000,0.000000,1772181573.406243,0.000000
102.000000,-752.627939,1883.693264,-1202.277983,1285.828803,-25852.094692,-22661.673744,-4365.563913,-3956.258769,1209.631706,-306.978858,-18627.742663,2130.255357,-14080.347309,-9292.737757,-7569.530019,-7112.146272,0.010000,-0.006000,1.014000,192.000000,0.000000,0.000000,0.000000,0.000000,0.000000,0.000000,0.000000,0.000000,0.000000,1772181573.406266,0.000000
104.000000,-862.017377,1772.470984,-1308.538176,1185.938857,-25958.064313,-22760.133178,-4469.678339,-4063.457735,1187.883459,-332.146923,-18655.302364,2104.662610,-14100.843859,-9314.731874,-7585.556219,-7118.114187,0.010000,-0.006000,1.014000,192.000000,0.000000,0.000000,0.000000,0.000000,0.000000,0.000000,0.000000,0.000000,0.000000,1772181573.406289,0.000000
106.000000,-790.491794,1844.845932,-1234.643308,1255.564541,-25873.485312,-22677.610538,-4397.884536,-3990.814566,1134.574549,-386.215792,-18708.924199,2047.531551,-14152.968127,-9356.216712,-7631.153778,-7150.345403,0.010000,-0.006000,1.014000,192.000000,0.000000,0.000000,0.000000,0.000000,0.000000,0.000000,0.000000,0.000000,0.000000,1772181573.406312,0.000000
108.000000,-812.664725,1822.471836,-1254.692823,1233.257500,-25889.220940,-22708.433593,-4421.063295,-4016.250851,1223.959175,-296.831166,-18613.951637,2136.938529,-14056.810922,-9269.693109,-7528.112236,-7069.052108,0.010000,-0.006000,1.014000,192.000000,0.000000,0.000000,0.000000,0.000000,0.000000,0.000000,0.000000,0.000000,0.000000,1772181573.406335,0.000000
110.000000,-861.570342,1772.135707,-1300.625658,1183.301351,-25938.260667,-22763.284774,-4470.930036,-4067.972787,1126.751438,-400.118577,-18722.871688,2035.930995,-14147.916633,-9367.347880,-7620.760217,-7180.430851,0.010000,-0.002000,1.006000,192.000000,0.000000,40.000000,127.500000,120.000000,15.500000,56.000000,0.000000,0.000000,0.000000,1772181573.406358,0.000000
112.000000,-762.999149,1872.115060,-1203.283811,1280.643199,-25834.436814,-22659.751494,-4374.973997,-3969.982740,1205.563689,-318.042972,-18642.651277,2119.213595,-14076.592216,-9288.736795,-7529.073361,-7110.246373,0.010000,-0.002000,1.006000,192.000000,0.000000,0.000000,0.000000,0.000000,0.000000,0.000000,0.000000,0.000000,0.000000,1772181573.406381,0.000000
114.000000,-856.608255,1774.303827,-1300.022161,1187.078796,-25930.370501,-22760.848434,-4472.561714,-4062.742479,1189.492785,-337.265472,-18661.806722,2096.012485,-14092.037272,-9313.077845,-7545.971280,-7126.183167,0.010000,-0.002000,1.006000,192.000000,0.000000,0.000000,0.000000,0.000000,0.000000,0.000000,0.000000,0.000000,0.000000,1772181573.406404,0.000000
116.000000,-772.275123,1861.140354,-1220.539358,1266.181620,-25850.597125,-22675.174198,-4392.229544,-3978.342292,1154.042918,-374.950513,-18699.335301,2057.612188,-14130.795196,-9351.679307,-7599.995446,-7168.785592,0.010000,-0.002000,1.006000,192.000000,0.000000,0.000000,0.000000,0.000000,0.000000,0.000000,0.000000,0.000000,0.000000,1772181573.406428,0.000000
118.000000,-795.610344,1839.190941,-1242.980509,1245.662718,-25882.515416,-22703.471506,-4409.350980,-3995.687246,1244.925111,-277.787480,-18601.568771,2156.295139,-14035.532062,-9242.245167,-7523.150149,-7083.178411,0.010000,-0.002000,1.006000,192.000000,0.000000,0.000000,0.000000,0.000000,0.000000,0.000000,0.000000,0.000000,0.000000,1772181573.406451,0.000000
120.000000,-851.377946,1785.770272,-1297.205841,1196.310067,-25952.610487,-22767.956289,-4456.781382,-4048.236197,1139.000194,-383.511231,-18713.483955,2053.499467,-14144.005077,-9372.265264,-7644.609528,-7184.431813,0.012000,-0.002000,1.010000,192.000000,0.000000,48.000000,127.500000,120.000000,15.500000,72.000000,0.000000,0.000000,0.000000,1772181573.406473,0.000000
122.000000,-758.417041,1880.295799,-1205.116654,1287.952219,-25866.556271,-22673.877796,-4361.585303,-3954.895312,1207.441235,-311.918594,-18636.973934,2130.344764,-14081.151972,-9299.957371,-7575.587341,-7116.929545,0.012000,-0.002000,1.010000,192.000000,0.000000,0.000000,0.000000,0.000000,0.000000,0.000000,0.000000,0.000000,0.000000,1772181573.406499,0.000000
124.000000,-871.360406,1765.094908,-1311.779179,1183.368407,-25977.823255,-22780.316803,-4466.750260,-4064.552970,1180.708549,-336.550216,-18660.733838,2104.059113,-14106.767071,-9319.425740,-7596.597981,-7132.776932,0.012000,-0.002000,1.010000,192.000000,0.000000,0.000000,0.000000,0.000000,0.000000,0.000000,0.000000,0.000000,0.000000,1772181573.406522,0.000000
126.000000,-799.387789,1840.017955,-1235.738544,1256.615073,-25891.076135,-22692.697965,-4394.352960,-3996.782481,1123.242214,-389.836775,-18720.033016,2042.636519,-14159.159560,-9367.303177,-7643.760162,-7173.434755,0.012000,-0.002000,1.010000,192.000000,0.000000,0.000000,0.000000,0.000000,0.000000,0.000000,0.000000,0.000000,0.000000,1772181573.406546,0.000000
128.000000,-818.185606,1821.689525,-1255.184562,1242.779343,-25898.720431,-22700.454021,-4417.799940,-4020.274165,1216.180768,-294.238364,-18626.803890,2134.546892,-14061.862416,-9263.345213,-7538.036411,-7069.476792,0.012000,-0.002000,1.010000,192.000000,0.000000,0.000000,0.000000,0.000000,0.000000,0.000000,0.000000,0.000000,0.000000,1772181573.406569,0.000000
130.000000,-862.687929,1776.896629,-1300.268030,1195.438349,-25935.444347,-22741.938858,-4466.035004,-4065.648206,1124.784484,-388.562726,-18728.079644,2036.556844,-14157.416124,-9357.669575,-7630.952612,-7160.426040,0.006000,-0.006000,1.010000,192.000000,0.000000,24.000000,127.500000,104.000000,15.500000,72.000000,0.000000,0.000000,0.000000,1772181573.406592,0.000000
132.000000,-765.144916,1874.685511,-1205.429578,1288.801585,-25839.667122,-22645.826357,-4370.213076,-3966.406461,1203.887308,-309.683419,-18643.724161,2119.012430,-14073.105344,-9284.087632,-7546.038335,-7092.610847,0.006000,-0.006000,1.010000,192.000000,0.000000,0.000000,0.000000,0.000000,0.000000,0.000000,0.000000,0.000000,0.000000,1772181573.406616,0.000000
134.000000,-876.255438,1761.026890,-1312.159158,1185.000084,-25946.597868,-22767.419847,-4473.746356,-4073.113689,1176.998160,-338.271301,-18670.389792,2097.711217,-14099.368644,-9309.233345,-7566.892513,-7121.131673,0.006000,-0.006000,1.010000,192.000000,0.000000,0.000000,0.000000,0.000000,0.000000,0.000000,0.000000,0.000000,0.000000,1772181573.406639,0.000000
136.000000,-798.225498,1841.448467,-1231.379954,1260.370166,-25858.822567,-22692.183875,-4397.213983,-3995.575487,1129.903034,-391.244935,-18719.965961,2052.761859,-14146.888452,-9368.376061,-7606.030417,-7171.937188,0.006000,-0.006000,1.010000,192.000000,0.000000,0.000000,0.000000,0.000000,0.000000,0.000000,0.000000,0.000000,0.000000,1772181573.406662,0.000000
138.000000,-818.252661,1818.381467,-1250.557751,1241.102963,-25880.079076,-22717.284884,-4417.218794,-4014.127435,1220.159378,-302.352047,-18622.557059,2148.092049,-14052.251166,-9281.360719,-7506.431044,-7087.782870,0.006000,-0.006000,1.010000,192.000000,0.000000,0.000000,0.000000,0.000000,0.000000,0.000000,0.000000,0.000000,0.000000,1772181573.406685,0.000000
140.000000,-861.369176,1774.840268,-1296.468234,1196.555936,-25931.398682,-22761.094303,-4462.861057,-4058.339186,1125.879720,-398.464548,-18725.308028,2046.659833,-14152.945775,-9377.786145,-7609.561993,-7180.900238,0.004000,-0.008000,1.012000,192.000000,0.000000,16.000000,127.500000,96.000000,15.500000,80.000000,0.000000,0.000000,0.000000,1772181573.406708,0.000000
142.000000,-763.714405,1874.193773,-1203.306163,1291.372036,-25844.562154,-22661.874910,-4367.352053,-3960.192676,1207.597698,-318.624117,-18640.505509,2124.823883,-14068.657347,-9287.283932,-7542.752629,-7106.960667,0.004000,-0.008000,1.012000,192.000000,0.000000,0.000000,0.000000,0.000000,0.000000,0.000000,0.000000,0.000000,0.000000,1772181573.406731,0.000000
144.000000,-861.168010,1774.773213,-1304.134882,1197.651171,-25961.104150,-22769.565614,-4462.816353,-4053.958244,1188.732825,-333.108048,-18658.968050,2108.909441,-14091.031443,-9305.053568,-7582.225809,-7125.780836,0.004000,-0.008000,1.012000,192.000000,0.000000,0.000000,0.000000,0.000000,0.000000,0.000000,0.000000,0.000000,0.000000,1772181573.406754,0.000000
146.000000,-789.485966,1848.064583,-1231.558768,1271.903666,-25891.053783,-22694.687270,-4387.222753,-3982.276199,1140.631871,-378.437385,-18706.040824,2064.988263,-14152.923423,-9353.378040,-7641.748505,-7172.317168,0.004000,-0.008000,1.012000,192.000000,0.000000,0.000000,0.000000,0.000000,0.000000,0.000000,0.000000,0.000000,0.000000,1772181573.406777,0.000000
148.000000,-810.451902,1819.655516,-1255.989224,1245.550960,-25912.779678,-22720.771756,-4412.904908,-4012.227537,1227.893082,-296.898222,-18618.645503,2146.728593,-14059.202559,-9274.521086,-7554.621405,-7087.827574,0.004000,-0.008000,1.012000,192.000000,0.000000,0.000000,0.000000,0.000000,0.000000,0.000000,0.000000,0.000000,0.000000,1772181573.406800,0.000000
150.000000,-876.881287,1758.031757,-1307.085312,1192.577325,-25956.969077,-22764.022382,-4466.057356,-4069.425651,1123.398676,-408.031095,-18730.270115,2038.210873,-14164.702793,-9378.859029,-7651.091534,-7172.987720,0.002000,-0.008000,1.014000,192.000000,0.000000,8.000000,127.500000,96.000000,15.500000,88.000000,0.000000,0.000000,0.000000,1772181573.406823,0.000000
152.000000,-791.877603,1846.164685,-1217.186596,1280.553792,-25858.844919,-22664.154788,-4378.125593,-3983.013807,1182.809613,-338.137190,-18660.040934,2108.954145,-14090.159725,-9303.623057,-7562.042184,-7092.566144,0.002000,-0.008000,1.014000,192.000000,0.000000,0.000000,0.000000,0.000000,0.000000,0.000000,0.000000,0.000000,0.000000,1772181573.406846,0.000000
154.000000,-899.031865,1739.189236,-1321.077504,1182.831965,-25965.194519,-22768.537434,-4477.032063,-4085.161279,1156.143982,-362.992330,-18684.605501,2082.355569,-14109.091653,-9325.706580,-7575.542638,-7110.022856,0.002000,-0.008000,1.014000,192.000000,0.000000,0.000000,0.000000,0.000000,0.000000,0.000000,0.000000,0.000000,0.000000,1772181573.406860,0.000000
156.000000,-812.195338,1828.685621,-1239.851265,1261.510105,-25881.956623,-22686.797105,-4398.935068,-4005.142034,1105.494929,-404.723037,-18734.382836,2036.489789,-14170.961281,-9357.781334,-7622.704819,-7158.973176,0.002000,-0.008000,1.014000,192.000000,0.000000,0.000000,0.000000,0.000000,0.000000,0.000000,0.000000,0.000000,0.000000,1772181573.406872,0.000000
158.000000,-825.271109,1812.502958,-1253.619940,1240.208893,-25897.513437,-22719.520059,-4417.531719,-4020.140054,1211.330439,-301.279164,-18631.520108,2138.212578,-14064.522274,-9274.878713,-7525.228861,-7087.984036,0.002000,-0.008000,1.014000,192.000000,0.000000,0.000000,0.000000,0.000000,0.000000,0.000000,0.000000,0.000000,0.000000,1772181573.406884,0.000000
160.000000,-872.075662,1765.564295,-1297.898745,1193.449043,-25941.099339,-22773.119542,-4463.308092,-4065.469392,1115.754380,-403.583098,-18732.237069,2041.183655,-14159.427781,-9387.263285,-7619.776740,-7192.433738,0.004000,-0.012000,1.010000,192.000000,0.000000,16.000000,127.500000,80.000000,15.500000,72.000000,0.000000,0.000000,0.000000,1772181573.406896,0.000000
162.000000,-782.020483,1857.474668,-1213.297393,1280.218515,-25843.064587,-22675.174198,-4376.695082,-3978.454051,1191.549145,-323.586204,-18652.776617,2118.520691,-14077.016899,-9299.264467,-7536.270623,-7115.051999,0.004000,-0.012000,1.010000,192.000000,0.000000,0.000000,0.000000,0.000000,0.000000,0.000000,0.000000,0.000000,0.000000,1772181573.406906,0.000000
164.000000,-880.122290,1758.456440,-1313.455559,1184.843622,-25952.722246,-22776.204083,-4471.131202,-4077.137003,1165.509363,-346.966129,-18679.621062,2091.922115,-14109.024597,-9322.756150,-7564.724393,-7132.061676,0.004000,-0.012000,1.010000,192.000000,0.000000,0.000000,0.000000,0.000000,0.000000,0.000000,0.000000,0.000000,0.000000,1772181573.406917,0.000000
166.000000,-806.763864,1834.921758,-1235.492675,1260.012538,-25881.040201,-22699.269378,-4393.280076,-4001.051664,1123.733952,-385.187612,-18723.922220,2051.733679,-14151.738781,-9368.934854,-7614.904060,-7170.864304,0.004000,-0.012000,1.010000,192.000000,0.000000,0.000000,0.000000,0.000000,0.000000,0.000000,0.000000,0.000000,0.000000,1772181573.406928,0.000000
168.000000,-831.753115,1809.463121,-1256.927998,1238.130181,-25916.400661,-22728.617219,-4413.575460,-4019.603612,1204.557860,-304.453111,-18636.079864,2137.139694,-14066.153951,-9282.545362,-7539.176350,-7090.062748,0.004000,-0.012000,1.010000,192.000000,0.000000,0.000000,0.000000,0.000000,0.000000,0.000000,0.000000,0.000000,0.000000,1772181573.406938,0.000000
170.000000,-865.727766,1772.068652,-1299.597478,1196.131253,-25965.552147,-22772.270175,-4455.395574,-4055.209941,1113.005115,-401.280868,-18731.544165,2042.524760,-14166.826208,-9376.310930,-7648.677546,-7180.184982,0.005000,-0.010000,1.009000,192.000000,0.000000,24.000000,127.500000,96.000000,15.500000,64.000000,0.000000,0.000000,0.000000,1772181573.406949,0.000000
172.000000,-780.277047,1860.559208,-1218.170073,1282.699559,-25873.418256,-22681.008003,-4372.112974,-3971.457955,1185.938857,-324.703792,-18650.988478,2119.459464,-14094.875943,-9308.294571,-7579.945931,-7105.776025,0.005000,-0.010000,1.009000,192.000000,0.000000,0.000000,0.000000,0.000000,0.000000,0.000000,0.000000,0.000000,0.000000,1772181573.406960,0.000000
174.000000,-878.870592,1760.199876,-1313.343801,1187.391721,-25975.386915,-22781.412039,-4465.833839,-4070.856162,1162.469526,-347.904902,-18673.854312,2095.364284,-14121.273353,-9326.868871,-7600.643647,-7118.293001,0.005000,-0.010000,1.009000,192.000000,0.000000,0.000000,0.000000,0.000000,0.000000,0.000000,0.000000,0.000000,0.000000,1772181573.406970,0.000000
176.000000,-812.128283,1828.283289,-1238.823085,1256.615073,-25893.758344,-22706.421936,-4397.661018,-4005.030275,1117.028429,-392.787205,-18721.642342,2046.704536,-14165.641566,-9372.801706,-7635.087685,-7160.493095,0.005000,-0.010000,1.009000,192.000000,0.000000,0.000000,0.000000,0.000000,0.000000,0.000000,0.000000,0.000000,0.000000,1772181573.406981,0.000000
178.000000,-837.721030,1799.628353,-1264.169963,1235.246806,-25910.119821,-22725.532678,-4422.851434,-4031.204168,1198.053503,-310.219861,-18640.281992,2127.662555,-14079.453239,-9274.431679,-7536.136512,-7085.547696,0.005000,-0.010000,1.009000,192.000000,0.000000,0.000000,0.000000,0.000000,0.000000,0.000000,0.000000,0.000000,0.000000,1772181573.886282,0.000000
180.000000,-877.641246,1762.658568,-1308.135844,1197.941744,-25944.295638,-22760.088475,-4464.224513,-4070.699700,1100.689304,-406.108845,-18743.859976,2030.901853,-14177.309177,-9380.960093,-7630.706743,-7181.436680,0.006500,-0.012000,1.009500,192.000000,0.000000,32.000000,127.500000,72.000000,15.500000,72.000000,0.000000,0.000000,0.000000,1772181573.886342,0.000000
182.000000,-788.994228,1855.083031,-1222.394553,1284.532402,-25854.374570,-22666.322907,-4378.639684,-3981.203315,1179.658017,-320.054629,-18660.912652,2116.106703,-14089.511524,-9286.099289,-7552.810914,-7107.832385,0.006500,-0.012000,1.009500,192.000000,0.000000,0.000000,0.000000,0.000000,0.000000,0.000000,0.000000,0.000000,0.000000,1772181573.886384,0.000000
184.000000,-883.363293,1755.081326,-1314.215519,1188.151680,-25955.605621,-22773.387763,-4470.103022,-4073.940703,1159.273226,-342.138152,-18681.565664,2092.816185,-14117.026522,-9319.761016,-7575.676748,-7128.127769,0.006500,-0.012000,1.009500,192.000000,0.000000,0.000000,0.000000,0.000000,0.000000,0.000000,0.000000,0.000000,0.000000,1772181573.886425,0.000000
186.000000,-812.038876,1826.562205,-1239.225416,1254.983396,-25879.117951,-22701.862180,-4400.566745,-4004.672647,1121.275261,-390.127348,-18724.436310,2044.290548,-14152.610499,-9371.035918,-7614.658191,-7174.619397,0.006500,-0.012000,1.009500,192.000000,0.000000,0.000000,0.000000,0.000000,0.000000,0.000000,0.000000,0.000000,0.000000,1772181573.886474,0.000000
188.000000,-835.798780,1803.808129,-1260.727794,1234.844474,-25908.599902,-22732.349960,-4421.063295,-4024.364534,1197.539413,-306.889451,-18640.326695,2131.305889,-14075.161704,-9288.647388,-7527.978126,-7095.605981,0.006500,-0.012000,1.009500,192.000000,0.000000,0.000000,0.000000,0.000000,0.000000,0.000000,0.000000,0.000000,0.000000,1772181573.886512,0.000000
190.000000,-875.808403,1764.759632,-1303.799606,1192.286753,-25957.282002,-22776.114676,-4459.664757,-4062.563665,1102.052760,-401.660848,-18739.166109,2041.071897,-14176.839790,-9380.244837,-7630.103246,-7187.583409,0.005250,-0.015000,1.007750,192.000000,0.000000,16.000000,127.500000,56.000000,15.500000,56.000000,0.000000,0.000000,0.000000,1772181573.886552,0.000000
192.000000,-787.474309,1855.239493,-1217.074837,1277.759824,-25873.887643,-22685.388945,-4371.621236,-3969.803926,1172.930142,-328.928271,-18660.376210,2117.760732,-14096.395862,-9307.221688,-7565.014966,-7117.376580,0.005250,-0.015000,1.007750,192.000000,0.000000,0.000000,0.000000,0.000000,0.000000,0.000000,0.000000,0.000000,0.000000,1772181573.886563,0.000000
194.000000,-877.797708,1760.624559,-1308.940507,1186.967038,-25972.771761,-22784.518931,-4462.659891,-4058.428592,1157.328624,-345.066231,-18676.111838,2099.164081,-14124.603763,-9334.647278,-7597.402644,-7135.727362,0.005250,-0.015000,1.007750,192.000000,0.000000,0.000000,0.000000,0.000000,0.000000,0.000000,0.000000,0.000000,0.000000,1772181573.886574,0.000000
196.000000,-804.685152,1835.100572,-1233.682183,1260.258408,-25904.934216,-22709.059442,-4390.083777,-3985.986589,1119.487121,-388.450967,-18715.093281,2057.969815,-14164.166351,-9364.553912,-7643.983679,-7172.518333,0.005250,-0.015000,1.007750,192.000000,0.000000,0.000000,0.000000,0.000000,0.000000,0.000000,0.000000,0.000000,0.000000,1772181573.886585,0.000000
198.000000,-824.824074,1810.692467,-1257.017405,1239.225416,-25930.839888,-22740.173070,-4415.050675,-4014.194490,1203.127349,-307.939983,-18627.541498,2143.129962,-14077.016899,-9293.028330,-7556.767172,-7085.972379,0.005250,-0.015000,1.007750,192.000000,0.000000,0.000000,0.000000,0.000000,0.000000,0.000000,0.000000,0.000000,0.000000,1772181573.886595,0.000000
200.000000,-865.213676,1765.027853,-1304.537213,1195.527756,-25965.015705,-22778.394553,-4460.268254,-4063.949473,1121.185854,-400.163281,-18727.409092,2042.189484,-14171.341261,-9387.620913,-7648.543435,-7170.819601,0.003625,-0.015500,1.006875,192.000000,0.000000,8.000000,127.500000,64.000000,15.500000,56.000000,0.000000,0.000000,0.000000,1772181573.886606,0.000000
202.000000,-795.275068,1844.555359,-1228.228358,1277.513954,-25873.708829,-22684.003137,-4381.277189,-3986.858307,1179.993293,-331.319908,-18659.772713,2109.378828,-14092.461955,-9308.540441,-7565.350242,-7100.053978,0.003625,-0.015500,1.006875,192.000000,0.000000,0.000000,0.000000,0.000000,0.000000,0.000000,0.000000,0.000000,0.000000,1772181573.886617,0.000000
204.000000,-894.002723,1746.744126,-1324.989060,1182.675503,-25968.413170,-22777.768705,-4477.792022,-4083.976636,1144.409316,-351.615292,-18690.394603,2084.858964,-14129.632906,-9310.038008,-7588.350187,-7130.295888,0.003625,-0.015500,1.006875,192.000000,0.000000,0.000000,0.000000,0.000000,0.000000,0.000000,0.000000,0.000000,0.000000,1772181573.886628,0.000000
206.000000,-813.067056,1828.596214,-1246.333271,1259.386690,-25877.754495,-22693.279111,-4406.400550,-4010.305287,1109.562947,-386.863993,-18732.147662,2046.391612,-14164.188703,-9379.328415,-7625.588194,-7173.322996,0.003625,-0.015500,1.006875,192.000000,0.000000,0.000000,0.000000,0.000000,0.000000,0.000000,0.000000,0.000000,0.000000,1772181573.886639,0.000000
208.000000,-835.843484,1805.551565,-1266.092213,1236.252634,-25898.854542,-22717.754271,-4428.662888,-4030.690078,1195.617163,-301.815605,-18643.344181,2134.144561,-14070.959576,-9279.818449,-7531.040315,-7092.364978,0.003625,-0.015500,1.006875,192.000000,0.000000,0.000000,0.000000,0.000000,0.000000,0.000000,0.000000,0.000000,0.000000,1772181573.886649,0.000000
210.000000,-871.874496,1766.972454,-1302.927888,1194.074892,-25941.658132,-22764.692934,-4466.839667,-4068.017491,1107.595993,-393.211888,-18739.859014,2038.143818,-14163.853426,-9376.825020,-7626.549319,-7185.102366,0.003812,-0.016750,1.008437,192.000000,0.000000,16.000000,127.500000,56.000000,15.500000,72.000000,0.000000,0.000000,0.000000,1772181573.886660,0.000000
212.000000,-782.288704,1856.602950,-1214.638497,1278.944466,-25856.699152,-22677.454076,-4377.767966,-3978.386996,1183.681331,-318.579414,-18653.625983,2115.033819,-14085.599969,-9294.034158,-7548.899358,-7113.576783,0.003812,-0.016750,1.008437,192.000000,0.000000,0.000000,0.000000,0.000000,0.000000,0.000000,0.000000,0.000000,0.000000,1772181573.886671,0.000000
214.000000,-870.376929,1767.486545,-1303.240812,1194.052541,-25953.169281,-22771.890196,-4466.683205,-4064.575322,1163.520058,-341.400545,-18671.954414,2095.051360,-14114.344312,-9327.114740,-7572.882780,-7136.017935,0.003812,-0.016750,1.008437,192.000000,0.000000,0.000000,0.000000,0.000000,0.000000,0.000000,0.000000,0.000000,0.000000,1772181573.886682,0.000000
216.000000,-788.100158,1853.026671,-1222.975698,1273.624751,-25872.881815,-22684.763096,-4390.731977,-3984.243153,1129.411296,-367.619141,-18705.660845,2065.904685,-14150.107104,-9353.758020,-7608.332647,-7163.421174,0.003812,-0.016750,1.008437,192.000000,0.000000,0.000000,0.000000,0.000000,0.000000,0.000000,0.000000,0.000000,0.000000,1772181573.886692,0.000000
218.000000,-817.850330,1822.538891,-1252.524704,1244.902759,-25910.566856,-22715.876724,-4416.972925,-4009.522976,1213.565613,-282.816623,-18618.824317,2153.076488,-14063.717611,-9265.200408,-7530.705038,-7084.966550,0.003812,-0.016750,1.008437,192.000000,0.000000,0.000000,0.000000,0.000000,0.000000,0.000000,0.000000,0.000000,0.000000,1772181573.886704,0.000000
220.000000,-862.419708,1777.813050,-1301.586783,1199.998105,-25953.616316,-22765.296431,-4460.223551,-4056.595749,1116.067304,-383.466528,-18723.989275,2052.381879,-14165.283938,-9365.090354,-7640.317993,-7176.563999,0.003906,-0.013375,1.008219,192.000000,0.000000,16.000000,127.500000,88.000000,15.500000,64.000000,0.000000,0.000000,0.000000,1772181573.886714,0.000000
222.000000,-777.192506,1864.738985,-1222.819236,1283.459518,-25875.899300,-22685.478352,-4377.946779,-3974.095461,1185.916506,-311.136283,-18649.848539,2124.443903,-14096.641731,-9299.040949,-7572.659263,-7105.507804,0.003906,-0.013375,1.008219,192.000000,0.000000,0.000000,0.000000,0.000000,0.000000,0.000000,0.000000,0.000000,0.000000,1772181573.886724,0.000000
224.000000,-879.675255,1759.283454,-1318.261184,1189.403378,-25977.823255,-22788.475190,-4471.220609,-4070.140907,1160.323758,-340.394716,-18677.050612,2098.247659,-14117.540612,-9319.939830,-7600.464833,-7127.591327,0.003906,-0.013375,1.008219,192.000000,0.000000,0.000000,0.000000,0.000000,0.000000,0.000000,0.000000,0.000000,0.000000,1772181573.886735,0.000000
226.000000,-811.658896,1832.753638,-1244.075745,1261.219533,-25893.914806,-22700.945759,-4397.973943,-4000.314057,1112.468673,-384.762929,-18726.492670,2051.934844,-14164.993365,-9365.291520,-7637.188749,-7167.980929,0.003906,-0.013375,1.008219,192.000000,0.000000,0.000000,0.000000,0.000000,0.000000,0.000000,0.000000,0.000000,0.000000,1772181573.886745,0.000000
228.000000,-838.704507,1804.813958,-1268.014463,1237.392573,-25911.192705,-22716.614332,-4424.080780,-4026.711467,1192.666732,-299.781597,-18644.662934,2135.038630,-14081.263731,-9287.194525,-7542.774980,-7085.748862,0.003906,-0.013375,1.008219,192.000000,0.000000,0.000000,0.000000,0.000000,0.000000,0.000000,0.000000,0.000000,0.000000,1772181573.886756,0.000000
230.000000,-875.830755,1765.608998,-1308.180548,1193.426692,-25945.927315,-22753.315896,-4466.996129,-4068.620988,1097.247135,-395.961153,-18748.576194,2035.349850,-14181.153677,-9374.791011,-7636.004107,-7176.899275,0.003906,-0.013375,1.008219,192.000000,0.000000,0.000000,127.500000,88.000000,15.500000,40.000000,0.000000,0.000000,0.000000,1772181573.886767,0.000000
