Sample_index,EXG Channel 0,EXG Channel 1,EXG Channel 2,EXG Channel 3,EXG Channel 4,EXG Channel 5,EXG Channel 6,EXG Channel 7,EXG Channel 8,EXG Channel 9,EXG Channel 10,EXG Channel 11,EXG Channel 12,EXG Channel 13,EXG Channel 14,EXG Channel 15,Accel Channel 0,Accel Channel 1,Accel Channel 2,Not Used,Digital Channel 0 (D11),Digital Channel 1 (D12),Digital Channel 2 (D13),Digital Channel 3 (D17),Not Used,Digital Channel 4 (D18),Analog Channel 0,Analog Channel 1,Analog Channel 2,Timestamp,Marker Channel
90.000000,-826.031068,1057.617492,-679.873011,741.653233,-25989.423810,-23811.425127,-4711.144234,-4817.583241,20.518901,-611.633135,-19719.983008,1825.131693,-14402.413595,-10712.051178,-9336.323659,-8523.100140,0.006000,-0.008000,1.010000,192.000000,0.000000,0.000000,0.000000,0.000000,0.000000,0.000000,0.000000,0.000000,0.000000,1772181006.905616,101.000000
92.000000,-893.980371,986.650704,-750.571579,663.243313,-26055.115587,-23874.211177,-4783.653293,-4885.510193,21.703544,-611.722542,-19720.362988,1825.824598,-14395.775127,-10726.691571,-9328.142921,-8520.105007,0.006000,-0.008000,1.010000,192.000000,0.000000,0.000000,0.000000,0.000000,0.000000,0.000000,0.000000,0.000000,0.000000,1772181006.905696,0.000000
94.000000,-848.583978,1034.639899,-696.547412,707.879747,-26001.873732,-23827.943066,-4738.905101,-4842.460733,-21.502378,-655.844886,-19760.752590,1780.607019,-14435.829453,-10763.795467,-9369.001909,-8576.230237,0.004000,-0.010000,1.004000,192.000000,0.000000,16.000000,127.500000,88.000000,15.500000,48.000000,0.000000,0.000000,0.000000,1772181006.905751,0.000000
96.000000,-858.351691,1020.133617,-700.615430,694.178128,-26008.534552,-23845.533889,-4743.777781,-4849.680346,55.320568,-589.057873,-19685.449563,1847.081107,-14353.865606,-10698.550725,-9289.943789,-8513.064207,0.004000,-0.010000,1.004000,192.000000,0.000000,0.000000,0.000000,0.000000,0.000000,0.000000,0.000000,0.000000,0.000000,1772181006.905807,0.000000
98.000000,-909.201909,969.126936,-750.862151,645.496028,-26064.235099,-23898.284006,-4791.655218,-4897.177803,-23.782256,-669.501802,-19763.300689,1768.045338,-14431.783787,-10784.850810,-9364.240988,-8592.926990,0.004000,-0.010000,1.004000,192.000000,0.000000,0.000000,0.000000,0.000000,0.000000,0.000000,0.000000,0.000000,0.000000,1772181006.905864,0.000000
100.000000,-833.541254,1052.364832,-674.486241,736.735849,-25997.515142,-23823.875049,-4711.747731,-4816.867985,20.116570,-622.227862,-19717.904296,1817.710914,-14384.532199,-10739.409714,-9324.097255,-8539.349859,0.004000,-0.010000,1.004000,192.000000,0.000000,0.000000,0.000000,0.000000,0.000000,0.000000,0.000000,0.000000,0.000000,1772181006.905920,0.000000
102.000000,-895.723807,988.349436,-746.771782,671.289941,-26065.352686,-23889.946805,-4781.373415,-4879.944608,20.541253,-614.337696,-19714.283313,1829.132656,-14395.082223,-10725.372818,-9330.668668,-8529.112760,0.004000,-0.010000,1.004000,192.000000,0.000000,0.000000,0.000000,0.000000,0.000000,0.000000,0.000000,0.000000,0.000000,1772181006.905975,0.000000
104.000000,-852.495534,1034.438733,-698.380256,720.687296,-26018.257561,-23842.672866,-4736.222891,-4836.246948,-25.726858,-659.979959,-19762.853654,1785.077367,-14435.896508,-10767.595263,-9376.467392,-8574.352691,0.014000,-0.008000,1.006000,192.000000,0.000000,56.000000,127.500000,96.000000,15.500000,56.000000,0.000000,0.000000,0.000000,1772181006.906030,0.000000
106.000000,-856.049461,1030.303661,-702.247107,718.586232,-26023.398462,-23842.225831,-4737.832217,-4838.325660,51.409012,-581.860612,-19688.020013,1860.335691,-14362.247510,-10696.427309,-9297.789252,-8494.154631,0.014000,-0.008000,1.006000,192.000000,0.000000,0.000000,0.000000,0.000000,0.000000,0.000000,0.000000,0.000000,0.000000,1772181006.906068,0.000000
108.000000,-905.469168,977.598247,-753.477306,664.986749,-26067.789026,-23888.069259,-4787.698959,-4891.299294,-26.106838,-657.856543,-19762.697192,1783.602152,-14445.016020,-10762.744935,-9365.783258,-8562.998004,0.014000,-0.008000,1.006000,192.000000,0.000000,0.000000,0.000000,0.000000,0.000000,0.000000,0.000000,0.000000,0.000000,1772181006.906106,0.000000
110.000000,-829.942623,1057.863362,-673.592171,743.262558,-25989.803790,-23808.765269,-4713.781740,-4818.052628,19.311907,-615.835263,-19720.832374,1820.460179,-14394.456374,-10702.819908,-9317.615249,-8517.489853,0.014000,-0.008000,1.006000,192.000000,0.000000,0.000000,0.000000,0.000000,0.000000,0.000000,0.000000,0.000000,0.000000,1772181006.906144,0.000000
112.000000,-899.322438,981.465099,-744.558960,665.254970,-26055.249698,-23883.084820,-4786.849593,-4889.399396,19.647183,-614.762379,-19723.492232,1821.421304,-14389.382528,-10720.276620,-9318.621077,-8525.447074,0.014000,-0.008000,1.006000,192.000000,0.000000,0.000000,0.000000,0.000000,0.000000,0.000000,0.000000,0.000000,0.000000,1772181006.906158,0.000000
114.000000,-855.401260,1028.359059,-697.352075,709.399666,-26010.814430,-23839.901249,-4741.073220,-4845.724087,-27.649108,-664.070328,-19770.721468,1776.807222,-14431.940249,-10768.578740,-9368.331357,-8579.203019,0.010000,-0.009000,1.008000,192.000000,0.000000,24.000000,127.500000,88.000000,15.500000,72.000000,0.000000,0.000000,0.000000,1772181006.906170,0.000000
116.000000,-851.959092,1029.834274,-693.038189,701.241279,-26002.454877,-23841.734092,-4740.670889,-4844.472390,54.650015,-588.275562,-19690.501057,1849.070412,-14351.608080,-10696.114385,-9290.413176,-8512.147786,0.010000,-0.009000,1.008000,192.000000,0.000000,0.000000,0.000000,0.000000,0.000000,0.000000,0.000000,0.000000,0.000000,1772181006.906181,0.000000
118.000000,-896.953153,981.375692,-738.144009,651.665110,-26042.978590,-23883.978889,-4788.883601,-4890.762853,-15.355648,-663.355072,-19757.288069,1775.399062,-14416.808118,-10774.859580,-9355.032069,-8582.824002,0.010000,-0.009000,1.008000,192.000000,0.000000,0.000000,0.000000,0.000000,0.000000,0.000000,0.000000,0.000000,0.000000,1772181006.906193,0.000000
120.000000,-823.237100,1058.399803,-657.185990,736.266462,-25968.144949,-23811.134554,-4709.400798,-4814.543404,31.359497,-619.165673,-19709.254171,1821.644821,-14365.779086,-10727.764455,-9300.493813,-8534.879510,0.010000,-0.009000,1.008000,192.000000,0.000000,0.000000,0.000000,0.000000,0.000000,0.000000,0.000000,0.000000,0.000000,1772181006.906204,0.000000
122.000000,-899.456549,978.827593,-738.523989,664.115031,-26055.249698,-23890.550302,-4782.088671,-4888.281809,24.676326,-621.669069,-19718.373682,1819.208481,-14386.588560,-10728.144434,-9306.864060,-8537.695830,0.010000,-0.009000,1.008000,192.000000,0.000000,0.000000,0.000000,0.000000,0.000000,0.000000,0.000000,0.000000,0.000000,1772181006.906216,0.000000
124.000000,-853.858990,1031.421248,-689.327799,722.184863,-26014.122488,-23844.237488,-4732.065467,-4835.956375,-28.319660,-669.345339,-19771.481427,1775.890800,-14449.620479,-10773.920807,-9364.464505,-8577.884266,0.008000,-0.009500,1.011000,192.000000,0.000000,24.000000,127.500000,88.000000,15.500000,88.000000,0.000000,0.000000,0.000000,1772181006.906228,0.000000
126.000000,-851.981443,1034.326975,-696.592116,722.654250,-26023.644331,-23849.691313,-4734.322993,-4833.788256,53.152448,-583.112309,-19688.556455,1862.749679,-14361.085220,-10689.699434,-9294.972932,-8496.523916,0.008000,-0.009500,1.011000,192.000000,0.000000,0.000000,0.000000,0.000000,0.000000,0.000000,0.000000,0.000000,0.000000,1772181006.906239,0.000000
128.000000,-907.659639,979.118166,-754.326672,672.765156,-26078.294346,-23894.841837,-4783.697997,-4887.901829,-27.157370,-657.588322,-19764.351221,1792.788719,-14444.054895,-10757.894606,-9377.070889,-8566.730746,0.008000,-0.009500,1.011000,192.000000,0.000000,0.000000,0.000000,0.000000,0.000000,0.000000,0.000000,0.000000,0.000000,1772181006.906251,0.000000
130.000000,-837.117533,1055.091745,-684.097491,747.889369,-25999.839723,-23817.907133,-4713.357057,-4820.645430,10.192395,-617.779865,-19731.337694,1833.223025,-14400.804269,-10734.782903,-9336.591880,-8515.321733,0.008000,-0.009500,1.011000,192.000000,0.000000,0.000000,0.000000,0.000000,0.000000,0.000000,0.000000,0.000000,0.000000,1772181006.906263,0.000000
132.000000,-911.459435,974.469003,-757.612378,666.596075,-26074.293384,-23888.337480,-4789.755319,-4900.329399,7.979573,-621.870234,-19737.506776,1824.863473,-14400.714862,-10729.619650,-9333.954374,-8511.276068,0.008000,-0.009500,1.011000,192.000000,0.000000,0.000000,0.000000,0.000000,0.000000,0.000000,0.000000,0.000000,0.000000,1772181006.906274,0.000000
134.000000,-871.092185,1014.903309,-706.426884,710.852529,-26032.182697,-23840.370636,-4744.046002,-4858.129306,-42.155390,-675.916752,-19787.552331,1767.955931,-14458.203549,-10767.416449,-9377.964959,-8555.107839,0.011000,-0.007750,1.011500,192.000000,0.000000,56.000000,127.500000,104.000000,15.500000,80.000000,0.000000,0.000000,0.000000,1772181006.906285,0.000000
136.000000,-865.526601,1016.758504,-699.564898,707.343305,-26024.359587,-23845.869165,-4739.575653,-4853.077811,39.026146,-603.474749,-19706.326092,1844.488304,-14369.757696,-10718.622591,-9299.242115,-8488.454937,0.011000,-0.007750,1.011500,192.000000,0.000000,0.000000,0.000000,0.000000,0.000000,0.000000,0.000000,0.000000,0.000000,1772181006.906297,0.000000
138.000000,-907.972563,972.859677,-745.095401,652.112144,-26067.766674,-23900.854457,-4790.090595,-4895.277905,-30.644242,-675.469717,-19771.839055,1776.114318,-14427.894584,-10786.169563,-9364.062174,-8574.911484,0.011000,-0.007750,1.011500,192.000000,0.000000,0.000000,0.000000,0.000000,0.000000,0.000000,0.000000,0.000000,0.000000,1772181006.906308,0.000000
140.000000,-830.434362,1053.191847,-662.796278,734.232454,-25983.679412,-23825.707892,-4712.217118,-4819.885471,21.480026,-623.725429,-19720.072415,1825.623432,-14397.786784,-10734.179405,-9311.312057,-8538.858120,0.011000,-0.007750,1.011500,192.000000,0.000000,0.000000,0.000000,0.000000,0.000000,0.000000,0.000000,0.000000,0.000000,1772181006.906319,0.000000
142.000000,-911.191214,969.663378,-743.307262,656.381328,-26061.530538,-23907.381166,-4786.559020,-4897.602486,15.512111,-630.877987,-19726.397959,1818.850853,-14398.613798,-10731.430141,-9308.383978,-8544.557815,0.011000,-0.007750,1.011500,192.000000,0.000000,0.000000,0.000000,0.000000,0.000000,0.000000,0.000000,0.000000,0.000000,1772181006.906330,0.000000
144.000000,-871.427461,1016.847911,-700.727189,711.679543,-26027.377072,-23863.571747,-4739.687412,-4852.094335,-42.110687,-683.561049,-19780.332718,1772.470984,-14451.721543,-10785.320197,-9364.665671,-8596.302104,0.009500,-0.007875,1.009750,192.000000,0.000000,32.000000,127.500000,96.000000,15.500000,64.000000,0.000000,0.000000,0.000000,1772181006.906341,0.000000
146.000000,-872.522697,1015.931489,-705.242241,712.864186,-26022.347930,-23859.302564,-4742.369621,-4854.776544,33.326451,-599.227917,-19707.778955,1853.808982,-14366.986080,-10721.841243,-9295.487022,-8513.623001,0.009500,-0.007875,1.009750,192.000000,0.000000,0.000000,0.000000,0.000000,0.000000,0.000000,0.000000,0.000000,0.000000,1772181006.906352,0.000000
148.000000,-919.528415,964.455422,-757.835896,661.097546,-26072.818169,-23902.240265,-4794.605648,-4906.587888,-40.277844,-673.927447,-19781.986747,1776.606056,-14446.647697,-10779.464040,-9369.940683,-8578.085432,0.009500,-0.007875,1.009750,192.000000,0.000000,0.000000,0.000000,0.000000,0.000000,0.000000,0.000000,0.000000,0.000000,1772181006.906363,0.000000
150.000000,-841.766696,1047.201579,-681.303523,744.938939,-26000.286758,-23817.214229,-4718.587365,-4829.429666,7.376076,-624.775961,-19736.724465,1819.655516,-14398.993778,-10729.083208,-9328.411141,-8523.413065,0.009500,-0.007875,1.009750,192.000000,0.000000,0.000000,0.000000,0.000000,0.000000,0.000000,0.000000,0.000000,0.000000,1772181006.906374,0.000000
152.000000,-909.380723,972.323236,-756.070108,665.813764,-26069.890090,-23888.069259,-4791.051721,-4899.457681,9.588898,-622.518435,-19733.282296,1822.270670,-14399.239647,-10722.735312,-9330.780426,-8515.098216,0.009500,-0.007875,1.009750,192.000000,0.000000,0.000000,0.000000,0.000000,0.000000,0.000000,0.000000,0.000000,0.000000,1772181006.906385,0.000000
154.000000,-870.332226,1017.138483,-707.790340,711.254860,-26026.728872,-23838.560145,-4744.783609,-4855.760021,-39.249663,-674.441537,-19782.567892,1774.907324,-14445.396000,-10785.968397,-9374.835715,-8557.521827,0.007750,-0.005938,1.009875,192.000000,0.000000,24.000000,127.500000,112.000000,15.500000,72.000000,0.000000,0.000000,0.000000,1772181006.906396,0.000000
156.000000,-871.360406,1014.433922,-707.186843,706.091607,-26030.126337,-23847.187918,-4743.956595,-4853.323681,31.717125,-603.631211,-19710.103537,1844.577711,-14369.422420,-10707.379664,-9297.498679,-8477.323768,0.007750,-0.005938,1.009875,192.000000,0.000000,0.000000,0.000000,0.000000,0.000000,0.000000,0.000000,0.000000,0.000000,1772181006.906407,0.000000
158.000000,-916.220357,965.595360,-752.292663,653.676767,-26078.137884,-23900.005090,-4791.878735,-4898.094225,-36.478047,-675.961456,-19775.884721,1774.840268,-14452.950889,-10785.566066,-9371.348843,-8558.326490,0.007750,-0.005938,1.009875,192.000000,0.000000,0.000000,0.000000,0.000000,0.000000,0.000000,0.000000,0.000000,0.000000,1772181006.906419,0.000000
160.000000,-840.537350,1046.083992,-666.394909,733.494846,-25992.933034,-23823.562124,-4710.205461,-4818.589070,10.192395,-630.766229,-19727.895525,1819.655516,-14402.882982,-10741.622536,-9322.800854,-8527.749303,0.007750,-0.005938,1.009875,192.000000,0.000000,0.000000,0.000000,0.000000,0.000000,0.000000,0.000000,0.000000,0.000000,1772181006.906431,0.000000
162.000000,-909.358371,968.635198,-737.249939,655.487258,-26061.351724,-23901.994395,-4779.428813,-4887.566553,11.309983,-630.945042,-19722.084072,1823.343554,-14393.741118,-10726.915089,-9312.630810,-8541.674440,0.007750,-0.005938,1.009875,192.000000,0.000000,0.000000,0.000000,0.000000,0.000000,0.000000,0.000000,0.000000,0.000000,1772181006.906443,0.000000
164.000000,-871.896848,1009.896518,-694.513404,703.074122,-26026.572409,-23868.511482,-4740.112095,-4846.238178,-42.490666,-688.970171,-19772.084924,1771.375748,-14450.492197,-10797.926581,-9362.989290,-8599.833679,0.007875,-0.008969,1.009937,192.000000,0.000000,32.000000,127.500000,80.000000,15.500000,72.000000,0.000000,0.000000,0.000000,1772181006.906455,0.000000
166.000000,-872.142717,1010.768236,-694.222831,706.784511,-26029.276971,-23871.685430,-4739.039211,-4844.740611,37.126248,-610.873176,-19694.122040,1849.897426,-14373.132810,-10715.180423,-9293.520068,-8527.011696,0.007875,-0.008969,1.009937,192.000000,0.000000,0.000000,0.000000,0.000000,0.000000,0.000000,0.000000,0.000000,0.000000,1772181006.906466,0.000000
168.000000,-927.798561,955.492372,-753.074974,652.514476,-26090.386640,-23926.670721,-4791.722273,-4900.195289,-43.384736,-687.070273,-19773.895416,1777.075443,-14451.699192,-10800.742900,-9372.712299,-8602.001798,0.007875,-0.008969,1.009937,192.000000,0.000000,0.000000,0.000000,0.000000,0.000000,0.000000,0.000000,0.000000,0.000000,1772181006.906477,0.000000
170.000000,-850.930911,1033.611719,-678.800127,734.903006,-26017.587008,-23843.678694,-4712.641801,-4826.948622,-1.810491,-642.635005,-19736.165671,1818.292060,-14410.527278,-10753.670127,-9332.903842,-8554.169065,0.007875,-0.008969,1.009937,192.000000,0.000000,0.000000,0.000000,0.000000,0.000000,0.000000,0.000000,0.000000,0.000000,1772181006.906489,0.000000
172.000000,-923.417619,954.307730,-760.428698,654.704947,-26091.683041,-23913.773765,-4788.414215,-4906.006742,-4.425645,-645.451325,-19739.652543,1810.357190,-14410.437871,-10743.410676,-9338.000040,-8547.284728,0.007875,-0.008969,1.009937,192.000000,0.000000,0.000000,0.000000,0.000000,0.000000,0.000000,0.000000,0.000000,0.000000,1772181006.906500,0.000000
174.000000,-878.669426,1003.481567,-714.607622,704.258764,-26038.754110,-23857.469721,-4743.710726,-4863.180800,-52.414841,-697.128558,-19791.597997,1755.885989,-14452.861482,-10791.131650,-9390.459584,-8589.171897,0.007938,-0.009484,1.006969,192.000000,0.000000,32.000000,127.500000,88.000000,15.500000,48.000000,0.000000,0.000000,0.000000,1772181006.906528,0.000000
176.000000,-873.193249,1009.293021,-710.696067,705.242241,-26031.847421,-23848.126691,-4746.437639,-4859.112782,28.274957,-612.102522,-19712.763394,1836.084048,-14384.263979,-10709.368969,-9307.176984,-8496.076881,0.007938,-0.009484,1.006969,192.000000,0.000000,0.000000,0.000000,0.000000,0.000000,0.000000,0.000000,0.000000,0.000000,1772181006.906540,0.000000
178.000000,-908.911337,980.123994,-759.780498,653.453249,-26072.460541,-23887.845741,-4798.226630,-4906.967867,-36.165123,-668.875953,-19782.143209,1770.213457,-14456.795389,-10778.011176,-9370.052441,-8560.069926,0.007938,-0.009484,1.006969,192.000000,0.000000,0.000000,0.000000,0.000000,0.000000,0.000000,0.000000,0.000000,0.000000,1772181006.906564,0.000000
180.000000,-865.437194,1014.702143,-679.761252,732.533721,-25999.683261,-23812.922694,-4719.123807,-4838.817398,5.744398,-634.186045,-19738.758473,1811.027743,-14404.782880,-10738.783865,-9327.472368,-8505.509318,0.007938,-0.009484,1.006969,192.000000,0.000000,0.000000,0.000000,0.000000,0.000000,0.000000,0.000000,0.000000,0.000000,1772181006.906575,0.000000
182.000000,-943.400078,931.263081,-749.342233,661.432822,-26061.307020,-23876.736924,-4790.314113,-4912.175824,-3.375113,-653.520304,-19744.972258,1800.567126,-14406.414557,-10743.365972,-9324.320772,-8498.781442,0.007938,-0.009484,1.006969,192.000000,0.000000,0.000000,0.000000,0.000000,0.000000,0.000000,0.000000,0.000000,0.000000,1772181006.906587,0.000000
184.000000,-908.553709,966.489430,-699.609601,706.136311,-26011.417927,-23833.441595,-4748.605758,-4872.099146,-44.189399,-702.738846,-19792.849695,1749.158114,-14442.847901,-10776.401851,-9360.485895,-8549.519902,0.007938,-0.009484,1.006969,192.000000,0.000000,0.000000,0.000000,0.000000,0.000000,0.000000,0.000000,0.000000,0.000000,1772181006.906598,0.000000
186.000000,-911.593546,959.470982,-697.061503,702.649439,-26014.234247,-23843.544584,-4745.588272,-4867.315873,32.991175,-634.476618,-19716.496136,1823.947051,-14361.308737,-10714.576926,-9282.455955,-8486.085652,0.008000,-0.012000,1.002000,192.000000,0.000000,32.000000,127.500000,80.000000,15.500000,40.000000,0.000000,0.000000,0.000000,1772181006.906609,0.000000
188.000000,-962.980206,908.173729,-750.593931,649.251121,-26071.186491,-23904.006052,-4792.303418,-4911.594678,-41.127210,-710.539604,-19784.937177,1755.260140,-14440.411561,-10791.891610,-9357.200188,-8575.939664,0.008000,-0.012000,1.002000,192.000000,0.000000,0.000000,0.000000,0.000000,0.000000,0.000000,0.000000,0.000000,0.000000,1772181006.906621,0.000000
190.000000,-886.425482,990.763425,-675.290903,735.372393,-25998.878598,-23826.110223,-4711.099531,-4832.268337,5.319715,-664.472659,-19742.535918,1799.606001,-14399.574923,-10738.113312,-9323.337295,-8542.300289,0.008000,-0.012000,1.002000,192.000000,0.000000,0.000000,0.000000,0.000000,0.000000,0.000000,0.000000,0.000000,0.000000,1772181006.906632,0.000000
192.000000,-968.769308,907.011438,-756.517143,655.733127,-26074.159273,-23906.576503,-4785.441433,-4909.538318,0.469387,-657.163639,-19746.291011,1802.981115,-14394.143450,-10740.147321,-9329.059342,-8542.344992,0.008000,-0.012000,1.002000,192.000000,0.000000,0.000000,0.000000,0.000000,0.000000,0.000000,0.000000,0.000000,0.000000,1772181006.906643,0.000000
194.000000,-923.954061,953.301901,-709.220852,699.274325,-26031.355683,-23856.240375,-4744.917720,-4868.031128,-58.740384,-718.630936,-19801.030433,1747.615844,-14458.449418,-10791.891610,-9381.898866,-8597.330284,0.008000,-0.012000,1.002000,192.000000,0.000000,0.000000,0.000000,0.000000,0.000000,0.000000,0.000000,0.000000,0.000000,1772181006.906654,0.000000
196.000000,-918.164959,956.677014,-707.008029,698.961401,-26020.939770,-23846.003276,-4746.236473,-4868.142887,33.728782,-637.136476,-19719.245400,1826.942185,-14370.897635,-10714.845147,-9299.465632,-8506.917477,0.016000,-0.006000,1.008000,192.000000,0.000000,64.000000,127.500000,104.000000,15.500000,64.000000,0.000000,0.000000,0.000000,1772181006.906665,0.000000
198.000000,-962.756689,911.794712,-759.869905,647.641796,-26069.487759,-23888.918625,-4798.092520,-4919.216623,-32.164160,-699.341381,-19790.458058,1756.444783,-14439.897470,-10782.146249,-9368.778392,-8569.189438,0.016000,-0.006000,1.008000,192.000000,0.000000,0.000000,0.000000,0.000000,0.000000,0.000000,0.000000,0.000000,0.000000,1772181006.906676,0.000000
200.000000,-889.599429,988.997637,-680.096529,733.763067,-25992.217778,-23809.480525,-4715.793397,-4839.934986,7.063151,-654.347319,-19749.889642,1797.460234,-14399.396110,-10730.133740,-9330.132226,-8522.273126,0.016000,-0.006000,1.008000,192.000000,0.000000,0.000000,0.000000,0.000000,0.000000,0.000000,0.000000,0.000000,0.000000,1772181006.906687,0.000000
202.000000,-968.143459,901.199985,-753.924340,657.163639,-26060.770578,-23883.375392,-4786.871944,-4910.901774,7.264317,-658.236522,-19746.201604,1799.874222,-14396.915066,-10727.362123,-9328.165272,-8520.708504,0.016000,-0.006000,1.008000,192.000000,0.000000,0.000000,0.000000,0.000000,0.000000,0.000000,0.000000,0.000000,0.000000,1772181006.906698,0.000000
204.000000,-926.658622,943.578892,-705.152834,700.570726,-26012.110831,-23839.141290,-4746.616453,-4868.589922,-44.949358,-717.111017,-19795.621311,1745.537131,-14440.411561,-10780.492220,-9371.304139,-8569.390603,0.016000,-0.006000,1.008000,192.000000,0.000000,0.000000,0.000000,0.000000,0.000000,0.000000,0.000000,0.000000,0.000000,1772181006.906710,0.000000
206.000000,-928.133837,941.678994,-700.950706,704.035247,-26003.103078,-23829.194764,-4744.560092,-4866.377099,43.295329,-637.963490,-19715.155031,1824.215272,-14350.512844,-10710.486556,-9282.321844,-8488.209067,0.012000,-0.010000,1.006000,192.000000,0.000000,48.000000,127.500000,88.000000,15.500000,56.000000,0.000000,0.000000,0.000000,1772181006.906721,0.000000
208.000000,-978.827593,890.985237,-753.544361,656.247217,-26048.208898,-23871.394857,-4796.147918,-4920.848301,-31.784181,-711.992468,-19790.122782,1752.667338,-14430.777959,-10760.755630,-9347.633642,-8550.995118,0.012000,-0.010000,1.006000,192.000000,0.000000,0.000000,0.000000,0.000000,0.000000,0.000000,0.000000,0.000000,0.000000,1772181006.906731,0.000000
210.000000,-910.833587,968.679901,-676.028511,738.412230,-25975.833950,-23800.383365,-4717.246260,-4845.969957,8.426608,-662.773927,-19748.839110,1795.403873,-14379.570112,-10734.671144,-9302.058435,-8501.821280,0.012000,-0.010000,1.006000,192.000000,0.000000,0.000000,0.000000,0.000000,0.000000,0.000000,0.000000,0.000000,0.000000,1772181007.386463,0.000000
212.000000,-970.378634,903.010476,-744.804829,663.936217,-26048.074788,-23876.379296,-4783.385072,-4907.347847,7.689000,-659.465868,-19745.039313,1799.203670,-14382.386432,-10719.181385,-9307.288743,-8511.566640,0.012000,-0.010000,1.006000,192.000000,0.000000,0.000000,0.000000,0.000000,0.000000,0.000000,0.000000,0.000000,0.000000,1772181007.386566,0.000000
214.000000,-916.287412,963.650759,-694.826328,711.657192,-26006.120563,-23837.733130,-4735.462932,-4857.458753,-28.185550,-703.498805,-19782.456134,1759.283454,-14427.916935,-10779.017005,-9365.380927,-8575.358519,0.012000,-0.010000,1.006000,192.000000,0.000000,0.000000,0.000000,0.000000,0.000000,0.000000,0.000000,0.000000,0.000000,1772181007.386654,0.000000
216.000000,-919.729581,959.426279,-701.956535,702.269459,-26014.346005,-23849.847776,-4739.776819,-4861.750288,48.324472,-622.540787,-19704.046214,1840.554397,-14350.043458,-10704.362178,-9295.151746,-8512.952448,0.008000,-0.006000,1.008000,192.000000,0.000000,32.000000,127.500000,104.000000,15.500000,64.000000,0.000000,0.000000,0.000000,1772181007.386742,0.000000
218.000000,-973.306712,899.814177,-759.378166,641.137438,-26066.827901,-23903.246093,-4795.365607,-4920.580080,-29.705468,-709.042038,-19784.177218,1759.283454,-14431.359104,-10781.922732,-9369.739517,-8595.989179,0.008000,-0.006000,1.008000,192.000000,0.000000,0.000000,0.000000,0.000000,0.000000,0.000000,0.000000,0.000000,0.000000,1772181007.386837,0.000000
220.000000,-904.955078,972.680863,-688.433729,720.642593,-25993.737697,-23821.639874,-4720.867243,-4853.435439,9.857119,-669.680616,-19750.649601,1790.710007,-14391.885923,-10735.833435,-9327.025333,-8546.748286,0.008000,-0.006000,1.008000,192.000000,0.000000,0.000000,0.000000,0.000000,0.000000,0.000000,0.000000,0.000000,0.000000,1772181007.386926,0.000000
222.000000,-973.530230,901.870537,-766.642483,644.132572,-26059.518881,-23889.678584,-4798.047817,-4926.883272,1.519919,-670.932313,-19758.338601,1786.798452,-14399.999607,-10738.783865,-9327.360609,-8541.428571,0.008000,-0.006000,1.008000,192.000000,0.000000,0.000000,0.000000,0.000000,0.000000,0.000000,0.000000,0.000000,0.000000,1772181007.386980,0.000000
224.000000,-914.767494,961.437936,-710.629011,697.240317,-26004.265368,-23830.871145,-4749.410421,-4873.104974,-40.546064,-713.579442,-19803.869105,1740.731506,-14443.831377,-10777.564141,-9373.047575,-8583.226333,0.008000,-0.006000,1.008000,192.000000,0.000000,0.000000,0.000000,0.000000,0.000000,0.000000,0.000000,0.000000,0.000000,1772181007.387004,0.000000
226.000000,-904.284525,964.969512,-699.229622,698.134386,-25989.334403,-23824.098566,-4747.152894,-4867.762907,58.718033,-627.726391,-19709.544743,1823.164740,-14342.779141,-10706.820870,-9283.282969,-8500.681341,0.006000,-0.010000,1.012000,192.000000,0.000000,24.000000,127.500000,88.000000,15.500000,80.000000,0.000000,0.000000,0.000000,1772181007.387027,0.000000
228.000000,-955.090041,911.146511,-746.078878,646.703022,-26040.966933,-23878.167436,-4796.662008,-4917.987277,-10.617079,-705.376352,-19776.264700,1747.995823,-14394.948112,-10779.352281,-9344.839674,-8565.747269,0.006000,-0.010000,1.012000,192.000000,0.000000,0.000000,0.000000,0.000000,0.000000,0.000000,0.000000,0.000000,0.000000,1772181007.387050,0.000000
230.000000,-893.041598,980.861602,-673.234543,727.392820,-25982.807694,-23812.788583,-4721.537795,-4848.808628,26.218596,-669.479450,-19738.043217,1789.748882,-14383.548723,-10728.792635,-9299.555039,-8507.878602,0.006000,-0.010000,1.012000,192.000000,0.000000,0.000000,0.000000,0.000000,0.000000,0.000000,0.000000,0.000000,0.000000,1772181007.387073,0.000000
232.000000,-965.237733,907.838453,-754.729003,657.364804,-26065.375038,-23888.382183,-4792.638694,-4919.730713,8.895994,-675.447366,-19753.108293,1788.072501,-14397.295046,-10748.663336,-9306.618191,-8504.235268,0.006000,-0.010000,1.012000,192.000000,0.000000,0.000000,0.000000,0.000000,0.000000,0.000000,0.000000,0.000000,0.000000,1772181007.387096,0.000000
234.000000,-918.477883,960.253294,-712.417151,706.449235,-26023.465517,-23844.729226,-4745.856493,-4871.540352,-41.686003,-719.145026,-19803.600884,1745.604187,-14446.960622,-10786.080156,-9367.526694,-8561.500437,0.006000,-0.010000,1.012000,192.000000,0.000000,0.000000,0.000000,0.000000,0.000000,0.000000,0.000000,0.000000,0.000000,1772181007.387119,0.000000
236.000000,-903.725732,972.256180,-700.235450,709.176148,-26020.760956,-23841.152947,-4736.222891,-4857.883436,46.424573,-631.392077,-19715.825583,1833.245377,-14349.596423,-10704.138661,-9292.782461,-8491.941809,0.006000,-0.008000,1.012000,192.000000,0.000000,24.000000,127.500000,96.000000,15.500000,80.000000,0.000000,0.000000,0.000000,1772181007.387134,0.000000
238.000000,-951.044375,919.550767,-754.572541,646.166580,-26072.326430,-23899.513352,-4792.079901,-4909.493614,-23.268166,-707.365657,-19780.623291,1761.295111,-14441.752665,-10772.557351,-9370.857104,-8580.857048,0.006000,-0.008000,1.012000,192.000000,0.000000,0.000000,0.000000,0.000000,0.000000,0.000000,0.000000,0.000000,0.000000,1772181007.387145,0.000000
240.000000,-872.209772,1000.285268,-676.184973,725.403515,-25992.977738,-23820.231714,-4715.167548,-4834.324698,26.352707,-666.841944,-19736.143319,1799.315429,-14390.902447,-10751.233786,-9330.489854,-8543.082600,0.006000,-0.008000,1.012000,192.000000,0.000000,0.000000,0.000000,0.000000,0.000000,0.000000,0.000000,0.000000,0.000000,1772181007.387157,0.000000
242.000000,-947.915131,921.651831,-756.874771,645.004290,-26064.548023,-23894.595968,-4788.727139,-4910.857071,26.911500,-665.210267,-19735.875098,1796.812033,-14387.080298,-10744.349449,-9326.243022,-8540.020411,0.006000,-0.008000,1.012000,192.000000,0.000000,0.000000,0.000000,0.000000,0.000000,0.000000,0.000000,0.000000,0.000000,1772181007.387169,0.000000
244.000000,-906.989087,966.556485,-712.014820,693.932258,-26021.520915,-23850.540680,-4743.956595,-4867.137059,-28.766695,-720.642593,-19791.329776,1744.955986,-14439.226918,-10792.740976,-9378.143773,-8593.776356,0.006000,-0.008000,1.012000,192.000000,0.000000,0.000000,0.000000,0.000000,0.000000,0.000000,0.000000,0.000000,0.000000,1772181007.387179,0.000000
246.000000,-902.898717,970.468041,-705.778683,699.229622,-26017.385842,-23844.148081,-4739.933281,-4864.432498,55.119402,-637.918787,-19712.606932,1828.350345,-14338.711123,-10714.040484,-9303.645409,-8513.265373,0.012000,-0.010000,1.008000,192.000000,0.000000,48.000000,127.500000,88.000000,15.500000,64.000000,0.000000,0.000000,0.000000,1772181007.387190,0.000000
248.000000,-941.969567,926.189235,-742.815523,650.994557,-26050.935811,-23884.783552,-4788.302456,-4908.241917,-14.752151,-705.868090,-19777.985785,1760.423393,-14436.008267,-10772.959682,-9366.543217,-8578.465411,0.012000,-0.010000,1.008000,192.000000,0.000000,0.000000,0.000000,0.000000,0.000000,0.000000,0.000000,0.000000,0.000000,1772181007.387200,0.000000
250.000000,-871.382758,1001.201689,-662.550409,728.868035,-25974.381086,-23809.815801,-4715.212252,-4836.515169,37.416820,-660.896380,-19729.884831,1802.489376,-14375.502095,-10736.593394,-9311.692037,-8532.398466,0.012000,-0.010000,1.008000,192.000000,0.000000,0.000000,0.000000,0.000000,0.000000,0.000000,0.000000,0.000000,0.000000,1772181007.387211,0.000000
252.000000,-943.981224,927.463284,-737.808733,654.883761,-26048.544174,-23885.744677,-4783.854459,-4906.386722,32.655899,-666.551371,-19733.058778,1800.142443,-14372.819885,-10743.902414,-9302.997208,-8525.849405,0.012000,-0.010000,1.008000,192.000000,0.000000,0.000000,0.000000,0.000000,0.000000,0.000000,0.000000,0.000000,0.000000,1772181007.387222,0.000000
254.000000,-905.558575,971.697387,-702.224756,700.034285,-26019.643369,-23848.841947,-4740.223854,-4862.845524,-25.682154,-720.329669,-19787.507628,1750.163943,-14438.981049,-10787.421261,-9350.986403,-8575.269112,0.012000,-0.010000,1.008000,192.000000,0.000000,0.000000,0.000000,0.000000,0.000000,0.000000,0.000000,0.000000,0.000000,1772181007.387232,0.000000
0.000000,-901.736427,974.603113,-705.890442,699.788415,-26027.242962,-23851.993543,-4738.122790,-4859.939797,49.039727,-640.332775,-19710.081185,1830.093781,-14363.320394,-10723.361161,-9282.679472,-8501.351893,0.010000,-0.010000,1.008000,192.000000,0.000000,32.000000,127.500000,88.000000,15.500000,64.000000,0.000000,0.000000,0.000000,1772181007.387242,0.000000
2.000000,-949.189180,926.591566,-754.974872,649.474639,-26082.630585,-23904.900122,-4788.302456,-4911.237050,-22.642317,-712.908889,-19784.132514,1761.473925,-14439.852767,-10783.666168,-9365.157409,-8580.119441,0.010000,-0.010000,1.008000,192.000000,0.000000,0.000000,0.000000,0.000000,0.000000,0.000000,0.000000,0.000000,0.000000,1772181007.387253,0.000000
4.000000,-868.901714,1011.170567,-674.508592,733.472494,-26000.554979,-23825.953761,-4712.351228,-4833.184759,25.682154,-665.009101,-19742.513566,1806.780911,-14391.841220,-10746.495217,-9329.349915,-8539.729838,0.010000,-0.010000,1.008000,192.000000,0.000000,0.000000,0.000000,0.000000,0.000000,0.000000,0.000000,0.000000,0.000000,1772181007.387263,0.000000
6.000000,-937.901549,936.046354,-751.040965,652.223903,-26066.336163,-23893.254863,-4787.631904,-4905.179728,30.621890,-662.371595,-19740.948944,1803.562260,-14387.057947,-10740.236728,-9332.970897,-8544.155484,0.010000,-0.010000,1.008000,192.000000,0.000000,0.000000,0.000000,0.000000,0.000000,0.000000,0.000000,0.000000,0.000000,1772181007.387273,0.000000
8.000000,-894.874441,982.537983,-707.410360,693.954610,-26026.773575,-23850.585383,-4747.421115,-4863.985463,-19.736590,-715.434637,-19791.039204,1751.460344,-14425.681761,-10788.292979,-9383.731709,-8597.911429,0.010000,-0.010000,1.008000,192.000000,0.000000,0.000000,0.000000,0.000000,0.000000,0.000000,0.000000,0.000000,0.000000,1772181007.387283,0.000000
10.000000,-890.739368,984.482585,-704.370523,694.021665,-26024.761918,-23849.668962,-4742.794304,-4857.905788,61.869629,-634.700136,-19710.014130,1831.524292,-14354.871435,-10713.347580,-9306.618191,-8528.643373,0.009000,-0.007000,1.009000,192.000000,0.000000,32.000000,127.500000,112.000000,15.500000,72.000000,0.000000,0.000000,0.000000,1772181007.387293,0.000000
12.000000,-937.610976,933.006517,-750.549227,642.947929,-26072.281727,-23901.592064,-4792.459880,-4908.353675,-13.433398,-710.561956,-19779.595110,1760.311635,-14434.086017,-10778.346453,-9371.706470,-8603.097034,0.009000,-0.007000,1.009000,192.000000,0.000000,0.000000,0.000000,0.000000,0.000000,0.000000,0.000000,0.000000,0.000000,1772181007.387331,0.000000
14.000000,-863.291426,1013.226928,-669.166526,734.679489,-25994.408249,-23825.014988,-4715.011086,-4834.704677,33.460561,-669.166526,-19738.780825,1801.461196,-14381.604121,-10740.661411,-9321.415045,-8551.263338,0.009000,-0.007000,1.009000,192.000000,0.000000,0.000000,0.000000,0.000000,0.000000,0.000000,0.000000,0.000000,0.000000,1772181007.387341,0.000000
16.000000,-936.471037,934.504084,-746.816486,660.471697,-26065.844424,-23902.910817,-4789.464747,-4910.477091,31.739477,-670.015892,-19739.652543,1802.109397,-14392.221200,-10754.675955,-9316.788234,-8535.460655,0.009000,-0.007000,1.009000,192.000000,0.000000,0.000000,0.000000,0.000000,0.000000,0.000000,0.000000,0.000000,0.000000,1772181007.387352,0.000000
18.000000,-897.444892,973.865506,-701.464796,702.358866,-26020.962122,-23866.142197,-4748.829275,-4867.941721,-22.329393,-726.096419,-19791.620349,1747.638195,-14442.914956,-10803.939200,-9365.895017,-8584.030996,0.009000,-0.007000,1.009000,192.000000,0.000000,0.000000,0.000000,0.000000,0.000000,0.000000,0.000000,0.000000,0.000000,1772181007.387362,0.000000
20.000000,-894.740331,979.721663,-696.234488,706.002200,-26024.314883,-23859.302564,-4742.615490,-4857.279939,58.136887,-649.161714,-19708.203639,1828.752676,-14354.759676,-10721.327152,-9284.311150,-8502.894163,0.007500,-0.009500,1.008500,192.000000,0.000000,24.000000,127.500000,80.000000,15.500000,64.000000,0.000000,0.000000,0.000000,1772181007.387372,0.000000
22.000000,-939.980261,934.504084,-751.443297,652.939159,-26072.102913,-23904.274273,-4795.164441,-4904.218603,-14.394523,-717.938032,-19779.550407,1766.637178,-14429.258040,-10798.395967,-9356.172008,-8575.157353,0.007500,-0.009500,1.008500,192.000000,0.000000,0.000000,0.000000,0.000000,0.000000,0.000000,0.000000,0.000000,0.000000,1772181007.387382,0.000000
24.000000,-862.240894,1017.987849,-677.146098,739.306300,-25999.727964,-23821.259895,-4716.799225,-4828.289727,32.387678,-666.797241,-19739.138453,1814.179339,-14384.040461,-10743.567138,-9317.794063,-8529.448036,0.007500,-0.009500,1.008500,192.000000,0.000000,0.000000,0.000000,0.000000,0.000000,0.000000,0.000000,0.000000,0.000000,1772181007.387392,0.000000
26.000000,-935.174636,938.013308,-756.695957,662.438650,-26075.276861,-23899.446297,-4790.314113,-4906.185556,32.745306,-665.076156,-19739.786653,1814.738132,-14368.282481,-10735.185234,-9323.560813,-8531.504396,0.007500,-0.009500,1.008500,192.000000,0.000000,0.000000,0.000000,0.000000,0.000000,0.000000,0.000000,0.000000,0.000000,1772181007.387404,0.000000
28.000000,-893.510985,984.080253,-712.350096,707.209195,-26030.595723,-23851.099473,-4747.532874,-4866.175934,-22.239986,-721.111980,-19796.873009,1754.231960,-14443.406694,-10788.047110,-9385.922180,-8590.758871,0.007500,-0.009500,1.008500,192.000000,0.000000,0.000000,0.000000,0.000000,0.000000,0.000000,0.000000,0.000000,0.000000,1772181007.387414,0.000000
30.000000,-887.185441,989.019989,-707.030381,709.623183,-26020.604494,-23842.918735,-4741.699069,-4860.632701,63.322492,-633.157865,-19713.545706,1839.213293,-14364.996775,-10709.056045,-9309.635676,-8510.024370,0.006750,-0.010750,1.008250,192.000000,0.000000,24.000000,127.500000,80.000000,15.500000,64.000000,0.000000,0.000000,0.000000,1772181007.387425,0.000000
32.000000,-942.796581,930.301956,-764.921399,643.596130,-26081.803570,-23904.296625,-4798.830128,-4916.780283,-11.108817,-712.528910,-19788.535808,1762.278588,-14425.614706,-10782.302711,-9382.278846,-8588.791917,0.006750,-0.010750,1.008250,192.000000,0.000000,0.000000,0.000000,0.000000,0.000000,0.000000,0.000000,0.000000,0.000000,1772181007.387435,0.000000
34.000000,-871.047481,1005.627335,-685.483299,720.642593,-26007.014633,-23832.949857,-4723.728266,-4842.527788,24.452808,-678.107223,-19751.118988,1795.605039,-14402.681816,-10754.385382,-9339.721124,-8557.186551,0.006750,-0.010750,1.008250,192.000000,0.000000,0.000000,0.000000,0.000000,0.000000,0.000000,0.000000,0.000000,0.000000,1772181007.387445,0.000000
36.000000,-939.823799,933.319441,-758.506448,645.272511,-26078.584919,-23911.516239,-4797.421968,-4912.265231,27.559701,-675.492069,-19747.654468,1799.158966,-14395.216333,-10754.318327,-9330.087522,-8557.454772,0.006750,-0.010750,1.008250,192.000000,0.000000,0.000000,0.000000,0.000000,0.000000,0.000000,0.000000,0.000000,0.000000,1772181007.387455,0.000000
38.000000,-895.522642,982.113300,-705.085779,689.171337,-26030.640427,-23873.518273,-4752.070278,-4865.483030,-23.558739,-725.090590,-19797.096526,1753.740222,-14443.719619,-10796.719586,-9379.440174,-8611.434235,0.006750,-0.010750,1.008250,192.000000,0.000000,0.000000,0.000000,0.000000,0.000000,0.000000,0.000000,0.000000,0.000000,1772181007.387466,0.000000
40.000000,-890.806424,983.476756,-692.837023,692.188822,-26021.319750,-23871.059581,-4744.269519,-4858.375175,63.970693,-644.512551,-19711.534049,1833.580653,-14348.300022,-10724.031713,-9291.262542,-8529.515091,0.006375,-0.013375,1.007125,192.000000,0.000000,24.000000,127.500000,64.000000,15.500000,56.000000,0.000000,0.000000,0.000000,1772181007.387475,0.000000
42.000000,-946.350508,925.697497,-747.084707,640.980976,-26071.745285,-23912.589122,-4795.745587,-4914.947440,-10.505320,-716.328706,-19782.567892,1761.161001,-14415.467014,-10793.880915,-9356.753153,-8589.373063,0.006375,-0.013375,1.007125,192.000000,0.000000,0.000000,0.000000,0.000000,0.000000,0.000000,0.000000,0.000000,0.000000,1772181007.387486,0.000000
44.000000,-878.356502,997.714817,-674.329778,723.101285,-25994.296490,-23834.805052,-4720.889595,-4844.047707,25.257471,-681.594095,-19751.722485,1793.705141,-14374.071583,-10744.908243,-9315.827109,-8542.032068,0.006375,-0.013375,1.007125,192.000000,0.000000,0.000000,0.000000,0.000000,0.000000,0.000000,0.000000,0.000000,0.000000,1772181007.387496,0.000000
46.000000,-943.914168,929.765514,-751.555056,651.732165,-26073.131093,-23904.877771,-4790.828203,-4911.751141,26.464465,-676.766119,-19750.895470,1798.130786,-14384.912179,-10745.020002,-9316.475310,-8534.812455,0.006375,-0.013375,1.007125,192.000000,0.000000,0.000000,0.000000,0.000000,0.000000,0.000000,0.000000,0.000000,0.000000,1772181007.387506,0.000000
48.000000,-907.547880,970.870372,-717.826273,698.134386,-26041.972761,-23860.755427,-4749.321014,-4870.355710,-29.012564,-729.136256,-19802.595055,1748.152286,-14445.932441,-10804.520345,-9374.411032,-8586.154412,0.006375,-0.013375,1.007125,192.000000,0.000000,0.000000,0.000000,0.000000,0.000000,0.000000,0.000000,0.000000,0.000000,1772181007.387516,0.000000
50.000000,-912.174691,964.433070,-725.537625,692.881726,-26046.957200,-23864.644631,-4749.298662,-4870.288655,43.027108,-653.788525,-19727.582601,1827.858606,-14381.961749,-10727.429179,-9304.092443,-8508.169175,0.007188,-0.013688,1.008563,192.000000,0.000000,32.000000,127.500000,72.000000,15.500000,72.000000,0.000000,0.000000,0.000000,1772181007.387526,0.000000
52.000000,-968.635198,905.893851,-782.311056,632.532016,-26092.755925,-23916.008939,-4803.836918,-4927.799693,-39.383774,-737.942843,-19809.971131,1749.828666,-14463.523264,-10805.839098,-9384.849296,-8595.206868,0.007188,-0.013688,1.008563,192.000000,0.000000,0.000000,0.000000,0.000000,0.000000,0.000000,0.000000,0.000000,0.000000,1772181007.387536,0.000000
54.000000,-893.421578,983.186183,-700.190747,709.153796,-26011.954369,-23837.017874,-4727.461008,-4852.250797,4.112721,-696.100378,-19771.257910,1787.647818,-14411.957790,-10760.442705,-9345.197302,-8555.264301,0.007188,-0.013688,1.008563,192.000000,0.000000,0.000000,0.000000,0.000000,0.000000,0.000000,0.000000,0.000000,0.000000,1772181007.387547,0.000000
56.000000,-955.447668,914.991011,-762.507410,638.142304,-26075.254509,-23904.430736,-4793.823337,-4916.132082,15.310945,-690.087758,-19760.953755,1788.139556,-14395.730423,-10761.940272,-9341.151636,-8560.986347,0.007188,-0.013688,1.008563,192.000000,0.000000,0.000000,0.000000,0.000000,0.000000,0.000000,0.000000,0.000000,0.000000,1772181007.387557,0.000000
58.000000,-916.935613,961.952026,-708.349134,691.004180,-26028.047625,-23858.900232,-4750.013918,-4871.786221,-27.291480,-729.337422,-19803.600884,1745.447725,-14439.070456,-10798.731243,-9383.999930,-8608.237935,0.007188,-0.013688,1.008563,192.000000,0.000000,0.000000,0.000000,0.000000,0.000000,0.000000,0.000000,0.000000,0.000000,1772181007.387568,0.000000
60.000000,-906.877328,969.395157,-694.021665,701.397741,-26018.481078,-23858.184976,-4740.827351,-4859.358652,61.064966,-638.611691,-19716.384377,1832.910101,-14351.451618,-10709.681894,-9299.912667,-8522.273126,0.006594,-0.011844,1.007281,192.000000,0.000000,24.000000,127.500000,88.000000,15.500000,56.000000,0.000000,0.000000,0.000000,1772181007.387579,0.000000
62.000000,-955.268855,917.650869,-744.335442,654.079098,-26071.410009,-23905.883599,-4792.146956,-4909.448911,-10.035933,-707.656229,-19785.250102,1765.899571,-14414.774110,-10771.417412,-9368.934854,-8592.479955,0.006594,-0.011844,1.007281,192.000000,0.000000,0.000000,0.000000,0.000000,0.000000,0.000000,0.000000,0.000000,0.000000,1772181007.387589,0.000000
64.000000,-873.327359,1005.649687,-664.517363,740.356832,-25993.424772,-23826.110223,-4709.780778,-4830.323736,46.335166,-655.531961,-19739.049046,1812.368847,-14351.921004,-10714.331056,-9325.192490,-8540.758019,0.006594,-0.011844,1.007281,192.000000,0.000000,0.000000,0.000000,0.000000,0.000000,0.000000,0.000000,0.000000,0.000000,1772181007.387600,0.000000
66.000000,-958.554561,915.996840,-751.778573,658.795316,-26070.873567,-23907.045890,-4785.575543,-4909.158338,42.892998,-653.006214,-19738.534956,1814.604022,-14373.311624,-10719.762530,-9322.845557,-8536.846463,0.006594,-0.011844,1.007281,192.000000,0.000000,0.000000,0.000000,0.000000,0.000000,0.000000,0.000000,0.000000,0.000000,1772181007.387609,0.000000
68.000000,-936.046354,942.573064,-720.732000,700.593078,-26030.036930,-23863.527043,-4748.516351,-4881.375120,-33.371154,-736.311166,-19809.546448,1751.750916,-14441.953831,-10808.454252,-9375.260398,-8585.841487,0.006594,-0.011844,1.007281,192.000000,0.000000,0.000000,0.000000,0.000000,0.000000,0.000000,0.000000,0.000000,0.000000,1772181007.387619,0.000000
70.000000,-935.889892,944.808238,-729.896215,701.822424,-26026.952389,-23856.754465,-4753.992528,-4890.159355,39.406125,-659.354110,-19745.821624,1820.728400,-14352.457446,-10727.116254,-9292.581295,-8490.824221,0.006594,-0.011844,1.007281,192.000000,0.000000,0.000000,0.000000,0.000000,0.000000,0.000000,0.000000,0.000000,0.000000,1772181007.387630,0.000000
72.000000,-986.606000,894.360351,-789.061283,643.573778,-26077.847311,-23900.720346,-4813.604631,-4947.782153,-48.145658,-733.897177,-19828.411320,1740.373879,-14456.214244,-10796.160793,-9364.620967,-8554.437286,0.004000,-0.006000,1.012000,192.000000,0.000000,16.000000,127.500000,104.000000,15.500000,80.000000,0.000000,0.000000,0.000000,1772181007.387640,0.000000
74.000000,-898.160147,985.711930,-702.336514,725.425866,-25990.653156,-23812.296845,-4734.121827,-4864.052518,3.285706,-679.247162,-19781.092677,1784.362112,-14408.515621,-10734.984068,-9324.432531,-8516.327562,0.004000,-0.006000,1.012000,192.000000,0.000000,0.000000,0.000000,0.000000,0.000000,0.000000,0.000000,0.000000,0.000000,1772181007.866398,0.000000
76.000000,-973.887858,901.490557,-770.643445,638.321118,-26069.867738,-23892.561959,-4808.441378,-4937.433295,5.342067,-680.364749,-19775.035354,1786.954914,-14402.614761,-10745.690554,-9322.554984,-8528.911594,0.004000,-0.006000,1.012000,192.000000,0.000000,0.000000,0.000000,0.000000,0.000000,0.000000,0.000000,0.000000,0.000000,1772181007.866450,0.000000
78.000000,-923.238805,955.335910,-716.216948,687.338494,-26028.472308,-23857.268555,-4760.832162,-4887.208925,-44.636434,-735.662965,-19821.147003,1737.289338,-14449.709886,-10792.115127,-9374.835715,-8602.001798,0.004000,-0.006000,1.012000,192.000000,0.000000,0.000000,0.000000,0.000000,0.000000,0.000000,0.000000,0.000000,0.000000,1772181007.866487,0.000000
80.000000,-912.442912,964.947160,-706.560994,697.508537,-26030.640427,-23859.213157,-4749.164551,-4871.830925,42.960053,-645.808953,-19731.225935,1823.701182,-14362.940414,-10716.499176,-9300.560868,-8528.308097,0.004000,-0.006000,1.012000,192.000000,0.000000,0.000000,0.000000,0.000000,0.000000,0.000000,0.000000,0.000000,0.000000,1772181007.866525,0.000000
82.000000,-956.453497,916.533281,-754.393727,649.184066,-26081.065962,-23914.019634,-4796.147918,-4915.014495,-23.268166,-717.580404,-19792.112087,1756.936521,-14422.172537,-10789.209400,-9371.304139,-8595.899772,0.004000,-0.006000,1.012000,192.000000,0.000000,0.000000,127.500000,104.000000,15.500000,40.000000,0.000000,0.000000,0.000000,1772181007.866562,0.000000
84.000000,-876.411900,1001.648724,-673.838040,735.730020,-26006.165267,-23836.883764,-4716.195728,-4836.112837,28.319660,-670.060595,-19744.122892,1804.277516,-14385.403917,-10751.703173,-9330.534557,-8549.832827,0.004000,-0.006000,1.012000,192.000000,0.000000,0.000000,0.000000,0.000000,0.000000,0.000000,0.000000,0.000000,0.000000,1772181007.866599,0.000000
86.000000,-950.373822,925.183406,-755.667777,659.063537,-26084.932814,-23915.539553,-4790.872907,-4912.265231,26.419762,-667.311331,-19745.486348,1806.982077,-14386.566208,-10747.255176,-9333.105008,-8543.373173,0.004000,-0.006000,1.012000,192.000000,0.000000,0.000000,0.000000,0.000000,0.000000,0.000000,0.000000,0.000000,0.000000,1772181007.866630,0.000000
88.000000,-918.746104,964.477773,-720.039096,705.711628,-26034.775500,-23865.963383,-4753.500790,-4879.497573,-34.488742,-722.318974,-19806.864239,1751.862675,-14440.948002,-10796.563124,-9382.457660,-8586.981426,0.004000,-0.006000,1.012000,192.000000,0.000000,0.000000,0.000000,0.000000,0.000000,0.000000,0.000000,0.000000,0.000000,1772181007.866640,0.000000
90.000000,-912.889947,967.897590,-718.452122,706.628049,-26016.558828,-23852.977020,-4756.898255,-4882.626818,42.043631,-645.205455,-19738.065569,1823.298850,-14358.693583,-10712.811138,-9295.107042,-8494.467556,0.004000,-0.006000,1.012000,192.000000,0.000000,0.000000,0.000000,0.000000,0.000000,0.000000,0.000000,0.000000,0.000000,1772181007.866656,0.000000
92.000000,-958.711023,917.986145,-769.525858,646.658319,-26058.624811,-23895.043003,-4813.470520,-4935.801618,-18.998983,-716.909852,-19805.411375,1751.080364,-14425.055912,-10782.190953,-9355.680270,-8552.202112,0.006000,-0.004000,1.004000,192.000000,0.000000,24.000000,127.500000,112.000000,15.500000,48.000000,0.000000,0.000000,0.000000,1772181007.866666,0.000000
94.000000,-880.479918,998.631239,-689.551316,721.469608,-25983.791171,-23818.823554,-4736.289947,-4857.570512,27.760867,-674.463889,-19762.741895,1787.580763,-14382.207618,-10740.415542,-9315.044798,-8509.554983,0.006000,-0.004000,1.004000,192.000000,0.000000,0.000000,0.000000,0.000000,0.000000,0.000000,0.000000,0.000000,0.000000,1772181007.866677,0.000000
96.000000,-953.704232,921.741238,-765.279027,642.076211,-26064.369209,-23898.284006,-4807.793177,-4928.760818,26.509169,-672.563991,-19757.243366,1792.632257,-14384.822772,-10736.638097,-9312.429644,-8517.065169,0.006000,-0.004000,1.004000,192.000000,0.000000,0.000000,0.000000,0.000000,0.000000,0.000000,0.000000,0.000000,0.000000,1772181007.866688,0.000000
98.000000,-918.634345,958.934541,-724.218872,682.532869,-26029.388729,-23859.637840,-4768.767031,-4891.031073,-34.980480,-734.165398,-19814.486183,1737.512855,-14450.671011,-10804.654456,-9363.659842,-8582.354615,0.006000,-0.004000,1.004000,192.000000,0.000000,0.000000,0.000000,0.000000,0.000000,0.000000,0.000000,0.000000,0.000000,1772181007.866699,0.000000
100.000000,-904.128063,971.675035,-707.723285,693.664037,-26007.461668,-23842.404645,-4761.502714,-4880.816326,49.419707,-652.492124,-19731.963543,1817.845025,-14365.220292,-10731.184272,-9279.192600,-8512.617172,0.006000,-0.004000,1.004000,192.000000,0.000000,0.000000,0.000000,0.000000,0.000000,0.000000,0.000000,0.000000,0.000000,1772181007.866709,0.000000
102.000000,-950.619692,923.954061,-749.543399,643.953758,-26053.774482,-23898.909855,-4809.558965,-4925.408056,-11.533500,-716.663982,-19791.128611,1756.288321,-14411.734272,-10781.229828,-9344.616156,-8588.993083,0.014000,-0.004000,1.002000,192.000000,0.000000,56.000000,127.500000,112.000000,15.500000,40.000000,0.000000,0.000000,0.000000,1772181007.866719,0.000000
104.000000,-867.851182,1009.918870,-664.226790,731.930224,-25991.010784,-23824.746767,-4722.409513,-4836.805741,32.119457,-673.413357,-19744.838148,1800.567126,-14380.285368,-10749.624461,-9316.207089,-8556.158371,0.014000,-0.004000,1.002000,192.000000,0.000000,0.000000,0.000000,0.000000,0.000000,0.000000,0.000000,0.000000,0.000000,1772181007.866730,0.000000
106.000000,-931.844226,941.299014,-736.892311,659.979959,-26068.593689,-23903.223741,-4785.307322,-4898.094225,42.915349,-665.702005,-19732.276467,1814.179339,-14369.467124,-10739.409714,-9316.229441,-8545.742458,0.014000,-0.004000,1.002000,192.000000,0.000000,0.000000,0.000000,0.000000,0.000000,0.000000,0.000000,0.000000,0.000000,1772181007.866740,0.000000
108.000000,-890.873479,986.203669,-698.983753,705.599869,-26030.886296,-23866.097494,-4744.649499,-4857.570512,-11.108817,-718.519177,-19785.093640,1761.116297,-14425.055912,-10793.031549,-9373.740479,-8595.095109,0.014000,-0.004000,1.002000,192.000000,0.000000,0.000000,0.000000,0.000000,0.000000,0.000000,0.000000,0.000000,0.000000,1772181007.866751,0.000000
110.000000,-888.370083,986.293076,-700.391913,710.159625,-26025.298360,-23861.001296,-4741.430848,-4857.682271,70.609161,-634.409563,-19707.175458,1841.515522,-14343.695562,-10706.239725,-9294.749414,-8508.280934,0.014000,-0.004000,1.002000,192.000000,0.000000,0.000000,0.000000,0.000000,0.000000,0.000000,0.000000,0.000000,0.000000,1772181007.866762,0.000000
112.000000,-951.044375,919.506063,-762.954445,647.530037,-26079.724858,-23914.399614,-4803.009904,-4925.296298,-8.493663,-715.993430,-19785.339509,1759.931655,-14429.861537,-10786.437784,-9367.660805,-8576.520810,0.010000,-0.002000,1.006000,192.000000,0.000000,40.000000,127.500000,120.000000,15.500000,56.000000,0.000000,0.000000,0.000000,1772181007.866772,0.000000
114.000000,-883.609162,992.260992,-688.903116,728.845683,-26001.560807,-23832.972209,-4729.047981,-4854.575378,25.033954,-681.035302,-19753.577680,1788.385426,-14392.332958,-10744.885891,-9326.287726,-8526.408199,0.010000,-0.002000,1.006000,192.000000,0.000000,0.000000,0.000000,0.000000,0.000000,0.000000,0.000000,0.000000,0.000000,1772181007.866783,0.000000
116.000000,-967.428204,903.815139,-772.722158,648.915845,-26074.718067,-23901.815582,-4806.206203,-4934.616975,20.273032,-685.706816,-19759.433837,1786.396120,-14395.037519,-10756.397039,-9322.532633,-8508.012713,0.010000,-0.002000,1.006000,192.000000,0.000000,0.000000,0.000000,0.000000,0.000000,0.000000,0.000000,0.000000,0.000000,1772181007.866793,0.000000
118.000000,-933.565311,942.483657,-731.036154,686.444424,-26031.735662,-23852.887613,-4768.811735,-4896.820175,-44.122344,-745.922416,-19822.130480,1727.588681,-14457.935328,-10810.488261,-9373.025223,-8553.654975,0.010000,-0.002000,1.006000,192.000000,0.000000,0.000000,0.000000,0.000000,0.000000,0.000000,0.000000,0.000000,0.000000,1772181007.866804,0.000000
120.000000,-928.714982,944.629424,-721.938994,677.280209,-26018.928113,-23860.531910,-4766.062470,-4893.400358,36.232178,-667.736014,-19740.993648,1804.277516,-14370.964691,-10732.681839,-9281.874809,-8500.435472,0.010000,-0.002000,1.006000,192.000000,0.000000,0.000000,0.000000,0.000000,0.000000,0.000000,0.000000,0.000000,0.000000,1772181007.866814,0.000000
122.000000,-967.271741,904.910374,-767.111870,625.737086,-26065.330334,-23916.277160,-4814.833977,-4937.925033,-29.347840,-737.071125,-19809.054710,1734.830646,-14428.453377,-10794.104432,-9353.378040,-8604.438139,0.010000,0.000000,1.006000,192.000000,0.000000,40.000000,0.000000,0.000000,15.500000,56.000000,0.000000,0.000000,0.000000,1772181007.866826,0.000000
124.000000,-876.188383,1000.285268,-673.413357,718.653288,-25984.171150,-23835.497956,-4728.243319,-4847.176951,25.078657,-684.097491,-19759.970279,1785.636161,-14362.314565,-10761.135609,-9320.364513,-8574.330339,0.010000,0.000000,1.006000,192.000000,0.000000,0.000000,0.000000,0.000000,0.000000,0.000000,0.000000,0.000000,0.000000,1772181007.866837,0.000000
126.000000,-936.448686,934.057049,-738.635747,654.816706,-26063.475140,-23903.983701,-4789.554154,-4902.966905,42.647128,-666.841944,-19737.752645,1803.405798,-14366.695507,-10739.275603,-9319.045761,-8558.795876,0.010000,0.000000,1.006000,192.000000,0.000000,0.000000,0.000000,0.000000,0.000000,0.000000,0.000000,0.000000,0.000000,1772181007.866847,0.000000
128.000000,-897.757816,978.134689,-700.458968,702.425921,-26028.807584,-23862.655325,-4745.811790,-4857.682271,-8.918346,-720.709648,-19782.523189,1757.942350,-14429.392151,-10791.846906,-9379.551933,-8600.973618,0.010000,0.000000,1.006000,192.000000,0.000000,0.000000,0.000000,0.000000,0.000000,0.000000,0.000000,0.000000,0.000000,1772181007.866857,0.000000
130.000000,-890.471147,986.650704,-699.721360,713.579442,-26025.208953,-23853.491110,-4737.966327,-4849.166256,68.597504,-637.069420,-19703.420365,1840.263824,-14347.964746,-10715.068664,-9305.947638,-8515.142919,0.010000,0.000000,1.006000,192.000000,0.000000,0.000000,0.000000,0.000000,0.000000,0.000000,0.000000,0.000000,0.000000,1772181007.866868,0.000000
132.000000,-944.942349,930.547825,-755.935997,655.330796,-26074.628660,-23906.464744,-4794.650351,-4908.577193,-6.280840,-706.046904,-19776.510570,1770.906361,-14423.692456,-10784.180258,-9370.365366,-8578.599522,0.008000,-0.008000,1.006000,192.000000,0.000000,32.000000,127.500000,96.000000,15.500000,56.000000,0.000000,0.000000,0.000000,1772181007.866878,0.000000
134.000000,-873.640284,1005.984963,-678.554258,732.489018,-25991.971909,-23828.859488,-4720.934298,-4837.476294,28.073791,-670.418223,-19745.307534,1802.444673,-14387.236761,-10745.087057,-9323.314944,-8535.617117,0.008000,-0.008000,1.006000,192.000000,0.000000,0.000000,0.000000,0.000000,0.000000,0.000000,0.000000,0.000000,0.000000,1772181007.866889,0.000000
136.000000,-957.839305,917.583813,-767.290684,644.870179,-26070.225366,-23910.979797,-4804.865099,-4922.837606,23.379925,-676.453194,-19750.113159,1797.013199,-14381.268845,-10743.209510,-9314.731874,-8528.509263,0.008000,-0.008000,1.006000,192.000000,0.000000,0.000000,0.000000,0.000000,0.000000,0.000000,0.000000,0.000000,0.000000,1772181007.866899,0.000000
138.000000,-931.576005,948.988014,-739.999204,684.365712,-26042.710369,-23873.093590,-4768.901142,-4894.495594,-46.357518,-743.173151,-19820.185878,1731.924919,-14448.726410,-10810.443558,-9372.198209,-8582.913409,0.008000,-0.008000,1.006000,192.000000,0.000000,0.000000,0.000000,0.000000,0.000000,0.000000,0.000000,0.000000,0.000000,1772181007.866910,0.000000
140.000000,-929.676107,951.111430,-739.865093,688.009046,-26037.234192,-23866.879805,-4765.123697,-4893.176841,23.804608,-670.999369,-19752.169520,1807.026780,-14388.331996,-10736.347525,-9295.218801,-8503.520012,0.008000,-0.008000,1.006000,192.000000,0.000000,0.000000,0.000000,0.000000,0.000000,0.000000,0.000000,0.000000,0.000000,1772181007.866920,0.000000
142.000000,-971.563276,904.396284,-782.512222,633.828418,-26072.639355,-23902.374375,-4817.672648,-4942.328327,-42.155390,-740.267425,-19817.280152,1738.496332,-14447.832340,-10798.910057,-9356.127305,-8571.759888,0.007000,-0.010000,1.003000,192.000000,0.000000,24.000000,127.500000,80.000000,15.500000,32.000000,0.000000,0.000000,0.000000,1772181007.866931,0.000000
144.000000,-874.668464,1004.733265,-688.925468,724.308279,-25979.767857,-23803.110278,-4731.685487,-4849.769753,12.964012,-690.892421,-19766.385229,1782.864545,-14392.221200,-10757.045240,-9316.408255,-8532.465521,0.007000,-0.010000,1.003000,192.000000,0.000000,0.000000,0.000000,0.000000,0.000000,0.000000,0.000000,0.000000,0.000000,1772181007.866941,0.000000
146.000000,-927.172712,945.925825,-752.091497,654.682595,-26051.338142,-23877.407477,-4794.628000,-4903.570402,38.690870,-666.797241,-19742.982953,1806.467987,-14374.630377,-10739.230900,-9313.435473,-8534.745399,0.007000,-0.010000,1.003000,192.000000,0.000000,0.000000,0.000000,0.000000,0.000000,0.000000,0.000000,0.000000,0.000000,1772181007.866952,0.000000
148.000000,-881.441043,997.513652,-705.443407,705.622221,-26021.006825,-23843.991619,-4748.181075,-4853.144867,-4.939736,-712.819482,-19785.920654,1766.726585,-14420.652618,-10774.323139,-9374.209866,-8599.677217,0.007000,-0.010000,1.003000,192.000000,0.000000,0.000000,0.000000,0.000000,0.000000,0.000000,0.000000,0.000000,0.000000,1772181007.866962,0.000000
150.000000,-873.550877,1005.582631,-700.213099,712.283041,-26023.778441,-23849.311334,-4742.168455,-4845.478218,74.945399,-626.474694,-19702.213371,1855.731232,-14340.231042,-10708.564306,-9300.314999,-8517.713370,0.007000,-0.010000,1.003000,192.000000,0.000000,0.000000,0.000000,0.000000,0.000000,0.000000,0.000000,0.000000,0.000000,1772181007.866972,0.000000
152.000000,-930.793694,947.132820,-755.041928,656.336624,-26082.988212,-23912.790288,-4796.349084,-4906.051446,-1.452863,-704.214061,-19776.264700,1782.976303,-14422.798386,-10782.101546,-9370.052441,-8592.055272,0.005500,-0.010000,1.003500,192.000000,0.000000,16.000000,127.500000,88.000000,15.500000,48.000000,0.000000,0.000000,0.000000,1772181007.866982,0.000000
154.000000,-868.275865,1012.154044,-681.325874,731.259672,-26010.948540,-23844.818633,-4721.403685,-4841.790180,28.833750,-672.653398,-19746.469825,1811.050094,-14390.522467,-10749.423295,-9330.221633,-8554.347879,0.005500,-0.010000,1.003500,192.000000,0.000000,0.000000,0.000000,0.000000,0.000000,0.000000,0.000000,0.000000,0.000000,1772181007.866994,0.000000
156.000000,-949.904436,924.311688,-763.088556,648.155886,-26081.445942,-23920.747509,-4798.696017,-4923.619917,19.401314,-684.745691,-19753.220052,1798.354304,-14394.344615,-10755.950005,-9323.270240,-8547.888225,0.005500,-0.010000,1.003500,192.000000,0.000000,0.000000,0.000000,0.000000,0.000000,0.000000,0.000000,0.000000,0.000000,1772181007.867004,0.000000
158.000000,-918.991973,958.196933,-731.013802,683.136366,-26048.119491,-23884.023593,-4767.157706,-4891.500460,-44.591730,-753.991396,-19815.134384,1734.025983,-14450.738067,-10814.377465,-9376.109764,-8597.710263,0.005500,-0.010000,1.003500,192.000000,0.000000,0.000000,0.000000,0.000000,0.000000,0.000000,0.000000,0.000000,0.000000,1772181007.867015,0.000000
160.000000,-911.817063,965.349491,-729.002145,687.204383,-26043.582087,-23875.194654,-4764.944883,-4888.907658,36.053364,-672.698101,-19738.669066,1812.011220,-14376.306757,-10729.127911,-9299.465632,-8506.671608,0.005500,-0.010000,1.003500,192.000000,0.000000,0.000000,0.000000,0.000000,0.000000,0.000000,0.000000,0.000000,0.000000,1772181007.867026,0.000000
162.000000,-965.193029,909.671296,-789.798890,630.319194,-26091.236006,-23924.860230,-4823.797026,-4948.586815,-36.098067,-744.134276,-19814.374425,1737.535207,-14427.156976,-10819.875994,-9367.683156,-8568.250664,0.005500,-0.010000,1.003500,192.000000,0.000000,0.000000,127.500000,80.000000,15.500000,56.000000,0.000000,0.000000,0.000000,1772181007.867036,0.000000
164.000000,-885.620819,995.501995,-704.504633,718.541529,-26008.512200,-23838.671903,-4741.632014,-4866.779431,3.285706,-702.872956,-19778.522227,1777.611885,-14404.380549,-10786.571894,-9333.328525,-8518.763902,0.005500,-0.010000,1.003500,192.000000,0.000000,0.000000,0.000000,0.000000,0.000000,0.000000,0.000000,0.000000,0.000000,1772181007.867046,0.000000
166.000000,-945.389383,930.167846,-764.228495,647.351223,-26067.721971,-23907.068241,-4807.390846,-4926.480940,16.406180,-691.138290,-19762.607785,1793.839251,-14398.703205,-10769.897493,-9317.592897,-8516.573431,0.005500,-0.010000,1.003500,192.000000,0.000000,0.000000,0.000000,0.000000,0.000000,0.000000,0.000000,0.000000,0.000000,1772181007.867056,0.000000
168.000000,-895.500290,982.336817,-710.338439,698.044979,-26016.692938,-23863.504692,-4760.630996,-4873.976692,-28.878454,-739.909797,-19802.840925,1748.509914,-14440.344505,-10815.003313,-9356.216712,-8582.332263,0.005500,-0.010000,1.003500,192.000000,0.000000,0.000000,0.000000,0.000000,0.000000,0.000000,0.000000,0.000000,0.000000,1772181007.867066,0.000000
170.000000,-872.455641,1003.101588,-695.921564,714.786436,-26011.708499,-23850.361866,-4743.911891,-4851.982576,67.189344,-641.584473,-19706.884886,1839.302699,-14344.991964,-10718.734350,-9272.285911,-8510.493757,0.005500,-0.010000,1.003500,192.000000,0.000000,0.000000,0.000000,0.000000,0.000000,0.000000,0.000000,0.000000,0.000000,1772181007.867077,0.000000
172.000000,-920.735409,955.291206,-755.310149,661.097546,-26077.646146,-23910.443355,-4796.438491,-4900.217640,-0.447035,-703.096474,-19769.872102,1779.601190,-14416.517546,-10771.417412,-9355.680270,-8593.754005,0.003750,-0.010000,1.004750,192.000000,0.000000,8.000000,127.500000,88.000000,15.500000,56.000000,0.000000,0.000000,0.000000,1772181007.867087,0.000000
174.000000,-843.465429,1037.947957,-675.313255,745.877712,-26004.757107,-23834.246258,-4714.362885,-4818.209090,39.115553,-662.215133,-19729.750720,1823.075333,-14379.190133,-10737.018077,-9333.127360,-8560.338147,0.003750,-0.010000,1.004750,192.000000,0.000000,0.000000,0.000000,0.000000,0.000000,0.000000,0.000000,0.000000,0.000000,1772181007.867098,0.000000
176.000000,-915.750970,956.833477,-750.862151,660.538752,-26079.657803,-23915.025463,-4789.330636,-4896.820175,44.010585,-661.231656,-19723.603991,1824.729362,-14370.070621,-10738.850920,-9330.534557,-8556.247777,0.003750,-0.010000,1.004750,192.000000,0.000000,0.000000,0.000000,0.000000,0.000000,0.000000,0.000000,0.000000,0.000000,1772181007.867109,0.000000
178.000000,-880.904601,994.563221,-705.488110,696.994447,-26037.033026,-23874.121770,-4753.321976,-4864.544256,-10.840596,-721.894291,-19780.936215,1764.446707,-14436.097674,-10800.653493,-9378.255532,-8608.416749,0.003750,-0.010000,1.004750,192.000000,0.000000,0.000000,0.000000,0.000000,0.000000,0.000000,0.000000,0.000000,0.000000,1772181007.867121,0.000000
180.000000,-885.687874,988.908230,-709.064389,700.883651,-26027.377072,-23865.136369,-4751.511485,-4868.299349,65.110632,-647.597092,-19709.969426,1836.016993,-14356.056077,-10736.571042,-9296.515202,-8522.071960,0.003750,-0.010000,1.004750,192.000000,0.000000,0.000000,0.000000,0.000000,0.000000,0.000000,0.000000,0.000000,0.000000,1772181007.867132,0.000000
182.000000,-952.363128,918.880215,-780.612323,641.182141,-26078.853140,-23917.774727,-4814.431645,-4936.271004,-19.334259,-728.599814,-19796.068346,1756.243617,-14433.348409,-10800.005293,-9368.264302,-8583.248685,0.006875,-0.006000,1.007375,192.000000,0.000000,40.000000,127.500000,120.000000,15.500000,72.000000,0.000000,0.000000,0.000000,1772181007.867142,0.000000
184.000000,-883.542107,994.563221,-702.850604,720.977869,-26004.779459,-23833.732168,-4740.670889,-4867.785259,13.142826,-697.419130,-19768.732163,1784.585629,-14383.436964,-10768.645795,-9327.807644,-8535.661821,0.006875,-0.006000,1.007375,192.000000,0.000000,0.000000,0.000000,0.000000,0.000000,0.000000,0.000000,0.000000,0.000000,1772181007.867152,0.000000
186.000000,-957.392270,917.092075,-775.136146,646.412450,-26071.611175,-23898.306358,-4814.453997,-4942.529493,14.215709,-694.356942,-19769.022735,1783.490394,-14399.396110,-10762.029679,-9318.710484,-8524.351838,0.006875,-0.006000,1.007375,192.000000,0.000000,0.000000,0.000000,0.000000,0.000000,0.000000,0.000000,0.000000,0.000000,1772181007.867164,0.000000
188.000000,-912.085284,965.595360,-724.397686,691.071235,-26021.073880,-23850.026590,-4773.930284,-4893.556821,-35.226349,-745.274215,-19819.381215,1732.975451,-14441.059761,-10809.728302,-9366.677328,-8571.737536,0.006875,-0.006000,1.007375,192.000000,0.000000,0.000000,0.000000,0.000000,0.000000,0.000000,0.000000,0.000000,0.000000,1772181007.867174,0.000000
190.000000,-899.277735,974.983093,-709.399666,697.262668,-26009.942712,-23837.464909,-4764.229627,-4881.486879,56.169934,-660.628159,-19727.761415,1815.565147,-14360.816999,-10717.482652,-9279.192600,-8493.595838,0.006875,-0.006000,1.007375,192.000000,0.000000,0.000000,0.000000,0.000000,0.000000,0.000000,0.000000,0.000000,0.000000,1772181007.867184,0.000000
192.000000,-947.289282,927.306822,-760.763974,650.301653,-26064.480968,-23888.292776,-4811.995305,-4928.246728,-11.622907,-726.118770,-19791.463887,1753.293187,-14423.044255,-10795.557296,-9342.917424,-8558.862932,0.007437,-0.005000,1.008688,192.000000,0.000000,32.000000,127.500000,112.000000,15.500000,72.000000,0.000000,0.000000,0.000000,1772181007.867195,0.000000
194.000000,-865.660711,1016.467931,-679.180107,742.390840,-25993.245958,-23816.700139,-4723.795321,-4841.611366,27.224425,-676.676712,-19749.956697,1802.019990,-14387.437926,-10749.177426,-9311.312057,-8524.955335,0.007437,-0.005000,1.008688,192.000000,0.000000,0.000000,0.000000,0.000000,0.000000,0.000000,0.000000,0.000000,0.000000,1772181008.347927,0.000000
196.000000,-925.764552,954.464192,-750.705689,674.821517,-26071.342954,-23893.076049,-4786.804889,-4899.927068,37.081544,-661.790450,-19738.825528,1817.733266,-14380.553589,-10729.865519,-9321.795025,-8530.453864,0.007437,-0.005000,1.008688,192.000000,0.000000,0.000000,0.000000,0.000000,0.000000,0.000000,0.000000,0.000000,0.000000,1772181008.347993,0.000000
198.000000,-882.245705,1002.699256,-706.516290,719.770875,-26030.327503,-23855.994505,-4743.464857,-4853.077811,-8.784236,-707.164491,-19783.663128,1774.236771,-14421.278467,-10780.693386,-9382.301197,-8596.056234,0.007437,-0.005000,1.008688,192.000000,0.000000,0.000000,0.000000,0.000000,0.000000,0.000000,0.000000,0.000000,0.000000,1772181008.348043,0.000000
200.000000,-877.104804,1003.302753,-703.029418,717.647459,-26029.075805,-23860.643668,-4740.357964,-4849.903864,74.923047,-623.479560,-19699.531162,1856.267674,-14346.690696,-10708.586658,-9302.617228,-8523.502472,0.007437,-0.005000,1.008688,192.000000,0.000000,0.000000,0.000000,0.000000,0.000000,0.000000,0.000000,0.000000,0.000000,1772181008.348092,0.000000
202.000000,-938.214474,938.281529,-764.787288,651.173371,-26082.854102,-23918.422928,-4805.379189,-4915.215661,-7.331372,-709.399666,-19785.071288,1771.778079,-14425.525299,-10788.360034,-9377.920255,-8600.101900,0.007719,-0.007500,1.008344,192.000000,0.000000,32.000000,127.500000,88.000000,15.500000,64.000000,0.000000,0.000000,0.000000,1772181008.348139,0.000000
204.000000,-863.202019,1018.166663,-680.476508,727.415172,-25998.655081,-23836.123805,-4729.383258,-4843.600672,33.169989,-671.200534,-19747.810930,1805.350400,-14379.167781,-10748.193949,-9329.573432,-8555.510170,0.007719,-0.007500,1.008344,192.000000,0.000000,0.000000,0.000000,0.000000,0.000000,0.000000,0.000000,0.000000,0.000000,1772181008.348186,0.000000
206.000000,-942.841285,934.615843,-757.545323,643.529075,-26074.516901,-23911.605646,-4802.719331,-4919.641306,32.499436,-677.213154,-19748.861462,1800.902403,-14373.110458,-10735.252289,-9321.504452,-8548.514074,0.007719,-0.007500,1.008344,192.000000,0.000000,0.000000,0.000000,0.000000,0.000000,0.000000,0.000000,0.000000,0.000000,1772181008.348227,0.000000
208.000000,-915.303935,964.857753,-725.582329,683.538697,-26042.084520,-23877.720401,-4766.733023,-4884.325550,-31.068925,-738.367526,-19808.227695,1742.385536,-14454.046125,-10812.432863,-9374.723956,-8599.587810,0.007719,-0.007500,1.008344,192.000000,0.000000,0.000000,0.000000,0.000000,0.000000,0.000000,0.000000,0.000000,0.000000,1772181008.348251,0.000000
210.000000,-903.479863,979.632256,-718.832102,703.141177,-26025.968912,-23855.301601,-4756.518275,-4870.243951,44.949358,-656.806011,-19732.589392,1824.371734,-14373.065755,-10745.310574,-9295.688188,-8511.007847,0.007719,-0.007500,1.008344,192.000000,0.000000,0.000000,0.000000,0.000000,0.000000,0.000000,0.000000,0.000000,0.000000,1772181008.348275,0.000000
212.000000,-947.512799,934.101753,-767.849477,660.918732,-26062.782235,-23891.220855,-4808.910764,-4919.104864,-14.640393,-712.931241,-19796.627140,1765.363129,-14428.341619,-10788.650607,-9347.007793,-8554.191417,0.007719,-0.007500,1.008344,192.000000,0.000000,0.000000,0.000000,0.000000,0.000000,0.000000,0.000000,0.000000,0.000000,1772181008.348299,0.000000
214.000000,-868.633493,1016.155006,-683.203421,745.408326,-25987.948595,-23811.514534,-4729.360906,-4838.884454,28.610233,-669.032415,-19753.778846,1807.607926,-14388.980197,-10734.984068,-9300.829089,-8504.190565,0.016000,-0.006000,1.008000,192.000000,0.000000,64.000000,127.500000,104.000000,15.500000,64.000000,0.000000,0.000000,0.000000,1772181008.348323,0.000000
216.000000,-931.419543,945.612901,-750.571579,667.892476,-26061.485834,-23886.079953,-4797.354912,-4902.452815,35.852198,-662.528057,-19740.233688,1816.213347,-14383.749888,-10734.939365,-9302.103138,-8513.690056,0.016000,-0.006000,1.008000,192.000000,0.000000,0.000000,0.000000,0.000000,0.000000,0.000000,0.000000,0.000000,0.000000,1772181008.348348,0.000000
218.000000,-883.050368,998.363018,-702.381218,711.321916,-26018.548133,-23845.109206,-4754.640729,-4854.865951,-6.258488,-709.980811,-19782.746706,1768.179449,-14424.720636,-10776.915941,-9360.754116,-8583.852182,0.016000,-0.006000,1.008000,192.000000,0.000000,0.000000,0.000000,0.000000,0.000000,0.000000,0.000000,0.000000,0.000000,1772181008.348380,0.000000
220.000000,-872.947380,1007.683695,-693.284058,719.569709,-26010.322691,-23843.365770,-4744.001298,-4842.907768,81.025074,-620.953813,-19696.088993,1852.534932,-14337.146501,-10699.556553,-9287.775670,-8514.427664,0.016000,-0.006000,1.008000,192.000000,0.000000,0.000000,0.000000,0.000000,0.000000,0.000000,0.000000,0.000000,0.000000,1772181008.348404,0.000000
222.000000,-931.598357,945.009404,-751.689166,656.247217,-26076.819131,-23908.476401,-4801.601744,-4902.653981,10.862948,-698.782587,-19765.267642,1781.925771,-14403.799403,-10771.998557,-9359.681232,-8592.099976,0.016000,-0.006000,1.008000,192.000000,0.000000,0.000000,0.000000,0.000000,0.000000,0.000000,0.000000,0.000000,0.000000,1772181008.348428,0.000000
224.000000,-857.189400,1025.743905,-666.283150,739.149837,-25994.564711,-23830.066482,-4722.476569,-4827.373305,44.412916,-664.472659,-19732.701151,1816.593327,-14364.370926,-10737.956850,-9320.431569,-8556.583054,0.012000,-0.008000,1.006000,192.000000,0.000000,48.000000,127.500000,96.000000,15.500000,56.000000,0.000000,0.000000,0.000000,1772181008.348451,0.000000
226.000000,-924.356392,953.815991,-738.456933,661.186953,-26060.301192,-23901.055622,-4795.298552,-4898.608315,49.173838,-659.465868,-19729.750720,1821.220138,-14367.053135,-10729.418484,-9306.908763,-8548.894054,0.012000,-0.008000,1.006000,192.000000,0.000000,0.000000,0.000000,0.000000,0.000000,0.000000,0.000000,0.000000,0.000000,1772181008.348475,0.000000
228.000000,-891.186403,989.243506,-704.236413,700.727189,-26020.157459,-23861.805959,-4759.692223,-4865.795954,-4.582108,-714.004125,-19783.774887,1766.458364,-14421.703150,-10798.954761,-9354.450924,-8597.643208,0.012000,-0.008000,1.006000,192.000000,0.000000,0.000000,0.000000,0.000000,0.000000,0.000000,0.000000,0.000000,0.000000,1772181008.348499,0.000000
230.000000,-891.499328,987.857698,-709.891404,704.236413,-26019.956293,-23859.213157,-4754.551322,-4864.007814,66.474088,-640.556293,-19713.858630,1838.408630,-14345.014315,-10721.014228,-9285.540496,-8521.379056,0.012000,-0.008000,1.006000,192.000000,0.000000,0.000000,0.000000,0.000000,0.000000,0.000000,0.000000,0.000000,0.000000,1772181008.348523,0.000000
232.000000,-942.215436,933.252386,-772.699806,648.714679,-26074.628660,-23907.515276,-4810.765959,-4922.524681,-9.946526,-716.082837,-19789.094602,1763.686748,-14427.738121,-10790.058767,-9365.872665,-8586.735557,0.012000,-0.008000,1.006000,192.000000,0.000000,0.000000,0.000000,0.000000,0.000000,0.000000,0.000000,0.000000,0.000000,1772181008.348547,0.000000
234.000000,-869.259342,1010.343553,-697.061503,733.941881,-26001.918435,-23824.210325,-4733.026592,-4846.886378,29.996041,-675.268552,-19753.532976,1801.751769,-14388.197886,-10741.935461,-9331.339220,-8534.544234,0.012000,-0.008000,1.008000,192.000000,0.000000,48.000000,127.500000,96.000000,15.500000,64.000000,0.000000,0.000000,0.000000,1772181008.348570,0.000000
236.000000,-930.570177,946.037584,-763.848515,665.053805,-26068.280765,-23888.583349,-4802.026427,-4912.444045,29.057268,-672.541639,-19752.661258,1807.049132,-14387.192057,-10741.309612,-9322.800854,-8522.563699,0.012000,-0.008000,1.008000,192.000000,0.000000,0.000000,0.000000,0.000000,0.000000,0.000000,0.000000,0.000000,0.000000,1772181008.348594,0.000000
238.000000,-888.124214,991.769253,-712.819482,712.908889,-26018.637540,-23841.756444,-4756.898255,-4866.131230,-14.014544,-716.954555,-19795.889532,1764.938446,-14438.534014,-10790.885781,-9357.691927,-8573.972711,0.012000,-0.008000,1.008000,192.000000,0.000000,0.000000,0.000000,0.000000,0.000000,0.000000,0.000000,0.000000,0.000000,1772181008.348618,0.000000
240.000000,-877.909467,1000.777006,-701.397741,720.933166,-26005.181790,-23829.954723,-4746.392935,-4858.844561,73.961922,-633.426086,-19711.846973,1845.292967,-14347.204786,-10698.036635,-9276.488039,-8496.166288,0.012000,-0.008000,1.008000,192.000000,0.000000,0.000000,0.000000,0.000000,0.000000,0.000000,0.000000,0.000000,0.000000,1772181008.348642,0.000000
242.000000,-935.375802,940.717869,-753.499657,660.695214,-26064.726837,-23884.917663,-4800.774729,-4915.617992,1.654029,-707.790340,-19783.707831,1771.822783,-14404.559362,-10772.602054,-9351.545197,-8570.597597,0.012000,-0.008000,1.008000,192.000000,0.000000,0.000000,0.000000,0.000000,0.000000,0.000000,0.000000,0.000000,0.000000,1772181008.348665,0.000000
244.000000,-856.094164,1023.754600,-670.753499,741.876750,-25988.887368,-23809.592284,-4719.392028,-4834.861140,43.652957,-666.506668,-19743.653505,1811.206557,-14372.685775,-10737.085132,-9319.448092,-8537.964051,0.014000,-0.008000,1.008000,192.000000,0.000000,56.000000,127.500000,96.000000,15.500000,64.000000,0.000000,0.000000,0.000000,1772181008.348721,0.000000
246.000000,-936.001651,938.952081,-753.320843,656.358976,-26074.203977,-23898.194599,-4795.589125,-4913.807501,44.971710,-665.053805,-19740.546613,1815.498092,-14372.238740,-10733.285336,-9317.838766,-8537.896995,0.014000,-0.008000,1.008000,192.000000,0.000000,0.000000,0.000000,0.000000,0.000000,0.000000,0.000000,0.000000,0.000000,1772181008.348745,0.000000
248.000000,-900.171804,978.849945,-718.899157,693.574630,-26036.563639,-23863.839968,-4757.680566,-4876.122460,-19.557776,-730.075029,-19803.578532,1752.153248,-14436.052970,-10795.825517,-9379.998968,-8605.958057,0.014000,-0.008000,1.008000,192.000000,0.000000,0.000000,0.000000,0.000000,0.000000,0.000000,0.000000,0.000000,0.000000,1772181008.348768,0.000000
250.000000,-889.621781,988.304733,-714.227642,702.984715,-26032.875601,-23861.046000,-4748.471647,-4864.320739,65.647073,-646.837133,-19719.938304,1835.435848,-14347.763580,-10720.455434,-9300.762034,-8527.414027,0.014000,-0.008000,1.008000,192.000000,0.000000,0.000000,0.000000,0.000000,0.000000,0.000000,0.000000,0.000000,0.000000,1772181008.348794,0.000000
252.000000,-946.998709,929.787866,-774.666759,641.539769,-26089.447867,-23919.205239,-4809.156634,-4925.542167,-9.387733,-716.798093,-19795.151925,1760.624559,-14432.566098,-10782.705043,-9376.869723,-8598.872554,0.014000,-0.008000,1.008000,192.000000,0.000000,0.000000,0.000000,0.000000,0.000000,0.000000,0.000000,0.000000,0.000000,1772181008.348818,0.000000
254.000000,-872.433290,1010.075332,-687.718473,729.963270,-26006.277025,-23834.246258,-4727.528063,-4848.294538,25.168064,-682.979904,-19763.099523,1791.291152,-14397.362101,-10756.441743,-9336.636583,-8556.180722,0.008000,-0.008000,1.010000,192.000000,0.000000,32.000000,127.500000,96.000000,15.500000,72.000000,0.000000,0.000000,0.000000,1772181008.348842,0.000000
0.000000,-933.162979,943.847113,-751.733870,659.823496,-26062.849291,-23901.614416,-4794.806814,-4908.800710,41.842466,-668.495973,-19744.547575,1808.077312,-14377.580807,-10743.209510,-9315.447130,-8542.546158,0.008000,-0.008000,1.010000,192.000000,0.000000,0.000000,0.000000,0.000000,0.000000,0.000000,0.000000,0.000000,0.000000,1772181008.348865,0.000000
2.000000,-892.594563,988.908230,-712.886538,700.794244,-26024.314883,-23861.493035,-4757.278235,-4868.120535,-13.768675,-725.045887,-19795.241331,1758.769364,-14418.931534,-10792.048072,-9361.894055,-8599.140775,0.008000,-0.008000,1.010000,192.000000,0.000000,0.000000,0.000000,0.000000,0.000000,0.000000,0.000000,0.000000,0.000000,1772181008.348889,0.000000
4.000000,-888.593601,993.758558,-708.706761,714.451160,-26018.794002,-23850.652438,-4748.695165,-4861.593826,68.105765,-640.690403,-19715.602066,1840.733211,-14342.801493,-10702.909315,-9278.879676,-8507.632733,0.008000,-0.008000,1.010000,192.000000,0.000000,0.000000,0.000000,0.000000,0.000000,0.000000,0.000000,0.000000,0.000000,1772181008.348912,0.000000
6.000000,-944.271796,937.454514,-765.167268,663.623293,-26069.130131,-23897.233474,-4805.289782,-4920.870652,-9.454788,-712.774779,-19792.268549,1771.509859,-14424.295953,-10787.354206,-9352.618081,-8568.362423,0.008000,-0.008000,1.010000,192.000000,0.000000,0.000000,0.000000,0.000000,0.000000,0.000000,0.000000,0.000000,0.000000,1772181008.348936,0.000000
8.000000,-866.465374,1019.418361,-681.392930,751.063317,-25992.463647,-23809.234656,-4723.571804,-4840.829055,30.688945,-669.658264,-19754.650564,1810.536004,-14391.595351,-10737.845092,-9316.609420,-8518.294515,0.008000,-0.008000,1.012000,192.000000,0.000000,32.000000,127.500000,96.000000,15.500000,80.000000,0.000000,0.000000,0.000000,1772181008.348959,0.000000
10.000000,-924.892834,950.999671,-751.420945,673.949799,-26051.315791,-23875.105247,-4791.185831,-4903.346885,48.682099,-659.309406,-19737.864403,1821.041324,-14372.194037,-10732.950060,-9305.433548,-8507.073940,0.008000,-0.008000,1.012000,192.000000,0.000000,0.000000,0.000000,0.000000,0.000000,0.000000,0.000000,0.000000,0.000000,1772181008.348983,0.000000
12.000000,-893.019246,986.673055,-714.160587,703.297639,-26018.861058,-23842.426997,-4754.305453,-4865.058346,-4.045666,-718.049791,-19789.116954,1763.507934,-14421.367874,-10785.901342,-9365.202113,-8571.446964,0.008000,-0.008000,1.012000,192.000000,0.000000,0.000000,0.000000,0.000000,0.000000,0.000000,0.000000,0.000000,0.000000,1772181008.349007,0.000000
14.000000,-886.783110,993.624448,-705.197538,702.224756,-26012.244941,-23839.476566,-4746.817618,-4858.196361,72.844335,-640.466886,-19711.981083,1838.654499,-14331.603269,-10701.545859,-9289.832031,-8504.458786,0.008000,-0.008000,1.012000,192.000000,0.000000,0.000000,0.000000,0.000000,0.000000,0.000000,0.000000,0.000000,0.000000,1772181008.349030,0.000000
16.000000,-938.683860,938.885026,-760.853381,640.042202,-26070.158311,-23899.759221,-4803.389883,-4913.651039,-0.759959,-713.959421,-19785.697137,1766.123088,-14416.495194,-10794.909095,-9361.894055,-8586.109708,0.008000,-0.008000,1.012000,192.000000,0.000000,0.000000,0.000000,0.000000,0.000000,0.000000,0.000000,0.000000,0.000000,1772181008.349052,0.000000
18.000000,-864.118441,1019.887748,-681.437633,725.425866,-25998.990357,-23824.053863,-4726.052848,-4837.297480,40.590768,-675.536773,-19746.670991,1802.891708,-14380.866513,-10751.725525,-9330.691019,-8553.476161,0.012000,-0.008000,1.014000,192.000000,0.000000,48.000000,127.500000,96.000000,15.500000,88.000000,0.000000,0.000000,0.000000,1772181008.349063,0.000000
20.000000,-927.105657,951.826686,-749.476343,653.117973,-26065.755017,-23896.875846,-4794.359779,-4904.263306,46.893960,-662.975092,-19737.596183,1811.497129,-14370.249435,-10738.985031,-9327.025333,-8551.218635,0.012000,-0.008000,1.014000,192.000000,0.000000,0.000000,0.000000,0.000000,0.000000,0.000000,0.000000,0.000000,0.000000,1772181008.349073,0.000000
22.000000,-886.783110,995.524346,-708.192671,699.497843,-26023.465517,-23852.842909,-4758.127601,-4864.276035,-4.984439,-714.808788,-19790.592169,1759.305806,-14418.216278,-10795.400834,-9382.323549,-8607.254458,0.012000,-0.008000,1.014000,192.000000,0.000000,0.000000,0.000000,0.000000,0.000000,0.000000,0.000000,0.000000,0.000000,1772181008.349086,0.000000
24.000000,-877.663598,1004.554451,-698.626125,712.931241,-26008.311034,-23845.042151,-4747.644633,-4851.021451,83.595524,-628.486351,-19705.789650,1848.690432,-14338.889937,-10708.430196,-9292.111908,-8517.936887,0.012000,-0.008000,1.014000,192.000000,0.000000,0.000000,0.000000,0.000000,0.000000,0.000000,0.000000,0.000000,0.000000,1772181008.349102,0.000000
26.000000,-936.806314,943.668299,-756.472439,654.973168,-26069.666573,-23904.095459,-4806.094445,-4907.727827,3.777445,-705.354000,-19780.466828,1778.237734,-14415.355255,-10780.603979,-9352.908653,-8580.499420,0.012000,-0.008000,1.014000,192.000000,0.000000,0.000000,0.000000,0.000000,0.000000,0.000000,0.000000,0.000000,0.000000,1772181008.349115,0.000000
28.000000,-867.672368,1018.099608,-680.655322,735.551207,-25996.241092,-23831.184069,-4728.131560,-4834.391753,35.941605,-674.754462,-19747.877985,1808.881975,-14370.137676,-10744.282394,-9303.533650,-8537.472312,0.015000,-0.010000,1.013000,192.000000,0.000000,72.000000,127.500000,80.000000,15.500000,80.000000,0.000000,0.000000,0.000000,1772181008.349126,0.000000
30.000000,-933.654718,945.769363,-757.433564,658.549447,-26070.650050,-23901.480305,-4797.779596,-4904.822100,37.662689,-674.329778,-19744.525223,1808.010257,-14375.859723,-10749.244481,-9299.443281,-8529.716257,0.015000,-0.010000,1.013000,192.000000,0.000000,0.000000,0.000000,0.000000,0.000000,0.000000,0.000000,0.000000,0.000000,1772181008.349136,0.000000
32.000000,-894.941496,987.656532,-721.648421,693.641686,-26035.647218,-23862.320049,-4761.413307,-4869.886323,-16.249718,-726.275233,-19797.074175,1754.410774,-14438.064627,-10798.328912,-9366.297348,-8585.752080,0.015000,-0.010000,1.013000,192.000000,0.000000,0.000000,0.000000,0.000000,0.000000,0.000000,0.000000,0.000000,0.000000,1772181008.349147,0.000000
34.000000,-887.811290,996.261954,-712.104227,694.714569,-26023.242000,-23855.256898,-4751.243264,-4866.108878,67.636379,-646.926540,-19717.971351,1832.060734,-14355.050249,-10716.990914,-9294.794118,-8513.466539,0.015000,-0.010000,1.013000,192.000000,0.000000,0.000000,0.000000,0.000000,0.000000,0.000000,0.000000,0.000000,0.000000,1772181008.349158,0.000000
36.000000,-937.119238,941.388421,-764.653178,635.035412,-26075.299212,-23908.118773,-4809.447206,-4921.161225,-0.134110,-717.088666,-19786.367689,1760.848076,-14424.854746,-10798.463023,-9363.033994,-8593.709301,0.015000,-0.010000,1.013000,192.000000,0.000000,0.000000,0.000000,0.000000,0.000000,0.000000,0.000000,0.000000,0.000000,1772181008.349169,0.000000
38.000000,-853.501362,1030.191902,-683.896325,726.699916,-25997.112810,-23815.917828,-4728.958574,-4835.062305,38.020317,-678.755424,-19749.710828,1797.571993,-14380.195961,-10756.866426,-9334.624926,-8561.925121,0.013500,-0.011000,1.012500,192.000000,0.000000,48.000000,127.500000,80.000000,15.500000,80.000000,0.000000,0.000000,0.000000,1772181008.349181,0.000000
40.000000,-905.513871,972.591456,-750.124544,664.830287,-26062.536366,-23875.015840,-4791.498755,-4891.545164,56.147582,-659.130592,-19733.192889,1819.387295,-14365.600272,-10739.186196,-9334.244947,-8550.212806,0.013500,-0.011000,1.012500,192.000000,0.000000,0.000000,0.000000,0.000000,0.000000,0.000000,0.000000,0.000000,0.000000,1772181008.349192,0.000000
42.000000,-859.759850,1025.140408,-704.281116,716.373410,-26017.430546,-23833.173374,-4749.186903,-4845.969957,16.808512,-698.492014,-19774.990651,1781.791661,-14404.939342,-10774.792525,-9387.643264,-8602.560592,0.013500,-0.011000,1.012500,192.000000,0.000000,0.000000,0.000000,0.000000,0.000000,0.000000,0.000000,0.000000,0.000000,1772181008.349203,0.000000
44.000000,-853.479010,1028.671983,-697.039151,724.889424,-26011.864962,-23831.027607,-4740.670889,-4842.907768,100.269926,-612.929536,-19692.244493,1865.297778,-14326.350609,-10683.463297,-9306.908763,-8521.155539,0.013500,-0.011000,1.012500,192.000000,0.000000,0.000000,0.000000,0.000000,0.000000,0.000000,0.000000,0.000000,0.000000,1772181008.349213,0.000000
46.000000,-917.829683,963.360186,-757.500620,666.372557,-26074.785122,-23898.976910,-4797.176098,-4904.509175,22.284689,-690.579497,-19767.234596,1791.827594,-14408.135642,-10765.270682,-9371.438250,-8588.255476,0.013500,-0.011000,1.012500,192.000000,0.000000,0.000000,0.000000,0.000000,0.000000,0.000000,0.000000,0.000000,0.000000,1772181008.349224,0.000000
48.000000,-849.790972,1035.936300,-680.252991,743.799000,-25996.285796,-23827.518383,-4720.219042,-4833.073000,51.118440,-662.818630,-19738.311438,1822.203615,-14371.299967,-10729.664353,-9328.455845,-8550.190455,0.011750,-0.014500,1.012250,192.000000,0.000000,40.000000,127.500000,56.000000,15.500000,80.000000,0.000000,0.000000,0.000000,1772181008.349235,0.000000
50.000000,-927.105657,953.346605,-756.584198,659.667034,-26066.537329,-23908.141125,-4796.237325,-4908.979524,48.123306,-662.773927,-19737.707941,1821.264842,-14365.644975,-10741.689592,-9312.027313,-8542.032068,0.011750,-0.014500,1.012250,192.000000,0.000000,0.000000,0.000000,0.000000,0.000000,0.000000,0.000000,0.000000,0.000000,1772181008.349245,0.000000
52.000000,-899.322438,983.588515,-720.128503,695.116901,-26034.082596,-23871.886596,-4762.843819,-4877.508268,-12.673439,-727.214006,-19798.929369,1759.417565,-14432.074360,-10807.403720,-9361.737592,-8598.447871,0.011750,-0.014500,1.012250,192.000000,0.000000,0.000000,0.000000,0.000000,0.000000,0.000000,0.000000,0.000000,0.000000,1772181008.349256,0.000000
54.000000,-897.109615,983.387349,-713.825311,699.944878,-26025.521877,-23863.147064,-4757.591159,-4877.061233,61.959036,-653.341490,-19721.748796,1831.323127,-14352.725667,-10726.713923,-9278.298530,-8512.080730,0.011750,-0.014500,1.012250,192.000000,0.000000,0.000000,0.000000,0.000000,0.000000,0.000000,0.000000,0.000000,0.000000,1772181008.349267,0.000000
56.000000,-952.921921,926.502159,-774.309131,640.019851,-26078.920195,-23911.493887,-4816.935041,-4933.052353,-10.840596,-727.303413,-19795.598959,1756.310672,-14420.205584,-10784.806107,-9352.014584,-8577.124307,0.011750,-0.014500,1.012250,192.000000,0.000000,0.000000,0.000000,0.000000,0.000000,0.000000,0.000000,0.000000,0.000000,1772181008.349278,0.000000
58.000000,-872.925028,1011.304678,-688.210212,730.387954,-25995.436429,-23815.202572,-4732.691316,-4850.037974,29.101971,-685.282133,-19760.193796,1796.968495,-14388.555513,-10759.794505,-9321.795025,-8536.690001,0.010875,-0.014250,1.011125,192.000000,0.000000,40.000000,127.500000,72.000000,15.500000,72.000000,0.000000,0.000000,0.000000,1772181008.828688,0.000000
60.000000,-921.271851,957.571084,-750.146896,668.339511,-26049.639410,-23863.527043,-4795.075035,-4905.112672,50.403184,-664.293845,-19742.044180,1815.363981,-14363.566263,-10726.669219,-9316.050627,-8524.128321,0.010875,-0.014250,1.011125,192.000000,0.000000,0.000000,0.000000,0.000000,0.000000,0.000000,0.000000,0.000000,0.000000,1772181008.828749,0.000000
62.000000,-878.155336,1006.208480,-704.035247,712.908889,-26010.412098,-23826.512554,-4754.685432,-4860.118611,7.219613,-703.767026,-19784.110163,1772.918018,-14404.514659,-10772.445592,-9376.534447,-8585.997949,0.010875,-0.014250,1.011125,192.000000,0.000000,0.000000,0.000000,0.000000,0.000000,0.000000,0.000000,0.000000,0.000000,1772181008.828791,0.000000
64.000000,-860.989196,1021.050038,-691.160642,728.041020,-26001.694918,-23822.802165,-4741.587310,-4848.495704,97.922992,-611.633135,-19695.753717,1862.526162,-14319.332161,-10682.524524,-9298.616266,-8517.176928,0.010875,-0.014250,1.011125,192.000000,0.000000,0.000000,0.000000,0.000000,0.000000,0.000000,0.000000,0.000000,0.000000,1772181008.828833,0.000000
66.000000,-926.613918,956.699366,-752.717346,670.418223,-26063.810416,-23889.633881,-4798.628962,-4904.397417,22.307041,-686.355017,-19766.228767,1794.465100,-14396.848011,-10759.995670,-9368.309005,-8587.651978,0.010875,-0.014250,1.011125,192.000000,0.000000,0.000000,0.000000,0.000000,0.000000,0.000000,0.000000,0.000000,0.000000,1772181008.828876,0.000000
68.000000,-860.117478,1029.208425,-674.329778,756.584198,-25988.797961,-23816.789546,-4716.195728,-4826.769808,50.693756,-647.865313,-19733.952848,1836.575787,-14353.418571,-10720.902469,-9328.589955,-8544.624870,0.009437,-0.011125,1.010562,192.000000,0.000000,32.000000,127.500000,96.000000,15.500000,72.000000,0.000000,0.000000,0.000000,1772181008.828918,0.000000
70.000000,-936.605148,942.193084,-747.218817,674.776813,-26058.513052,-23897.233474,-4789.643561,-4905.447949,45.463448,-662.438650,-19734.712808,1833.245377,-14363.499208,-10729.843167,-9314.776577,-8535.147731,0.009437,-0.011125,1.010562,192.000000,0.000000,0.000000,0.000000,0.000000,0.000000,0.000000,0.000000,0.000000,0.000000,1772181008.828964,0.000000
72.000000,-901.468206,978.089986,-712.528910,702.649439,-26022.593799,-23861.493035,-4760.407479,-4879.966960,-7.197262,-722.073105,-19793.408488,1767.933579,-14419.557383,-10792.942142,-9360.843523,-8588.478993,0.009437,-0.011125,1.010562,192.000000,0.000000,0.000000,0.000000,0.000000,0.000000,0.000000,0.000000,0.000000,0.000000,1772181008.828976,0.000000
74.000000,-899.188328,979.207573,-708.192671,698.357904,-26012.379052,-23857.447369,-4759.044022,-4880.190477,71.324417,-651.352185,-19720.631208,1833.938281,-14327.825824,-10720.030751,-9278.142068,-8511.723103,0.009437,-0.011125,1.010562,192.000000,0.000000,0.000000,0.000000,0.000000,0.000000,0.000000,0.000000,0.000000,0.000000,1772181008.828986,0.000000
76.000000,-961.773212,918.723752,-772.051605,636.220054,-26072.460541,-23918.311169,-4821.628907,-4942.708307,-7.800759,-725.381163,-19798.057651,1760.624559,-14415.779938,-10784.001444,-9345.242005,-8582.354615,0.009437,-0.011125,1.010562,192.000000,0.000000,0.000000,0.000000,0.000000,0.000000,0.000000,0.000000,0.000000,0.000000,1772181008.828996,0.000000
78.000000,-875.115499,1006.253184,-684.052787,724.800017,-25988.283871,-23833.329837,-4738.122790,-4856.989367,32.879416,-692.010008,-19763.434799,1797.460234,-14374.518618,-10755.838246,-9306.528784,-8547.910577,0.008719,-0.010562,1.012281,192.000000,0.000000,32.000000,127.500000,88.000000,15.500000,88.000000,0.000000,0.000000,0.000000,1772181008.829007,0.000000
80.000000,-933.565311,944.808238,-757.008881,656.157810,-26054.176814,-23891.980814,-4807.189680,-4919.954231,44.234102,-677.816651,-19748.637944,1811.832406,-14372.372850,-10751.479656,-9297.699845,-8537.718181,0.008719,-0.010562,1.012281,192.000000,0.000000,0.000000,0.000000,0.000000,0.000000,0.000000,0.000000,0.000000,0.000000,1772181008.829018,0.000000
82.000000,-887.632476,992.596268,-721.179035,703.677619,-26018.905761,-23842.024665,-4766.330691,-4878.916428,-3.084541,-723.816541,-19796.850657,1760.915132,-14417.053988,-10795.937275,-9365.760906,-8586.534391,0.008719,-0.010562,1.012281,192.000000,0.000000,0.000000,0.000000,0.000000,0.000000,0.000000,0.000000,0.000000,0.000000,1772181008.829028,0.000000
84.000000,-867.962941,1012.712838,-707.656229,721.179035,-26007.081688,-23828.099528,-4752.070278,-4862.152620,87.484728,-632.643775,-19710.952903,1850.523275,-14326.037684,-10708.161975,-9298.593914,-8500.301361,0.008719,-0.010562,1.012281,192.000000,0.000000,0.000000,0.000000,0.000000,0.000000,0.000000,0.000000,0.000000,0.000000,1772181008.829038,0.000000
86.000000,-914.275755,965.952988,-755.153686,668.652435,-26059.988267,-23887.175189,-4802.004075,-4905.023265,25.145713,-692.680561,-19771.168503,1795.135652,-14396.445679,-10767.327042,-9370.298311,-8580.387662,0.008719,-0.010562,1.012281,192.000000,0.000000,0.000000,0.000000,0.000000,0.000000,0.000000,0.000000,0.000000,0.000000,1772181008.829048,0.000000
88.000000,-834.032993,1050.152010,-672.720453,750.772745,-25990.653156,-23817.929485,-4720.174339,-4822.724142,63.031919,-653.028566,-19728.230802,1837.894540,-14360.302908,-10730.960754,-9331.830958,-8552.358574,0.012359,-0.009281,1.015141,192.000000,0.000000,64.000000,127.500000,96.000000,15.500000,104.000000,0.000000,0.000000,0.000000,1772181008.829058,0.000000
90.000000,-903.636325,976.033625,-746.704727,673.949799,-26057.127244,-23892.964291,-4791.699921,-4894.830870,69.938608,-647.440630,-19719.200697,1844.935339,-14350.043458,-10720.567193,-9319.179871,-8544.960147,0.012359,-0.009281,1.015141,192.000000,0.000000,0.000000,0.000000,0.000000,0.000000,0.000000,0.000000,0.000000,0.000000,1772181008.829075,0.000000
92.000000,-876.948342,1006.096721,-708.751465,707.902099,-26020.559790,-23861.113055,-4757.457049,-4865.125402,8.851291,-714.182939,-19781.025622,1780.919943,-14406.012226,-10790.841078,-9368.197247,-8601.487708,0.012359,-0.009281,1.015141,192.000000,0.000000,0.000000,0.000000,0.000000,0.000000,0.000000,0.000000,0.000000,0.000000,1772181008.829086,0.000000
94.000000,-867.359444,1013.428094,-701.911831,712.037171,-26010.456802,-23851.613563,-4748.628110,-4857.190532,87.127100,-636.108295,-19705.879057,1857.318206,-14334.844272,-10712.609972,-9281.852458,-8517.780425,0.012359,-0.009281,1.015141,192.000000,0.000000,0.000000,0.000000,0.000000,0.000000,0.000000,0.000000,0.000000,0.000000,1772181008.829097,0.000000
96.000000,-933.274738,946.708136,-769.347044,640.399830,-26072.058209,-23915.003111,-4812.755264,-4921.787074,12.516977,-711.478378,-19778.946910,1780.361149,-14401.407767,-10783.129726,-9347.320717,-8588.478993,0.012359,-0.009281,1.015141,192.000000,0.000000,0.000000,0.000000,0.000000,0.000000,0.000000,0.000000,0.000000,0.000000,1772181008.829107,0.000000
98.000000,-861.704452,1023.687544,-692.792319,722.408381,-26002.052546,-23831.385235,-4735.507636,-4848.875683,40.210788,-678.956590,-19750.023752,1808.189071,-14382.811115,-10749.646813,-9314.955391,-8546.301251,0.012359,-0.009281,1.015141,192.000000,0.000000,0.000000,0.000000,0.000000,0.000000,0.000000,0.000000,0.000000,0.000000,1772181008.829118,0.000000
100.000000,-931.777171,948.138648,-771.515163,647.418278,-26067.811378,-23903.179038,-4809.827186,-4925.832740,44.189399,-674.888572,-19747.185081,1811.810054,-14375.859723,-10757.626385,-9308.763958,-8534.678344,0.010000,-0.008000,1.012000,192.000000,0.000000,40.000000,127.500000,96.000000,15.500000,80.000000,0.000000,0.000000,0.000000,1772181008.829128,0.000000
102.000000,-892.415749,990.718721,-735.372393,693.596982,-26021.252694,-23852.127654,-4775.852534,-4893.579172,-13.276936,-733.494846,-19810.775794,1749.962777,-14428.408674,-10808.811880,-9363.637491,-8583.919237,0.010000,-0.008000,1.012000,192.000000,0.000000,0.000000,0.000000,0.000000,0.000000,0.000000,0.000000,0.000000,0.000000,1772181008.829138,0.000000
104.000000,-871.248647,1014.120998,-722.318974,711.523081,-26007.305206,-23832.726339,-4761.770935,-4872.523829,80.756853,-637.091772,-19724.229839,1840.733211,-14334.978382,-10712.878193,-9287.596856,-8492.902934,0.010000,-0.008000,1.012000,192.000000,0.000000,0.000000,0.000000,0.000000,0.000000,0.000000,0.000000,0.000000,0.000000,1772181008.829148,0.000000
106.000000,-909.984220,971.764442,-770.196410,657.007177,-26072.304079,-23888.583349,-4810.520090,-4912.108768,17.322602,-694.714569,-19782.813762,1783.780966,-14411.533107,-10771.573874,-9372.824058,-8579.314778,0.010000,-0.008000,1.012000,192.000000,0.000000,0.000000,0.000000,0.000000,0.000000,0.000000,0.000000,0.000000,0.000000,1772181008.829162,0.000000
108.000000,-820.890167,1065.284141,-674.754462,753.790230,-25989.446162,-23804.741955,-4718.185034,-4819.281974,69.871553,-645.831304,-19728.923706,1833.223025,-14361.845179,-10720.433083,-9341.777485,-8550.749248,0.010000,-0.008000,1.012000,192.000000,0.000000,0.000000,0.000000,0.000000,0.000000,0.000000,0.000000,0.000000,0.000000,1772181008.829176,0.000000
110.000000,-880.994008,1001.291096,-742.659061,686.355017,-26052.209860,-23875.954613,-4784.994398,-4883.185611,87.015341,-629.291013,-19712.696339,1854.032499,-14336.610059,-10701.076472,-9329.908708,-8542.032068,0.016000,-0.012000,1.008000,192.000000,0.000000,64.000000,127.500000,80.000000,15.500000,64.000000,0.000000,0.000000,0.000000,1772181008.829190,0.000000
112.000000,-846.997004,1037.567978,-702.068293,721.871939,-26012.736680,-23844.796281,-4748.426944,-4848.562759,33.706431,-683.449290,-19767.301651,1801.081216,-14385.359214,-10763.996633,-9379.149601,-8599.520755,0.016000,-0.012000,1.008000,192.000000,0.000000,0.000000,0.000000,0.000000,0.000000,0.000000,0.000000,0.000000,0.000000,1772181008.829203,0.000000
114.000000,-838.369231,1043.111210,-693.976962,726.208177,-26000.800848,-23837.867241,-4738.212197,-4841.365497,112.675144,-609.017981,-19686.120115,1876.496002,-14321.209707,-10693.029844,-9292.402481,-8518.830957,0.016000,-0.012000,1.008000,192.000000,0.000000,0.000000,0.000000,0.000000,0.000000,0.000000,0.000000,0.000000,0.000000,1772181008.829216,0.000000
116.000000,-905.335057,972.099718,-757.433564,655.263740,-26065.665611,-23903.380204,-4802.406407,-4909.583021,34.756963,-686.466776,-19761.736067,1800.835347,-14392.981159,-10774.256083,-9356.753153,-8586.959074,0.016000,-0.012000,1.008000,192.000000,0.000000,0.000000,0.000000,0.000000,0.000000,0.000000,0.000000,0.000000,0.000000,1772181008.829230,0.000000
118.000000,-843.398374,1038.573806,-683.225773,730.477361,-25993.648290,-23831.586400,-4730.322031,-4842.974823,56.549913,-666.327854,-19739.965467,1819.923737,-14365.980252,-10748.909205,-9320.096293,-8554.057307,0.016000,-0.012000,1.008000,192.000000,0.000000,0.000000,0.000000,0.000000,0.000000,0.000000,0.000000,0.000000,0.000000,1772181008.829244,0.000000
120.000000,-916.622688,959.046299,-759.847553,653.721470,-26064.011581,-23898.596930,-4804.798043,-4918.300202,55.097050,-666.752537,-19739.384322,1818.090894,-14365.846141,-10739.610879,-9308.808662,-8538.768713,0.010000,-0.014000,1.010000,192.000000,0.000000,40.000000,127.500000,72.000000,15.500000,72.000000,0.000000,0.000000,0.000000,1772181008.829258,0.000000
122.000000,-880.301104,998.407721,-726.364640,695.966267,-26020.783308,-23856.508596,-4768.677624,-4885.420786,-1.944602,-727.102247,-19799.689329,1757.428260,-14422.820738,-10801.681674,-9356.507284,-8591.027092,0.010000,-0.014000,1.010000,192.000000,0.000000,0.000000,0.000000,0.000000,0.000000,0.000000,0.000000,0.000000,0.000000,1772181008.829282,0.000000
124.000000,-875.763700,1004.889727,-724.330631,711.634840,-26000.398517,-23835.654418,-4760.541589,-4880.078719,79.080472,-643.305557,-19724.766281,1837.849836,-14333.994905,-10717.482652,-9272.710594,-8504.279972,0.010000,-0.014000,1.010000,192.000000,0.000000,0.000000,0.000000,0.000000,0.000000,0.000000,0.000000,0.000000,0.000000,1772181008.829292,0.000000
126.000000,-926.099828,954.061860,-780.522916,661.633988,-26054.400331,-23872.601852,-4817.337372,-4934.974603,10.348858,-706.918622,-19794.749593,1773.610923,-14405.989874,-10770.322176,-9341.106932,-8558.147676,0.010000,-0.014000,1.010000,192.000000,0.000000,0.000000,0.000000,0.000000,0.000000,0.000000,0.000000,0.000000,0.000000,1772181008.829303,0.000000
128.000000,-845.499438,1040.361946,-696.189785,751.085669,-25984.081743,-23788.648699,-4733.920662,-4852.407259,49.218541,-665.545543,-19758.383305,1811.877109,-14376.642034,-10724.702266,-9324.611345,-8500.770748,0.010000,-0.014000,1.010000,192.000000,0.000000,0.000000,0.000000,0.000000,0.000000,0.000000,0.000000,0.000000,0.000000,1772181008.829314,0.000000
130.000000,-900.372970,977.687654,-756.383032,680.096529,-26051.896936,-23865.158721,-4797.153747,-4908.711303,65.334149,-655.576665,-19739.630191,1825.712839,-14359.453542,-10714.174594,-9321.392694,-8492.612361,0.014000,-0.014000,1.010000,192.000000,0.000000,56.000000,127.500000,72.000000,15.500000,72.000000,0.000000,0.000000,0.000000,1772181008.829324,0.000000
132.000000,-859.379871,1021.698239,-713.780607,718.832102,-26018.011691,-23838.001351,-4756.942958,-4865.617140,17.702582,-706.560994,-19782.053802,1779.400024,-14405.341674,-10776.938293,-9377.316758,-8569.949397,0.014000,-0.014000,1.010000,192.000000,0.000000,0.000000,0.000000,0.000000,0.000000,0.000000,0.000000,0.000000,0.000000,1772181008.829334,0.000000
134.000000,-846.058231,1034.706954,-700.861299,725.247052,-26006.433488,-23836.772005,-4741.855531,-4851.177913,104.337943,-621.400848,-19692.915045,1862.816735,-14314.414777,-10695.399129,-9294.637656,-8507.923306,0.014000,-0.014000,1.010000,192.000000,0.000000,0.000000,0.000000,0.000000,0.000000,0.000000,0.000000,0.000000,0.000000,1772181008.829345,0.000000
136.000000,-900.529432,977.575895,-759.534628,665.165563,-26064.369209,-23894.685375,-4797.332561,-4901.223469,31.426553,-694.468700,-19760.774942,1792.654609,-14395.573961,-10777.027700,-9364.598616,-8589.596580,0.014000,-0.014000,1.010000,192.000000,0.000000,0.000000,0.000000,0.000000,0.000000,0.000000,0.000000,0.000000,0.000000,1772181008.829356,0.000000
138.000000,-831.842522,1049.548513,-684.455119,743.553131,-25987.434505,-23817.661264,-4721.716609,-4830.346087,65.445908,-661.164601,-19727.672008,1825.019935,-14360.235853,-10738.783865,-9325.393656,-8555.085487,0.014000,-0.014000,1.010000,192.000000,0.000000,0.000000,0.000000,0.000000,0.000000,0.000000,0.000000,0.000000,0.000000,1772181008.829367,0.000000
140.000000,-906.743217,969.216343,-760.361643,661.164601,-26060.234137,-23893.344270,-4798.673665,-4909.448911,65.289446,-659.152944,-19727.828470,1825.198749,-14360.369964,-10733.195929,-9313.234307,-8547.999984,0.014000,-0.008000,1.018000,192.000000,0.000000,56.000000,127.500000,96.000000,15.500000,104.000000,0.000000,0.000000,0.000000,1772181008.829377,0.000000
142.000000,-885.084377,994.406759,-730.052677,690.490090,-26030.416910,-23865.359886,-4770.868095,-4883.945570,-2.704561,-729.605643,-19793.721413,1758.925826,-14423.200717,-10801.636970,-9365.649148,-8607.254458,0.014000,-0.008000,1.018000,192.000000,0.000000,0.000000,0.000000,0.000000,0.000000,0.000000,0.000000,0.000000,0.000000,1772181008.829387,0.000000
144.000000,-881.262229,998.742997,-722.430733,701.241279,-26018.414023,-23853.289944,-4760.653348,-4875.697777,70.899733,-653.296787,-19719.066586,1836.799304,-14337.705295,-10726.378647,-9284.020577,-8520.328524,0.014000,-0.008000,1.018000,192.000000,0.000000,0.000000,0.000000,0.000000,0.000000,0.000000,0.000000,0.000000,0.000000,1772181008.829398,0.000000
146.000000,-946.574026,931.933633,-787.362550,639.528112,-26075.634489,-23905.391861,-4820.980706,-4941.277795,-8.314849,-730.186788,-19795.576608,1763.083251,-14421.122005,-10791.154002,-9347.141903,-8574.755022,0.014000,-0.008000,1.018000,192.000000,0.000000,0.000000,0.000000,0.000000,0.000000,0.000000,0.000000,0.000000,0.000000,1772181008.829408,0.000000
148.000000,-865.794821,1021.072390,-710.807825,729.762105,-25991.122543,-23815.873124,-4744.336575,-4865.147753,25.726858,-695.720398,-19768.374535,1792.140519,-14387.795554,-10748.417467,-9313.077845,-8523.927155,0.014000,-0.008000,1.018000,192.000000,0.000000,0.000000,0.000000,0.000000,0.000000,0.000000,0.000000,0.000000,0.000000,1772181008.829418,0.000000
150.000000,-920.243671,963.002558,-778.086576,668.115994,-26054.132110,-23872.735962,-4810.408331,-4923.619917,43.407088,-674.396834,-19753.935308,1810.223080,-14378.385470,-10747.054010,-9307.713426,-8498.043835,0.014000,-0.006000,1.018000,192.000000,0.000000,56.000000,127.500000,104.000000,15.500000,104.000000,0.000000,0.000000,0.000000,1772181008.829429,0.000000
152.000000,-873.215601,1013.651611,-733.696012,711.590136,-26023.621979,-23836.414377,-4768.767031,-4874.781355,-2.324581,-717.736866,-19797.096526,1767.933579,-14425.972334,-10786.236618,-9376.556799,-8559.153504,0.014000,-0.006000,1.018000,192.000000,0.000000,0.000000,0.000000,0.000000,0.000000,0.000000,0.000000,0.000000,0.000000,1772181008.829440,0.000000
154.000000,-854.596598,1030.326012,-710.427846,723.593023,-26013.809563,-23834.492127,-4747.912854,-4852.384907,87.909411,-625.066534,-19705.029691,1860.738022,-14328.854004,-10698.997760,-9307.087577,-8500.323713,0.014000,-0.006000,1.018000,192.000000,0.000000,0.000000,0.000000,0.000000,0.000000,0.000000,0.000000,0.000000,0.000000,1772181008.829450,0.000000
156.000000,-910.520662,975.430128,-764.094384,658.907075,-26079.277823,-23901.748526,-4802.495814,-4907.392550,17.859044,-692.367636,-19767.972203,1797.817862,-14409.029711,-10769.696327,-9372.622892,-8585.729728,0.014000,-0.006000,1.018000,192.000000,0.000000,0.000000,0.000000,0.000000,0.000000,0.000000,0.000000,0.000000,0.000000,1772181008.829460,0.000000
158.000000,-834.860007,1054.488248,-686.913811,741.362660,-26000.174999,-23826.289037,-4722.834196,-4830.748419,51.788992,-665.076156,-19733.639924,1828.462103,-14373.445734,-10743.142455,-9339.028220,-8562.238045,0.014000,-0.006000,1.018000,192.000000,0.000000,0.000000,0.000000,0.000000,0.000000,0.000000,0.000000,0.000000,0.000000,1772181008.829471,0.000000
160.000000,-910.922994,972.569105,-761.389823,665.657302,-26067.990192,-23899.915683,-4794.292723,-4906.900812,60.081489,-659.085889,-19724.296895,1833.826522,-14356.950147,-10736.772208,-9321.862080,-8550.704545,0.010000,-0.006000,1.012000,192.000000,0.000000,40.000000,127.500000,104.000000,15.500000,80.000000,0.000000,0.000000,0.000000,1772181008.829481,0.000000
162.000000,-889.308857,996.127843,-735.819427,695.809805,-26036.071901,-23870.769008,-4768.767031,-4887.655960,-8.158387,-728.443352,-19795.509552,1765.676053,-14413.723578,-10799.491203,-9374.433383,-8605.041636,0.010000,-0.006000,1.012000,192.000000,0.000000,0.000000,0.000000,0.000000,0.000000,0.000000,0.000000,0.000000,0.000000,1772181008.829492,0.000000
164.000000,-882.245705,1002.788663,-724.688259,702.984715,-26024.605456,-23858.810825,-4758.976967,-4880.615161,63.546009,-658.437688,-19725.414482,1833.535949,-14361.822827,-10729.396132,-9293.251847,-8522.675457,0.010000,-0.006000,1.012000,192.000000,0.000000,0.000000,0.000000,0.000000,0.000000,0.000000,0.000000,0.000000,0.000000,1772181008.829502,0.000000
166.000000,-941.500180,938.482694,-786.177908,638.164656,-26076.685021,-23915.606608,-4820.220747,-4940.875464,-8.650125,-729.248015,-19795.531904,1762.546809,-14428.296915,-10789.388214,-9358.362479,-8588.255476,0.010000,-0.006000,1.012000,192.000000,0.000000,0.000000,0.000000,0.000000,0.000000,0.000000,0.000000,0.000000,0.000000,1772181008.829512,0.000000
168.000000,-867.582961,1017.920794,-710.137273,722.855416,-25998.319804,-23828.345398,-4745.208293,-4866.779431,26.218596,-695.206308,-19761.758418,1795.403873,-14389.918970,-10775.127801,-9315.491833,-8546.390658,0.010000,-0.006000,1.012000,192.000000,0.000000,0.000000,0.000000,0.000000,0.000000,0.000000,0.000000,0.000000,0.000000,1772181008.829522,0.000000
170.000000,-939.332061,945.299977,-785.216783,652.179200,-26063.341029,-23888.851570,-4816.242137,-4938.930862,28.654936,-683.628104,-19759.433837,1804.210461,-14385.001586,-10759.012194,-9297.632789,-8525.089446,0.012000,-0.007000,1.010000,192.000000,0.000000,56.000000,127.500000,96.000000,15.500000,64.000000,0.000000,0.000000,0.000000,1772181008.829532,0.000000
172.000000,-903.323400,985.063730,-747.062355,696.636819,-26032.160346,-23850.048941,-4779.026482,-4902.966905,-28.386715,-740.155666,-19820.297637,1748.755783,-14445.418351,-10803.156889,-9361.156447,-8557.030089,0.012000,-0.007000,1.010000,192.000000,0.000000,0.000000,0.000000,0.000000,0.000000,0.000000,0.000000,0.000000,0.000000,1772181008.829543,0.000000
174.000000,-891.521679,996.060788,-731.706706,707.656229,-26030.796889,-23848.797244,-4763.871999,-4885.130213,54.225332,-657.990653,-19736.366837,1831.703106,-14351.675135,-10725.819853,-9297.833955,-8463.957425,0.012000,-0.007000,1.010000,192.000000,0.000000,0.000000,0.000000,0.000000,0.000000,0.000000,0.000000,0.000000,0.000000,1772181008.829553,0.000000
176.000000,-933.252386,950.217360,-779.830012,652.492124,-26082.809399,-23907.492925,-4811.682381,-4929.163149,-5.140901,-723.391858,-19794.414317,1770.995768,-14427.961639,-10792.517459,-9372.712299,-8551.553911,0.012000,-0.007000,1.010000,192.000000,0.000000,0.000000,0.000000,0.000000,0.000000,0.000000,0.000000,0.000000,0.000000,1772181008.829563,0.000000
178.000000,-845.186513,1041.814809,-692.166471,742.793172,-26001.829028,-23826.914886,-4723.996487,-4841.030221,42.445963,-679.180107,-19749.979049,1813.151158,-14365.779086,-10751.211435,-9338.469426,-8542.322641,0.012000,-0.007000,1.010000,192.000000,0.000000,0.000000,0.000000,0.000000,0.000000,0.000000,0.000000,0.000000,0.000000,1772181009.308738,0.000000
180.000000,-907.681991,975.564238,-762.507410,672.698101,-26072.527596,-23897.971081,-4789.509450,-4903.078664,58.963902,-656.895418,-19732.321171,1833.960633,-14369.377717,-10730.603126,-9324.946621,-8544.490760,0.014000,-0.005500,1.011000,192.000000,0.000000,64.000000,127.500000,112.000000,15.500000,80.000000,0.000000,0.000000,0.000000,1772181009.308832,0.000000
182.000000,-876.411900,1007.236660,-725.962308,705.510462,-26033.479098,-23865.069314,-4757.725270,-4870.758041,-0.715256,-717.356887,-19788.893436,1778.528306,-14429.280392,-10786.683653,-9379.909561,-8608.796729,0.014000,-0.005500,1.011000,192.000000,0.000000,0.000000,0.000000,0.000000,0.000000,0.000000,0.000000,0.000000,0.000000,1772181009.308877,0.000000
184.000000,-868.119403,1016.467931,-714.920546,713.847663,-26018.995168,-23854.206366,-4747.801095,-4862.376137,80.131004,-638.768153,-19710.751737,1853.205485,-14344.209652,-10708.899582,-9292.916571,-8527.324620,0.014000,-0.005500,1.011000,192.000000,0.000000,0.000000,0.000000,0.000000,0.000000,0.000000,0.000000,0.000000,0.000000,1772181009.308917,0.000000
186.000000,-930.480770,955.514724,-778.801832,652.939159,-26080.462465,-23910.108079,-4810.676552,-4924.469283,5.096198,-707.209195,-19784.311328,1785.390292,-14413.231839,-10789.991711,-9358.384831,-8590.088319,0.014000,-0.005500,1.011000,192.000000,0.000000,0.000000,0.000000,0.000000,0.000000,0.000000,0.000000,0.000000,0.000000,1772181009.308962,0.000000
188.000000,-855.892999,1032.717649,-701.330686,734.903006,-26001.225531,-23827.540735,-4735.373525,-4854.150695,33.728782,-675.872049,-19759.187968,1812.391199,-14384.353385,-10751.211435,-9324.499586,-8548.849350,0.014000,-0.005500,1.011000,192.000000,0.000000,0.000000,0.000000,0.000000,0.000000,0.000000,0.000000,0.000000,0.000000,1772181009.308989,0.000000
190.000000,-916.063895,964.745994,-769.637617,664.182086,-26064.793892,-23889.388012,-4802.026427,-4920.669487,49.017376,-662.975092,-19745.732218,1817.822673,-14364.192112,-10737.152187,-9312.362589,-8534.879510,0.012000,-0.005750,1.008500,192.000000,0.000000,40.000000,127.500000,104.000000,15.500000,56.000000,0.000000,0.000000,0.000000,1772181009.309000,0.000000
192.000000,-893.175708,994.585573,-738.412230,698.469662,-26031.534497,-23861.694200,-4771.717462,-4891.053425,-13.031067,-725.403515,-19805.746651,1760.356338,-14435.449473,-10800.094700,-9370.275959,-8585.483859,0.012000,-0.005750,1.008500,192.000000,0.000000,0.000000,0.000000,0.000000,0.000000,0.000000,0.000000,0.000000,0.000000,1772181009.309011,0.000000
194.000000,-882.044540,1006.409646,-727.817503,711.590136,-26022.146764,-23848.976058,-4758.395822,-4879.274056,61.221428,-646.591264,-19735.025732,1839.079182,-14359.878225,-10721.640077,-9290.971969,-8497.239172,0.012000,-0.005750,1.008500,192.000000,0.000000,0.000000,0.000000,0.000000,0.000000,0.000000,0.000000,0.000000,0.000000,1772181009.309021,0.000000
196.000000,-933.587662,950.664395,-784.680341,652.290958,-26081.267128,-23906.777669,-4813.805796,-4932.404152,-4.760922,-715.211119,-19797.454154,1772.940370,-14427.313438,-10781.565104,-9353.981537,-8557.298309,0.012000,-0.005750,1.008500,192.000000,0.000000,0.000000,0.000000,0.000000,0.000000,0.000000,0.000000,0.000000,0.000000,1772181009.309031,0.000000
198.000000,-850.081545,1037.076239,-700.190747,740.021555,-26010.635616,-23829.597095,-4727.103380,-4847.668689,32.231216,-677.481374,-19759.165616,1809.910156,-14386.208580,-10746.204644,-9327.137092,-8528.889242,0.012000,-0.005750,1.008500,192.000000,0.000000,0.000000,0.000000,0.000000,0.000000,0.000000,0.000000,0.000000,0.000000,1772181009.309042,0.000000
200.000000,-903.233993,979.475794,-764.452012,671.736976,-26078.696678,-23897.412288,-4789.822375,-4907.973696,53.957111,-659.085889,-19736.411540,1831.144313,-14379.659519,-10725.439873,-9321.973839,-8532.107893,0.012000,-0.005875,1.006250,192.000000,0.000000,48.000000,127.500000,104.000000,15.500000,48.000000,0.000000,0.000000,0.000000,1772181009.309052,0.000000
202.000000,-867.135926,1017.764332,-726.610509,709.690238,-26043.358570,-23861.113055,-4754.439563,-4871.249780,2.413988,-708.952631,-19789.653395,1777.991864,-14431.359104,-10786.750708,-9384.826944,-8601.711226,0.012000,-0.005875,1.006250,192.000000,0.000000,0.000000,0.000000,0.000000,0.000000,0.000000,0.000000,0.000000,0.000000,1772181009.309062,0.000000
204.000000,-853.635472,1028.716687,-713.467683,717.848625,-26024.985436,-23848.461968,-4742.347269,-4858.866913,85.115443,-628.419295,-19708.918894,1857.675833,-14346.131902,-10714.018132,-9307.825185,-8530.029181,0.012000,-0.005875,1.006250,192.000000,0.000000,0.000000,0.000000,0.000000,0.000000,0.000000,0.000000,0.000000,0.000000,1772181009.309072,0.000000
206.000000,-913.180520,967.472907,-770.464631,652.939159,-26079.814265,-23906.688262,-4802.115834,-4919.306030,18.373134,-695.541584,-19775.527093,1791.715836,-14406.727482,-10773.674938,-9366.498514,-8598.917258,0.012000,-0.005875,1.006250,192.000000,0.000000,0.000000,0.000000,0.000000,0.000000,0.000000,0.000000,0.000000,0.000000,1772181009.309083,0.000000
208.000000,-840.045612,1045.547550,-687.897287,733.316032,-25993.983566,-23826.445499,-4726.812807,-4846.662861,47.408050,-669.770023,-19750.113159,1817.867377,-14371.501132,-10749.535054,-9328.925232,-8568.720051,0.012000,-0.005875,1.006250,192.000000,0.000000,0.000000,0.000000,0.000000,0.000000,0.000000,0.000000,0.000000,0.000000,1772181009.309094,0.000000
210.000000,-913.694610,967.607017,-762.015672,659.041185,-26058.244831,-23890.013860,-4803.032256,-4923.038772,55.789954,-656.291921,-19743.966430,1823.142388,-14356.905443,-10732.190100,-9307.512260,-8548.178798,0.012000,-0.005875,1.006250,192.000000,0.000000,0.000000,127.500000,104.000000,15.500000,40.000000,0.000000,0.000000,0.000000,1772181009.309104,0.000000
212.000000,-884.123252,997.915983,-732.287852,691.630029,-26024.828973,-23851.546508,-4777.506563,-4898.764777,-5.923212,-723.771837,-19809.524096,1754.388422,-14424.005380,-10792.986845,-9367.303177,-8597.017359,0.012000,-0.005875,1.006250,192.000000,0.000000,0.000000,0.000000,0.000000,0.000000,0.000000,0.000000,0.000000,0.000000,1772181009.309114,0.000000
214.000000,-866.577133,1017.406704,-718.318012,709.623183,-26007.640482,-23836.324970,-4758.954615,-4878.379986,79.594562,-638.321118,-19724.542764,1839.637976,-14352.479798,-10709.905411,-9289.049719,-8502.268315,0.012000,-0.005875,1.006250,192.000000,0.000000,0.000000,0.000000,0.000000,0.000000,0.000000,0.000000,0.000000,0.000000,1772181009.309125,0.000000
216.000000,-926.859787,955.358262,-778.891239,656.448383,-26071.119436,-23896.182942,-4815.571584,-4936.740391,9.812416,-708.706761,-19790.659224,1775.063786,-14411.935438,-10777.586493,-9346.136075,-8549.050516,0.012000,-0.005875,1.006250,192.000000,0.000000,0.000000,0.000000,0.000000,0.000000,0.000000,0.000000,0.000000,0.000000,1772181009.309135,0.000000
218.000000,-850.170952,1036.919777,-698.492014,743.575483,-26005.628825,-23824.433842,-4735.261766,-4854.173047,37.372117,-678.554258,-19759.590299,1808.189071,-14392.243551,-10735.162882,-9314.553060,-8503.810585,0.012000,-0.005875,1.006250,192.000000,0.000000,0.000000,0.000000,0.000000,0.000000,0.000000,0.000000,0.000000,0.000000,1772181009.309145,0.000000
220.000000,-910.721828,970.870372,-766.284855,670.507630,-26072.527596,-23895.355927,-4800.484157,-4914.992144,49.687928,-663.712700,-19744.815796,1824.438789,-14374.406859,-10735.341696,-9306.215859,-8500.994265,0.008000,-0.005938,1.008125,192.000000,0.000000,16.000000,127.500000,104.000000,15.500000,72.000000,0.000000,0.000000,0.000000,1772181009.309156,0.000000
222.000000,-871.427461,1016.624393,-727.661041,709.936107,-26033.948485,-23857.559128,-4761.055679,-4875.742480,-3.442169,-718.027439,-19796.023643,1767.911228,-14420.183232,-10776.982996,-9369.314834,-8576.230237,0.008000,-0.005938,1.008125,192.000000,0.000000,0.000000,0.000000,0.000000,0.000000,0.000000,0.000000,0.000000,0.000000,1772181009.309166,0.000000
224.000000,-851.981443,1033.857588,-711.456026,723.414209,-26014.770688,-23843.298715,-4744.604796,-4857.414050,87.507080,-626.295880,-19708.561266,1857.139392,-14340.029876,-10708.698417,-9293.944751,-8507.968009,0.008000,-0.005938,1.008125,192.000000,0.000000,0.000000,0.000000,0.000000,0.000000,0.000000,0.000000,0.000000,0.000000,1772181009.309176,0.000000
226.000000,-914.253403,970.199820,-773.348006,653.028566,-26081.490646,-23912.387957,-4804.373360,-4919.127216,16.719105,-700.213099,-19778.991613,1789.078330,-14410.840203,-10777.653548,-9367.951377,-8592.994045,0.008000,-0.005938,1.008125,192.000000,0.000000,0.000000,0.000000,0.000000,0.000000,0.000000,0.000000,0.000000,0.000000,1772181009.309187,0.000000
228.000000,-836.826961,1051.984853,-688.545488,735.931186,-26003.907741,-23834.693293,-4722.387162,-4840.024393,47.855085,-674.374482,-19749.107331,1817.263879,-14374.295100,-10755.726487,-9337.865929,-8567.513057,0.008000,-0.005938,1.008125,192.000000,0.000000,0.000000,0.000000,0.000000,0.000000,0.000000,0.000000,0.000000,0.000000,1772181009.309197,0.000000
230.000000,-905.983258,977.642951,-756.204218,660.605807,-26071.208843,-23902.262616,-4792.728101,-4910.834719,59.857972,-664.517363,-19737.260906,1825.176397,-14370.517656,-10743.745952,-9323.247888,-8556.694812,0.008000,-0.007969,1.007062,192.000000,0.000000,32.000000,127.500000,88.000000,15.500000,56.000000,0.000000,0.000000,0.000000,1772181009.309207,0.000000
232.000000,-876.009569,1007.214309,-722.408381,690.154814,-26030.059282,-23867.639764,-4763.000281,-4884.124384,0.290573,-727.191654,-19794.973111,1763.597341,-14427.335790,-10789.477621,-9374.500439,-8609.243764,0.008000,-0.007969,1.007062,192.000000,0.000000,0.000000,0.000000,0.000000,0.000000,0.000000,0.000000,0.000000,0.000000,1772181009.309217,0.000000
234.000000,-861.860914,1021.094742,-713.400628,703.230584,-26010.635616,-23848.841947,-4750.505656,-4869.327530,81.159184,-646.725374,-19716.898467,1839.906197,-14335.805397,-10721.394208,-9291.597818,-8525.625888,0.008000,-0.007969,1.007062,192.000000,0.000000,0.000000,0.000000,0.000000,0.000000,0.000000,0.000000,0.000000,0.000000,1772181009.309228,0.000000
236.000000,-909.626592,972.390291,-771.313998,653.877932,-26060.055323,-23891.466724,-4805.200375,-4915.796806,17.724933,-708.237375,-19779.639814,1779.623542,-14406.146336,-10785.744880,-9355.255587,-8583.136926,0.008000,-0.007969,1.007062,192.000000,0.000000,0.000000,0.000000,0.000000,0.000000,0.000000,0.000000,0.000000,0.000000,1772181009.309238,0.000000
