Sample_index,EXG Channel 0,EXG Channel 1,EXG Channel 2,EXG Channel 3,EXG Channel 4,EXG Channel 5,EXG Channel 6,EXG Channel 7,EXG Channel 8,EXG Channel 9,EXG Channel 10,EXG Channel 11,EXG Channel 12,EXG Channel 13,EXG Channel 14,EXG Channel 15,Accel Channel 0,Accel Channel 1,Accel Channel 2,Not Used,Digital Channel 0 (D11),Digital Channel 1 (D12),Digital Channel 2 (D13),Digital Channel 3 (D17),Not Used,Digital Channel 4 (D18),Analog Channel 0,Analog Channel 1,Analog Channel 2,Timestamp,Marker Channel
210.000000,30491.020440,26339.586239,7312.261440,-8380.384252,-6329.052905,11317.738750,-8838.706772,-4060.931988,23174.378058,-2443.269186,13128.341809,23563.790150,30395.936119,32937.508278,14778.638158,17224.813071,-0.004000,-0.012000,1.004000,192.000000,0.000000,0.000000,0.000000,0.000000,0.000000,0.000000,0.000000,0.000000,0.000000,1770801667.544510,101.000000
212.000000,30490.752219,26340.659123,7306.427635,-8376.048014,-6316.424169,11319.973924,-8832.045952,-4058.205075,23171.964070,-2440.318756,13129.504100,23570.182749,30399.534750,32900.314975,14774.033698,17217.794623,-0.004000,-0.012000,1.004000,192.000000,0.000000,0.000000,0.000000,0.000000,0.000000,0.000000,0.000000,0.000000,0.000000,1770801667.544565,0.000000
214.000000,30481.655059,26332.388977,7306.494690,-8384.295807,-6336.473684,11325.427750,-8843.713563,-4065.804668,23160.676439,-2450.198227,13116.718902,23558.939822,30394.729125,32897.856283,14772.245559,17218.487527,-0.004000,-0.012000,1.004000,192.000000,0.000000,0.000000,0.000000,0.000000,0.000000,0.000000,0.000000,0.000000,0.000000,1770801667.544605,0.000000
216.000000,30488.137065,26339.809756,7306.248821,-8377.612636,-6324.001410,11326.299468,-8834.728162,-4059.210904,23177.350840,-2451.360518,13125.659600,23562.046714,30399.177122,32921.437373,14776.179466,17226.131824,0.006000,-0.004000,1.012000,192.000000,0.000000,24.000000,127.500000,112.000000,15.500000,80.000000,0.000000,0.000000,0.000000,1770801667.544672,0.000000
218.000000,30480.939803,26332.299570,7303.991294,-8382.105336,-6328.091780,11317.626991,-8840.986650,-4064.932950,23157.927174,-2445.884341,13114.886059,23561.487920,30405.010927,32900.471437,14767.506989,17218.487527,0.006000,-0.004000,1.012000,192.000000,0.000000,0.000000,0.000000,0.000000,0.000000,0.000000,0.000000,0.000000,0.000000,1770801667.544716,0.000000
220.000000,30481.453893,26332.836012,7312.149681,-8380.898342,-6328.717629,11321.896174,-8840.673726,-4063.234218,23163.023372,-2453.863913,13113.768472,23553.821272,30402.507532,32916.207065,14778.436992,17227.227059,0.006000,-0.004000,1.012000,192.000000,0.000000,0.000000,0.000000,0.000000,0.000000,0.000000,0.000000,0.000000,0.000000,1770801667.544741,0.000000
222.000000,30489.098190,26338.066320,7306.628800,-8375.243351,-6322.906175,11318.722226,-8836.024563,-4061.289616,23170.578262,-2445.884341,13119.758739,23564.326592,30399.758267,32906.975795,14774.056050,17219.627466,0.006000,-0.004000,1.012000,192.000000,0.000000,0.000000,0.000000,0.000000,0.000000,0.000000,0.000000,0.000000,0.000000,1770801667.544753,0.000000
224.000000,30484.359620,26331.941942,7307.433463,-8382.574723,-6330.617527,11321.113863,-8845.367592,-4069.760927,23151.892203,-2447.068983,13106.727672,23552.077836,30380.669878,32903.555978,14774.234864,17216.833498,0.006000,-0.004000,1.012000,192.000000,0.000000,0.000000,0.000000,0.000000,0.000000,0.000000,0.000000,0.000000,0.000000,1770801667.544765,0.000000
226.000000,30492.495655,26342.782538,7309.847451,-8373.432860,-6325.431922,11334.033171,-8835.845749,-4060.976691,23171.964070,-2443.291538,13118.171766,23561.219700,30391.868102,32922.711423,14778.459344,17222.399082,0.008000,-0.012000,1.012000,192.000000,0.000000,32.000000,127.500000,80.000000,15.500000,80.000000,0.000000,0.000000,0.000000,1770801667.544777,0.000000
228.000000,30488.919376,26338.558059,7303.588963,-8380.518363,-6330.036381,11333.317916,-8842.484217,-4066.385814,23155.066151,-2432.741515,13114.081396,23562.784322,30391.823398,32931.540362,14770.323309,17218.688693,0.008000,-0.012000,1.012000,192.000000,0.000000,0.000000,0.000000,0.000000,0.000000,0.000000,0.000000,0.000000,0.000000,1770801667.544789,0.000000
230.000000,30482.705591,26333.506564,7302.985466,-8383.357034,-6332.673887,11325.025418,-8845.389944,-4072.845468,23160.654087,-2444.744402,13107.487632,23554.201252,30388.113009,32930.579237,14780.761573,17230.892745,0.008000,-0.012000,1.012000,192.000000,0.000000,0.000000,0.000000,0.000000,0.000000,0.000000,0.000000,0.000000,0.000000,1770801667.544801,0.000000
232.000000,30489.187597,26339.340370,7301.376140,-8379.356072,-6325.029591,11322.522023,-8839.243214,-4069.827982,23150.104064,-2439.715259,13107.130004,23561.689086,30389.901148,32923.404327,14774.592492,17224.366036,0.008000,-0.012000,1.012000,192.000000,0.000000,0.000000,0.000000,0.000000,0.000000,0.000000,0.000000,0.000000,0.000000,1770801667.544812,0.000000
234.000000,30486.393629,26333.908896,7305.622972,-8390.934276,-6325.610736,11313.983657,-8850.217921,-4076.555857,23150.774616,-2442.330413,13101.318550,23548.635667,30392.896282,32909.658004,14778.682861,17220.677998,0.008000,-0.012000,1.012000,192.000000,0.000000,0.000000,0.000000,0.000000,0.000000,0.000000,0.000000,0.000000,0.000000,1770801667.544824,0.000000
236.000000,30489.031135,26335.629980,7303.544259,-8382.753537,-6316.401817,11318.901040,-8841.456037,-4070.766755,23166.420837,-2446.577245,13112.941457,23558.805711,30397.031355,32913.301338,14782.057975,17223.382559,0.004000,-0.020000,1.010000,192.000000,0.000000,16.000000,127.500000,48.000000,15.500000,72.000000,0.000000,0.000000,0.000000,1770801667.544836,0.000000
238.000000,30475.798902,26325.303474,7296.905791,-8389.749633,-6332.830350,11320.912697,-8847.781580,-4077.695796,23145.365494,-2442.173951,13103.061986,23553.083665,30385.654317,32918.330481,14768.870445,17214.017178,0.004000,-0.020000,1.010000,192.000000,0.000000,0.000000,0.000000,0.000000,0.000000,0.000000,0.000000,0.000000,0.000000,1770801667.544848,0.000000
240.000000,30479.732809,26329.974989,7302.694893,-8387.805031,-6333.366791,11331.552128,-8847.960394,-4075.974712,23150.752264,-2450.980538,13102.413786,23547.652191,30387.487160,32928.992263,14778.794620,17221.616771,0.004000,-0.020000,1.010000,192.000000,0.000000,0.000000,0.000000,0.000000,0.000000,0.000000,0.000000,0.000000,0.000000,1770801667.544860,0.000000
242.000000,30484.806655,26335.071186,7297.330475,-8379.870162,-6326.080123,11329.965154,-8842.193644,-4072.599598,23157.390732,-2440.363460,13110.371007,23562.247880,30396.919596,32931.205086,14771.999690,17216.252353,0.004000,-0.020000,1.010000,192.000000,0.000000,0.000000,0.000000,0.000000,0.000000,0.000000,0.000000,0.000000,0.000000,1770801667.544871,0.000000
244.000000,30478.548167,26321.347215,7300.035036,-8393.907058,-6329.075256,11313.626029,-8854.822380,-4081.137965,23148.293572,-2449.348861,13098.725748,23544.500595,30397.053706,32935.250751,14773.318443,17217.146423,0.004000,-0.020000,1.010000,192.000000,0.000000,0.000000,0.000000,0.000000,0.000000,0.000000,0.000000,0.000000,0.000000,1770801667.544883,0.000000
246.000000,30488.874673,26332.657198,7303.097225,-8384.519325,-6323.129692,11317.872860,-8844.920557,-4071.437308,23158.284802,-2456.635530,13111.935629,23557.531662,30396.472561,32896.537530,14777.744088,17220.610943,0.004000,-0.016000,1.009000,192.000000,0.000000,16.000000,127.500000,80.000000,15.500000,64.000000,0.000000,0.000000,0.000000,1770801667.544896,0.000000
248.000000,30483.465550,26326.264599,7299.431539,-8390.442537,-6337.881844,11312.240221,-8849.904996,-4075.348863,23146.416026,-2447.381907,13109.923972,23556.950516,30380.580471,32918.531647,14766.232940,17213.637199,0.004000,-0.016000,1.009000,192.000000,0.000000,0.000000,0.000000,0.000000,0.000000,0.000000,0.000000,0.000000,0.000000,1770801667.544907,0.000000
250.000000,30486.058353,26329.639713,7304.818309,-8391.448366,-6339.669983,11311.703779,-8848.943871,-4073.784241,23166.845520,-2461.217637,13113.612010,23551.563746,30387.643622,32927.025309,14773.385498,17218.018141,0.004000,-0.016000,1.009000,192.000000,0.000000,0.000000,0.000000,0.000000,0.000000,0.000000,0.000000,0.000000,0.000000,1770801667.544919,0.000000
252.000000,30490.863978,26335.831146,7300.012684,-8380.697177,-6334.506730,11324.556032,-8842.975955,-4070.453831,23162.084599,-2446.532541,13118.574097,23570.361563,30377.473578,32913.301338,14766.590567,17213.279571,0.004000,-0.016000,1.009000,192.000000,0.000000,0.000000,0.000000,0.000000,0.000000,0.000000,0.000000,0.000000,0.000000,1770801667.544932,0.000000
254.000000,30482.057390,26326.599875,7301.912582,-8392.297732,-6342.173379,11318.409302,-8855.381174,-4079.841564,23155.960221,-2453.796858,13104.090167,23553.016609,30372.243270,32917.101135,14766.367050,17210.843231,0.004000,-0.016000,1.009000,192.000000,0.000000,0.000000,0.000000,0.000000,0.000000,0.000000,0.000000,0.000000,0.000000,1770801667.544943,0.000000
0.000000,30484.381972,26327.963332,7301.018512,-8386.665092,-6329.566995,11319.169261,-8848.228615,-4077.785203,23163.269241,-2456.881399,13112.427367,23561.934955,30380.938099,32923.627844,14772.580835,17216.654684,0.004000,-0.016000,1.009000,192.000000,0.000000,0.000000,127.500000,72.000000,15.500000,64.000000,0.000000,0.000000,0.000000,1770801667.544955,0.000000
2.000000,30474.480149,26316.943922,7297.978675,-8397.081005,-6338.440637,11312.955476,-8856.409354,-4087.485860,23146.907764,-2457.328434,13104.738367,23553.933031,30383.508549,32927.964083,14765.830608,17207.311655,0.004000,-0.016000,1.009000,192.000000,0.000000,0.000000,0.000000,0.000000,0.000000,0.000000,0.000000,0.000000,0.000000,1770801667.544968,0.000000
4.000000,30473.697838,26318.016805,7305.019475,-8395.270514,-6331.265727,11312.843718,-8855.112953,-4085.273038,23159.022410,-2471.365329,13105.453623,23542.287772,30387.531863,32922.331443,14778.034661,17216.252353,0.004000,-0.016000,1.009000,192.000000,0.000000,0.000000,0.000000,0.000000,0.000000,0.000000,0.000000,0.000000,0.000000,1770801667.544980,0.000000
6.000000,30479.151664,26323.671797,7301.666713,-8389.414357,-6334.551434,11314.721264,-8847.803932,-4079.819212,23157.569546,-2462.804611,13109.678103,23553.307182,30390.102314,32923.314920,14768.266948,17214.017178,0.004000,-0.016000,1.009000,192.000000,0.000000,0.000000,0.000000,0.000000,0.000000,0.000000,0.000000,0.000000,0.000000,1770801667.544992,0.000000
8.000000,30472.066161,26311.423041,7302.270210,-8399.897325,-6346.956652,11309.267439,-8857.705755,-4088.536392,23150.014657,-2468.884286,13099.843335,23541.706627,30380.781636,32914.933016,14762.701364,17210.083271,0.004000,-0.016000,1.009000,192.000000,0.000000,0.000000,0.000000,0.000000,0.000000,0.000000,0.000000,0.000000,0.000000,1770801667.545005,0.000000
10.000000,30478.972850,26323.358872,7301.912582,-8391.358959,-6340.094666,11312.888421,-8848.094505,-4082.009683,23165.593823,-2465.352710,13108.873440,23552.770740,30376.221880,32928.902856,14765.070649,17213.011350,0.004000,-0.016000,1.009000,192.000000,0.000000,0.000000,127.500000,80.000000,15.500000,48.000000,0.000000,0.000000,0.000000,1770801667.545016,0.000000
12.000000,30467.081722,26310.327805,7294.312989,-8400.344360,-6342.173379,11305.042959,-8857.035203,-4091.285657,23139.174061,-2463.653977,13099.016321,23547.696894,30371.975049,32921.303263,14754.878253,17201.433146,0.004000,-0.016000,1.009000,192.000000,0.000000,0.000000,0.000000,0.000000,0.000000,0.000000,0.000000,0.000000,0.000000,1770801667.545029,0.000000
14.000000,30469.115730,26308.383204,7297.553992,-8398.824441,-6349.549454,11308.641590,-8858.443363,-4091.084491,23152.205128,-2479.233143,13095.037710,23538.555031,30368.823453,32899.778533,14766.501160,17209.680940,0.004000,-0.016000,1.009000,192.000000,0.000000,0.000000,0.000000,0.000000,0.000000,0.000000,0.000000,0.000000,0.000000,1770801667.545041,0.000000
16.000000,30471.954402,26314.015843,7292.726015,-8391.336607,-6340.072315,11311.815537,-8851.201397,-4085.764776,23147.243040,-2468.638416,13100.223315,23555.095322,30368.510529,32913.368394,14761.740239,17210.798527,0.004000,-0.016000,1.009000,192.000000,0.000000,0.000000,0.000000,0.000000,0.000000,0.000000,0.000000,0.000000,0.000000,1770801667.545052,0.000000
18.000000,30466.500576,26303.801096,7295.162355,-8399.562049,-6342.642765,11309.893287,-8860.052688,-4091.755043,23135.821299,-2475.746271,13088.242780,23539.002066,30365.850671,32904.114771,14760.935576,17212.676074,0.004000,-0.016000,1.009000,192.000000,0.000000,0.000000,0.000000,0.000000,0.000000,0.000000,0.000000,0.000000,0.000000,1770801667.545064,0.000000
20.000000,30477.229414,26316.251018,7298.246896,-8390.151964,-6328.360001,11322.656133,-8850.061458,-4083.708415,23163.984497,-2470.426556,13100.044501,23549.105054,30383.240328,32915.380051,14770.658585,17218.420472,0.003000,-0.014000,1.004500,192.000000,0.000000,8.000000,127.500000,80.000000,15.500000,32.000000,0.000000,0.000000,0.000000,1770801667.545076,0.000000
22.000000,30479.285774,26314.149954,7296.637570,-8396.186935,-6338.775914,11318.096378,-8855.850560,-4085.742424,23153.032142,-2457.909579,13097.719919,23551.720208,30381.005154,32949.600571,14759.013326,17207.937504,0.003000,-0.014000,1.004500,192.000000,0.000000,0.000000,0.000000,0.000000,0.000000,0.000000,0.000000,0.000000,0.000000,1770801667.545088,0.000000
24.000000,30474.033114,26311.825372,7302.627838,-8398.600924,-6338.619451,11318.409302,-8855.515284,-4085.585962,23160.452921,-2468.772527,13100.670350,23543.494766,30376.311287,32919.984510,14766.367050,17212.117280,0.003000,-0.014000,1.004500,192.000000,0.000000,0.000000,0.000000,0.000000,0.000000,0.000000,0.000000,0.000000,0.000000,1770801667.545100,0.000000
26.000000,30479.285774,26315.625169,7297.933972,-8391.470717,-6328.918794,11313.693084,-8847.535711,-4081.786165,23152.853328,-2457.596655,13106.302989,23556.972868,30386.123703,32928.835801,14759.482713,17202.058995,0.003000,-0.014000,1.004500,192.000000,0.000000,0.000000,0.000000,0.000000,0.000000,0.000000,0.000000,0.000000,0.000000,1770801667.545111,0.000000
28.000000,30469.965097,26304.784573,7297.911620,-8404.166508,-6349.035364,11305.869973,-8859.002156,-4090.033959,23141.073959,-2465.509172,13092.131983,23542.287772,30379.373476,32919.425716,14760.332079,17196.180486,0.003000,-0.014000,1.004500,192.000000,0.000000,0.000000,0.000000,0.000000,0.000000,0.000000,0.000000,0.000000,0.000000,1770801667.545124,0.000000
30.000000,30478.168187,26314.485230,7298.001027,-8394.488203,-6337.077181,11309.468604,-8850.620252,-4082.657883,23151.333410,-2470.784184,13099.731576,23551.921374,30389.610575,32929.595760,14766.188236,17202.930713,0.003500,-0.015000,1.002250,192.000000,0.000000,16.000000,127.500000,64.000000,15.500000,32.000000,0.000000,0.000000,0.000000,1770801667.545135,0.000000
32.000000,30473.921355,26308.092631,7292.994236,-8398.735034,-6344.654422,11304.484165,-8857.996328,-4088.737558,23139.509337,-2461.195285,13098.681044,23547.115749,30383.173273,32927.248827,14754.073591,17200.382614,0.003500,-0.015000,1.002250,192.000000,0.000000,0.000000,0.000000,0.000000,0.000000,0.000000,0.000000,0.000000,0.000000,1770801667.545155,0.000000
34.000000,30476.067123,26309.143163,7299.878573,-8398.869145,-6347.984832,11309.803880,-8858.823342,-4089.117538,23154.127378,-2472.147640,13098.189306,23541.684275,30374.321982,32911.222626,14762.053163,17213.771309,0.003500,-0.015000,1.002250,192.000000,0.000000,0.000000,0.000000,0.000000,0.000000,0.000000,0.000000,0.000000,0.000000,1770801667.545166,0.000000
36.000000,30482.102094,26318.821468,7296.861088,-8391.493069,-6335.579614,11312.419035,-8851.961357,-4084.647189,23152.830977,-2460.278864,13105.520678,23555.050618,30380.066381,32918.933978,14755.325288,17208.585704,0.003500,-0.015000,1.002250,192.000000,0.000000,0.000000,0.000000,0.000000,0.000000,0.000000,0.000000,0.000000,0.000000,1770801667.545178,0.000000
38.000000,30468.780454,26307.131506,7298.246896,-8401.283133,-6339.737039,11307.725168,-8863.137229,-4095.398378,23135.195450,-2461.731727,13093.495440,23543.919449,30384.760247,32909.054507,14756.644041,17204.942370,0.003500,-0.015000,1.002250,192.000000,0.000000,0.000000,0.000000,0.000000,0.000000,0.000000,0.000000,0.000000,0.000000,1770801667.545189,0.000000
40.000000,30478.145835,26321.280160,7301.443196,-8393.951761,-6331.712762,11310.161508,-8853.548330,-4088.558744,23155.133206,-2461.016472,13103.397263,23552.122540,30385.140227,32944.169097,14764.645966,17210.619713,0.004750,-0.014500,1.006125,192.000000,0.000000,24.000000,127.500000,72.000000,15.500000,72.000000,0.000000,0.000000,0.000000,1770801667.545206,0.000000
42.000000,30471.306201,26312.630035,7295.877611,-8397.639799,-6335.825483,11307.702816,-8860.052688,-4096.225392,23145.723122,-2452.969844,13098.323417,23548.479205,30394.706773,32934.289626,14757.202835,17200.315559,0.004750,-0.014500,1.006125,192.000000,0.000000,0.000000,0.000000,0.000000,0.000000,0.000000,0.000000,0.000000,0.000000,1770801667.545218,0.000000
44.000000,30466.925259,26308.763183,7299.118614,-8399.651456,-6337.211291,11322.924354,-8862.869008,-4098.549974,23152.696866,-2466.671463,13095.820021,23543.383007,30397.791314,32915.469458,14766.143533,17209.233905,0.004750,-0.014500,1.006125,192.000000,0.000000,0.000000,0.000000,0.000000,0.000000,0.000000,0.000000,0.000000,0.000000,1770801667.545229,0.000000
46.000000,30467.573460,26312.875904,7295.162355,-8394.644665,-6333.143274,11318.208136,-8856.163485,-4095.040750,23149.075884,-2460.256512,13100.290370,23552.726037,30384.536729,32929.484001,14760.533245,17204.785908,0.004750,-0.014500,1.006125,192.000000,0.000000,0.000000,0.000000,0.000000,0.000000,0.000000,0.000000,0.000000,0.000000,1770801667.545241,0.000000
48.000000,30462.521966,26304.337538,7294.424748,-8405.351151,-6345.034402,11310.832061,-8868.032261,-4102.014494,23135.173098,-2467.274960,13085.851143,23539.650266,30381.139264,32936.524801,14758.946271,17204.204762,0.004750,-0.014500,1.006125,192.000000,0.000000,0.000000,0.000000,0.000000,0.000000,0.000000,0.000000,0.000000,0.000000,1770801667.545253,0.000000
50.000000,30475.664792,26317.167439,7297.397530,-8394.532906,-6331.779818,11317.917564,-8856.789333,-4090.279828,23158.150692,-2468.169030,13095.998835,23554.044790,30388.425933,32926.779440,14763.550730,17209.278608,0.004750,-0.014500,1.006125,192.000000,0.000000,0.000000,0.000000,0.000000,0.000000,0.000000,0.000000,0.000000,0.000000,1770801667.545265,0.000000
52.000000,30476.201233,26315.245189,7294.894134,-8398.556220,-6342.173379,11313.536622,-8860.097392,-4091.710340,23147.354799,-2456.613178,13100.178611,23552.748388,30396.360802,32917.771687,14753.045410,17201.075518,0.002000,-0.014000,1.006000,192.000000,0.000000,8.000000,127.500000,72.000000,15.500000,56.000000,0.000000,0.000000,0.000000,1770801667.545277,0.000000
54.000000,30479.129312,26321.973064,7300.035036,-8397.773909,-6345.526140,11310.161508,-8859.113915,-4087.307046,23163.537462,-2458.960111,13100.692701,23548.210984,30388.090657,32926.287702,14761.404963,17206.328178,0.002000,-0.014000,1.006000,192.000000,0.000000,0.000000,0.000000,0.000000,0.000000,0.000000,0.000000,0.000000,0.000000,1770801667.545289,0.000000
56.000000,30475.642440,26322.241285,7294.067120,-8395.851659,-6339.468818,11307.591058,-8852.497799,-4083.462546,23154.015619,-2450.220579,13105.073643,23564.281889,30389.565872,32935.943655,14754.453570,17202.014292,0.002000,-0.014000,1.006000,192.000000,0.000000,0.000000,0.000000,0.000000,0.000000,0.000000,0.000000,0.000000,0.000000,1770801667.545301,0.000000
58.000000,30464.935954,26308.964349,7295.162355,-8405.798186,-6348.878902,11295.811688,-8862.198456,-4090.771567,23143.599706,-2465.419765,13092.601370,23548.859185,30384.156750,32929.215780,14753.090114,17197.678053,0.002000,-0.014000,1.006000,192.000000,0.000000,0.000000,0.000000,0.000000,0.000000,0.000000,0.000000,0.000000,0.000000,1770801667.545312,0.000000
60.000000,30475.329515,26320.877829,7298.112786,-8396.186935,-6342.776876,11308.462776,-8854.397697,-4084.244857,23159.849424,-2466.023262,13105.833603,23560.638554,30390.281128,32911.200274,14760.756762,17202.953065,0.002000,-0.014000,1.006000,192.000000,0.000000,0.000000,0.000000,0.000000,0.000000,0.000000,0.000000,0.000000,0.000000,1770801667.545324,0.000000
62.000000,30468.668696,26312.808849,7292.167222,-8405.507613,-6344.587367,11305.177069,-8862.265511,-4092.224430,23144.404369,-2457.462544,13098.345768,23564.974793,30392.158674,32906.819332,14751.167864,17196.672225,0.004000,-0.012000,0.998000,192.000000,0.000000,16.000000,127.500000,80.000000,15.500000,24.000000,0.000000,0.000000,0.000000,1770801667.545336,0.000000
64.000000,30473.116693,26316.966273,7295.184707,-8401.573706,-6338.038306,11311.837889,-8861.416145,-4091.285657,23146.416026,-2466.805573,13097.809326,23556.771702,30389.409410,32915.089478,14760.622652,17208.585704,0.004000,-0.012000,0.998000,192.000000,0.000000,0.000000,0.000000,0.000000,0.000000,0.000000,0.000000,0.000000,0.000000,1770801667.545349,0.000000
66.000000,30480.939803,26325.750509,7288.725053,-8392.364787,-6336.853664,11314.073064,-8853.928310,-4084.066043,23151.176947,-2453.685099,13106.392396,23571.568557,30390.549349,32933.507315,14751.905471,17204.383576,0.004000,-0.012000,0.998000,192.000000,0.000000,0.000000,0.000000,0.000000,0.000000,0.000000,0.000000,0.000000,0.000000,1770801667.545361,0.000000
68.000000,30477.274117,26316.988625,7291.943704,-8403.250087,-6363.206370,11301.109052,-8862.936063,-4089.162241,23143.376189,-2457.820172,13096.356463,23558.962173,30379.149959,32913.100173,14747.882157,17200.628483,0.004000,-0.012000,0.998000,192.000000,0.000000,0.000000,0.000000,0.000000,0.000000,0.000000,0.000000,0.000000,0.000000,1770801667.545373,0.000000
70.000000,30484.761952,26324.409404,7296.928143,-8397.125709,-6356.813771,11306.227601,-8853.660089,-4081.160317,23158.955355,-2457.931931,13108.739329,23565.622993,30375.596032,32942.604475,14755.995841,17202.886010,0.004000,-0.012000,0.998000,192.000000,0.000000,0.000000,0.000000,0.000000,0.000000,0.000000,0.000000,0.000000,0.000000,1770801667.545384,0.000000
72.000000,30480.492768,26318.329730,7291.988408,-8399.360883,-6359.428925,11299.790299,-8860.186799,-4085.071872,23148.450035,-2446.644300,13105.520678,23563.141950,30376.691267,32930.690996,14746.317535,17192.179524,0.004000,-0.004000,1.002000,192.000000,0.000000,16.000000,127.500000,112.000000,15.500000,40.000000,0.000000,0.000000,0.000000,1770801667.545396,0.000000
74.000000,30475.709495,26313.255884,7297.665751,-8401.864279,-6346.487265,11305.869973,-8863.226636,-4088.581096,23155.602593,-2461.687024,13102.726710,23554.670638,30380.781636,32945.376092,14756.532282,17199.399137,0.004000,-0.004000,1.002000,192.000000,0.000000,0.000000,0.000000,0.000000,0.000000,0.000000,0.000000,0.000000,0.000000,1770801668.024591,0.000000
76.000000,30484.471379,26324.141183,7294.536506,-8393.437671,-6338.485341,11310.429729,-8855.180008,-4081.205020,23156.943698,-2457.797820,13108.314646,23563.723095,30381.854520,32931.205086,14753.090114,17199.332082,0.004000,-0.004000,1.002000,192.000000,0.000000,0.000000,0.000000,0.000000,0.000000,0.000000,0.000000,0.000000,0.000000,1770801668.024646,0.000000
78.000000,30482.213853,26319.804945,7297.822213,-8401.774872,-6346.353155,11307.702816,-8863.830133,-4087.284695,23145.879584,-2459.205980,13100.871515,23551.608449,30394.729125,32918.911626,14752.061934,17201.835478,0.004000,-0.004000,1.002000,192.000000,0.000000,0.000000,0.000000,0.000000,0.000000,0.000000,0.000000,0.000000,0.000000,1770801668.024690,0.000000
80.000000,30485.812484,26325.147012,7296.928143,-8394.868183,-6337.568919,11313.402511,-8855.671746,-4083.194325,23160.139997,-2461.016472,13113.030864,23562.627859,30394.907939,32914.731850,14756.040544,17205.255294,0.004000,-0.004000,1.002000,192.000000,0.000000,0.000000,0.000000,0.000000,0.000000,0.000000,0.000000,0.000000,0.000000,1770801668.024729,0.000000
82.000000,30477.967021,26320.989587,7290.781413,-8399.919677,-6336.630146,11311.055578,-8862.153752,-4087.798785,23138.592915,-2451.405221,13102.704358,23559.364505,30375.193700,32934.893123,14744.194119,17194.034719,0.004000,-0.010000,1.010000,192.000000,0.000000,16.000000,127.500000,88.000000,15.500000,72.000000,0.000000,0.000000,0.000000,1770801668.024777,0.000000
84.000000,30482.616184,26322.040119,7294.402396,-8399.070310,-6347.224873,11307.635761,-8863.897188,-4087.619971,23161.771674,-2459.205980,13103.173745,23555.587060,30383.486197,32929.707519,14754.721791,17199.689710,0.004000,-0.010000,1.010000,192.000000,0.000000,0.000000,0.000000,0.000000,0.000000,0.000000,0.000000,0.000000,0.000000,1770801668.024817,0.000000
86.000000,30481.185672,26323.515335,7289.753233,-8394.488203,-6343.335669,11305.177069,-8857.459886,-4085.116575,23156.183738,-2452.679271,13107.711149,23566.561766,30382.256851,32940.905743,14747.099846,17196.269893,0.004000,-0.010000,1.010000,192.000000,0.000000,0.000000,0.000000,0.000000,0.000000,0.000000,0.000000,0.000000,0.000000,1770801668.024834,0.000000
88.000000,30473.675486,26313.702919,7291.250800,-8404.658247,-6350.465876,11305.534697,-8869.194552,-4092.582058,23141.811567,-2461.016472,13095.529448,23552.547223,30383.597956,32935.854249,14749.826759,17196.783983,0.004000,-0.010000,1.010000,192.000000,0.000000,0.000000,0.000000,0.000000,0.000000,0.000000,0.000000,0.000000,0.000000,1770801668.024846,0.000000
90.000000,30483.845530,26318.799116,7294.514155,-8394.443499,-6346.956652,11305.668808,-8859.695060,-4084.446023,23161.592860,-2464.995082,13108.314646,23567.098208,30384.849654,32928.165248,14754.252404,17202.550733,0.004000,-0.010000,1.010000,192.000000,0.000000,0.000000,0.000000,0.000000,0.000000,0.000000,0.000000,0.000000,0.000000,1770801668.024858,0.000000
92.000000,30482.035039,26316.563942,7289.753233,-8401.439595,-6349.772972,11301.265514,-8865.461810,-4088.938724,23142.951506,-2461.083527,13101.877344,23562.113769,30386.347221,32920.208027,14743.322401,17191.486620,0.004000,-0.010000,1.008000,192.000000,0.000000,16.000000,127.500000,88.000000,15.500000,64.000000,0.000000,0.000000,0.000000,1770801668.024869,0.000000
94.000000,30488.114713,26323.805907,7298.716283,-8400.165546,-6347.582501,11307.479299,-8863.450153,-4083.596657,23168.432494,-2462.089355,13106.861783,23555.095322,30407.156695,32908.026327,14757.828684,17197.476887,0.004000,-0.010000,1.008000,192.000000,0.000000,0.000000,0.000000,0.000000,0.000000,0.000000,0.000000,0.000000,0.000000,1770801668.024881,0.000000
96.000000,30486.281870,26329.863230,7292.435442,-8396.879840,-6342.128675,11304.215944,-8857.795162,-4077.785203,23156.586070,-2456.948454,13112.047388,23569.579252,30392.605709,32944.526725,14751.704306,17189.184390,0.004000,-0.010000,1.008000,192.000000,0.000000,0.000000,0.000000,0.000000,0.000000,0.000000,0.000000,0.000000,0.000000,1770801668.024892,0.000000
98.000000,30475.642440,26318.195619,7293.374216,-8403.831232,-6356.389088,11301.198459,-8868.121668,-4087.016474,23145.454901,-2460.278864,13102.257324,23558.626897,30374.009058,32922.957292,14749.111503,17188.089155,0.004000,-0.010000,1.008000,192.000000,0.000000,0.000000,0.000000,0.000000,0.000000,0.000000,0.000000,0.000000,0.000000,1770801668.024904,0.000000
100.000000,30481.878577,26325.102308,7293.508326,-8397.349226,-6350.577635,11304.484165,-8860.164447,-4084.401320,23158.508320,-2460.547085,13109.655751,23567.031153,30383.732067,32930.489830,14752.799541,17195.889914,0.004000,-0.010000,1.008000,192.000000,0.000000,0.000000,0.000000,0.000000,0.000000,0.000000,0.000000,0.000000,0.000000,1770801668.024916,0.000000
102.000000,30478.324649,26318.709709,7288.412128,-8402.579534,-6354.176265,11301.936066,-8867.227598,-4091.218602,23139.285819,-2454.936797,13103.397263,23565.377124,30382.301555,32901.790190,14741.623669,17189.385556,0.002000,-0.010000,1.002000,192.000000,0.000000,8.000000,127.500000,88.000000,15.500000,40.000000,0.000000,0.000000,0.000000,1770801668.024928,0.000000
104.000000,30485.656021,26326.823393,7296.548163,-8397.617447,-6348.364812,11309.736825,-8864.523037,-4085.563610,23155.468482,-2462.648149,13102.078510,23559.610374,30389.275299,32927.919379,14753.783018,17201.947236,0.002000,-0.010000,1.002000,192.000000,0.000000,0.000000,0.000000,0.000000,0.000000,0.000000,0.000000,0.000000,0.000000,1770801668.024939,0.000000
106.000000,30487.935899,26333.350102,7288.814460,-8390.084909,-6341.100495,11310.049750,-8857.281072,-4081.719110,23157.100160,-2446.621948,13110.058082,23578.050563,30403.982747,32945.376092,14748.463303,17197.745108,0.002000,-0.010000,1.002000,192.000000,0.000000,0.000000,0.000000,0.000000,0.000000,0.000000,0.000000,0.000000,0.000000,1770801668.024951,0.000000
108.000000,30475.642440,26319.089689,7290.356730,-8404.770005,-6356.992585,11299.969113,-8870.110973,-4092.693817,23142.370360,-2458.267207,13096.669387,23559.208043,30390.839921,32937.597685,14746.809274,17191.576027,0.002000,-0.010000,1.002000,192.000000,0.000000,0.000000,0.000000,0.000000,0.000000,0.000000,0.000000,0.000000,0.000000,1770801668.024962,0.000000
110.000000,30482.951460,26332.478384,7292.770719,-8395.806956,-6344.632071,11305.758215,-8859.426839,-4087.128232,23164.364477,-2457.373137,13107.241763,23576.396534,30397.456038,32917.235245,14752.799541,17193.274759,0.002000,-0.010000,1.002000,192.000000,0.000000,0.000000,0.000000,0.000000,0.000000,0.000000,0.000000,0.000000,0.000000,1770801668.024974,0.000000
112.000000,30473.988411,26322.710672,7288.859163,-8406.960476,-6342.307489,11294.850563,-8866.221770,-4096.270096,23142.996209,-2454.310948,13099.664521,23571.233281,30396.807837,32915.223588,14745.490521,17183.484695,0.002000,-0.012000,1.002000,192.000000,0.000000,8.000000,127.500000,80.000000,15.500000,40.000000,0.000000,0.000000,0.000000,1770801668.024986,0.000000
114.000000,30469.182786,26319.156744,7289.864992,-8410.022665,-6348.476571,11301.377273,-8870.736822,-4101.723922,23154.753227,-2471.007701,13097.675216,23554.313010,30385.207282,32923.806658,14757.180483,17191.754841,0.002000,-0.012000,1.002000,192.000000,0.000000,0.000000,0.000000,0.000000,0.000000,0.000000,0.000000,0.000000,0.000000,1770801668.024999,0.000000
116.000000,30476.447103,26329.617361,7284.232352,-8399.629104,-6345.392030,11308.798052,-8863.293691,-4093.856107,23144.627886,-2459.161277,13099.038672,23564.505406,30396.181988,32930.735699,14752.531320,17193.028890,0.002000,-0.012000,1.002000,192.000000,0.000000,0.000000,0.000000,0.000000,0.000000,0.000000,0.000000,0.000000,0.000000,1770801668.025014,0.000000
118.000000,30474.636611,26322.800079,7286.847506,-8406.289924,-6352.745754,11310.586191,-8872.592017,-4097.901773,23139.285819,-2462.558742,13094.255399,23560.727961,30394.483256,32919.537475,14748.709172,17194.682919,0.002000,-0.012000,1.002000,192.000000,0.000000,0.000000,0.000000,0.000000,0.000000,0.000000,0.000000,0.000000,0.000000,1770801668.025026,0.000000
120.000000,30478.145835,26329.505602,7288.836812,-8400.120842,-6341.592233,11315.078892,-8864.210113,-4093.945514,23155.714352,-2458.200152,13100.491536,23566.986450,30400.585282,32932.300321,14755.817027,17201.679015,0.002000,-0.012000,1.002000,192.000000,0.000000,0.000000,0.000000,0.000000,0.000000,0.000000,0.000000,0.000000,0.000000,1770801668.025037,0.000000
122.000000,30475.195405,26327.181021,7284.545277,-8409.195651,-6338.999431,11310.340322,-8870.289787,-4098.572326,23131.932096,-2454.221541,13091.640245,23561.309107,30397.098410,32943.990283,14746.473997,17188.804411,0.006000,-0.011000,1.007000,192.000000,0.000000,40.000000,127.500000,88.000000,15.500000,80.000000,0.000000,0.000000,0.000000,1770801668.025048,0.000000
124.000000,30474.167225,26325.705806,7291.094338,-8409.374465,-6347.135466,11309.915639,-8871.161505,-4100.405169,23154.350895,-2466.269131,13093.830716,23549.820310,30395.422029,32934.960179,14757.761628,17192.000710,0.006000,-0.011000,1.007000,192.000000,0.000000,0.000000,0.000000,0.000000,0.000000,0.000000,0.000000,0.000000,0.000000,1770801668.025060,0.000000
126.000000,30479.330478,26332.008997,7287.406300,-8402.199555,-6345.637899,11303.478337,-8862.019642,-4093.386721,23150.126416,-2460.189457,13100.782108,23563.231357,30394.706773,32927.494696,14749.402076,17183.976434,0.006000,-0.011000,1.007000,192.000000,0.000000,0.000000,0.000000,0.000000,0.000000,0.000000,0.000000,0.000000,0.000000,1770801668.025072,0.000000
128.000000,30467.729922,26316.362776,7286.333416,-8410.916735,-6358.981891,11297.488069,-8873.217866,-4103.176785,23141.588049,-2464.391585,13087.974559,23549.082702,30397.366631,32889.787303,14745.289355,17182.456515,0.006000,-0.011000,1.007000,192.000000,0.000000,0.000000,0.000000,0.000000,0.000000,0.000000,0.000000,0.000000,0.000000,1770801668.025083,0.000000
130.000000,30474.368390,26321.838954,7284.835849,-8402.110148,-6349.214178,11303.813613,-8863.763078,-4095.733654,23151.042837,-2469.331320,13094.680082,23558.001048,30398.908901,32907.646347,14747.457474,17193.922960,0.006000,-0.011000,1.007000,192.000000,0.000000,0.000000,0.000000,0.000000,0.000000,0.000000,0.000000,0.000000,0.000000,1770801668.025095,0.000000
132.000000,30475.038943,26321.816602,7284.902905,-8407.854546,-6361.820562,11302.852488,-8868.591055,-4098.527622,23134.033159,-2463.542219,13091.081451,23558.202214,30378.948793,32917.592873,14737.376837,17191.173695,0.008000,-0.010500,1.003500,192.000000,0.000000,40.000000,127.500000,88.000000,15.500000,32.000000,0.000000,0.000000,0.000000,1770801668.025106,0.000000
134.000000,30479.196367,26324.252942,7291.004931,-8408.793319,-6356.031460,11302.427805,-8869.328662,-4097.141814,23143.867927,-2473.242876,13092.713129,23552.122540,30384.089695,32925.907722,14751.436085,17199.756765,0.008000,-0.010500,1.003500,192.000000,0.000000,0.000000,0.000000,0.000000,0.000000,0.000000,0.000000,0.000000,0.000000,1770801668.025118,0.000000
136.000000,30482.169149,26330.243210,7289.708530,-8400.210249,-6346.263748,11299.969113,-8861.483200,-4092.850279,23150.931078,-2460.412974,13100.089204,23563.812502,30385.162578,32922.912588,14750.944346,17192.179524,0.008000,-0.010500,1.003500,192.000000,0.000000,0.000000,0.000000,0.000000,0.000000,0.000000,0.000000,0.000000,0.000000,1770801668.025131,0.000000
138.000000,30476.782379,26324.208239,7289.037977,-8410.670866,-6350.376469,11287.183915,-8872.055575,-4099.488747,23140.828090,-2465.375062,13089.874457,23549.797958,30390.594052,32918.017556,14753.380686,17186.524533,0.008000,-0.010500,1.003500,192.000000,0.000000,0.000000,0.000000,0.000000,0.000000,0.000000,0.000000,0.000000,0.000000,1770801668.025145,0.000000
140.000000,30485.365449,26335.786442,7290.803765,-8402.221906,-6342.396896,11303.903020,-8863.226636,-4089.877497,23160.832901,-2461.083527,13101.005626,23563.879557,30392.605709,32929.305187,14758.320422,17189.631425,0.008000,-0.010500,1.003500,192.000000,0.000000,0.000000,0.000000,0.000000,0.000000,0.000000,0.000000,0.000000,0.000000,1770801668.025158,0.000000
142.000000,30481.856225,26330.869058,7284.075890,-8409.620334,-6347.873074,11299.566781,-8868.456944,-4094.280791,23138.391750,-2458.960111,13097.831678,23561.242051,30387.420104,32921.459725,14744.887024,17182.143591,0.008000,-0.009250,1.005750,192.000000,0.000000,32.000000,127.500000,96.000000,15.500000,64.000000,0.000000,0.000000,0.000000,1770801668.025169,0.000000
144.000000,30483.353792,26331.986646,7292.256629,-8411.453177,-6352.812809,11303.120709,-8867.428764,-4092.693817,23143.107968,-2468.660768,13096.959960,23553.307182,30391.689288,32928.880504,14751.816064,17191.464268,0.008000,-0.009250,1.005750,192.000000,0.000000,0.000000,0.000000,0.000000,0.000000,0.000000,0.000000,0.000000,0.000000,1770801668.025181,0.000000
146.000000,30480.828045,26332.947771,7284.612332,-8401.886630,-6345.682603,11306.495822,-8861.237331,-4091.218602,23156.295497,-2461.798783,13102.123213,23564.863034,30390.124666,32927.204123,14747.636288,17193.364166,0.008000,-0.009250,1.005750,192.000000,0.000000,0.000000,0.000000,0.000000,0.000000,0.000000,0.000000,0.000000,0.000000,1770801668.025200,0.000000
148.000000,30473.407265,26320.788422,7285.908733,-8411.386122,-6362.714632,11300.885534,-8872.793182,-4098.773491,23131.127433,-2472.102937,13086.231123,23549.149758,30377.183005,32910.797943,14748.329192,17192.023062,0.008000,-0.009250,1.005750,192.000000,0.000000,0.000000,0.000000,0.000000,0.000000,0.000000,0.000000,0.000000,0.000000,1770801668.025211,0.000000
150.000000,30487.824141,26336.948733,7290.714358,-8402.803052,-6339.848797,11308.239258,-8862.891360,-4088.648151,23159.380038,-2463.899847,13100.290370,23563.790150,30388.962375,32926.466516,14760.220320,17195.845210,0.008000,-0.009250,1.005750,192.000000,0.000000,0.000000,0.000000,0.000000,0.000000,0.000000,0.000000,0.000000,0.000000,1770801668.025223,0.000000
152.000000,30484.873710,26333.350102,7286.601637,-8405.217040,-6347.828370,11304.618276,-8868.434592,-4094.258439,23138.838785,-2454.042727,13097.697568,23564.863034,30391.443418,32922.845533,14751.123160,17185.541056,0.009000,-0.012625,1.003875,192.000000,0.000000,40.000000,127.500000,64.000000,15.500000,40.000000,0.000000,0.000000,0.000000,1770801668.025234,0.000000
154.000000,30483.867882,26335.652332,7288.009797,-8404.255915,-6346.710783,11308.775700,-8870.155677,-4094.951343,23153.568584,-2460.591788,13096.937608,23562.180825,30401.591110,32920.677414,14763.081344,17194.638216,0.009000,-0.012625,1.003875,192.000000,0.000000,0.000000,0.000000,0.000000,0.000000,0.000000,0.000000,0.000000,0.000000,1770801668.025246,0.000000
156.000000,30492.160379,26343.430739,7283.427689,-8394.957590,-6340.899329,11309.066273,-8861.572607,-4086.569439,23149.120587,-2453.573341,13104.045463,23577.111790,30387.442456,32922.711423,14750.519663,17192.537152,0.009000,-0.012625,1.003875,192.000000,0.000000,0.000000,0.000000,0.000000,0.000000,0.000000,0.000000,0.000000,0.000000,1770801668.025257,0.000000
158.000000,30484.091399,26335.004131,7283.986483,-8406.781662,-6352.455181,11307.166375,-8873.441383,-4095.487785,23145.298439,-2454.109782,13097.183478,23563.432522,30386.593090,32923.560789,14751.100809,17193.520629,0.009000,-0.012625,1.003875,192.000000,0.000000,0.000000,0.000000,0.000000,0.000000,0.000000,0.000000,0.000000,0.000000,1770801668.025274,0.000000
160.000000,30493.188559,26342.223745,7287.652169,-8399.316180,-6345.056754,11316.956439,-8865.551217,-4088.983427,23158.396561,-2456.166143,13104.716015,23571.993240,30380.669878,32938.536458,14756.666393,17201.902533,0.009000,-0.012625,1.003875,192.000000,0.000000,0.000000,0.000000,0.000000,0.000000,0.000000,0.000000,0.000000,0.000000,1770801668.025285,0.000000
162.000000,30482.593832,26333.126585,7280.566666,-8407.273401,-6344.520312,11310.809709,-8872.837886,-4097.767663,23150.484043,-2451.494628,13097.809326,23568.573423,30380.021677,32920.833876,14748.016268,17194.817030,0.007500,-0.009313,1.002937,192.000000,0.000000,24.000000,127.500000,104.000000,15.500000,40.000000,0.000000,0.000000,0.000000,1770801668.025297,0.000000
164.000000,30482.236204,26334.110061,7287.629817,-8411.430825,-6345.794361,11308.887459,-8873.843714,-4099.935782,23157.010753,-2465.173896,13092.824887,23555.028266,30382.927404,32920.342138,14759.348602,17197.968626,0.007500,-0.009313,1.002937,192.000000,0.000000,0.000000,0.000000,0.000000,0.000000,0.000000,0.000000,0.000000,0.000000,1770801668.025308,0.000000
166.000000,30491.266309,26344.168346,7285.171126,-8401.394892,-6342.307489,11305.221773,-8864.433630,-4091.419767,23157.524843,-2453.685099,13103.307856,23569.467493,30385.922538,32919.246902,14753.313631,17187.060974,0.007500,-0.009313,1.002937,192.000000,0.000000,0.000000,0.000000,0.000000,0.000000,0.000000,0.000000,0.000000,0.000000,1770801668.025320,0.000000
168.000000,30487.399457,26336.904029,7283.785317,-8409.195651,-6349.996489,11295.074081,-8873.374328,-4093.409073,23156.161387,-2454.310948,13098.368120,23561.845548,30390.750514,32917.078783,14746.541053,17182.590626,0.007500,-0.009313,1.002937,192.000000,0.000000,0.000000,0.000000,0.000000,0.000000,0.000000,0.000000,0.000000,0.000000,1770801668.025331,0.000000
170.000000,30500.564635,26348.079902,7285.841678,-8401.149023,-6346.196693,11309.043921,-8861.997290,-4083.015511,23174.780390,-2451.964015,13107.465280,23577.961156,30392.471599,32935.094289,14752.933652,17187.128030,0.007500,-0.009313,1.002937,192.000000,0.000000,0.000000,0.000000,0.000000,0.000000,0.000000,0.000000,0.000000,0.000000,1770801668.025343,0.000000
172.000000,30492.450952,26343.140166,7278.286788,-8409.553279,-6344.408553,11304.841793,-8868.434592,-4089.072834,23152.741570,-2445.280843,13104.537201,23576.105961,30379.574642,32939.765804,14743.076532,17181.137762,0.007500,-0.009313,1.002937,192.000000,0.000000,0.000000,127.500000,80.000000,15.500000,48.000000,0.000000,0.000000,0.000000,1770801668.025354,0.000000
174.000000,30486.773609,26340.167384,7281.728957,-8405.507613,-6351.985795,11314.855375,-8869.596883,-4088.446985,23162.375171,-2461.016472,13102.257324,23570.518025,30397.657203,32917.682280,14753.134817,17191.151344,0.007500,-0.009313,1.002937,192.000000,0.000000,0.000000,0.000000,0.000000,0.000000,0.000000,0.000000,0.000000,0.000000,1770801668.025365,0.000000
176.000000,30492.003917,26349.018675,7282.690082,-8401.774872,-6343.089800,11314.274229,-8863.427802,-4081.026206,23167.404314,-2450.645262,13111.510946,23586.499523,30390.124666,32936.256580,14753.984184,17187.239788,0.007500,-0.009313,1.002937,192.000000,0.000000,0.000000,0.000000,0.000000,0.000000,0.000000,0.000000,0.000000,0.000000,1770801668.025377,0.000000
178.000000,30486.036001,26340.525012,7285.573457,-8411.319066,-6352.812809,11307.702816,-8873.508438,-4088.514041,23155.468482,-2454.959149,13101.653826,23571.881482,30385.743724,32913.100173,14754.990012,17186.613940,0.007500,-0.009313,1.002937,192.000000,0.000000,0.000000,0.000000,0.000000,0.000000,0.000000,0.000000,0.000000,0.000000,1770801668.025390,0.000000
180.000000,30493.121504,26349.085730,7286.892210,-8399.673808,-6342.642765,11303.992427,-8864.366575,-4081.853221,23168.968936,-2453.506285,13111.399187,23583.057354,30394.595014,32934.334330,14760.421486,17191.531323,0.007500,-0.009313,1.002937,192.000000,0.000000,0.000000,0.000000,0.000000,0.000000,0.000000,0.000000,0.000000,0.000000,1770801668.025401,0.000000
182.000000,30483.554957,26335.294704,7282.153640,-8405.284095,-6354.042155,11294.090604,-8870.714470,-4088.983427,23149.053532,-2449.237102,13108.582867,23580.397496,30384.447322,32919.023385,14743.858843,17181.361280,0.001750,-0.010656,1.002469,192.000000,127.500000,112.000000,127.500000,80.000000,15.500000,40.000000,0.000000,0.000000,0.000000,1770801668.025413,0.000000
184.000000,30476.603565,26329.885582,7284.880553,-8407.899250,-6357.394917,11296.638703,-8873.106107,-4093.923163,23150.148767,-2467.319663,13103.285504,23567.388781,30378.300593,32916.117658,14750.810236,17187.731527,0.001750,-0.010656,1.002469,192.000000,0.000000,0.000000,0.000000,0.000000,0.000000,0.000000,0.000000,0.000000,0.000000,1770801668.025424,0.000000
186.000000,30483.689068,26337.373416,7278.823230,-8402.378369,-6357.998414,11300.438500,-8864.388927,-4087.575267,23152.652163,-2459.764774,13104.738367,23578.162322,30390.124666,32918.732812,14743.635326,17183.395288,0.001750,-0.010656,1.002469,192.000000,0.000000,0.000000,0.000000,0.000000,0.000000,0.000000,0.000000,0.000000,0.000000,1770801668.025435,0.000000
188.000000,30473.586079,26327.605704,7280.164335,-8413.666000,-6365.150972,11300.550258,-8875.341281,-4095.577192,23142.906802,-2464.548047,13097.071719,23564.505406,30375.819549,32922.465554,14740.327268,17183.015309,0.001750,-0.010656,1.002469,192.000000,0.000000,0.000000,0.000000,0.000000,0.000000,0.000000,0.000000,0.000000,0.000000,1770801668.025447,0.000000
190.000000,30473.653135,26331.629018,7282.511268,-8407.787491,-6349.728268,11302.047825,-8868.121668,-4092.962038,23154.172081,-2462.357576,13100.715053,23571.680316,30386.704849,32917.995205,14751.413733,17189.720832,0.001750,-0.010656,1.002469,192.000000,0.000000,0.000000,0.000000,0.000000,0.000000,0.000000,0.000000,0.000000,0.000000,1770801668.025458,0.000000
192.000000,30465.830024,26325.526992,7281.304274,-8412.257840,-6346.040231,11296.325779,-8872.949645,-4097.745311,23133.764939,-2458.714242,13090.880286,23569.311031,30373.114988,32909.076859,14742.338925,17174.856922,0.001750,-0.010656,1.002469,192.000000,0.000000,0.000000,0.000000,0.000000,0.000000,0.000000,0.000000,0.000000,0.000000,1770801668.025469,0.000000
194.000000,30481.900928,26334.758262,7291.921352,-8412.548412,-6347.090763,11298.270380,-8872.189685,-4090.436291,23147.935945,-2461.843486,13096.468222,23568.774589,30385.296689,32930.668644,14753.939480,17178.746126,0.001750,-0.010656,1.002469,192.000000,0.000000,0.000000,127.500000,80.000000,15.500000,64.000000,0.000000,0.000000,0.000000,1770801668.506556,0.000000
196.000000,30490.595757,26343.900125,7291.988408,-8401.260781,-6352.365774,11298.851526,-8859.762115,-4078.031072,23160.274107,-2447.136038,13111.756815,23588.846456,30395.131456,32935.988359,14749.513835,17173.873445,0.001750,-0.010656,1.002469,192.000000,0.000000,0.000000,0.000000,0.000000,0.000000,0.000000,0.000000,0.000000,0.000000,1770801668.506617,0.000000
198.000000,30478.168187,26324.767032,7285.506402,-8412.995447,-6366.246208,11289.352034,-8871.362671,-4089.765738,23145.633715,-2457.015509,13103.285504,23574.004897,30383.486197,32915.692975,14739.276736,17168.911358,0.001750,-0.010656,1.002469,192.000000,0.000000,0.000000,0.000000,0.000000,0.000000,0.000000,0.000000,0.000000,0.000000,1770801668.506661,0.000000
200.000000,30475.262460,26321.660140,7277.236256,-8406.759311,-6359.943016,11295.834040,-8867.004081,-4092.067968,23152.339238,-2464.883323,13105.095995,23577.536473,30389.498817,32920.811524,14743.121236,17181.763611,0.001750,-0.010656,1.002469,192.000000,0.000000,0.000000,0.000000,0.000000,0.000000,0.000000,0.000000,0.000000,0.000000,1770801668.506705,0.000000
202.000000,30465.271230,26310.037233,7269.971939,-8416.974058,-6363.273425,11291.363691,-8876.771793,-4104.316724,23131.865040,-2463.586922,13089.293312,23565.555938,30380.379305,32902.796018,14734.359352,17177.270910,0.001750,-0.010656,1.002469,192.000000,0.000000,0.000000,0.000000,0.000000,0.000000,0.000000,0.000000,0.000000,0.000000,1770801668.506748,0.000000
204.000000,30467.260536,26310.439564,7281.550143,-8416.817596,-6360.546513,11294.559991,-8873.866066,-4097.477090,23137.296514,-2475.098071,13088.689815,23558.671601,30372.757360,32912.206103,14753.335983,17186.882161,-0.002000,-0.008000,1.002000,192.000000,127.500000,120.000000,127.500000,96.000000,15.500000,40.000000,0.000000,0.000000,0.000000,1770801668.506793,0.000000
206.000000,30473.451969,26322.934189,7280.946646,-8408.592154,-6347.135466,11295.811688,-8864.411278,-4088.446985,23146.728950,-2462.558742,13099.150431,23578.587005,30385.341392,32921.280911,14753.268928,17177.919111,-0.002000,-0.008000,1.002000,192.000000,0.000000,0.000000,0.000000,0.000000,0.000000,0.000000,0.000000,0.000000,0.000000,1770801668.506821,0.000000
208.000000,30464.801844,26312.652387,7279.203210,-8419.768026,-6363.563998,11293.151831,-8876.972959,-4100.204003,23129.585162,-2468.392547,13087.706338,23560.526795,30386.794256,32910.283853,14749.446779,17170.386573,-0.002000,-0.008000,1.002000,192.000000,0.000000,0.000000,0.000000,0.000000,0.000000,0.000000,0.000000,0.000000,0.000000,1770801668.506832,0.000000
210.000000,30473.451969,26322.822430,7280.477259,-8409.374465,-6357.752545,11290.603732,-8867.428764,-4093.230259,23147.019523,-2469.018396,13098.524582,23572.820255,30384.626136,32909.009803,14749.715000,17172.934672,-0.002000,-0.008000,1.002000,192.000000,0.000000,0.000000,0.000000,0.000000,0.000000,0.000000,0.000000,0.000000,0.000000,1770801668.506854,0.000000
212.000000,30467.975791,26319.067337,7276.856277,-8414.783587,-6369.196638,11289.061462,-8872.346148,-4097.365331,23132.826165,-2464.257474,13094.143640,23569.668659,30380.535767,32913.055469,14734.448759,17166.363259,-0.002000,-0.008000,1.002000,192.000000,0.000000,0.000000,0.000000,0.000000,0.000000,0.000000,0.000000,0.000000,0.000000,1770801668.506866,0.000000
214.000000,30469.875690,26321.190753,7285.595809,-8413.576593,-6366.983815,11294.247066,-8873.284921,-4097.633552,23141.096311,-2475.545105,13094.702434,23563.700743,30392.985689,32914.620091,14741.869538,17177.449724,-0.002000,-0.008000,1.002000,192.000000,0.000000,0.000000,127.500000,80.000000,15.500000,48.000000,0.000000,0.000000,0.000000,1770801668.506877,0.000000
216.000000,30465.248879,26321.302512,7278.756175,-8408.636857,-6355.763239,11294.247066,-8867.898150,-4098.594677,23136.156575,-2467.342015,13101.810289,23575.524816,30388.314174,32892.938899,14737.510948,17175.996861,-0.002000,-0.008000,1.002000,192.000000,0.000000,0.000000,0.000000,0.000000,0.000000,0.000000,0.000000,0.000000,0.000000,1770801668.506889,0.000000
218.000000,30458.565707,26311.221875,7278.353843,-8420.595040,-6355.897350,11296.482241,-8878.336415,-4107.378913,23123.281970,-2472.304102,13085.269998,23557.442255,30390.862273,32905.254710,14736.371009,17176.555655,-0.002000,-0.008000,1.002000,192.000000,0.000000,0.000000,0.000000,0.000000,0.000000,0.000000,0.000000,0.000000,0.000000,1770801668.506901,0.000000
220.000000,30465.807672,26318.374433,7279.560838,-8412.011971,-6360.121830,11292.257761,-8869.909807,-4100.561631,23139.218764,-2472.259399,13095.060062,23567.612298,30379.172311,32917.279949,14745.602279,17184.021137,-0.002000,-0.008000,1.002000,192.000000,0.000000,0.000000,0.000000,0.000000,0.000000,0.000000,0.000000,0.000000,0.000000,1770801668.506912,0.000000
222.000000,30459.526832,26311.892427,7273.883495,-8417.197575,-6358.288986,11287.787412,-8873.866066,-4104.137910,23118.252828,-2469.130155,13089.025091,23565.846511,30377.451226,32899.644422,14738.315611,17170.408925,-0.002000,-0.008000,1.002000,192.000000,0.000000,0.000000,0.000000,0.000000,0.000000,0.000000,0.000000,0.000000,0.000000,1770801668.506924,0.000000
224.000000,30465.204175,26318.173268,7280.276094,-8413.196613,-6356.009109,11292.369520,-8873.217866,-4100.874555,23129.987494,-2479.210791,13088.712166,23560.236223,30389.632927,32886.434542,14752.151341,17176.555655,-0.004000,-0.012000,1.006000,192.000000,127.500000,112.000000,127.500000,80.000000,15.500000,56.000000,0.000000,0.000000,0.000000,1770801668.506935,0.000000
226.000000,30463.930126,26324.096480,7271.804782,-8407.407511,-6360.345347,11295.074081,-8868.322834,-4098.482919,23126.411215,-2464.302178,13092.579018,23575.055429,30398.864198,32905.120600,14742.517739,17172.308823,-0.004000,-0.012000,1.006000,192.000000,0.000000,0.000000,0.000000,0.000000,0.000000,0.000000,0.000000,0.000000,0.000000,1770801668.506947,0.000000
228.000000,30454.184765,26314.708747,7273.436460,-8416.214098,-6376.773879,11292.995369,-8878.895209,-4105.546070,23126.411215,-2468.705472,13087.706338,23562.493749,30382.659183,32898.526835,14734.627573,17175.415716,-0.004000,-0.012000,1.006000,192.000000,0.000000,0.000000,0.000000,0.000000,0.000000,0.000000,0.000000,0.000000,0.000000,1770801668.506958,0.000000
230.000000,30457.761044,26320.386090,7276.811573,-8407.876898,-6364.681585,11301.243162,-8871.072098,-4101.612163,23140.448110,-2474.852201,13095.730614,23570.138046,30383.955584,32923.113754,14739.924936,17185.898684,-0.004000,-0.012000,1.006000,192.000000,0.000000,0.000000,0.000000,0.000000,0.000000,0.000000,0.000000,0.000000,0.000000,1770801668.506970,0.000000
232.000000,30449.803823,26309.567846,7270.731899,-8419.544508,-6365.396841,11298.695063,-8880.951569,-4113.257422,23124.019578,-2469.197210,13092.154335,23564.997144,30376.355991,32897.453952,14730.470148,17181.495390,-0.004000,-0.012000,1.006000,192.000000,0.000000,0.000000,0.000000,0.000000,0.000000,0.000000,0.000000,0.000000,0.000000,1770801668.506981,0.000000
234.000000,30441.310160,26302.236474,7274.196419,-8426.250032,-6371.498867,11290.067290,-8885.220752,-4119.515910,23126.008883,-2489.626704,13081.514905,23547.227507,30379.485235,32886.233376,14743.031829,17186.591588,0.002000,-0.014000,1.006000,192.000000,0.000000,8.000000,127.500000,72.000000,15.500000,56.000000,0.000000,0.000000,0.000000,1770801668.506992,0.000000
236.000000,30448.395663,26311.803020,7274.688157,-8420.840910,-6352.343422,11286.692177,-8875.184819,-4110.821081,23128.400520,-2483.547030,13086.097012,23557.151682,30384.626136,32889.675544,14743.657678,17176.779172,0.002000,-0.014000,1.006000,192.000000,0.000000,0.000000,0.000000,0.000000,0.000000,0.000000,0.000000,0.000000,0.000000,1770801668.507006,0.000000
238.000000,30451.189631,26310.797192,7277.370367,-8428.015820,-6351.784629,11281.707738,-8882.404433,-4109.859956,23114.989473,-2484.061120,13081.984291,23549.082702,30376.400694,32880.019591,14747.859806,17167.212625,0.002000,-0.014000,1.006000,192.000000,0.000000,0.000000,0.000000,0.000000,0.000000,0.000000,0.000000,0.000000,0.000000,1770801668.507019,0.000000
240.000000,30467.081722,26327.739814,7280.991349,-8417.152872,-6350.063545,11290.290808,-8870.066270,-4095.912468,23142.906802,-2476.305065,13098.837507,23565.913566,30397.768962,32885.182844,14760.309727,17169.313689,0.002000,-0.014000,1.006000,192.000000,0.000000,0.000000,0.000000,0.000000,0.000000,0.000000,0.000000,0.000000,0.000000,1770801668.507031,0.000000
242.000000,30456.844623,26316.720404,7273.570570,-8416.258802,-6357.573731,11286.893342,-8875.765964,-4102.729750,23132.267372,-2469.264265,13097.295236,23567.142912,30377.428875,32906.171132,14745.222300,17161.110599,0.002000,-0.014000,1.006000,192.000000,0.000000,0.000000,0.000000,0.000000,0.000000,0.000000,0.000000,0.000000,0.000000,1770801668.507044,0.000000
244.000000,30461.337323,26323.492983,7275.850448,-8413.151909,-6360.099478,11290.782546,-8875.408337,-4100.405169,23138.995247,-2476.886210,13092.310797,23562.069066,30374.523148,32904.360641,14749.960870,17175.326309,0.006000,-0.018000,1.006000,192.000000,0.000000,24.000000,127.500000,56.000000,15.500000,56.000000,0.000000,0.000000,0.000000,1770801668.507055,0.000000
246.000000,30454.229469,26320.207276,7263.735803,-8405.574668,-6365.821524,11299.209154,-8871.340319,-4105.657829,23132.513241,-2468.169030,13092.020225,23575.189540,30377.384171,32923.806658,14735.566346,17178.612015,0.006000,-0.018000,1.006000,192.000000,0.000000,0.000000,0.000000,0.000000,0.000000,0.000000,0.000000,0.000000,0.000000,1770801668.507066,0.000000
248.000000,30441.578381,26305.477477,7261.344166,-8417.935183,-6380.484269,11296.303427,-8887.344168,-4123.829797,23103.992415,-2481.110690,13069.891998,23551.876670,30364.867194,32904.874731,14727.027980,17183.775268,0.006000,-0.018000,1.006000,192.000000,0.000000,0.000000,0.000000,0.000000,0.000000,0.000000,0.000000,0.000000,0.000000,1770801668.507078,0.000000
250.000000,30440.617256,26302.214122,7262.975843,-8416.705837,-6364.927455,11302.874840,-8881.488011,-4124.232128,23133.943753,-2489.537297,13078.609178,23550.289696,30372.824415,32883.372353,14735.901622,17195.979321,0.006000,-0.018000,1.006000,192.000000,0.000000,0.000000,0.000000,0.000000,0.000000,0.000000,0.000000,0.000000,0.000000,1770801668.507090,0.000000
252.000000,30434.470527,26294.748639,7262.774678,-8430.787436,-6366.022690,11293.755328,-8888.327645,-4131.608204,23099.946749,-2491.727768,13068.550893,23538.622086,30376.221880,32899.040925,14731.498329,17184.065841,0.006000,-0.018000,1.006000,192.000000,0.000000,0.000000,0.000000,0.000000,0.000000,0.000000,0.000000,0.000000,0.000000,1770801668.507101,0.000000
254.000000,30436.281018,26301.454163,7271.402451,-8432.016782,-6369.978949,11283.384118,-8887.791203,-4127.249614,23117.179944,-2499.059141,13069.668480,23528.273228,30375.417218,32879.773722,14743.188291,17182.456515,0.006000,-0.018000,1.006000,192.000000,0.000000,24.000000,127.500000,56.000000,15.500000,56.000000,0.000000,0.000000,0.000000,1770801668.507113,0.000000
0.000000,30438.560896,26310.014881,7268.630835,-8422.897270,-6362.580521,11283.719395,-8877.151773,-4117.079570,23113.603665,-2487.123309,13078.452716,23549.507385,30362.989648,32884.556995,14739.209680,17170.833608,0.006000,-0.018000,1.006000,192.000000,0.000000,0.000000,0.000000,0.000000,0.000000,0.000000,0.000000,0.000000,0.000000,1770801668.507124,0.000000
2.000000,30437.778585,26305.857456,7268.519076,-8428.373447,-6364.838048,11281.975959,-8886.964188,-4118.867710,23104.506505,-2484.396396,13070.294329,23544.500595,30362.386151,32886.725114,14739.343791,17167.525550,0.006000,-0.018000,1.006000,192.000000,0.000000,0.000000,0.000000,0.000000,0.000000,0.000000,0.000000,0.000000,0.000000,1770801668.507136,0.000000
4.000000,30454.251820,26319.983759,7270.083698,-8413.330723,-6350.868207,11290.827249,-8876.861200,-4106.194270,23128.154651,-2481.937704,13085.247646,23559.856243,30380.044029,32897.498655,14748.977393,17173.113486,0.006000,-0.018000,1.006000,192.000000,0.000000,0.000000,0.000000,0.000000,0.000000,0.000000,0.000000,0.000000,0.000000,1770801668.507147,0.000000
6.000000,30454.609448,26318.575599,7259.690137,-8414.649476,-6357.372565,11287.385081,-8881.398604,-4108.742369,23120.219781,-2470.560666,13081.917236,23561.912604,30379.820511,32906.081725,14736.907451,17167.547902,0.006000,-0.018000,1.006000,192.000000,0.000000,0.000000,0.000000,0.000000,0.000000,0.000000,0.000000,0.000000,0.000000,1770801668.507159,0.000000
8.000000,30445.422881,26307.824410,7263.825210,-8411.006142,-6368.704899,11288.703834,-8881.331549,-4107.915355,23124.645427,-2482.630608,13077.916274,23555.832929,30375.171348,32921.191504,14741.757779,17178.120277,0.007000,-0.014000,1.008000,192.000000,0.000000,32.000000,127.500000,88.000000,15.500000,72.000000,0.000000,0.000000,0.000000,1770801668.507170,0.000000
10.000000,30445.869916,26312.451221,7256.583244,-8403.183031,-6362.245245,11288.860296,-8874.693081,-4104.696704,23118.655159,-2474.226352,13082.051347,23570.540377,30386.950718,32915.938844,14729.419616,17175.616881,0.007000,-0.014000,1.008000,192.000000,0.000000,0.000000,0.000000,0.000000,0.000000,0.000000,0.000000,0.000000,0.000000,1770801668.507181,0.000000
12.000000,30441.667788,26301.655328,7265.367480,-8415.588250,-6380.193696,11285.507534,-8885.041938,-4114.509119,23107.479287,-2481.893001,13072.149524,23555.296487,30362.721427,32898.772704,14722.602334,17175.125143,0.007000,-0.014000,1.008000,192.000000,0.000000,0.000000,0.000000,0.000000,0.000000,0.000000,0.000000,0.000000,0.000000,1770801668.507193,0.000000
14.000000,30449.312085,26304.896331,7269.882532,-8418.024590,-6377.980873,11298.359787,-8879.342244,-4110.888137,23125.651255,-2488.531469,13085.202943,23556.816406,30366.454168,32886.523948,14731.163052,17185.764573,0.007000,-0.014000,1.008000,192.000000,0.000000,0.000000,0.000000,0.000000,0.000000,0.000000,0.000000,0.000000,0.000000,1770801668.507204,0.000000
16.000000,30440.170221,26295.888578,7264.026375,-8422.517290,-6383.166478,11295.297598,-8883.656130,-4115.939631,23111.122621,-2484.306989,13079.503248,23549.730903,30367.504700,32900.694954,14721.261230,17179.975471,0.007000,-0.014000,1.008000,192.000000,0.000000,0.000000,0.000000,0.000000,0.000000,0.000000,0.000000,0.000000,0.000000,1770801668.507215,0.000000
18.000000,30443.970018,26300.515390,7272.050652,-8426.540604,-6379.389033,11286.915694,-8880.035148,-4110.888137,23117.269351,-2494.521736,13078.944454,23538.778548,30372.422084,32888.625012,14732.258288,17184.691690,0.005500,-0.010000,1.005000,192.000000,0.000000,16.000000,127.500000,104.000000,15.500000,40.000000,0.000000,0.000000,0.000000,1770801668.507228,0.000000
20.000000,30443.433576,26300.627148,7264.004024,-8423.590174,-6379.746661,11273.616406,-8875.900075,-4112.229241,23118.029310,-2486.273943,13082.498381,23550.602621,30377.585337,32888.602661,14729.464320,17171.861788,0.005500,-0.010000,1.005000,192.000000,0.000000,0.000000,0.000000,0.000000,0.000000,0.000000,0.000000,0.000000,0.000000,1770801668.507240,0.000000
22.000000,30429.463736,26284.913872,7261.232407,-8433.246128,-6390.721368,11272.431764,-8889.244066,-4124.500349,23093.196522,-2500.556707,13061.711259,23535.202269,30362.341447,32892.648326,14727.720884,17162.764628,0.005500,-0.010000,1.005000,192.000000,0.000000,0.000000,0.000000,0.000000,0.000000,0.000000,0.000000,0.000000,0.000000,1770801668.507252,0.000000
24.000000,30435.386948,26293.474590,7260.517151,-8422.651401,-6373.510524,11280.612502,-8883.544372,-4119.940593,23112.843706,-2501.070798,13070.428439,23543.517118,30369.985744,32878.566727,14742.003649,17171.012422,0.005500,-0.010000,1.005000,192.000000,0.000000,0.000000,0.000000,0.000000,0.000000,0.000000,0.000000,0.000000,0.000000,1770801668.507263,0.000000
26.000000,30429.486087,26289.831256,7253.208131,-8424.014857,-6361.775859,11276.499781,-8888.908790,-4124.992087,23092.771839,-2492.197155,13057.106800,23547.182804,30370.656296,32864.976867,14737.667410,17163.703402,0.005500,-0.010000,1.005000,192.000000,0.000000,0.000000,0.000000,0.000000,0.000000,0.000000,0.000000,0.000000,0.000000,1770801668.507274,0.000000
28.000000,30444.260591,26304.046965,7266.306253,-8421.153834,-6362.088783,11281.774793,-8885.846601,-4115.626707,23106.607569,-2496.823966,13060.548968,23542.466586,30362.676723,32888.759123,14749.715000,17171.973547,0.003750,-0.008000,1.000500,192.000000,0.000000,8.000000,127.500000,104.000000,15.500000,16.000000,0.000000,0.000000,0.000000,1770801668.507286,0.000000
30.000000,30456.352884,26319.402614,7268.854352,-8407.787491,-6350.398821,11287.250970,-8872.346148,-4099.801671,23125.025406,-2473.242876,13079.570303,23564.170130,30380.960450,32882.187710,14742.428332,17168.017288,0.003750,-0.008000,1.000500,192.000000,0.000000,0.000000,0.000000,0.000000,0.000000,0.000000,0.000000,0.000000,0.000000,1770801668.507297,0.000000
32.000000,30450.653189,26309.634901,7267.982634,-8418.337514,-6373.957559,11281.506572,-8885.131345,-4107.825948,23115.458860,-2484.977542,13070.584902,23555.251784,30374.925479,32872.755274,14737.063913,17168.441971,0.003750,-0.008000,1.000500,192.000000,0.000000,0.000000,0.000000,0.000000,0.000000,0.000000,0.000000,0.000000,0.000000,1770801668.507308,0.000000
34.000000,30447.188669,26306.371547,7265.367480,-8413.017799,-6377.131507,11288.256799,-8879.543409,-4109.167052,23117.358758,-2488.151489,13077.156315,23556.391723,30373.830244,32870.631858,14736.080436,17175.795695,0.003750,-0.008000,1.000500,192.000000,0.000000,0.000000,0.000000,0.000000,0.000000,0.000000,0.000000,0.000000,0.000000,1770801668.507320,0.000000
36.000000,30441.623085,26299.531913,7262.439401,-8422.696104,-6376.550362,11292.458927,-8887.008892,-4117.727771,23102.740717,-2485.893963,13067.254492,23547.316914,30369.359895,32874.185786,14724.166956,17169.604262,0.003750,-0.008000,1.000500,192.000000,0.000000,0.000000,0.000000,0.000000,0.000000,0.000000,0.000000,0.000000,0.000000,1770801668.507330,0.000000
38.000000,30446.451062,26302.504695,7270.798954,-8422.226718,-6377.131507,11300.729072,-8889.534639,-4118.845358,23124.332502,-2493.337094,13073.267111,23541.460757,30375.193700,32882.478283,14736.080436,17185.764573,0.002875,-0.009000,0.999250,192.000000,0.000000,8.000000,127.500000,88.000000,15.500000,24.000000,0.000000,0.000000,0.000000,1770801668.507342,0.000000
40.000000,30450.496727,26307.019747,7264.518114,-8416.482319,-6368.190809,11293.420052,-8881.935046,-4115.157320,23124.243095,-2488.687931,13076.508114,23553.150720,30386.101352,32874.833986,14733.174709,17182.970605,0.002875,-0.009000,0.999250,192.000000,0.000000,0.000000,0.000000,0.000000,0.000000,0.000000,0.000000,0.000000,0.000000,1770801668.507353,0.000000
42.000000,30439.365559,26297.050869,7258.840771,-8430.116884,-6388.307379,11274.666938,-8892.641532,-4123.650983,23104.595912,-2493.247687,13060.794838,23542.511289,30370.164558,32858.181937,14729.687837,17172.465285,0.002875,-0.009000,0.999250,192.000000,0.000000,0.000000,0.000000,0.000000,0.000000,0.000000,0.000000,0.000000,0.000000,1770801668.507364,0.000000
44.000000,30434.336416,26291.373526,7255.510361,-8428.105227,-6379.545495,11271.604749,-8886.248933,-4123.203948,23117.470517,-2501.718998,13065.488704,23545.193499,30374.567851,32872.330591,14736.058084,17172.442934,0.002875,-0.009000,0.999250,192.000000,0.000000,0.000000,0.000000,0.000000,0.000000,0.000000,0.000000,0.000000,0.000000,1770801668.507375,0.000000
46.000000,30427.787355,26279.057715,7250.771791,-8435.883634,-6366.268559,11267.447325,-8893.088566,-4130.915300,23089.150857,-2503.194213,13050.401276,23532.743577,30358.787520,32851.543468,14730.313686,17160.395343,0.002875,-0.009000,0.999250,192.000000,0.000000,0.000000,0.000000,0.000000,0.000000,0.000000,0.000000,0.000000,0.000000,1770801668.507387,0.000000
48.000000,30433.643512,26281.337593,7259.310157,-8436.554186,-6363.653405,11270.174238,-8895.301389,-4129.864768,23101.332557,-2509.944440,13054.603404,23525.501612,30374.590203,32838.579457,14745.289355,17168.777248,0.004438,-0.007500,0.998625,192.000000,0.000000,24.000000,127.500000,104.000000,15.500000,24.000000,0.000000,0.000000,0.000000,1770801668.507398,0.000000
50.000000,30446.562820,26295.955634,7260.897131,-8427.166453,-6349.169475,11276.633892,-8884.281979,-4119.359448,23114.430680,-2501.875460,13068.416782,23539.225583,30382.949756,32838.244180,14743.009477,17163.144608,0.004438,-0.007500,0.998625,192.000000,0.000000,0.000000,0.000000,0.000000,0.000000,0.000000,0.000000,0.000000,0.000000,1770801668.507410,0.000000
52.000000,30445.825213,26296.179151,7264.004024,-8431.010953,-6364.391013,11273.325833,-8892.842697,-4121.728733,23111.189677,-2492.308914,13066.069849,23535.090510,30371.773883,32859.590096,14735.029904,17159.478922,0.004438,-0.007500,0.998625,192.000000,0.000000,0.000000,0.000000,0.000000,0.000000,0.000000,0.000000,0.000000,0.000000,1770801668.507422,0.000000
54.000000,30455.548222,26302.482343,7264.607521,-8425.534776,-6367.989644,11280.143116,-8885.108994,-4114.687933,23131.507412,-2493.001818,13079.816172,23542.578345,30383.977936,32865.781530,14738.673239,17166.251500,0.004438,-0.007500,0.998625,192.000000,0.000000,0.000000,0.000000,0.000000,0.000000,0.000000,0.000000,0.000000,0.000000,1770801668.507433,0.000000
56.000000,30447.322780,26294.368660,7254.191608,-8429.401628,-6376.863286,11275.136325,-8891.188668,-4121.236994,23108.418060,-2485.402225,13070.540198,23537.839775,30376.668915,32847.296637,14722.401169,17161.043544,0.004438,-0.007500,0.998625,192.000000,0.000000,0.000000,0.000000,0.000000,0.000000,0.000000,0.000000,0.000000,0.000000,1770801668.507445,0.000000
58.000000,30443.411224,26292.513465,7261.947663,-8429.848663,-6386.519240,11291.050767,-8891.836869,-4122.086361,23124.243095,-2505.876423,13067.500361,23534.129385,30376.601860,32857.243163,14731.632439,17176.957986,0.003219,-0.007750,1.001313,192.000000,0.000000,8.000000,127.500000,96.000000,15.500000,48.000000,0.000000,0.000000,0.000000,1770801668.985998,0.000000
60.000000,30446.786338,26298.526084,7256.560893,-8419.298639,-6383.568809,11295.968151,-8884.773717,-4120.007648,23115.190639,-2494.767606,13067.410954,23544.880574,30376.825378,32852.705759,14726.826814,17178.053221,0.003219,-0.007750,1.001313,192.000000,0.000000,0.000000,0.000000,0.000000,0.000000,0.000000,0.000000,0.000000,0.000000,1770801668.986097,0.000000
62.000000,30436.303370,26287.439619,7255.778582,-8433.894328,-6391.906010,11283.719395,-8897.000122,-4130.043582,23104.886485,-2500.109673,13057.307965,23531.558935,30365.314229,32852.146966,14726.044503,17174.164018,0.003219,-0.007750,1.001313,192.000000,0.000000,0.000000,0.000000,0.000000,0.000000,0.000000,0.000000,0.000000,0.000000,1770801668.986177,0.000000
64.000000,30444.349998,26291.373526,7259.265454,-8427.837006,-6384.529934,11278.176162,-8888.931142,-4124.254480,23117.068185,-2500.176728,13066.181608,23538.242106,30370.678648,32868.709608,14732.973544,17173.001727,0.003219,-0.007750,1.001313,192.000000,0.000000,0.000000,0.000000,0.000000,0.000000,0.000000,0.000000,0.000000,0.000000,1770801668.986249,0.000000
66.000000,30441.153698,26284.869168,7254.325718,-8436.733000,-6377.399728,11267.514380,-8895.793128,-4130.468265,23103.031290,-2503.864766,13061.018355,23532.073025,30367.214127,32865.021570,14728.167919,17159.501274,0.003219,-0.007750,1.001313,192.000000,0.000000,0.000000,0.000000,0.000000,0.000000,0.000000,0.000000,0.000000,0.000000,1770801668.986321,0.000000
68.000000,30443.187707,26287.394916,7257.723183,-8435.749523,-6375.924513,11269.280168,-8897.894191,-4130.512968,23112.664892,-2514.571251,13056.279785,23519.801917,30373.651430,32834.287922,14742.249518,17162.630518,0.003219,-0.007750,1.001313,192.000000,0.000000,0.000000,127.500000,72.000000,15.500000,64.000000,0.000000,0.000000,0.000000,1770801668.986394,0.000000
70.000000,30448.127442,26297.296738,7254.951567,-8425.043038,-6355.651481,11277.595017,-8889.400529,-4125.550881,23114.609494,-2502.434254,13060.750134,23538.711493,30365.917726,32846.715492,14737.309782,17161.892910,0.003219,-0.007750,1.001313,192.000000,0.000000,0.000000,0.000000,0.000000,0.000000,0.000000,0.000000,0.000000,0.000000,1770801668.986466,0.000000
72.000000,30445.914620,26291.775857,7260.964186,-8432.754389,-6353.729231,11275.784525,-8897.782433,-4128.970698,23096.661043,-2498.589754,13054.826922,23525.635722,30361.290915,32853.644532,14735.789864,17163.546939,0.003219,-0.007750,1.001313,192.000000,0.000000,0.000000,0.000000,0.000000,0.000000,0.000000,0.000000,0.000000,0.000000,1770801668.986492,0.000000
74.000000,30457.537527,26302.459991,7264.540465,-8428.060523,-6358.713670,11280.836020,-8888.685273,-4120.901718,23128.109947,-2492.979466,13073.378870,23535.492842,30375.707790,32859.657152,14740.975468,17168.039640,0.003219,-0.007750,1.001313,192.000000,0.000000,0.000000,0.000000,0.000000,0.000000,0.000000,0.000000,0.000000,0.000000,1770801668.986515,0.000000
76.000000,30454.900021,26295.933282,7258.460791,-8433.357886,-6366.916760,11271.895322,-8892.485069,-4124.790922,23112.419023,-2490.476071,13069.981405,23532.363597,30381.854520,32853.711588,14727.832643,17157.042582,0.003219,-0.007750,1.001313,192.000000,0.000000,0.000000,0.000000,0.000000,0.000000,0.000000,0.000000,0.000000,0.000000,1770801668.986539,0.000000
78.000000,30452.173108,26294.413363,7260.338337,-8437.917642,-6377.779708,11278.690252,-8895.815479,-4126.489654,23112.888409,-2506.166995,13065.868684,23520.204248,30370.030447,32855.209155,14734.851090,17167.905529,0.003219,-0.007750,1.001313,192.000000,0.000000,0.000000,0.000000,0.000000,0.000000,0.000000,0.000000,0.000000,0.000000,1770801668.986562,0.000000
80.000000,30455.011780,26297.833180,7256.359727,-8427.725247,-6375.298664,11284.434650,-8889.668750,-4123.271003,23118.006959,-2500.690818,13070.249625,23531.000141,30372.310325,32857.600791,14728.950230,17168.486675,0.002000,-0.014000,1.006000,192.000000,0.000000,8.000000,127.500000,72.000000,15.500000,56.000000,0.000000,0.000000,0.000000,1770801668.986586,0.000000
82.000000,30448.663884,26293.206369,7254.795105,-8433.961384,-6389.939057,11285.865162,-8900.419939,-4128.769532,23104.841781,-2500.266135,13056.749172,23522.059443,30360.352142,32845.530849,14724.278715,17169.000765,0.002000,-0.014000,1.006000,192.000000,0.000000,0.000000,0.000000,0.000000,0.000000,0.000000,0.000000,0.000000,0.000000,1770801668.986620,0.000000
84.000000,30454.363579,26299.889541,7255.555064,-8423.567822,-6389.201449,11287.161563,-8889.735805,-4119.113579,23116.352930,-2499.662638,13065.220483,23534.285847,30359.815700,32858.450157,14727.944401,17177.114448,0.002000,-0.014000,1.006000,192.000000,0.000000,0.000000,0.000000,0.000000,0.000000,0.000000,0.000000,0.000000,0.000000,1770801668.986643,0.000000
86.000000,30449.736768,26292.446410,7250.794143,-8429.111055,-6398.700940,11276.186857,-8893.848526,-4125.349715,23101.131392,-2487.637399,13060.884245,23531.268362,30351.277334,32879.349039,14716.455605,17163.591643,0.002000,-0.014000,1.006000,192.000000,0.000000,0.000000,0.000000,0.000000,0.000000,0.000000,0.000000,0.000000,0.000000,1770801668.986666,0.000000
88.000000,30454.900021,26286.344384,7255.644471,-8433.424942,-6394.610571,11266.665014,-8898.095357,-4129.753009,23102.919531,-2506.055237,13056.369192,23515.510382,30359.145148,32863.121672,14725.955096,17169.894835,0.002000,-0.014000,1.006000,192.000000,0.000000,0.000000,0.000000,0.000000,0.000000,0.000000,0.000000,0.000000,0.000000,1770801668.986690,0.000000
90.000000,30460.242088,26290.345346,7251.040012,-8426.942936,-6383.814679,11261.278243,-8891.166316,-4127.383724,23121.337369,-2499.394417,13063.454695,23526.954475,30363.391979,32869.335457,14726.715055,17164.306899,0.010000,-0.014000,1.014000,192.000000,0.000000,40.000000,127.500000,72.000000,15.500000,88.000000,0.000000,0.000000,0.000000,1770801668.986713,0.000000
92.000000,30445.556992,26279.437694,7251.040012,-8435.615413,-6388.463841,11267.313214,-8902.453947,-4135.631518,23097.063374,-2506.524623,13044.701582,23516.672673,30365.135415,32848.235410,14722.334113,17161.691745,0.010000,-0.014000,1.014000,192.000000,0.000000,0.000000,0.000000,0.000000,0.000000,0.000000,0.000000,0.000000,0.000000,1770801668.986737,0.000000
94.000000,30464.623030,26296.983814,7257.522018,-8423.523119,-6372.817620,11274.331662,-8890.763985,-4121.080532,23104.774726,-2494.968771,13057.129151,23529.189650,30366.789444,32862.585230,14733.442930,17166.989108,0.010000,-0.014000,1.014000,192.000000,0.000000,0.000000,0.000000,0.000000,0.000000,0.000000,0.000000,0.000000,0.000000,1770801668.986760,0.000000
96.000000,30467.372294,26297.520256,7256.695003,-8426.607660,-6374.091670,11273.057613,-8892.686235,-4121.147587,23113.000168,-2485.290466,13068.170913,23540.007894,30369.315191,32878.991411,14722.065892,17160.149474,0.010000,-0.014000,1.014000,192.000000,0.000000,0.000000,0.000000,0.000000,0.000000,0.000000,0.000000,0.000000,0.000000,1770801668.986783,0.000000
98.000000,30461.359675,26289.272462,7260.964186,-8429.245165,-6381.378339,11268.989595,-8896.709549,-4128.031925,23115.637674,-2495.482861,13065.712221,23527.021531,30366.655334,32874.789283,14729.419616,17168.821951,0.010000,-0.014000,1.014000,192.000000,0.000000,0.000000,0.000000,0.000000,0.000000,0.000000,0.000000,0.000000,0.000000,1770801668.986807,0.000000
100.000000,30464.421864,26294.480419,7252.403468,-8426.652363,-6374.359891,11273.951682,-8891.725110,-4127.383724,23120.264485,-2489.447890,13070.294329,23537.348036,30364.733084,32867.569669,14724.681047,17165.335079,0.010000,-0.006000,1.012000,192.000000,0.000000,40.000000,127.500000,104.000000,15.500000,80.000000,0.000000,0.000000,0.000000,1770801668.986831,0.000000
102.000000,30449.066216,26275.459084,7250.592977,-8437.023573,-6394.364702,11264.742764,-8902.878631,-4140.012460,23096.348118,-2501.763702,13051.608271,23517.544391,30355.658276,32863.524003,14718.780186,17163.077553,0.010000,-0.006000,1.012000,192.000000,0.000000,0.000000,0.000000,0.000000,0.000000,0.000000,0.000000,0.000000,0.000000,1770801668.986854,0.000000
104.000000,30453.670675,26282.879863,7250.391811,-8432.553224,-6393.314170,11265.994461,-8895.122575,-4135.810332,23105.355871,-2510.950269,13054.290480,23520.606580,30357.491119,32868.731960,14724.859861,17167.771419,0.010000,-0.006000,1.012000,192.000000,0.000000,0.000000,0.000000,0.000000,0.000000,0.000000,0.000000,0.000000,0.000000,1770801668.986878,0.000000
106.000000,30458.297486,26285.986756,7248.313099,-8435.414247,-6398.924458,11266.732069,-8897.804785,-4134.290413,23084.077011,-2503.238917,13052.837617,23524.384025,30352.283162,32862.317009,14715.270962,17158.629556,0.010000,-0.006000,1.012000,192.000000,0.000000,0.000000,0.000000,0.000000,0.000000,0.000000,0.000000,0.000000,0.000000,1770801668.986902,0.000000
108.000000,30461.873765,26287.305509,7254.884512,-8436.867110,-6391.749548,11270.487162,-8898.877668,-4131.384686,23103.545380,-2508.938612,13056.503303,23519.779565,30356.217069,32863.792224,14726.290372,17166.519721,0.010000,-0.006000,1.012000,192.000000,0.000000,0.000000,0.000000,0.000000,0.000000,0.000000,0.000000,0.000000,0.000000,1770801668.986935,0.000000
110.000000,30467.931088,26295.352137,7254.638643,-8427.322915,-6382.965312,11268.788429,-8890.428709,-4123.360410,23102.226627,-2495.572268,13067.053326,23538.912659,30363.548441,32874.230489,14721.417692,17160.641213,0.012000,-0.004000,1.012000,192.000000,0.000000,48.000000,127.500000,112.000000,15.500000,80.000000,0.000000,0.000000,0.000000,1770801668.986964,0.000000
112.000000,30461.605544,26290.278291,7257.767887,-8434.497825,-6393.962371,11262.775810,-8900.442290,-4127.249614,23092.324804,-2503.350676,13059.163160,23527.155641,30362.095578,32862.093492,14718.623724,17156.975526,0.012000,-0.004000,1.012000,192.000000,0.000000,0.000000,0.000000,0.000000,0.000000,0.000000,0.000000,0.000000,0.000000,1770801668.986977,0.000000
114.000000,30471.552071,26303.398765,7260.785372,-8420.527985,-6381.467745,11266.821476,-8890.652226,-4118.197157,23119.325712,-2495.393454,13074.295291,23540.276115,30367.683514,32876.532719,14725.820986,17163.166960,0.012000,-0.004000,1.012000,192.000000,0.000000,0.000000,0.000000,0.000000,0.000000,0.000000,0.000000,0.000000,0.000000,1770801668.986992,0.000000
116.000000,30463.997181,26297.497904,7253.006965,-8424.908927,-6386.005150,11262.552293,-8895.860183,-4124.232128,23100.773764,-2483.390568,13070.406088,23542.801862,30366.297706,32879.036114,14716.679122,17155.075628,0.012000,-0.004000,1.012000,192.000000,0.000000,0.000000,0.000000,0.000000,0.000000,0.000000,0.000000,0.000000,0.000000,1770801668.987005,0.000000
118.000000,30455.615277,26288.288985,7255.040974,-8431.256822,-6392.017769,11255.712659,-8899.928200,-4131.407038,23101.176095,-2501.026094,13059.654899,23528.452042,30362.520261,32855.075044,14724.546936,17162.161131,0.012000,-0.004000,1.012000,192.000000,0.000000,0.000000,0.000000,0.000000,0.000000,0.000000,0.000000,0.000000,0.000000,1770801668.987017,0.000000
120.000000,30460.040922,26290.233587,7250.704736,-8430.385104,-6387.726234,11260.272415,-8894.250857,-4130.311803,23095.096421,-2499.081492,13066.226311,23535.179917,30365.671857,32864.105149,14721.238878,17159.769495,0.006000,-0.008000,1.008000,192.000000,0.000000,24.000000,127.500000,96.000000,15.500000,64.000000,0.000000,0.000000,0.000000,1770801668.987029,0.000000
122.000000,30449.803823,26277.873072,7250.235349,-8441.985660,-6391.682493,11256.964357,-8908.511270,-4142.024117,23076.410362,-2508.871556,13051.049477,23515.219809,30357.155842,32861.288829,14720.411863,17157.355506,0.006000,-0.008000,1.008000,192.000000,0.000000,0.000000,0.000000,0.000000,0.000000,0.000000,0.000000,0.000000,0.000000,1770801668.987041,0.000000
124.000000,30461.449082,26293.698107,7252.336413,-8432.508520,-6381.378339,11272.856447,-8899.302351,-4131.362335,23099.052679,-2504.960001,13061.890073,23526.306275,30368.734046,32871.682390,14729.151395,17167.547902,0.006000,-0.008000,1.008000,192.000000,0.000000,0.000000,0.000000,0.000000,0.000000,0.000000,0.000000,0.000000,0.000000,1770801668.987053,0.000000
126.000000,30457.492823,26289.518331,7247.463733,-8436.285965,-6389.626132,11269.771906,-8903.638590,-4135.720925,23076.142141,-2493.404149,13060.526617,23529.837850,30372.645601,32880.377219,14718.802538,17158.249576,0.006000,-0.008000,1.008000,192.000000,0.000000,0.000000,0.000000,0.000000,0.000000,0.000000,0.000000,0.000000,0.000000,1770801668.987065,0.000000
128.000000,30460.890288,26291.150009,7254.571587,-8433.894328,-6385.803984,11271.515342,-8902.386892,-4132.524625,23083.831141,-2506.904603,13060.146637,23522.059443,30364.263697,32869.558974,14725.731579,17163.301070,0.006000,-0.008000,1.008000,192.000000,0.000000,0.000000,0.000000,0.000000,0.000000,0.000000,0.000000,0.000000,0.000000,1770801668.987077,0.000000
130.000000,30470.680353,26301.252997,7250.101239,-8427.367619,-6383.144126,11277.416203,-8893.356787,-4124.343887,23090.491961,-2493.225335,13072.104820,23539.382045,30373.763189,32869.693085,14721.372988,17160.037715,0.008000,-0.014000,1.006000,192.000000,0.000000,32.000000,127.500000,72.000000,15.500000,56.000000,0.000000,0.000000,0.000000,1770801668.987090,0.000000
132.000000,30454.676504,26287.149046,7249.542445,-8435.101323,-6396.018731,11267.492028,-8905.359674,-4133.664564,23070.978888,-2498.098016,13057.620890,23526.663903,30354.183060,32873.358771,14716.165032,17157.467265,0.008000,-0.014000,1.006000,192.000000,0.000000,0.000000,0.000000,0.000000,0.000000,0.000000,0.000000,0.000000,0.000000,1770801668.987102,0.000000
134.000000,30462.611373,26298.280215,7254.951567,-8429.647497,-6385.424004,11269.324871,-8896.642494,-4125.573233,23081.953595,-2500.266135,13062.359460,23534.151737,30365.113063,32875.817463,14723.049369,17167.458495,0.008000,-0.014000,1.006000,192.000000,0.000000,0.000000,0.000000,0.000000,0.000000,0.000000,0.000000,0.000000,0.000000,1770801668.987114,0.000000
136.000000,30458.498652,26294.391012,7248.670727,-8433.112017,-6382.026539,11265.502723,-8900.129366,-4127.696649,23069.593080,-2489.023207,13063.186474,23535.917525,30366.051837,32882.187710,14712.566401,17156.349678,0.008000,-0.014000,1.006000,192.000000,0.000000,0.000000,0.000000,0.000000,0.000000,0.000000,0.000000,0.000000,0.000000,1770801668.987126,0.000000
138.000000,30453.581268,26289.160703,7253.454000,-8436.576538,-6387.659179,11264.295729,-8904.465604,-4131.094114,23071.492979,-2502.098978,13056.503303,23524.495783,30362.654372,32874.230489,14725.731579,17165.536245,0.008000,-0.014000,1.006000,192.000000,0.000000,0.000000,0.000000,0.000000,0.000000,0.000000,0.000000,0.000000,0.000000,1770801668.987138,0.000000
140.000000,30458.208079,26296.916759,7249.833018,-8432.553224,-6382.674740,11263.178141,-8897.357750,-4124.992087,23071.112999,-2498.880327,13061.152465,23537.526850,30365.984782,32886.814521,14721.462395,17162.898739,0.008000,-0.008000,1.004000,192.000000,0.000000,32.000000,127.500000,96.000000,15.500000,48.000000,0.000000,0.000000,0.000000,1770801668.987150,0.000000
142.000000,30449.379140,26285.360907,7250.838846,-8443.125599,-6392.084824,11257.321984,-8906.611372,-4132.591681,23054.907984,-2504.200042,13053.686983,23527.669731,30359.636886,32879.572556,14716.142680,17157.266099,0.008000,-0.008000,1.004000,192.000000,0.000000,0.000000,0.000000,0.000000,0.000000,0.000000,0.000000,0.000000,0.000000,1770801668.987162,0.000000
144.000000,30453.804785,26291.977023,7251.419991,-8434.363715,-6381.087766,11259.914787,-8899.235296,-4129.127160,23073.079952,-2506.390513,13063.253529,23533.548240,30365.269526,32856.527907,14726.469186,17164.373954,0.008000,-0.008000,1.004000,192.000000,0.000000,0.000000,0.000000,0.000000,0.000000,0.000000,0.000000,0.000000,0.000000,1770801668.987174,0.000000
146.000000,30447.903925,26284.623299,7244.446247,-8439.214044,-6395.236420,11261.524112,-8903.504479,-4135.363297,23048.738903,-2504.401207,13055.050439,23530.463699,30352.752549,32858.047826,14711.717035,17156.014401,0.008000,-0.008000,1.004000,192.000000,0.000000,0.000000,0.000000,0.000000,0.000000,0.000000,0.000000,0.000000,0.000000,1770801668.987187,0.000000
148.000000,30449.602658,26288.087820,7247.687250,-8440.935128,-6399.662065,11263.222845,-8905.180860,-4134.513931,23066.754409,-2511.598469,13051.921195,23522.953513,30344.951790,32865.893288,14719.070759,17164.441009,0.008000,-0.008000,1.004000,192.000000,0.000000,0.000000,0.000000,0.000000,0.000000,0.000000,0.000000,0.000000,0.000000,1770801668.987199,0.000000
150.000000,30451.994294,26294.323956,7244.736820,-8435.168378,-6395.102310,11263.915749,-8896.486032,-4128.344849,23064.362772,-2501.830757,13063.901730,23538.242106,30347.924572,32888.669716,14715.740349,17160.820026,0.007000,-0.005000,1.005000,192.000000,0.000000,24.000000,127.500000,120.000000,15.500000,56.000000,0.000000,0.000000,0.000000,1770801668.987211,0.000000
152.000000,30446.652227,26285.450314,7246.055573,-8438.901119,-6392.911839,11257.657261,-8905.426729,-4135.050372,23047.733074,-2505.608202,13054.178721,23523.914638,30347.499889,32867.927297,14712.856974,17156.394381,0.007000,-0.005000,1.005000,192.000000,0.000000,0.000000,0.000000,0.000000,0.000000,0.000000,0.000000,0.000000,0.000000,1770801668.987224,0.000000
154.000000,30454.430634,26296.648538,7250.347108,-8430.161587,-6380.461917,11266.888531,-8897.067177,-4128.747181,23068.922528,-2507.105769,13065.533407,23532.453004,30362.632020,32878.812597,14723.474052,17164.418657,0.007000,-0.005000,1.005000,192.000000,0.000000,0.000000,0.000000,0.000000,0.000000,0.000000,0.000000,0.000000,0.000000,1770801668.987235,0.000000
156.000000,30448.596829,26291.217064,7242.658108,-8435.101323,-6378.606722,11267.536732,-8903.929162,-4137.732582,23051.577574,-2495.885193,13061.085410,23535.381083,30355.345351,32885.920451,14712.521698,17157.087285,0.007000,-0.005000,1.005000,192.000000,0.000000,0.000000,0.000000,0.000000,0.000000,0.000000,0.000000,0.000000,0.000000,1770801668.987248,0.000000
158.000000,30450.072044,26292.535817,7249.967128,-8433.961384,-6381.110118,11270.822438,-8904.264439,-4139.140742,23056.316144,-2507.552803,13054.558701,23521.567705,30354.853613,32890.077876,14727.162090,17166.296204,0.007000,-0.005000,1.005000,192.000000,0.000000,0.000000,0.000000,0.000000,0.000000,0.000000,0.000000,0.000000,0.000000,1770801668.987259,0.000000
160.000000,30449.870878,26296.514427,7243.999212,-8429.602793,-6375.611588,11271.202418,-8898.587096,-4135.653870,23060.652382,-2498.120367,13064.572282,23535.381083,30357.021732,32895.375239,14723.205831,17163.591643,0.006500,-0.004500,1.004500,192.000000,0.000000,24.000000,127.500000,112.000000,15.500000,48.000000,0.000000,0.000000,0.000000,1770801668.987271,0.000000
162.000000,30445.758157,26289.987718,7245.273262,-8436.196558,-6389.268504,11270.956549,-8909.114767,-4138.939576,23049.632972,-2502.948344,13055.631585,23525.680426,30355.635924,32897.833931,14719.271924,17162.585814,0.006500,-0.004500,1.004500,192.000000,0.000000,0.000000,0.000000,0.000000,0.000000,0.000000,0.000000,0.000000,0.000000,1770801668.987284,0.000000
164.000000,30455.861146,26299.666023,7248.693079,-8432.285003,-6380.528972,11278.444383,-8901.917505,-4131.921128,23071.001240,-2497.785091,13065.533407,23538.152699,30371.349200,32887.887405,14726.200965,17169.403096,0.006500,-0.004500,1.004500,192.000000,0.000000,0.000000,0.000000,0.000000,0.000000,0.000000,0.000000,0.000000,0.000000,1770801668.987296,0.000000
166.000000,30453.357751,26295.039212,7244.021564,-8436.978869,-6385.245190,11272.923502,-8904.778529,-4134.357468,23058.037228,-2489.939629,13063.097067,23534.397606,30365.157767,32892.760085,14713.482823,17159.031887,0.006500,-0.004500,1.004500,192.000000,0.000000,0.000000,0.000000,0.000000,0.000000,0.000000,0.000000,0.000000,0.000000,1770801668.987308,0.000000
168.000000,30449.580306,26289.764200,7252.090544,-8443.416171,-6387.994455,11263.178141,-8906.611372,-4136.682050,23069.682487,-2504.982353,13060.191340,23526.619199,30357.804043,32878.902004,14722.267058,17160.708268,0.006500,-0.004500,1.004500,192.000000,0.000000,0.000000,0.000000,0.000000,0.000000,0.000000,0.000000,0.000000,0.000000,1770801668.987324,0.000000
170.000000,30454.385931,26300.358927,7248.089582,-8435.324840,-6382.048891,11264.273377,-8897.983598,-4131.630556,23062.462874,-2498.835623,13066.516884,23538.487975,30361.290915,32907.534588,14719.517794,17153.734524,0.005250,-0.006250,1.003250,192.000000,0.000000,16.000000,127.500000,96.000000,15.500000,40.000000,0.000000,0.000000,0.000000,1770801668.987336,0.000000
172.000000,30447.591001,26290.322994,7245.541483,-8442.589157,-6398.052740,11261.635871,-8908.600677,-4137.821989,23049.767083,-2504.244745,13055.743343,23524.764004,30350.875002,32877.292678,14715.583887,17149.599451,0.005250,-0.006250,1.003250,192.000000,0.000000,0.000000,0.000000,0.000000,0.000000,0.000000,0.000000,0.000000,0.000000,1770801668.987348,0.000000
174.000000,30456.799919,26300.560093,7248.290747,-8432.732038,-6387.413310,11272.521171,-8899.525869,-4130.289451,23073.772856,-2503.618896,13067.276843,23534.129385,30355.792386,32861.646457,14724.055198,17162.138779,0.005250,-0.006250,1.003250,192.000000,0.000000,0.000000,0.000000,0.000000,0.000000,0.000000,0.000000,0.000000,0.000000,1770801668.987360,0.000000
176.000000,30453.067178,26299.733078,7243.798047,-8433.357886,-6378.718481,11273.906979,-8902.878631,-4131.965832,23060.674734,-2493.113577,13061.755963,23535.314028,30351.880831,32871.078893,14713.236953,17160.127122,0.005250,-0.006250,1.003250,192.000000,0.000000,0.000000,0.000000,0.000000,0.000000,0.000000,0.000000,0.000000,0.000000,1770801668.987372,0.000000
178.000000,30457.470472,26302.996433,7249.698907,-8437.962346,-6381.847725,11270.665976,-8905.851413,-4130.758838,23072.565862,-2499.796748,13060.906596,23529.189650,30355.971200,32884.109960,14722.512927,17168.710192,0.005250,-0.006250,1.003250,192.000000,0.000000,0.000000,0.000000,0.000000,0.000000,0.000000,0.000000,0.000000,0.000000,1770801669.466856,0.000000
180.000000,30464.779492,26312.540628,7247.821361,-8433.357886,-6381.579504,11270.911845,-8896.620142,-4123.539224,23070.822426,-2487.615047,13071.791896,23543.606525,30361.670895,32902.796018,14719.473090,17162.272890,0.009625,-0.007125,1.008625,192.000000,0.000000,56.000000,127.500000,96.000000,15.500000,88.000000,0.000000,0.000000,0.000000,1770801669.466942,0.000000
182.000000,30454.497690,26301.722384,7247.977823,-8441.248052,-6395.102310,11260.585339,-8907.147814,-4133.329288,23061.971135,-2492.577135,13062.292404,23530.530754,30358.429892,32876.935050,14713.639285,17153.555710,0.009625,-0.007125,1.008625,192.000000,0.000000,0.000000,0.000000,0.000000,0.000000,0.000000,0.000000,0.000000,0.000000,1770801669.466996,0.000000
184.000000,30456.151719,26305.231608,7248.871893,-8438.074105,-6383.814679,11257.813723,-8900.643456,-4130.691782,23076.835045,-2504.401207,13066.047498,23532.453004,30367.839976,32874.319896,14722.803500,17153.578061,0.009625,-0.007125,1.008625,192.000000,0.000000,0.000000,0.000000,0.000000,0.000000,0.000000,0.000000,0.000000,0.000000,1770801669.467032,0.000000
186.000000,30449.222678,26298.749602,7241.361706,-8441.873901,-6383.367644,11257.858426,-8906.276096,-4137.374954,23056.651420,-2494.029998,13059.476085,23537.169222,30361.693247,32876.197443,14715.695645,17143.497425,0.009625,-0.007125,1.008625,192.000000,0.000000,0.000000,0.000000,0.000000,0.000000,0.000000,0.000000,0.000000,0.000000,1770801669.467069,0.000000
188.000000,30445.199364,26295.150971,7245.049744,-8441.739791,-6393.269467,11263.021679,-8908.399511,-4139.252500,23055.712647,-2513.744237,13051.272994,23523.847583,30355.166537,32875.124559,14723.921087,17156.282622,0.009625,-0.007125,1.008625,192.000000,0.000000,0.000000,0.000000,0.000000,0.000000,0.000000,0.000000,0.000000,0.000000,1770801669.467106,0.000000
190.000000,30452.173108,26303.778744,7243.730991,-8433.089666,-6376.259789,11270.800086,-8900.621104,-4133.485750,23067.223795,-2500.690818,13062.605329,23539.940839,30355.658276,32883.908794,14719.271924,17161.222358,0.008813,-0.010563,1.009313,192.000000,0.000000,32.000000,127.500000,72.000000,15.500000,72.000000,0.000000,0.000000,0.000000,1770801669.467142,0.000000
192.000000,30447.814518,26297.810828,7245.921462,-8443.125599,-6383.121775,11271.895322,-8910.455872,-4138.403134,23055.198557,-2505.339981,13048.702544,23526.529792,30354.093653,32882.835911,14717.081453,17164.485713,0.008813,-0.010563,1.009313,192.000000,0.000000,0.000000,0.000000,0.000000,0.000000,0.000000,0.000000,0.000000,0.000000,1770801669.467179,0.000000
194.000000,30459.549184,26309.098459,7250.503570,-8437.984698,-6372.303530,11279.450211,-8902.766872,-4128.702477,23076.790342,-2502.255440,13061.130114,23537.772720,30365.805968,32876.935050,14725.820986,17168.464323,0.008813,-0.010563,1.009313,192.000000,0.000000,0.000000,0.000000,0.000000,0.000000,0.000000,0.000000,0.000000,0.000000,1770801669.467216,0.000000
196.000000,30461.516137,26308.964349,7248.313099,-8440.868073,-6385.468708,11273.459944,-8904.778529,-4128.076628,23069.101342,-2488.911449,13063.074716,23541.080778,30377.875910,32906.752277,14717.886116,17157.579024,0.008813,-0.010563,1.009313,192.000000,0.000000,0.000000,0.000000,0.000000,0.000000,0.000000,0.000000,0.000000,0.000000,1770801669.467253,0.000000
198.000000,30462.969001,26309.433736,7251.867026,-8438.632898,-6381.691263,11265.390964,-8905.583192,-4126.355544,23082.266519,-2502.188385,13062.940605,23532.542411,30368.912860,32865.356846,14725.664523,17155.746181,0.008813,-0.010563,1.009313,192.000000,0.000000,0.000000,0.000000,0.000000,0.000000,0.000000,0.000000,0.000000,0.000000,1770801669.467290,0.000000
200.000000,30465.181823,26314.842858,7247.530788,-8430.496863,-6382.808850,11261.948796,-8896.709549,-4119.538262,23083.205293,-2490.788995,13070.160218,23550.848490,30371.259793,32869.871899,14719.271924,17152.840454,0.006406,-0.013281,1.008656,192.000000,0.000000,16.000000,127.500000,64.000000,15.500000,64.000000,0.000000,0.000000,0.000000,1770801669.467328,0.000000
202.000000,30456.196422,26302.683509,7248.804837,-8441.896253,-6398.678589,11252.449304,-8906.924296,-4127.540186,23070.397743,-2501.294315,13058.537311,23535.962228,30354.138357,32869.983658,14711.337055,17147.721904,0.006406,-0.013281,1.008656,192.000000,0.000000,0.000000,0.000000,0.000000,0.000000,0.000000,0.000000,0.000000,0.000000,1770801669.467365,0.000000
204.000000,30463.416036,26313.479401,7247.933119,-8435.503654,-6390.833126,11258.797200,-8899.950552,-4121.594622,23090.782534,-2502.948344,13067.656823,23544.567650,30355.412406,32864.552184,14717.997875,17156.841416,0.006406,-0.013281,1.008656,192.000000,0.000000,0.000000,0.000000,0.000000,0.000000,0.000000,0.000000,0.000000,0.000000,1770801669.467396,0.000000
206.000000,30457.939858,26307.757355,7242.367535,-8434.922509,-6386.832164,11258.193702,-8903.571535,-4125.573233,23068.967231,-2494.074702,13060.414858,23546.981638,30343.051892,32867.368503,14705.838526,17151.789922,0.006406,-0.013281,1.008656,192.000000,0.000000,0.000000,0.000000,0.000000,0.000000,0.000000,0.000000,0.000000,0.000000,1770801669.467408,0.000000
208.000000,30462.432559,26310.953654,7249.877721,-8436.151855,-6392.285990,11265.569778,-8904.934991,-4124.165073,23077.706763,-2500.668466,13065.354593,23541.416054,30348.863345,32873.291716,14716.545012,17163.658698,0.006406,-0.013281,1.008656,192.000000,0.000000,0.000000,0.000000,0.000000,0.000000,0.000000,0.000000,0.000000,0.000000,1770801669.467420,0.000000
210.000000,30459.325666,26309.903122,7242.747515,-8434.430770,-6380.372510,11263.826342,-8899.458814,-4125.305012,23081.640670,-2493.739425,13073.088297,23551.496691,30357.021732,32866.943820,14715.270962,17161.132951,0.006203,-0.014641,1.009328,192.000000,0.000000,24.000000,127.500000,64.000000,15.500000,72.000000,0.000000,0.000000,0.000000,1770801669.467441,0.000000
212.000000,30443.210059,26291.619395,7244.692116,-8445.003145,-6388.754414,11253.946871,-8910.366465,-4136.659698,23057.813711,-2511.307897,13053.597576,23530.687217,30348.215145,32855.231506,14713.840451,17153.846282,0.006203,-0.014641,1.009328,192.000000,0.000000,0.000000,0.000000,0.000000,0.000000,0.000000,0.000000,0.000000,0.000000,1770801669.467454,0.000000
214.000000,30452.106053,26302.258826,7245.765000,-8438.476436,-6386.474536,11262.485237,-8901.872802,-4130.378858,23065.279194,-2515.331211,13060.101933,23533.972923,30346.784633,32866.206213,14721.931782,17156.729657,0.006203,-0.014641,1.009328,192.000000,0.000000,0.000000,0.000000,0.000000,0.000000,0.000000,0.000000,0.000000,0.000000,1770801669.467466,0.000000
216.000000,30453.000123,26299.666023,7242.412238,-8440.331631,-6396.890449,11255.511493,-8903.951514,-4131.161169,23049.856490,-2501.696646,13054.245776,23535.314028,30355.568869,32877.829120,14708.990122,17143.698590,0.006203,-0.014641,1.009328,192.000000,0.000000,0.000000,0.000000,0.000000,0.000000,0.000000,0.000000,0.000000,0.000000,1770801669.467479,0.000000
218.000000,30456.397588,26300.358927,7247.083753,-8442.231529,-6393.515336,11255.489141,-8908.824195,-4133.396343,23079.092572,-2509.564460,13056.503303,23526.775661,30354.361874,32851.901096,14718.199041,17151.186425,0.006203,-0.014641,1.009328,192.000000,0.000000,0.000000,0.000000,0.000000,0.000000,0.000000,0.000000,0.000000,0.000000,1770801669.467491,0.000000
220.000000,30455.168242,26305.209256,7242.032259,-8433.089666,-6389.313208,11265.301557,-8902.208078,-4132.435218,23071.224758,-2494.387626,13057.933814,23540.834909,30356.977028,32859.523041,14712.387587,17153.823930,0.006203,-0.014641,1.009328,192.000000,0.000000,0.000000,0.000000,0.000000,0.000000,0.000000,0.000000,0.000000,0.000000,1770801669.467504,0.000000
222.000000,30449.177974,26298.727250,7242.769866,-8443.840855,-6392.688321,11265.167447,-8914.434482,-4139.252500,23061.769970,-2498.790920,13046.824997,23529.234353,30354.585392,32856.840832,14709.146584,17153.689820,0.010000,-0.016000,1.010000,192.000000,0.000000,40.000000,127.500000,64.000000,15.500000,72.000000,0.000000,0.000000,0.000000,1770801669.467517,0.000000
224.000000,30453.178937,26304.136372,7242.322831,-8435.391895,-6390.162574,11272.677633,-8907.304276,-4133.932785,23073.929319,-2502.478957,13055.743343,23536.431615,30364.978953,32869.335457,14720.255401,17163.301070,0.010000,-0.016000,1.010000,192.000000,0.000000,0.000000,0.000000,0.000000,0.000000,0.000000,0.000000,0.000000,0.000000,1770801669.467529,0.000000
226.000000,30451.256687,26301.118887,7238.299517,-8438.431732,-6387.390958,11269.213112,-8910.142947,-4136.100904,23057.813711,-2491.638361,13053.061134,23539.650266,30354.294819,32861.579402,14708.408977,17155.880291,0.010000,-0.016000,1.010000,192.000000,0.000000,0.000000,0.000000,0.000000,0.000000,0.000000,0.000000,0.000000,0.000000,1770801669.467542,0.000000
228.000000,30448.485070,26297.855532,7244.289785,-8445.517235,-6385.379301,11264.496894,-8913.629820,-4138.716059,23069.660135,-2505.854071,13049.909538,23528.094414,30348.170441,32865.379198,14718.914296,17158.696611,0.010000,-0.016000,1.010000,192.000000,0.000000,0.000000,0.000000,0.000000,0.000000,0.000000,0.000000,0.000000,0.000000,1770801669.467554,0.000000
230.000000,30452.240163,26303.599930,7238.947718,-8435.548357,-6375.611588,11265.681537,-8904.264439,-4132.770495,23064.765103,-2500.601411,13056.190378,23540.119653,30353.490156,32862.115844,14714.131023,17156.215567,0.010000,-0.016000,1.010000,192.000000,0.000000,0.000000,0.000000,0.000000,0.000000,0.000000,0.000000,0.000000,0.000000,1770801669.467567,0.000000
232.000000,30442.383044,26293.027555,7241.652279,-8445.539587,-6397.046911,11258.506627,-8914.479186,-4141.979413,23055.153853,-2504.244745,13049.551910,23527.915600,30352.126700,32854.516250,14710.621799,17154.606242,0.006000,-0.016000,1.012000,192.000000,0.000000,24.000000,127.500000,64.000000,15.500000,80.000000,0.000000,0.000000,0.000000,1770801669.467580,0.000000
234.000000,30446.004027,26298.593139,7240.981727,-8435.302488,-6397.471595,11261.211188,-8906.723131,-4136.279718,23066.821464,-2510.346772,13056.570358,23540.700798,30347.410482,32849.397701,14719.137814,17161.512931,0.006000,-0.016000,1.012000,192.000000,0.000000,0.000000,0.000000,0.000000,0.000000,0.000000,0.000000,0.000000,0.000000,1770801669.467592,0.000000
236.000000,30442.092471,26293.005203,7234.075038,-8442.879730,-6404.758263,11254.751534,-8911.662866,-4141.487675,23053.499824,-2501.271963,13049.842483,23539.314990,30341.800194,32853.331608,14706.553782,17150.158244,0.006000,-0.016000,1.012000,192.000000,0.000000,0.000000,0.000000,0.000000,0.000000,0.000000,0.000000,0.000000,0.000000,1770801669.467604,0.000000
238.000000,30442.695968,26292.759334,7242.546349,-8448.132390,-6396.890449,11257.210226,-8913.316895,-4142.314689,23056.763179,-2513.453664,13043.047552,23524.741653,30348.148089,32863.322838,14716.880288,17155.567367,0.006000,-0.016000,1.012000,192.000000,0.000000,0.000000,0.000000,0.000000,0.000000,0.000000,0.000000,0.000000,0.000000,1770801669.467616,0.000000
240.000000,30452.061349,26304.359890,7238.590090,-8438.945823,-6391.727196,11262.552293,-8904.912639,-4133.664564,23073.884615,-2505.787016,13055.452771,23539.382045,30352.573735,32844.055634,14713.415767,17151.991087,0.006000,-0.016000,1.012000,192.000000,0.000000,0.000000,0.000000,0.000000,0.000000,0.000000,0.000000,0.000000,0.000000,1770801669.467628,0.000000
242.000000,30448.373312,26298.459029,7239.819436,-8446.701878,-6395.348179,11256.874950,-8915.775587,-4141.465323,23060.317106,-2503.149510,13042.801683,23527.647379,30351.858479,32855.566782,14709.705378,17152.080494,0.010000,-0.012000,1.006000,192.000000,0.000000,40.000000,127.500000,80.000000,15.500000,56.000000,0.000000,0.000000,0.000000,1770801669.467642,0.000000
244.000000,30453.514213,26307.332672,7244.602709,-8441.024535,-6383.233533,11262.999328,-8907.237221,-4135.251538,23081.283043,-2500.199080,13056.391544,23537.146871,30365.783616,32844.100338,14718.534317,17159.344811,0.010000,-0.012000,1.006000,192.000000,0.000000,0.000000,0.000000,0.000000,0.000000,0.000000,0.000000,0.000000,0.000000,1770801669.467654,0.000000
246.000000,30444.886439,26296.290910,7240.959375,-8445.740753,-6379.299626,11257.210226,-8911.685218,-4142.851131,23053.522176,-2498.790920,13050.960070,23532.765929,30359.391017,32842.803936,14711.091186,17148.861843,0.010000,-0.012000,1.006000,192.000000,0.000000,0.000000,0.000000,0.000000,0.000000,0.000000,0.000000,0.000000,0.000000,1770801669.467666,0.000000
248.000000,30442.427748,26289.585386,7246.994346,-8448.869997,-6382.764147,11258.148999,-8915.127386,-4147.902626,23065.748580,-2511.218490,13047.786122,23517.857315,30365.783616,32844.837945,14722.021189,17158.182521,0.010000,-0.012000,1.006000,192.000000,0.000000,0.000000,0.000000,0.000000,0.000000,0.000000,0.000000,0.000000,0.000000,1770801669.467680,0.000000
250.000000,30443.522983,26293.318128,7242.389887,-8443.639689,-6376.170382,11259.177179,-8909.181822,-4145.689803,23059.870071,-2508.737446,13050.714201,23524.473432,30360.732122,32858.338399,14720.367160,17156.193215,0.010000,-0.012000,1.006000,192.000000,0.000000,0.000000,0.000000,0.000000,0.000000,0.000000,0.000000,0.000000,0.000000,1770801669.467692,0.000000
252.000000,30430.961303,26279.974136,7244.043916,-8449.607605,-6396.733987,11260.183008,-8919.329514,-4153.736431,23046.391969,-2515.197100,13038.934831,23510.570647,30344.102424,32836.701910,14717.662599,17155.142683,0.008000,-0.016000,1.006000,192.000000,0.000000,32.000000,127.500000,64.000000,15.500000,56.000000,0.000000,0.000000,0.000000,1770801669.467704,0.000000
254.000000,30444.439405,26294.368660,7247.843712,-8442.142122,-6386.251019,11271.336528,-8909.539450,-4142.627614,23068.475493,-2516.627612,13046.847349,23519.243123,30357.357008,32840.993445,14722.445872,17161.937614,0.008000,-0.016000,1.006000,192.000000,0.000000,0.000000,0.000000,0.000000,0.000000,0.000000,0.000000,0.000000,0.000000,1770801669.467716,0.000000
0.000000,30441.846602,26290.859436,7242.434590,-8444.176131,-6392.665969,11266.776772,-8911.931087,-4143.476980,23053.343362,-2502.881289,13047.763771,23527.669731,30354.741854,32849.889439,14708.990122,17153.131026,0.008000,-0.016000,1.006000,192.000000,0.000000,0.000000,0.000000,0.000000,0.000000,0.000000,0.000000,0.000000,0.000000,1770801669.467728,0.000000
2.000000,30440.304332,26287.998413,7246.301442,-8450.859302,-6396.644580,11257.992537,-8916.535546,-4147.522646,23064.094551,-2513.408961,13045.886224,23517.007949,30352.976066,32845.039111,14714.980389,17158.182521,0.008000,-0.016000,1.006000,192.000000,0.000000,0.000000,0.000000,0.000000,0.000000,0.000000,0.000000,0.000000,0.000000,1770801669.467741,0.000000
4.000000,30439.834945,26289.898311,7238.344221,-8443.527930,-6400.958467,11254.013926,-8910.589982,-4148.439067,23057.143159,-2510.793806,13047.272032,23524.965170,30351.322037,32856.036169,14709.906543,17151.298183,0.008000,-0.016000,1.006000,192.000000,0.000000,0.000000,0.000000,0.000000,0.000000,0.000000,0.000000,0.000000,0.000000,1770801669.467753,0.000000
6.000000,30426.178029,26272.463950,7234.455017,-8457.028384,-6412.648429,11238.412409,-8923.375180,-4161.805411,23028.152946,-2519.198062,13029.390637,23508.424879,30335.184078,32849.889439,14706.419671,17146.559614,0.006000,-0.014000,1.004000,192.000000,0.000000,24.000000,127.500000,72.000000,15.500000,48.000000,0.000000,0.000000,0.000000,1770801669.467769,0.000000
8.000000,30433.889381,26277.537796,7239.484160,-8447.394782,-6402.366627,11247.308403,-8913.316895,-4152.507085,23048.940068,-2529.189292,13039.046590,23515.443327,30341.375511,32852.571649,14716.545012,17155.433256,0.006000,-0.014000,1.004000,192.000000,0.000000,0.000000,0.000000,0.000000,0.000000,0.000000,0.000000,0.000000,0.000000,1770801669.467785,0.000000
10.000000,30435.588114,26278.185997,7235.863177,-8450.099343,-6400.265563,11247.911900,-8915.842642,-4151.970643,23027.951780,-2521.410885,13036.342029,23520.070138,30339.386206,32846.693140,14706.397320,17147.811311,0.006000,-0.014000,1.004000,192.000000,0.000000,0.000000,0.000000,0.000000,0.000000,0.000000,0.000000,0.000000,0.000000,1770801669.467798,0.000000
12.000000,30442.673617,26287.752543,7241.071134,-8451.306337,-6403.037179,11253.231615,-8917.094340,-4144.169884,23054.259784,-2521.165016,13039.270108,23519.064309,30341.487270,32839.048843,14712.164070,17154.047448,0.006000,-0.014000,1.004000,192.000000,0.000000,0.000000,0.000000,0.000000,0.000000,0.000000,0.000000,0.000000,0.000000,1770801669.467810,0.000000
14.000000,30449.289733,26297.587311,7239.327698,-8441.069238,-6391.771900,11255.846769,-8906.857241,-4134.469227,23059.601850,-2501.227260,13055.162198,23539.918487,30344.549459,32840.121727,14704.095090,17150.202948,0.006000,-0.014000,1.004000,192.000000,0.000000,0.000000,0.000000,0.000000,0.000000,0.000000,0.000000,0.000000,0.000000,1770801669.467822,0.000000
16.000000,30441.108995,26284.600947,7239.618270,-8451.999241,-6402.836013,11248.046010,-8918.882480,-4146.315652,23046.190804,-2509.072722,13041.862910,23526.440385,30336.368720,32842.535715,14700.585866,17143.005686,0.010000,-0.014000,1.006000,192.000000,0.000000,40.000000,127.500000,72.000000,15.500000,56.000000,0.000000,0.000000,0.000000,1770801669.467834,0.000000
18.000000,30445.624047,26290.859436,7242.792218,-8448.557073,-6396.845746,11247.084885,-8912.623991,-4142.314689,23063.960441,-2514.235975,13051.205939,23530.441347,30346.650523,32852.236372,14708.900715,17147.073704,0.010000,-0.014000,1.006000,192.000000,0.000000,0.000000,0.000000,0.000000,0.000000,0.000000,0.000000,0.000000,0.000000,1770801669.467848,0.000000
20.000000,30444.528812,26288.020764,7237.293689,-8446.433657,-6398.544478,11244.536787,-8914.143910,-4144.214588,23042.301600,-2508.268059,13047.070866,23531.089548,30339.185040,32837.752442,14703.670407,17137.753026,0.010000,-0.014000,1.006000,192.000000,0.000000,0.000000,0.000000,0.000000,0.000000,0.000000,0.000000,0.000000,0.000000,1770801669.467860,0.000000
22.000000,30447.635704,26285.338555,7243.686288,-8448.780590,-6407.306362,11245.542615,-8916.870823,-4143.097000,23046.347266,-2519.354525,13042.958145,23520.807746,30346.270543,32841.798108,14711.314703,17150.538224,0.010000,-0.014000,1.006000,192.000000,0.000000,0.000000,0.000000,0.000000,0.000000,0.000000,0.000000,0.000000,0.000000,1770801669.467872,0.000000
24.000000,30454.318876,26294.167494,7237.852483,-8441.203349,-6402.299571,11243.866234,-8909.293581,-4136.033849,23053.164548,-2510.302068,13051.585919,23532.698874,30340.995531,32850.180012,14704.720939,17150.180596,0.010000,-0.014000,1.006000,192.000000,0.000000,0.000000,0.000000,0.000000,0.000000,0.000000,0.000000,0.000000,0.000000,1770801669.467885,0.000000
26.000000,30445.534640,26281.806979,7235.438494,-8454.860265,-6414.369513,11235.126702,-8921.542337,-4146.405059,23041.832214,-2509.855033,13039.627736,23520.472469,30337.843935,32858.293695,14699.289465,17147.185462,0.010000,-0.012000,1.008000,192.000000,0.000000,40.000000,127.500000,80.000000,15.500000,64.000000,0.000000,0.000000,0.000000,1770801669.467897,0.000000
28.000000,30452.016646,26289.563035,7237.785427,-8445.830160,-6402.523089,11247.688383,-8913.786282,-4139.699535,23061.278231,-2514.504196,13047.897881,23524.696949,30352.126700,32860.595925,14707.626666,17155.500311,0.010000,-0.012000,1.008000,192.000000,0.000000,0.000000,0.000000,0.000000,0.000000,0.000000,0.000000,0.000000,0.000000,1770801669.467909,0.000000
30.000000,30447.143966,26288.132523,7229.492930,-8446.299547,-6405.674685,11249.096542,-8918.167224,-4142.918187,23051.577574,-2508.849205,13045.685058,23525.859240,30350.718540,32845.352035,14698.663616,17146.872538,0.010000,-0.012000,1.008000,192.000000,0.000000,0.000000,0.000000,0.000000,0.000000,0.000000,0.000000,0.000000,0.000000,1770801669.467924,0.000000
32.000000,30448.306256,26286.523197,7237.271337,-8450.501674,-6405.786443,11247.241348,-8921.050599,-4143.499332,23063.044019,-2508.715094,13040.074770,23515.510382,30349.779767,32856.237335,14706.173802,17155.902643,0.010000,-0.012000,1.008000,192.000000,0.000000,0.000000,0.000000,0.000000,0.000000,0.000000,0.000000,0.000000,0.000000,1770801669.467938,0.000000
34.000000,30450.496727,26293.631052,7237.494855,-8440.398686,-6393.023597,11248.157769,-8908.779491,-4134.357468,23060.317106,-2505.317629,13049.238986,23533.280019,30351.925534,32854.918582,14705.369139,17151.365239,0.010000,-0.012000,1.008000,192.000000,0.000000,0.000000,0.000000,0.000000,0.000000,0.000000,0.000000,0.000000,0.000000,1770801669.467951,0.000000
36.000000,30437.331550,26279.996488,7235.438494,-8452.356869,-6403.819490,11241.005211,-8920.514157,-4142.985242,23042.659228,-2511.889042,13038.085465,23520.561876,30346.225839,32857.354922,14702.508116,17148.750084,0.008000,-0.011000,1.008000,192.000000,0.000000,24.000000,127.500000,88.000000,15.500000,64.000000,0.000000,0.000000,0.000000,1770801669.467964,0.000000
38.000000,30453.782434,26295.352137,7241.741686,-8444.779628,-6395.772862,11245.296746,-8911.014665,-4131.094114,23062.932260,-2513.163091,13047.517901,23529.502574,30355.188889,32856.326742,14711.560573,17153.890986,0.008000,-0.011000,1.008000,192.000000,0.000000,0.000000,0.000000,0.000000,0.000000,0.000000,0.000000,0.000000,0.000000,1770801669.467976,0.000000
40.000000,30457.001085,26296.313262,7240.266471,-8445.316070,-6394.476461,11248.895377,-8912.668695,-4127.651945,23057.366676,-2496.287524,13051.652974,23536.476318,30356.328828,32873.470530,14704.497421,17144.749122,0.008000,-0.011000,1.008000,192.000000,0.000000,0.000000,0.000000,0.000000,0.000000,0.000000,0.000000,0.000000,0.000000,1770801669.467988,0.000000
42.000000,30461.292620,26300.984776,7245.452076,-8446.098381,-6390.050815,11250.236481,-8915.619125,-4124.902681,23070.867130,-2496.756911,13052.994079,23530.039016,30370.857462,32880.913661,14715.740349,17152.974564,0.008000,-0.011000,1.008000,192.000000,0.000000,0.000000,0.000000,0.000000,0.000000,0.000000,0.000000,0.000000,0.000000,1770801669.947677,0.000000
44.000000,30464.466568,26304.896331,7245.630890,-8437.604718,-6384.507583,11255.153865,-8905.739654,-4118.934765,23077.237377,-2487.637399,13061.465390,23545.305257,30372.511491,32866.273268,14710.375930,17146.917241,0.008000,-0.011000,1.008000,192.000000,0.000000,0.000000,0.000000,0.000000,0.000000,0.000000,0.000000,0.000000,0.000000,1770801669.947777,0.000000
46.000000,30449.759120,26284.846817,7241.384058,-8450.233454,-6401.450205,11241.519301,-8919.776549,-4133.150474,23052.985734,-2496.488690,13048.166102,23527.580324,30359.994514,32865.312143,14706.889058,17144.816177,0.009000,-0.006500,1.006000,192.000000,0.000000,40.000000,127.500000,120.000000,15.500000,48.000000,0.000000,0.000000,0.000000,1770801669.947839,0.000000
48.000000,30457.358713,26294.636881,7243.105142,-8443.662041,-6400.153804,11248.001307,-8912.042846,-4128.769532,23068.184920,-2504.602373,13053.128189,23534.643475,30361.760302,32876.085684,14714.555706,17149.867672,0.009000,-0.006500,1.006000,192.000000,0.000000,0.000000,0.000000,0.000000,0.000000,0.000000,0.000000,0.000000,0.000000,1770801669.947890,0.000000
50.000000,30445.109957,26288.132523,7230.632869,-8443.550282,-6405.093539,11245.229691,-8916.915526,-4135.922091,23051.130539,-2495.773434,13045.506244,23535.559897,30355.814738,32872.643515,14699.334168,17145.151454,0.009000,-0.006500,1.006000,192.000000,0.000000,0.000000,0.000000,0.000000,0.000000,0.000000,0.000000,0.000000,0.000000,1770801669.947954,0.000000
52.000000,30448.887402,26292.155837,7241.026430,-8443.036192,-6407.261659,11248.224824,-8917.317857,-4134.536282,23065.748580,-2505.049408,13043.449884,23527.334455,30348.617476,32869.760140,14707.872535,17154.248614,0.009000,-0.006500,1.006000,192.000000,0.000000,0.000000,0.000000,0.000000,0.000000,0.000000,0.000000,0.000000,0.000000,1770801669.947973,0.000000
54.000000,30458.565707,26301.744735,7239.506512,-8436.889462,-6394.297647,11245.430856,-8908.801843,-4129.015401,23069.213101,-2493.247687,13058.537311,23544.277077,30356.060607,32872.509405,14706.106747,17151.342887,0.009000,-0.006500,1.006000,192.000000,0.000000,0.000000,0.000000,0.000000,0.000000,0.000000,0.000000,0.000000,0.000000,1770801669.947999,0.000000
56.000000,30450.317913,26288.825427,7241.026430,-8450.166398,-6403.841842,11238.613574,-8919.709494,-4139.498370,23053.298659,-2501.450777,13045.550948,23530.553106,30353.244287,32868.419035,14702.284599,17143.475073,0.008500,-0.009250,1.006000,192.000000,0.000000,32.000000,127.500000,80.000000,15.500000,56.000000,0.000000,0.000000,0.000000,1770801669.948012,0.000000
58.000000,30456.643457,26296.559131,7242.166369,-8447.685355,-6394.096481,11245.430856,-8914.568593,-4136.570291,23073.102304,-2506.636382,13053.664631,23531.961266,30364.643677,32866.787358,14713.169898,17149.644154,0.008500,-0.009250,1.006000,192.000000,0.000000,0.000000,0.000000,0.000000,0.000000,0.000000,0.000000,0.000000,0.000000,1770801669.948024,0.000000
60.000000,30449.021512,26291.328823,7237.964241,-8447.685355,-6389.179097,11242.838054,-8919.351866,-4141.174750,23059.177167,-2499.416768,13050.088352,23539.247935,30359.569831,32864.328666,14704.966808,17143.139797,0.008500,-0.009250,1.006000,192.000000,0.000000,0.000000,0.000000,0.000000,0.000000,0.000000,0.000000,0.000000,0.000000,1770801669.948036,0.000000
62.000000,30449.312085,26292.491113,7245.966166,-8452.669794,-6390.877830,11247.576624,-8922.548166,-4142.582910,23064.116903,-2508.290411,13044.254547,23528.094414,30363.615497,32875.906870,14717.103805,17150.471169,0.008500,-0.009250,1.006000,192.000000,0.000000,0.000000,0.000000,0.000000,0.000000,0.000000,0.000000,0.000000,0.000000,1770801669.948048,0.000000
64.000000,30461.382027,26307.891465,7243.686288,-8439.482264,-6379.791365,11255.578548,-8912.646343,-4133.150474,23070.174226,-2494.097053,13049.104875,23547.227507,30367.661162,32882.701800,14718.780186,17147.498387,0.008500,-0.009250,1.006000,192.000000,0.000000,0.000000,0.000000,0.000000,0.000000,0.000000,0.000000,0.000000,0.000000,1770801669.948061,0.000000
66.000000,30459.973867,26304.136372,7244.803875,-8447.461837,-6395.415234,11257.791371,-8922.347000,-4137.464361,23066.329726,-2490.252553,13041.728800,23537.035112,30363.950773,32887.149797,14713.549878,17148.593622,0.005250,-0.012625,1.008000,192.000000,0.000000,8.000000,127.500000,64.000000,15.500000,72.000000,0.000000,0.000000,0.000000,1770801669.948073,0.000000
68.000000,30458.543355,26304.851628,7242.076962,-8441.851549,-6394.409406,11257.009060,-8915.641477,-4132.569329,23081.841836,-2495.594620,13051.027125,23541.706627,30369.695171,32880.243108,14721.372988,17155.969698,0.005250,-0.012625,1.008000,192.000000,0.000000,0.000000,0.000000,0.000000,0.000000,0.000000,0.000000,0.000000,0.000000,1770801669.948086,0.000000
70.000000,30455.816442,26298.883712,7233.337430,-8443.662041,-6401.494909,11254.170388,-8918.480148,-4135.452704,23067.000278,-2492.264210,13046.579128,23539.672618,30371.818587,32888.222681,14703.201020,17148.392457,0.005250,-0.012625,1.008000,192.000000,0.000000,0.000000,0.000000,0.000000,0.000000,0.000000,0.000000,0.000000,0.000000,1770801669.948098,0.000000
72.000000,30449.267381,26293.340480,7238.433628,-8447.752410,-6404.691208,11250.661165,-8922.391703,-4140.772419,23073.504636,-2501.160205,13042.399352,23529.212001,30356.932325,32862.026437,14709.101881,17157.467265,0.005250,-0.012625,1.008000,192.000000,0.000000,0.000000,0.000000,0.000000,0.000000,0.000000,0.000000,0.000000,0.000000,1770801669.948111,0.000000
74.000000,30445.378178,26295.128619,7231.102256,-8446.366602,-6400.287914,11249.878854,-8917.653134,-4143.521684,23065.748580,-2493.448853,13040.521805,23533.928220,30361.782654,32880.220757,14706.106747,17155.992050,0.005250,-0.012625,1.008000,192.000000,0.000000,0.000000,0.000000,0.000000,0.000000,0.000000,0.000000,0.000000,0.000000,1770801669.948124,0.000000
76.000000,30428.390852,26274.833235,7229.045895,-8459.755297,-6414.213051,11238.859444,-8930.348924,-4155.166942,23039.440577,-2515.197100,13023.199203,23519.131365,30335.720520,32859.411282,14700.876439,17147.833663,0.003625,-0.013313,1.011000,192.000000,0.000000,8.000000,127.500000,72.000000,15.500000,88.000000,0.000000,0.000000,0.000000,1770801669.948136,0.000000
78.000000,30434.917561,26280.287061,7230.588166,-8458.168323,-6410.793234,11235.707848,-8924.783340,-4149.511951,23055.913813,-2522.148493,13030.865852,23516.225638,30340.235572,32863.032265,14712.633456,17148.526567,0.003625,-0.013313,1.011000,192.000000,0.000000,0.000000,0.000000,0.000000,0.000000,0.000000,0.000000,0.000000,0.000000,1770801669.948149,0.000000
80.000000,30438.136213,26281.784628,7226.274279,-8453.586215,-6405.115891,11234.165577,-8923.218718,-4146.248596,23047.800129,-2513.900699,13030.016485,23523.557010,30345.644694,32856.550259,14703.558648,17136.546032,0.003625,-0.013313,1.011000,192.000000,0.000000,0.000000,0.000000,0.000000,0.000000,0.000000,0.000000,0.000000,0.000000,1770801669.948162,0.000000
82.000000,30440.572553,26284.489189,7231.504587,-8458.928282,-6409.988571,11237.428932,-8925.923279,-4146.047431,23053.544528,-2519.376876,13027.066055,23513.431670,30354.428930,32861.825271,14712.320532,17144.615012,0.003625,-0.013313,1.011000,192.000000,0.000000,0.000000,0.000000,0.000000,0.000000,0.000000,0.000000,0.000000,0.000000,1770801669.948178,0.000000
84.000000,30446.562820,26292.893445,7228.464750,-8451.060468,-6398.767996,11245.542615,-8915.932049,-4139.811294,23065.949746,-2511.754931,13039.337163,23530.821327,30356.865270,32872.375294,14705.592657,17142.402189,0.003625,-0.013313,1.011000,192.000000,0.000000,0.000000,0.000000,0.000000,0.000000,0.000000,0.000000,0.000000,0.000000,1770801669.948190,0.000000
86.000000,30441.287809,26282.723401,7231.839863,-8458.458895,-6408.602763,11240.379362,-8926.638535,-4147.410887,23050.482339,-2510.167958,13030.888203,23519.779565,30346.941095,32856.684370,14698.998892,17138.736503,0.003812,-0.012656,1.009500,192.000000,0.000000,16.000000,127.500000,80.000000,15.500000,64.000000,0.000000,0.000000,0.000000,1770801669.948203,0.000000
88.000000,30450.317913,26289.294814,7236.779599,-8449.272329,-6402.903068,11251.957566,-8919.664791,-4142.784076,23068.609603,-2513.006629,13046.132093,23529.524926,30348.997456,32856.527907,14709.615971,17152.013439,0.003812,-0.012656,1.009500,192.000000,0.000000,0.000000,0.000000,0.000000,0.000000,0.000000,0.000000,0.000000,0.000000,1770801669.948216,0.000000
90.000000,30446.540469,26283.438657,7229.068247,-8454.793209,-6403.819490,11248.805970,-8925.476244,-4148.975509,23056.137330,-2507.597507,13039.270108,23528.541449,30347.611648,32870.721265,14698.909485,17148.392457,0.003812,-0.012656,1.009500,192.000000,0.000000,0.000000,0.000000,0.000000,0.000000,0.000000,0.000000,0.000000,0.000000,1770801669.948229,0.000000
92.000000,30444.394701,26283.550415,7233.292727,-8455.262596,-6412.156691,11245.073228,-8929.208985,-4150.607187,23056.338496,-2520.427408,13031.625811,23516.896190,30348.416310,32877.069161,14709.012474,17159.098942,0.003812,-0.012656,1.009500,192.000000,0.000000,0.000000,0.000000,0.000000,0.000000,0.000000,0.000000,0.000000,0.000000,1770801669.948242,0.000000
