Sample_index,EXG Channel 0,EXG Channel 1,EXG Channel 2,EXG Channel 3,EXG Channel 4,EXG Channel 5,EXG Channel 6,EXG Channel 7,EXG Channel 8,EXG Channel 9,EXG Channel 10,EXG Channel 11,EXG Channel 12,EXG Channel 13,EXG Channel 14,EXG Channel 15,Accel Channel 0,Accel Channel 1,Accel Channel 2,Not Used,Digital Channel 0 (D11),Digital Channel 1 (D12),Digital Channel 2 (D13),Digital Channel 3 (D17),Not Used,Digital Channel 4 (D18),Analog Channel 0,Analog Channel 1,Analog Channel 2,Timestamp,Marker Channel
90.000000,19215.906467,16127.297715,-3703.996981,-17651.172596,-16737.723856,-1560.241170,-19286.046241,-9664.983709,11394.941675,-9516.389312,-459.909494,8091.867935,20058.187253,21982.180712,4540.175741,2847.455781,0.006000,-0.010000,1.000000,192.000000,0.000000,0.000000,0.000000,0.000000,0.000000,0.000000,0.000000,0.000000,0.000000,1770802664.378684,101.000000
92.000000,19209.089185,16120.793357,-3711.753036,-17656.112332,-16749.927908,-1568.153687,-19293.019985,-9671.890398,11400.440204,-9491.712986,-448.241883,8108.430577,20074.705192,21998.005748,4539.125209,2840.683203,0.006000,-0.010000,1.000000,192.000000,0.000000,0.000000,0.000000,0.000000,0.000000,0.000000,0.000000,0.000000,0.000000,1770802664.378743,0.000000
94.000000,19205.088223,16119.496956,-3713.161196,-17660.895605,-16751.358420,-1573.138127,-19296.976244,-9671.957454,11391.074823,-9519.563260,-466.637369,8082.502554,20053.582794,21974.089381,4534.386639,2841.778438,0.008000,-0.014000,0.998000,192.000000,0.000000,32.000000,127.500000,72.000000,15.500000,24.000000,0.000000,0.000000,0.000000,1770802664.378784,0.000000
96.000000,19218.275752,16135.724322,-3707.863832,-17646.970468,-16736.248641,-1563.839801,-19283.051107,-9661.921520,11402.787137,-9502.352417,-449.270064,8104.474319,20065.540977,21988.103925,4539.080505,2839.699726,0.008000,-0.014000,0.998000,192.000000,0.000000,0.000000,0.000000,0.000000,0.000000,0.000000,0.000000,0.000000,0.000000,1770802664.378825,0.000000
98.000000,19201.690757,16116.054787,-3718.704429,-17661.744971,-16756.186397,-1576.960275,-19303.502953,-9678.104183,11395.545172,-9502.888859,-459.998901,8094.527792,20059.796579,21988.930939,4537.828808,2843.678337,0.008000,-0.014000,0.998000,192.000000,0.000000,0.000000,0.000000,0.000000,0.000000,0.000000,0.000000,0.000000,0.000000,1770802664.378867,0.000000
100.000000,19216.599371,16132.639782,-3712.088312,-17647.015172,-16741.121321,-1548.618263,-19289.309596,-9666.525980,11403.144765,-9507.180394,-459.082479,8096.561801,20058.991916,21980.437276,4543.595558,2849.556845,0.008000,-0.014000,0.998000,192.000000,0.000000,0.000000,0.000000,0.000000,0.000000,0.000000,0.000000,0.000000,0.000000,1770802664.378913,0.000000
102.000000,19209.625627,16124.950781,-3721.140769,-17656.559367,-16748.989135,-1563.884504,-19299.256122,-9674.550256,11400.015521,-9493.344664,-457.182581,8103.826118,20073.118219,21993.289529,4540.578072,2848.908645,0.008000,-0.014000,0.998000,192.000000,0.000000,0.000000,0.000000,0.000000,0.000000,0.000000,0.000000,0.000000,0.000000,1770802664.378936,0.000000
104.000000,19208.128060,16120.793357,-3717.720952,-17661.767323,-16751.693696,-1569.561847,-19302.005387,-9673.589131,11402.295399,-9510.510804,-465.273913,8084.693025,20058.030791,21980.481980,4540.175741,2847.500485,0.010000,-0.014000,1.002000,192.000000,0.000000,40.000000,127.500000,72.000000,15.500000,40.000000,0.000000,0.000000,0.000000,1770802664.378947,0.000000
106.000000,19223.863688,16134.539680,-3707.729722,-17646.925765,-16728.447882,-1555.904932,-19281.955872,-9661.161561,11408.665646,-9497.278571,-448.465401,8107.469452,20070.614823,21989.936768,4544.511979,2844.706517,0.010000,-0.014000,1.002000,192.000000,0.000000,0.000000,0.000000,0.000000,0.000000,0.000000,0.000000,0.000000,0.000000,1770802664.378958,0.000000
108.000000,19205.624665,16109.952761,-3720.336106,-17664.494236,-16756.789894,-1572.780499,-19305.983997,-9679.065308,11400.686073,-9503.268838,-460.848267,8092.784356,20064.624556,21983.611224,4536.554758,2840.414982,0.010000,-0.014000,1.002000,192.000000,0.000000,0.000000,0.000000,0.000000,0.000000,0.000000,0.000000,0.000000,0.000000,1770802664.378970,0.000000
110.000000,19221.449700,16125.710741,-3710.836614,-17648.177463,-16738.170891,-1552.283949,-19288.504933,-9665.989538,11410.923172,-9507.672132,-457.160229,8096.740615,20059.528358,21981.040774,4542.142694,2843.432467,0.010000,-0.014000,1.002000,192.000000,0.000000,0.000000,0.000000,0.000000,0.000000,0.000000,0.000000,0.000000,0.000000,1770802664.378980,0.000000
112.000000,19208.262170,16116.233601,-3723.264184,-17656.715829,-16749.033838,-1568.086632,-19297.535038,-9673.589131,11404.038835,-9490.930675,-455.707366,8110.799862,20061.674125,21992.283701,4540.108686,2846.449953,0.010000,-0.014000,1.002000,192.000000,0.000000,0.000000,0.000000,0.000000,0.000000,0.000000,0.000000,0.000000,0.000000,1770802664.378991,0.000000
114.000000,19203.925932,16112.322046,-3722.526577,-17663.331945,-16750.643164,-1581.900010,-19302.854753,-9675.578436,11390.672492,-9516.434016,-474.952218,8088.090490,20036.282544,21970.133122,4534.006659,2843.164246,0.008000,-0.014000,1.006000,192.000000,0.000000,24.000000,127.500000,72.000000,15.500000,72.000000,0.000000,0.000000,0.000000,1770802664.379002,0.000000
116.000000,19222.254362,16132.282154,-3711.306001,-17643.461245,-16731.465367,-1554.586179,-19282.872293,-9663.195570,11408.285666,-9493.411719,-456.489677,8113.191499,20056.242651,21987.254558,4543.394392,2840.012650,0.008000,-0.014000,1.006000,192.000000,0.000000,0.000000,0.000000,0.000000,0.000000,0.000000,0.000000,0.000000,0.000000,1770802664.379013,0.000000
118.000000,19194.672310,16098.978054,-3725.856987,-17669.858655,-16757.259280,-1567.572542,-19307.973302,-9687.424861,11396.461594,-9508.365036,-475.063977,8090.727996,20047.413712,21983.298300,4537.381773,2838.515084,0.008000,-0.014000,1.006000,192.000000,0.000000,0.000000,0.000000,0.000000,0.000000,0.000000,0.000000,0.000000,0.000000,1770802664.379024,0.000000
120.000000,19211.436118,16117.909982,-3711.998905,-17651.753742,-16736.315696,-1556.731946,-19289.063727,-9673.879704,11401.826012,-9515.651705,-471.755918,8093.186688,20043.368047,21979.900835,4541.807418,2838.358621,0.008000,-0.014000,1.006000,192.000000,0.000000,0.000000,0.000000,0.000000,0.000000,0.000000,0.000000,0.000000,0.000000,1770802664.379035,0.000000
122.000000,19201.847220,16109.461023,-3718.659725,-17660.850902,-16743.736475,-1561.694033,-19296.082174,-9682.507477,11399.590838,-9496.876239,-467.799660,8104.586077,20056.108541,21993.267178,4539.125209,2835.832874,0.008000,-0.014000,1.006000,192.000000,0.000000,0.000000,0.000000,0.000000,0.000000,0.000000,0.000000,0.000000,0.000000,1770802664.379069,0.000000
124.000000,19191.319548,16098.799240,-3718.324449,-17670.395097,-16755.202920,-1579.798946,-19302.363015,-9687.201343,11390.583085,-9528.593365,-482.976494,8075.394699,20036.371951,21970.557805,4539.594595,2835.497598,0.008000,-0.013000,1.007000,192.000000,0.000000,32.000000,127.500000,80.000000,15.500000,64.000000,0.000000,0.000000,0.000000,1770802664.379080,0.000000
126.000000,19210.854973,16118.289962,-3706.433321,-17650.725561,-16734.393446,-1547.031289,-19283.632253,-9672.829172,11400.484908,-9510.287286,-462.949331,8098.238182,20050.520605,21987.031041,4544.266110,2833.374182,0.008000,-0.013000,1.007000,192.000000,0.000000,0.000000,0.000000,0.000000,0.000000,0.000000,0.000000,0.000000,0.000000,1770802664.379090,0.000000
128.000000,19192.995929,16093.658339,-3716.871585,-17671.736201,-16758.421571,-1577.094385,-19305.983997,-9688.385986,11391.857134,-9514.377655,-470.861849,8084.581266,20040.976410,21976.816294,4542.433267,2835.341136,0.008000,-0.013000,1.007000,192.000000,0.000000,0.000000,0.000000,0.000000,0.000000,0.000000,0.000000,0.000000,0.000000,1770802664.379101,0.000000
130.000000,19209.133888,16114.356055,-3705.315734,-17652.893681,-16737.790911,-1562.632807,-19286.649738,-9671.689233,11397.981512,-9520.189109,-467.106756,8091.219734,20042.295163,21971.943614,4548.110610,2837.375145,0.008000,-0.013000,1.007000,192.000000,0.000000,0.000000,0.000000,0.000000,0.000000,0.000000,0.000000,0.000000,0.000000,1770802664.379112,0.000000
132.000000,19198.762679,16104.945970,-3717.497434,-17664.695402,-16753.191263,-1568.086632,-19297.847962,-9681.501649,11393.801736,-9505.705178,-466.190334,8103.177917,20045.826739,21980.303166,4539.035802,2833.798866,0.008000,-0.013000,1.007000,192.000000,0.000000,0.000000,0.000000,0.000000,0.000000,0.000000,0.000000,0.000000,0.000000,1770802664.379131,0.000000
134.000000,19193.711185,16097.681653,-3719.039705,-17669.925710,-16758.801551,-1578.703711,-19302.161849,-9686.083756,11386.000977,-9532.169644,-482.216535,8078.233371,20027.319494,21963.673468,4535.772447,2834.871749,0.006000,-0.014500,1.004500,192.000000,0.000000,16.000000,127.500000,64.000000,15.500000,40.000000,0.000000,0.000000,0.000000,1770802664.379142,0.000000
136.000000,19215.347673,16116.457119,-3708.444978,-17651.977259,-16733.320562,-1563.236304,-19284.191046,-9672.180971,11396.327483,-9516.098740,-467.710253,8098.752272,20040.708189,21975.654003,4539.639299,2838.380973,0.006000,-0.014500,1.004500,192.000000,0.000000,0.000000,0.000000,0.000000,0.000000,0.000000,0.000000,0.000000,0.000000,1770802664.379152,0.000000
138.000000,19191.207789,16088.070403,-3723.621812,-17675.625405,-16754.778237,-1580.648313,-19310.230829,-9694.420957,11392.862963,-9518.959763,-477.455613,8083.687196,20039.232974,21977.240977,4538.141732,2831.876616,0.006000,-0.014500,1.004500,192.000000,0.000000,0.000000,0.000000,0.000000,0.000000,0.000000,0.000000,0.000000,0.000000,1770802664.379166,0.000000
140.000000,19207.390452,16107.896400,-3711.618926,-17656.179387,-16733.655838,-1556.061394,-19291.835343,-9681.903980,11398.674416,-9525.709990,-476.941523,8083.016644,20038.271849,21979.409096,4540.823941,2834.044735,0.006000,-0.014500,1.004500,192.000000,0.000000,0.000000,0.000000,0.000000,0.000000,0.000000,0.000000,0.000000,0.000000,1770802664.379178,0.000000
142.000000,19199.522638,16102.263761,-3719.106760,-17665.991803,-16748.519748,-1563.951560,-19300.776041,-9688.631855,11396.685111,-9505.883992,-469.341930,8094.371330,20047.525471,21991.009652,4536.063020,2832.435409,0.006000,-0.014500,1.004500,192.000000,0.000000,0.000000,0.000000,0.000000,0.000000,0.000000,0.000000,0.000000,0.000000,1770802664.379189,0.000000
144.000000,19192.504191,16095.580589,-3720.626679,-17672.652623,-16752.744228,-1561.604626,-19306.900419,-9690.978788,11385.017501,-9532.191996,-487.111567,8069.739708,20033.957962,21966.489788,4535.236005,2832.480113,0.005000,-0.015250,1.002250,192.000000,0.000000,16.000000,127.500000,64.000000,15.500000,32.000000,0.000000,0.000000,0.000000,1770802664.379200,0.000000
146.000000,19218.476918,16123.028531,-3707.103873,-17652.401942,-16728.425530,-1555.010862,-19284.280453,-9670.146962,11402.809489,-9511.829556,-464.938636,8096.360635,20049.090093,21980.124352,4543.707316,2836.257557,0.005000,-0.015250,1.002250,192.000000,0.000000,0.000000,0.000000,0.000000,0.000000,0.000000,0.000000,0.000000,0.000000,1770802664.379229,0.000000
148.000000,19195.834600,16096.452307,-3722.526577,-17675.446591,-16750.464350,-1574.725100,-19309.537924,-9690.107070,11395.075786,-9520.680847,-475.712177,8080.915580,20046.944326,21975.989279,4536.867683,2832.837741,0.005000,-0.015250,1.002250,192.000000,0.000000,0.000000,0.000000,0.000000,0.000000,0.000000,0.000000,0.000000,0.000000,1770802664.379241,0.000000
150.000000,19214.766528,16116.993560,-3711.194242,-17658.146341,-16731.443016,-1560.598798,-19291.969453,-9675.645492,11406.229306,-9523.810091,-470.414814,8085.140060,20050.855881,21984.348832,4544.646090,2837.933938,0.005000,-0.015250,1.002250,192.000000,0.000000,0.000000,0.000000,0.000000,0.000000,0.000000,0.000000,0.000000,0.000000,1770802664.379252,0.000000
152.000000,19201.020205,16104.610694,-3719.687905,-17666.483541,-16746.619850,-1566.410251,-19300.440764,-9686.128460,11398.763823,-9508.499147,-467.620846,8094.706606,20060.802407,21993.915378,4540.041630,2832.971851,0.005000,-0.015250,1.002250,192.000000,0.000000,0.000000,0.000000,0.000000,0.000000,0.000000,0.000000,0.000000,0.000000,1770802664.379263,0.000000
154.000000,19193.241798,16099.849772,-3721.252527,-17672.093829,-16755.605251,-1567.974874,-19305.224038,-9690.710567,11389.152573,-9534.628336,-481.054244,8069.739708,20037.690704,21983.231244,4536.308889,2839.409153,0.003500,-0.014625,1.000125,192.000000,0.000000,8.000000,127.500000,72.000000,15.500000,24.000000,0.000000,0.000000,0.000000,1770802664.379274,0.000000
156.000000,19209.625627,16120.033398,-3711.216594,-17645.718771,-16739.400237,-1552.529818,-19283.185218,-9676.450154,11396.796870,-9517.976286,-467.531439,8093.454909,20047.145491,21985.935806,4539.505188,2843.633633,0.003500,-0.014625,1.000125,192.000000,0.000000,0.000000,0.000000,0.000000,0.000000,0.000000,0.000000,0.000000,0.000000,1770802664.379285,0.000000
158.000000,19189.665519,16094.641816,-3726.974574,-17672.630271,-16766.289385,-1577.697882,-19309.806145,-9697.281980,11382.111774,-9522.692504,-480.897782,8079.708586,20038.540070,21978.716192,4531.838540,2840.772610,0.003500,-0.014625,1.000125,192.000000,0.000000,0.000000,0.000000,0.000000,0.000000,0.000000,0.000000,0.000000,0.000000,1770802664.379295,0.000000
160.000000,19214.520659,16119.832232,-3709.026123,-17653.161902,-16737.880318,-1565.180905,-19287.432049,-9676.003119,11394.695806,-9526.760522,-472.806450,8084.000121,20044.396227,21978.336212,4534.811322,2841.778438,0.003500,-0.014625,1.000125,192.000000,0.000000,0.000000,0.000000,0.000000,0.000000,0.000000,0.000000,0.000000,0.000000,1770802664.379306,0.000000
162.000000,19210.832621,16113.372578,-3717.229213,-17659.219224,-16746.172815,-1554.541475,-19294.294035,-9682.127497,11397.713291,-9506.018103,-460.557695,8099.914563,20058.254308,21995.412945,4537.605290,2843.030136,0.003500,-0.014625,1.000125,192.000000,0.000000,0.000000,0.000000,0.000000,0.000000,0.000000,0.000000,0.000000,0.000000,1770802664.379317,0.000000
164.000000,19208.932723,16109.505726,-3717.184510,-17664.896567,-16747.133940,-1558.497734,-19301.021910,-9683.088622,11394.807565,-9526.000562,-474.885163,8081.094394,20044.820910,21976.838646,4539.147560,2842.918377,0.005750,-0.014312,1.003062,192.000000,0.000000,32.000000,127.500000,72.000000,15.500000,56.000000,0.000000,0.000000,0.000000,1770802664.379328,0.000000
166.000000,19224.377778,16126.493052,-3708.668495,-17650.569099,-16728.604344,-1553.401536,-19283.900474,-9668.828209,11406.005789,-9505.571068,-455.461497,8107.827080,20060.489483,21994.228303,4542.142694,2844.728869,0.005750,-0.014312,1.003062,192.000000,0.000000,0.000000,0.000000,0.000000,0.000000,0.000000,0.000000,0.000000,0.000000,1770802664.379338,0.000000
168.000000,19202.450717,16104.565991,-3721.274879,-17663.980146,-16749.838501,-1553.982682,-19304.531134,-9683.915637,11389.487849,-9513.550641,-470.034834,8091.666769,20062.612899,21987.947463,4538.924043,2844.259482,0.005750,-0.014312,1.003062,192.000000,0.000000,0.000000,0.000000,0.000000,0.000000,0.000000,0.000000,0.000000,0.000000,1770802664.379349,0.000000
170.000000,19221.784976,16125.889555,-3711.015428,-17648.691553,-16742.574184,-1542.471533,-19288.124953,-9668.627044,11401.557791,-9509.728492,-461.809392,8098.037016,20054.767436,21994.451820,4541.829770,2844.460648,0.005750,-0.014312,1.003062,192.000000,0.000000,0.000000,0.000000,0.000000,0.000000,0.000000,0.000000,0.000000,0.000000,1770802664.379360,0.000000
172.000000,19220.667389,16124.637857,-3717.698600,-17651.530224,-16747.692734,-1557.670719,-19291.969453,-9671.063384,11395.969855,-9489.209591,-462.144668,8113.124444,20055.281526,21999.905646,4534.006659,2842.963081,0.005750,-0.014312,1.003062,192.000000,0.000000,0.000000,0.000000,0.000000,0.000000,0.000000,0.000000,0.000000,0.000000,1770802664.379371,0.000000
174.000000,19214.766528,16121.218040,-3719.151463,-17656.939346,-16758.868606,-1562.074013,-19300.373709,-9673.030337,11391.231285,-9508.096815,-471.890029,8094.125461,20046.810215,21979.744372,4533.269052,2846.986395,0.005750,-0.014312,1.003062,192.000000,0.000000,0.000000,0.000000,0.000000,0.000000,0.000000,0.000000,0.000000,0.000000,1770802664.379382,0.000000
176.000000,19225.450662,16135.277287,-3709.204937,-17641.851919,-16742.194205,-1554.653234,-19283.475790,-9661.921520,11399.657893,-9494.842231,-454.209799,8115.583136,20056.242651,21993.356585,4532.754962,2844.684165,0.008000,-0.006000,1.014000,192.000000,0.000000,32.000000,127.500000,104.000000,15.500000,88.000000,0.000000,0.000000,0.000000,1770802664.379393,0.000000
178.000000,19203.389490,16107.292903,-3723.778275,-17669.210454,-16764.411839,-1580.134223,-19311.549581,-9686.128460,11389.018463,-9510.689617,-470.705386,8093.320798,20048.911279,21966.132160,4528.396371,2836.905758,0.008000,-0.006000,1.014000,192.000000,0.000000,0.000000,0.000000,0.000000,0.000000,0.000000,0.000000,0.000000,0.000000,1770802664.379404,0.000000
180.000000,19221.136775,16125.844851,-3710.657801,-17651.083189,-16741.411894,-1570.992359,-19291.365956,-9670.593997,11401.311922,-9517.573955,-466.637369,8091.465603,20052.085227,21969.440218,4537.225310,2841.912549,0.008000,-0.006000,1.014000,192.000000,0.000000,0.000000,0.000000,0.000000,0.000000,0.000000,0.000000,0.000000,0.000000,1770802664.379414,0.000000
182.000000,19214.610066,16118.915810,-3716.893937,-17651.284355,-16750.866681,-1564.398594,-19297.400927,-9679.154715,11396.282780,-9496.049225,-462.614055,8104.831946,20058.544881,21982.158361,4533.224348,2839.029174,0.008000,-0.006000,1.014000,192.000000,0.000000,0.000000,0.000000,0.000000,0.000000,0.000000,0.000000,0.000000,0.000000,1770802664.379425,0.000000
184.000000,19220.533278,16121.732130,-3715.038742,-17655.017096,-16747.335106,-1563.191600,-19299.837267,-9675.265512,11398.339140,-9516.143443,-472.962913,8081.340263,20039.680009,21968.613204,4532.263223,2844.862979,0.008000,-0.006000,1.014000,192.000000,0.000000,0.000000,0.000000,0.000000,0.000000,0.000000,0.000000,0.000000,0.000000,1770802664.379436,0.000000
186.000000,19242.035656,16146.117883,-3705.002809,-17636.107521,-16729.878393,-1540.593987,-19280.324194,-9657.719393,11419.081559,-9491.176545,-446.274930,8111.403359,20065.853902,21996.418774,4539.281671,2846.069973,0.002000,-0.010000,1.006000,192.000000,0.000000,8.000000,127.500000,88.000000,15.500000,56.000000,0.000000,0.000000,0.000000,1770802664.379447,0.000000
188.000000,19219.102766,16119.787528,-3720.581975,-17662.728448,-16753.526539,-1567.818411,-19307.190991,-9681.233428,11413.404216,-9498.619675,-464.357491,8092.784356,20059.617765,21985.041736,4534.364287,2842.270177,0.002000,-0.010000,1.006000,192.000000,0.000000,0.000000,0.000000,0.000000,0.000000,0.000000,0.000000,0.000000,0.000000,1770802664.379458,0.000000
190.000000,19232.670275,16133.287982,-3707.886184,-17648.557442,-16730.727760,-1557.000167,-19289.913093,-9669.141134,11417.829861,-9511.337818,-464.759822,8091.420900,20057.024963,21983.454762,4541.025107,2843.968909,0.002000,-0.010000,1.006000,192.000000,0.000000,0.000000,0.000000,0.000000,0.000000,0.000000,0.000000,0.000000,0.000000,1770802664.379469,0.000000
192.000000,19229.183403,16132.148043,-3711.171891,-17651.485521,-16739.422588,-1558.184809,-19296.529209,-9675.243160,11413.873603,-9490.483640,-457.853133,8102.887345,20069.988974,21994.205951,4539.885168,2846.338194,0.002000,-0.010000,1.006000,192.000000,0.000000,0.000000,0.000000,0.000000,0.000000,0.000000,0.000000,0.000000,0.000000,1770802664.379480,0.000000
194.000000,19228.132871,16129.756407,-3707.528556,-17655.218262,-16744.943469,-1561.694033,-19299.814916,-9675.421974,11408.330370,-9507.694484,-466.257389,8083.061347,20061.472960,21987.902759,4541.919177,2848.841590,0.002000,-0.010000,1.006000,192.000000,0.000000,0.000000,0.000000,0.000000,0.000000,0.000000,0.000000,0.000000,0.000000,1770802664.379491,0.000000
196.000000,19240.515738,16142.519253,-3700.979495,-17644.668239,-16726.547983,-1554.697937,-19285.442744,-9665.408393,11418.947449,-9494.775175,-451.549941,8102.105034,20072.179445,21989.936768,4543.036764,2845.533531,0.004000,-0.004000,1.006000,192.000000,0.000000,16.000000,127.500000,112.000000,15.500000,56.000000,0.000000,0.000000,0.000000,1770802664.379502,0.000000
198.000000,19222.097900,16123.743787,-3712.602402,-17663.510759,-16745.457559,-1558.877714,-19304.955817,-9678.305349,11409.515012,-9500.944257,-463.642235,8087.643455,20065.831550,21991.613149,4539.304023,2841.867845,0.004000,-0.004000,1.006000,192.000000,0.000000,0.000000,0.000000,0.000000,0.000000,0.000000,0.000000,0.000000,0.000000,1770802664.379514,0.000000
200.000000,19239.621668,16142.563956,-3703.304077,-17648.244518,-16735.287516,-1545.690184,-19287.275587,-9663.106163,11421.026161,-9504.185260,-456.288511,8093.767833,20058.544881,21987.433372,4548.624700,2844.974738,0.004000,-0.004000,1.006000,192.000000,0.000000,0.000000,0.000000,0.000000,0.000000,0.000000,0.000000,0.000000,0.000000,1770802664.379524,0.000000
202.000000,19233.698456,16137.110130,-3708.981420,-17656.134684,-16740.428417,-1561.694033,-19294.830477,-9670.504590,11415.885260,-9488.114356,-453.919226,8103.066159,20066.546806,21998.944521,4542.053287,2840.280871,0.004000,-0.004000,1.006000,192.000000,0.000000,0.000000,0.000000,0.000000,0.000000,0.000000,0.000000,0.000000,0.000000,1770802664.379535,0.000000
204.000000,19233.117310,16136.663096,-3708.668495,-17661.320288,-16741.098969,-1559.682376,-19299.658453,-9671.778640,11413.404216,-9509.572030,-465.318616,8081.161449,20058.522529,21982.091306,4542.835598,2841.174941,0.004000,-0.004000,1.006000,192.000000,0.000000,0.000000,0.000000,0.000000,0.000000,0.000000,0.000000,0.000000,0.000000,1770802664.379545,0.000000
206.000000,19252.384514,16158.612509,-3699.481928,-17641.471939,-16720.624771,-1546.025460,-19279.296014,-9655.506570,11431.687943,-9488.874315,-446.476095,8106.776548,20069.184312,21998.273968,4543.863779,2839.386802,0.004000,-0.010000,1.004000,192.000000,0.000000,16.000000,127.500000,88.000000,15.500000,48.000000,0.000000,0.000000,0.000000,1770802664.379556,0.000000
208.000000,19237.654714,16139.412360,-3711.753036,-17663.197835,-16751.358420,-1569.025406,-19301.737166,-9668.180009,11417.785158,-9495.691597,-457.741375,8094.684254,20054.387457,21990.115582,4537.627642,2839.677374,0.004000,-0.010000,1.004000,192.000000,0.000000,0.000000,0.000000,0.000000,0.000000,0.000000,0.000000,0.000000,0.000000,1770802664.379567,0.000000
210.000000,19264.007421,16165.519198,-3697.291457,-17643.304782,-16734.974591,-1536.973004,-19279.296014,-9646.051782,11433.230213,-9494.819879,-444.375032,8106.821252,20059.081323,21997.983396,4541.718011,2848.193389,0.004000,-0.010000,1.004000,192.000000,0.000000,0.000000,0.000000,0.000000,0.000000,0.000000,0.000000,0.000000,0.000000,1770802664.379578,0.000000
212.000000,19250.685781,16151.638764,-3707.103873,-17656.782884,-16744.921117,-1556.687243,-19289.130782,-9659.306366,11425.854138,-9483.398137,-441.648119,8113.839699,20067.038544,21999.548018,4536.800627,2844.773572,0.004000,-0.010000,1.004000,192.000000,0.000000,0.000000,0.000000,0.000000,0.000000,0.000000,0.000000,0.000000,0.000000,1770802664.859266,0.000000
214.000000,19243.734389,16149.157721,-3706.880356,-17660.225053,-16745.256394,-1555.614359,-19293.645834,-9663.061459,11421.696713,-9506.331027,-455.886180,8088.716339,20048.844224,21983.186541,4543.886130,2841.845494,0.004000,-0.010000,1.004000,192.000000,0.000000,0.000000,0.000000,0.000000,0.000000,0.000000,0.000000,0.000000,0.000000,1770802664.859332,0.000000
216.000000,19249.031752,16155.751485,-3705.248678,-17652.245480,-16726.637390,-1551.792211,-19281.352375,-9660.513361,11429.899803,-9493.545829,-444.822066,8105.591906,20061.718829,21992.864846,4548.244720,2843.276005,0.004000,-0.012000,1.002000,192.000000,0.000000,16.000000,127.500000,80.000000,15.500000,40.000000,0.000000,0.000000,0.000000,1770802664.859381,0.000000
218.000000,19230.658618,16136.350171,-3718.302097,-17668.629309,-16753.727705,-1560.688205,-19304.352320,-9679.355881,11410.051454,-9509.013237,-468.000825,8081.742594,20048.285430,21987.187503,4542.030936,2840.906720,0.004000,-0.012000,1.002000,192.000000,0.000000,0.000000,0.000000,0.000000,0.000000,0.000000,0.000000,0.000000,0.000000,1770802664.859427,0.000000
220.000000,19248.964697,16157.584328,-3708.288516,-17650.703210,-16739.556699,-1550.451106,-19285.398040,-9661.228616,11423.887184,-9511.136652,-457.406099,8089.118670,20054.096884,21986.382840,4547.283595,2843.365412,0.004000,-0.012000,1.002000,192.000000,0.000000,0.000000,0.000000,0.000000,0.000000,0.000000,0.000000,0.000000,0.000000,1770802664.859473,0.000000
222.000000,19245.366066,16149.045962,-3716.379847,-17657.006402,-16740.875452,-1569.226571,-19292.416488,-9666.123648,11417.338123,-9495.088100,-453.136915,8101.009798,20059.550710,22001.090288,4541.583901,2839.476209,0.004000,-0.012000,1.002000,192.000000,0.000000,0.000000,0.000000,0.000000,0.000000,0.000000,0.000000,0.000000,0.000000,1770802664.859515,0.000000
224.000000,19242.706209,16142.519253,-3715.999867,-17662.795503,-16750.218481,-1568.913647,-19298.116183,-9669.431707,11417.762806,-9512.097777,-466.905590,8081.004987,20048.643058,21994.675338,4539.594595,2842.538398,0.004000,-0.012000,1.002000,192.000000,0.000000,0.000000,0.000000,0.000000,0.000000,0.000000,0.000000,0.000000,0.000000,1770802664.859529,0.000000
226.000000,19256.541938,16159.707744,-3710.031952,-17644.802349,-16736.852138,-1534.491960,-19281.106506,-9659.596939,11425.965896,-9493.076443,-453.405136,8104.899002,20064.199873,22007.639349,4540.622776,2840.102057,0.002000,-0.014000,1.000000,192.000000,0.000000,8.000000,127.500000,72.000000,15.500000,32.000000,0.000000,0.000000,0.000000,1770802664.859542,0.000000
228.000000,19239.509909,16142.988639,-3720.559623,-17664.069553,-16759.114475,-1558.587141,-19302.698291,-9673.589131,11407.458652,-9500.318408,-468.537267,8088.023435,20059.260137,22003.034890,4530.430380,2842.806619,0.002000,-0.014000,1.000000,192.000000,0.000000,0.000000,0.000000,0.000000,0.000000,0.000000,0.000000,0.000000,0.000000,1770802664.859555,0.000000
230.000000,19261.749895,16167.061468,-3702.991152,-17643.550651,-16730.973629,-1546.360737,-19279.810104,-9652.533788,11420.445015,-9501.324237,-455.774421,8097.433519,20058.164902,22006.074727,4537.851159,2847.299319,0.002000,-0.014000,1.000000,192.000000,0.000000,0.000000,0.000000,0.000000,0.000000,0.000000,0.000000,0.000000,0.000000,1770802664.859568,0.000000
232.000000,19256.407828,16160.624166,-3711.104835,-17653.161902,-16740.093141,-1556.307263,-19288.974320,-9658.926387,11420.467367,-9481.095908,-446.923130,8112.185670,20069.430181,22013.540210,4534.766619,2843.007784,0.002000,-0.014000,1.000000,192.000000,0.000000,0.000000,0.000000,0.000000,0.000000,0.000000,0.000000,0.000000,0.000000,1770802664.859581,0.000000
234.000000,19256.273717,16156.198520,-3709.271992,-17657.162864,-16747.491568,-1544.147914,-19292.237674,-9659.507532,11420.780292,-9505.951048,-459.373052,8089.252781,20062.724657,21996.999919,4536.465351,2844.035964,0.002000,-0.014000,1.000000,192.000000,0.000000,0.000000,0.000000,0.000000,0.000000,0.000000,0.000000,0.000000,0.000000,1770802664.859594,0.000000
236.000000,19268.589529,16168.067297,-3702.611173,-17643.684762,-16729.073731,-1545.734888,-19278.178427,-9652.354974,11431.397370,-9496.049225,-443.726831,8105.100167,20068.603166,22005.851210,4541.293328,2844.728869,0.006000,-0.012000,1.002000,192.000000,0.000000,24.000000,127.500000,80.000000,15.500000,40.000000,0.000000,0.000000,0.000000,1770802664.859607,0.000000
238.000000,19253.010363,16148.196596,-3713.250603,-17662.996669,-16749.525577,-1569.763013,-19299.904323,-9668.537637,11416.824033,-9503.961742,-457.406099,8087.174068,20062.679954,21996.977567,4541.628604,2842.426639,0.006000,-0.012000,1.002000,192.000000,0.000000,0.000000,0.000000,0.000000,0.000000,0.000000,0.000000,0.000000,0.000000,1770802664.859619,0.000000
240.000000,19266.913148,16166.569730,-3702.633524,-17644.064742,-16730.101911,-1542.605644,-19282.000575,-9653.517265,11426.927021,-9502.575934,-449.962968,8096.226525,20066.479750,22000.933826,4546.277767,2848.796886,0.006000,-0.012000,1.002000,192.000000,0.000000,0.000000,0.000000,0.000000,0.000000,0.000000,0.000000,0.000000,0.000000,1770802664.859632,0.000000
242.000000,19259.179444,16159.350116,-3709.719027,-17657.855768,-16738.953202,-1556.284911,-19292.260026,-9662.413259,11421.361437,-9486.974417,-445.380860,8105.547202,20073.341736,22013.316693,4540.376906,2846.449953,0.006000,-0.012000,1.002000,192.000000,0.000000,0.000000,0.000000,0.000000,0.000000,0.000000,0.000000,0.000000,0.000000,1770802664.859645,0.000000
244.000000,19257.994802,16156.757314,-3708.623792,-17659.755666,-16747.513920,-1559.391804,-19296.439802,-9664.961358,11427.418760,-9507.023931,-456.534380,8082.413147,20062.009402,21999.570370,4542.075639,2843.052488,0.006000,-0.012000,1.002000,192.000000,0.000000,0.000000,0.000000,0.000000,0.000000,0.000000,0.000000,0.000000,0.000000,1770802664.859658,0.000000
246.000000,19275.630328,16179.243169,-3698.811376,-17643.237727,-16733.566431,-1544.863170,-19276.770267,-9649.046916,11434.213690,-9490.908324,-441.715174,8106.530679,20075.711021,22007.304073,4541.338031,2843.812447,0.006000,-0.011000,1.003000,192.000000,0.000000,24.000000,127.500000,88.000000,15.500000,48.000000,0.000000,0.000000,0.000000,1770802664.859672,0.000000
248.000000,19257.100732,16156.444389,-3709.763731,-17662.437876,-16754.219443,-1564.845629,-19299.077308,-9665.900131,11422.367266,-9493.456423,-451.147610,8091.309141,20065.630384,22005.337120,4535.593633,2840.370278,0.006000,-0.011000,1.003000,192.000000,0.000000,0.000000,0.000000,0.000000,0.000000,0.000000,0.000000,0.000000,0.000000,1770802664.859685,0.000000
250.000000,19275.250348,16177.253863,-3698.565507,-17642.209547,-16734.952239,-1558.609493,-19281.598244,-9651.371497,11433.431379,-9501.570106,-447.079593,8096.897077,20068.379649,22008.488716,4539.549892,2845.533531,0.006000,-0.011000,1.003000,192.000000,0.000000,0.000000,0.000000,0.000000,0.000000,0.000000,0.000000,0.000000,0.000000,1770802664.859699,0.000000
252.000000,19269.125970,16172.515294,-3704.779292,-17649.272698,-16735.600440,-1563.437469,-19288.057898,-9657.071192,11438.795798,-9481.118260,-437.803619,8112.520947,20083.444724,22019.485774,4540.823941,2847.522837,0.006000,-0.011000,1.003000,192.000000,0.000000,0.000000,0.000000,0.000000,0.000000,0.000000,0.000000,0.000000,0.000000,1770802664.859712,0.000000
254.000000,19267.047258,16169.140180,-3705.002809,-17653.653640,-16735.399274,-1543.097382,-19292.997634,-9657.965262,11437.767617,-9500.273705,-451.259369,8090.325664,20074.258158,22001.984358,4542.410915,2844.997090,0.006000,-0.011000,1.003000,192.000000,0.000000,0.000000,0.000000,0.000000,0.000000,0.000000,0.000000,0.000000,0.000000,1770802664.859728,0.000000
0.000000,19281.799410,16186.194561,-3696.822071,-17640.734332,-16724.022236,-1538.045888,-19275.406811,-9646.297651,11445.791894,-9486.773251,-438.965909,8111.760987,20082.640062,22015.507163,4551.373965,2846.628767,0.007000,-0.007500,1.005500,192.000000,0.000000,32.000000,127.500000,112.000000,15.500000,64.000000,0.000000,0.000000,0.000000,1770802664.859742,0.000000
2.000000,19258.687706,16162.345250,-3712.423588,-17660.873253,-16747.916251,-1571.729967,-19299.881971,-9664.916654,11436.426513,-9486.415623,-449.024194,8099.556935,20074.705192,22018.837573,4547.596520,2849.087459,0.007000,-0.007500,1.005500,192.000000,0.000000,0.000000,0.000000,0.000000,0.000000,0.000000,0.000000,0.000000,0.000000,1770802664.859755,0.000000
4.000000,19278.536055,16185.255788,-3698.431396,-17643.371838,-16733.007638,-1550.182885,-19281.061802,-9647.996384,11443.579071,-9498.820841,-445.559674,8094.326627,20069.050201,22009.762765,4546.188360,2843.857151,0.007000,-0.007500,1.005500,192.000000,0.000000,0.000000,0.000000,0.000000,0.000000,0.000000,0.000000,0.000000,0.000000,1770802664.859768,0.000000
6.000000,19273.708078,16180.248997,-3707.774425,-17649.205643,-16737.120359,-1551.188713,-19288.706099,-9653.763134,11444.808417,-9475.217399,-435.948424,8111.135138,20078.080306,22027.934733,4540.466313,2846.874636,0.007000,-0.007500,1.005500,192.000000,0.000000,0.000000,0.000000,0.000000,0.000000,0.000000,0.000000,0.000000,0.000000,1770802664.859780,0.000000
8.000000,19271.495255,16176.628015,-3708.243812,-17653.854806,-16742.976516,-1569.003054,-19292.841171,-9654.523093,11434.683077,-9500.184298,-452.645177,8086.369406,20062.255271,22009.405137,4539.482837,2844.348889,0.007000,-0.007500,1.005500,192.000000,0.000000,0.000000,0.000000,0.000000,0.000000,0.000000,0.000000,0.000000,0.000000,1770802664.859793,0.000000
10.000000,19290.203666,16198.465669,-3697.291457,-17634.855823,-16726.972667,-1551.255769,-19273.261043,-9639.681535,11451.044554,-9475.887951,-430.874578,8116.454854,20078.482637,22022.659722,4548.289424,2850.741488,0.005500,-0.010750,1.006750,192.000000,0.000000,16.000000,127.500000,72.000000,15.500000,64.000000,0.000000,0.000000,0.000000,1770802664.859806,0.000000
12.000000,19267.851921,16176.158628,-3710.099007,-17659.599204,-16747.111588,-1563.124545,-19296.506857,-9656.579454,11437.700562,-9484.403966,-443.771534,8101.970923,20070.011326,22009.986283,4541.069811,2845.712345,0.005500,-0.010750,1.006750,192.000000,0.000000,0.000000,0.000000,0.000000,0.000000,0.000000,0.000000,0.000000,0.000000,1770802664.859820,0.000000
14.000000,19280.123029,16190.240227,-3698.431396,-17644.802349,-16727.822033,-1558.453030,-19279.117200,-9642.587262,11442.819112,-9491.355359,-438.407116,8101.680351,20066.636213,22012.020291,4549.317604,2848.416906,0.005500,-0.010750,1.006750,192.000000,0.000000,0.000000,0.000000,0.000000,0.000000,0.000000,0.000000,0.000000,0.000000,1770802664.859832,0.000000
16.000000,19271.025869,16179.131410,-3706.813300,-17654.771227,-16740.048437,-1563.035138,-19288.683747,-9654.746610,11437.499397,-9475.709137,-433.489732,8113.593830,20075.532207,22025.476041,4548.669404,2848.349851,0.005500,-0.010750,1.006750,192.000000,0.000000,0.000000,0.000000,0.000000,0.000000,0.000000,0.000000,0.000000,0.000000,1770802664.859845,0.000000
18.000000,19267.047258,16172.269424,-3705.025161,-17657.833416,-16745.859891,-1549.489981,-19294.674014,-9659.731050,11426.837614,-9505.951048,-453.963930,8081.541429,20058.656640,22002.967835,4542.768543,2849.445087,0.005500,-0.010750,1.006750,192.000000,0.000000,0.000000,0.000000,0.000000,0.000000,0.000000,0.000000,0.000000,0.000000,1770802664.859859,0.000000
20.000000,19279.273662,16185.255788,-3697.626733,-17642.634230,-16726.615039,-1548.327690,-19278.267834,-9651.259738,11444.651955,-9486.795603,-434.093229,8104.742539,20080.695460,22021.564486,4547.060078,2851.344985,0.004750,-0.010375,1.007375,192.000000,0.000000,16.000000,127.500000,88.000000,15.500000,64.000000,0.000000,0.000000,0.000000,1770802664.859872,0.000000
22.000000,19260.095866,16164.312203,-3711.194242,-17662.683745,-16750.240833,-1569.763013,-19300.530171,-9666.771849,11428.961030,-9494.797527,-451.393479,8085.676501,20067.060896,22010.433317,4542.768543,2851.836723,0.004750,-0.010375,1.007375,192.000000,0.000000,0.000000,0.000000,0.000000,0.000000,0.000000,0.000000,0.000000,0.000000,1770802664.859886,0.000000
24.000000,19274.892721,16186.216913,-3702.208841,-17644.467073,-16736.293344,-1562.074013,-19282.514665,-9650.477427,11438.013487,-9496.809184,-447.504276,8094.393682,20066.189178,22012.668492,4545.786029,2855.234188,0.004750,-0.010375,1.007375,192.000000,0.000000,0.000000,0.000000,0.000000,0.000000,0.000000,0.000000,0.000000,0.000000,1770802664.859898,0.000000
26.000000,19265.907319,16177.231512,-3714.435245,-17653.698343,-16747.066885,-1560.554094,-19292.483543,-9658.099372,11433.878414,-9475.597379,-442.162209,8109.481109,20072.648832,22025.274876,4540.511017,2850.026232,0.004750,-0.010375,1.007375,192.000000,0.000000,0.000000,0.000000,0.000000,0.000000,0.000000,0.000000,0.000000,0.000000,1770802664.859912,0.000000
28.000000,19266.957851,16177.745602,-3712.960030,-17655.575890,-16746.798664,-1559.280045,-19294.405793,-9657.607634,11433.341972,-9495.713949,-457.383747,8089.565705,20063.238748,22009.069861,4537.404124,2846.360546,0.004750,-0.010375,1.007375,192.000000,0.000000,0.000000,0.000000,0.000000,0.000000,0.000000,0.000000,0.000000,0.000000,1770802664.859926,0.000000
30.000000,19281.620596,16193.235361,-3705.852175,-17641.360181,-16734.728722,-1561.112888,-19278.178427,-9648.733991,11445.344859,-9476.737318,-442.676299,8112.811519,20068.558463,22018.971684,4538.700526,2849.176866,0.000375,-0.012188,1.002687,192.000000,127.500000,112.000000,127.500000,72.000000,15.500000,24.000000,0.000000,0.000000,0.000000,1770802664.859938,0.000000
32.000000,19264.320345,16172.112962,-3716.983344,-17667.757591,-16760.589690,-1580.290685,-19300.686634,-9665.095468,11432.738475,-9484.806297,-454.880351,8096.830022,20061.383553,22009.494544,4531.145636,2842.516046,0.000375,-0.012188,1.002687,192.000000,0.000000,0.000000,0.000000,0.000000,0.000000,0.000000,0.000000,0.000000,0.000000,1770802664.859951,0.000000
34.000000,19277.373764,16186.999224,-3707.282687,-17645.584660,-16748.497397,-1553.625054,-19284.705136,-9653.293747,11440.136902,-9495.199859,-449.068898,8095.623028,20059.081323,22006.767631,4533.112589,2850.585026,0.000375,-0.012188,1.002687,192.000000,0.000000,0.000000,0.000000,0.000000,0.000000,0.000000,0.000000,0.000000,0.000000,1770802664.859965,0.000000
36.000000,19275.496218,16186.060451,-3711.909498,-17650.189120,-16748.340934,-1550.696975,-19290.941273,-9656.199474,11434.548966,-9475.083289,-441.916340,8111.649229,20067.597338,22022.682073,4533.917252,2853.334290,0.000375,-0.012188,1.002687,192.000000,0.000000,0.000000,0.000000,0.000000,0.000000,0.000000,0.000000,0.000000,0.000000,1770802664.859978,0.000000
38.000000,19278.558407,16188.854419,-3705.516899,-17653.452474,-16749.011487,-1545.578426,-19292.036509,-9653.517265,11434.347801,-9489.120184,-449.761802,8096.673560,20060.288317,22014.411928,4539.304023,2850.763840,0.000375,-0.012188,1.002687,192.000000,0.000000,0.000000,0.000000,0.000000,0.000000,0.000000,0.000000,0.000000,0.000000,1770802664.859991,0.000000
40.000000,19295.098698,16205.484117,-3695.659780,-17638.208585,-16729.341952,-1540.012841,-19275.652680,-9642.676668,11451.782161,-9470.747050,-429.287604,8119.584098,20081.097791,22027.308885,4544.020241,2851.210874,-0.000813,-0.012094,1.000344,192.000000,127.500000,120.000000,127.500000,80.000000,15.500000,24.000000,0.000000,0.000000,0.000000,1770802664.860004,0.000000
42.000000,19269.483598,16180.003128,-3714.792873,-17664.650698,-16755.404086,-1566.186734,-19303.190029,-9664.983709,11440.427475,-9478.883085,-443.011575,8101.590944,20074.459323,22018.256428,4541.293328,2849.892122,-0.000813,-0.012094,1.000344,192.000000,0.000000,0.000000,0.000000,0.000000,0.000000,0.000000,0.000000,0.000000,0.000000,1770802664.860017,0.000000
44.000000,19286.515628,16199.650311,-3703.058207,-17648.199814,-16739.780216,-1551.211065,-19286.023889,-9650.455076,11441.120379,-9485.767422,-445.045584,8102.619124,20067.820855,22005.091251,4539.214616,2853.222531,-0.000813,-0.012094,1.000344,192.000000,0.000000,0.000000,0.000000,0.000000,0.000000,0.000000,0.000000,0.000000,0.000000,1770802664.860030,0.000000
46.000000,19278.536055,16186.149858,-3711.171891,-17650.323230,-16751.760751,-1560.665853,-19293.109392,-9658.300538,11444.920176,-9460.040565,-436.082534,8121.327534,20080.561349,22027.085367,4537.895863,2849.378031,-0.000813,-0.012094,1.000344,192.000000,0.000000,0.000000,0.000000,0.000000,0.000000,0.000000,0.000000,0.000000,0.000000,1770802664.860043,0.000000
48.000000,19272.054049,16178.438506,-3713.272955,-17660.292108,-16754.800588,-1568.779536,-19298.227942,-9659.574587,11429.832748,-9492.025911,-457.920189,8093.477260,20061.048277,22008.198143,4533.939604,2850.517970,-0.000813,-0.012094,1.000344,192.000000,0.000000,0.000000,0.000000,0.000000,0.000000,0.000000,0.000000,0.000000,0.000000,1770802664.860056,0.000000
50.000000,19284.749840,16194.598817,-3707.394446,-17645.562308,-16744.675248,-1559.123583,-19281.106506,-9647.012907,11435.398333,-9477.318463,-441.379898,8118.801787,20079.801390,22015.529515,4533.783142,2845.533531,0.000594,-0.012047,1.001172,192.000000,0.000000,8.000000,127.500000,80.000000,15.500000,40.000000,0.000000,0.000000,0.000000,1770802664.860068,0.000000
52.000000,19270.869407,16178.125582,-3716.849234,-17668.025812,-16765.596481,-1578.547249,-19301.759517,-9661.385079,11421.652010,-9486.348568,-452.645177,8102.194441,20066.971489,22003.079594,4529.446903,2833.731810,0.000594,-0.012047,1.001172,192.000000,0.000000,0.000000,0.000000,0.000000,0.000000,0.000000,0.000000,0.000000,0.000000,1770802664.860082,0.000000
54.000000,19292.371785,16199.739718,-3701.806510,-17648.557442,-16740.204899,-1564.778574,-19281.084154,-9643.526035,11436.113588,-9487.734376,-439.971738,8110.196365,20072.537073,22002.140820,4536.308889,2836.503427,0.000594,-0.012047,1.001172,192.000000,0.000000,0.000000,0.000000,0.000000,0.000000,0.000000,0.000000,0.000000,0.000000,1770802664.860095,0.000000
56.000000,19283.341680,16191.603683,-3707.617963,-17652.781922,-16740.696638,-1558.117754,-19288.683747,-9651.796180,11431.911460,-9475.396213,-436.306052,8120.880499,20078.750858,22011.774422,4533.894901,2836.816351,0.000594,-0.012047,1.001172,192.000000,0.000000,0.000000,0.000000,0.000000,0.000000,0.000000,0.000000,0.000000,0.000000,1770802664.860108,0.000000
58.000000,19278.960738,16188.005053,-3707.975591,-17657.274623,-16750.620812,-1568.287798,-19294.003462,-9653.427858,11428.804568,-9492.204725,-448.331290,8101.121557,20067.686745,22006.186486,4537.270014,2844.214778,0.000594,-0.012047,1.001172,192.000000,0.000000,0.000000,0.000000,0.000000,0.000000,0.000000,0.000000,0.000000,0.000000,1770802664.860123,0.000000
60.000000,19289.913093,16203.874791,-3701.493585,-17641.516643,-16738.170891,-1539.744620,-19277.329061,-9643.861311,11437.387638,-9473.652777,-433.400325,8123.272136,20076.850960,22027.465347,4535.213653,2846.651119,0.000594,-0.012047,1.001172,192.000000,0.000000,0.000000,0.000000,0.000000,0.000000,0.000000,0.000000,0.000000,0.000000,1770802664.860136,0.000000
62.000000,19267.002555,16179.377279,-3716.983344,-17661.633213,-16761.595519,-1569.181868,-19302.586532,-9665.564855,11418.142786,-9486.773251,-453.852171,8102.574420,20062.657602,22011.886181,4527.748171,2848.707479,0.008000,-0.012000,1.002000,192.000000,0.000000,32.000000,127.500000,80.000000,15.500000,40.000000,0.000000,0.000000,0.000000,1770802664.860149,0.000000
64.000000,19281.508837,16198.018634,-3708.802606,-17649.384457,-16744.049399,-1565.650292,-19285.666261,-9652.265567,11427.239946,-9491.064786,-448.510104,8107.178880,20066.099771,22008.645178,4530.944470,2843.767744,0.008000,-0.012000,1.002000,192.000000,0.000000,0.000000,0.000000,0.000000,0.000000,0.000000,0.000000,0.000000,0.000000,1770802664.860162,0.000000
66.000000,19271.897587,16191.447221,-3713.116492,-17654.882986,-16748.676210,-1566.611417,-19291.723584,-9658.278186,11424.848309,-9470.054146,-444.285625,8121.215775,20072.246501,22022.302094,4531.816188,2843.924206,0.008000,-0.012000,1.002000,192.000000,0.000000,0.000000,0.000000,0.000000,0.000000,0.000000,0.000000,0.000000,0.000000,1770802664.860174,0.000000
68.000000,19264.543863,16187.736832,-3712.289478,-17661.141474,-16753.794760,-1565.091499,-19298.049128,-9662.457962,11418.634524,-9495.445728,-461.563523,8096.382987,20060.936518,22006.410003,4529.603366,2845.332366,0.008000,-0.012000,1.002000,192.000000,0.000000,0.000000,0.000000,0.000000,0.000000,0.000000,0.000000,0.000000,0.000000,1770802664.860196,0.000000
70.000000,19282.916997,16204.165364,-3701.940620,-17649.563271,-16730.638353,-1569.494792,-19283.006404,-9651.863235,11428.871623,-9480.179486,-446.811372,8114.666714,20071.575948,22018.926980,4538.678174,2844.527703,0.008000,-0.012000,1.002000,192.000000,0.000000,0.000000,0.000000,0.000000,0.000000,0.000000,0.000000,0.000000,0.000000,1770802664.860210,0.000000
72.000000,19271.651718,16186.105154,-3710.523690,-17665.589472,-16713.405158,-1561.157591,-19300.016081,-9664.782544,11427.172891,-9481.855867,-452.600473,8102.283848,20076.828608,22019.776347,4538.678174,2840.929072,0.006000,-0.016000,1.004000,192.000000,0.000000,24.000000,127.500000,64.000000,15.500000,48.000000,0.000000,0.000000,0.000000,1770802664.860223,0.000000
74.000000,19284.951006,16202.734852,-3699.280763,-17641.717808,-16731.599478,-1535.810713,-19281.665299,-9649.717468,11439.533405,-9493.255257,-448.197180,8103.110862,20080.449591,22025.900725,4542.254453,2850.182694,0.006000,-0.016000,1.004000,192.000000,0.000000,0.000000,0.000000,0.000000,0.000000,0.000000,0.000000,0.000000,0.000000,1770802664.860236,0.000000
76.000000,19279.407773,16197.169268,-3705.785120,-17647.596317,-16744.787007,-1546.316033,-19288.124953,-9654.366631,11445.188397,-9468.087193,-437.066011,8122.467473,20094.061803,22042.910402,4539.974575,2854.049546,0.006000,-0.016000,1.004000,192.000000,0.000000,0.000000,0.000000,0.000000,0.000000,0.000000,0.000000,0.000000,0.000000,1770802665.340149,0.000000
78.000000,19276.412639,16193.615340,-3705.740417,-17653.497178,-16749.436170,-1554.809696,-19294.115221,-9657.294709,11436.158292,-9496.630370,-452.935750,8098.886382,20079.577873,22022.547963,4532.509092,2847.701651,0.006000,-0.016000,1.004000,192.000000,0.000000,0.000000,0.000000,0.000000,0.000000,0.000000,0.000000,0.000000,0.000000,1770802665.340220,0.000000
80.000000,19296.730375,16215.900030,-3694.318675,-17635.079340,-16733.499376,-1549.959368,-19271.227034,-9639.614479,11447.781199,-9476.536152,-431.567482,8125.976697,20093.391251,22028.672341,4535.884206,2846.606415,0.006000,-0.016000,1.004000,192.000000,0.000000,0.000000,0.000000,0.000000,0.000000,0.000000,0.000000,0.000000,0.000000,1770802665.340278,0.000000
82.000000,19269.483598,16188.943826,-3711.194242,-17660.582681,-16755.113513,-1566.700824,-19297.490334,-9662.569721,11432.671420,-9484.180449,-447.146648,8109.548165,20083.109448,22023.330274,4533.291403,2843.700688,0.006000,-0.016000,1.002000,192.000000,0.000000,24.000000,127.500000,64.000000,15.500000,40.000000,0.000000,0.000000,0.000000,1770802665.340333,0.000000
84.000000,19279.385421,16203.494811,-3701.940620,-17643.170672,-16737.545042,-1556.061394,-19280.100677,-9649.717468,11435.465388,-9491.757690,-447.593683,8109.794034,20074.705192,22022.346797,4536.822979,2848.729831,0.006000,-0.016000,1.002000,192.000000,0.000000,0.000000,0.000000,0.000000,0.000000,0.000000,0.000000,0.000000,0.000000,1770802665.340377,0.000000
86.000000,19271.607014,16195.291721,-3709.495510,-17655.307669,-16740.026085,-1564.197429,-19287.454401,-9655.081887,11426.077655,-9475.664434,-443.168037,8121.059313,20080.583701,22032.762710,4534.118418,2845.824104,0.006000,-0.016000,1.002000,192.000000,0.000000,0.000000,0.000000,0.000000,0.000000,0.000000,0.000000,0.000000,0.000000,1770802665.340406,0.000000
88.000000,19268.991860,16190.933131,-3711.954202,-17656.157035,-16748.028010,-1575.485060,-19294.718718,-9657.942910,11419.148614,-9496.697425,-456.020290,8097.612333,20068.312593,22017.518820,4532.911424,2845.377069,0.006000,-0.016000,1.002000,192.000000,0.000000,0.000000,0.000000,0.000000,0.000000,0.000000,0.000000,0.000000,0.000000,1770802665.340431,0.000000
90.000000,19288.236712,16213.150765,-3701.225364,-17637.470977,-16730.280725,-1534.693126,-19274.646851,-9644.420105,11433.990173,-9474.993882,-437.021308,8122.668639,20089.010309,22033.477966,4535.861854,2848.953348,0.006000,-0.016000,1.002000,192.000000,0.000000,0.000000,0.000000,0.000000,0.000000,0.000000,0.000000,0.000000,0.000000,1770802665.340466,0.000000
92.000000,19265.437933,16190.106117,-3715.374019,-17659.599204,-16757.281632,-1561.157591,-19299.747860,-9662.949701,11420.065036,-9481.922922,-451.952273,8107.312990,20077.834437,22032.382731,4532.218520,2846.606415,0.008000,-0.016000,1.006000,192.000000,0.000000,32.000000,127.500000,64.000000,15.500000,56.000000,0.000000,0.000000,0.000000,1770802665.340496,0.000000
94.000000,19287.141477,16213.195469,-3699.504280,-17640.779035,-16736.561565,-1549.333519,-19279.765401,-9643.280166,11432.090274,-9485.856829,-443.860941,8111.291601,20079.063783,22029.812280,4535.236005,2846.092325,0.008000,-0.016000,1.006000,192.000000,0.000000,0.000000,0.000000,0.000000,0.000000,0.000000,0.000000,0.000000,0.000000,1770802665.340524,0.000000
96.000000,19275.540921,16202.444279,-3706.545080,-17651.999611,-16744.742303,-1564.599760,-19288.795506,-9653.606672,11427.441111,-9468.601283,-436.730735,8127.809540,20083.645890,22030.907515,4533.403162,2841.107886,0.008000,-0.016000,1.006000,192.000000,0.000000,0.000000,0.000000,0.000000,0.000000,0.000000,0.000000,0.000000,0.000000,1770802665.340551,0.000000
98.000000,19271.115276,16196.342253,-3701.113606,-17660.180349,-16743.580013,-1575.552115,-19291.097735,-9656.110067,11422.523728,-9493.814050,-451.147610,8102.172089,20072.090038,22009.293379,4535.392467,2838.515084,0.008000,-0.016000,1.006000,192.000000,0.000000,0.000000,0.000000,0.000000,0.000000,0.000000,0.000000,0.000000,0.000000,1770802665.340578,0.000000
100.000000,19278.670165,16204.232419,-3698.476100,-17641.159015,-16734.058170,-1557.558961,-19276.837322,-9651.170331,11429.005734,-9483.800469,-440.731697,8116.857185,20078.125009,22021.475079,4537.001793,2843.432467,0.008000,-0.016000,1.006000,192.000000,0.000000,0.000000,0.000000,0.000000,0.000000,0.000000,0.000000,0.000000,0.000000,1770802665.340606,0.000000
102.000000,19256.877215,16180.293701,-3711.417760,-17664.494236,-16756.633432,-1567.594894,-19300.954855,-9670.415183,11415.751149,-9491.802393,-455.841476,8095.868897,20073.095867,22014.680149,4532.933776,2845.220607,0.004000,-0.016000,1.006000,192.000000,0.000000,16.000000,127.500000,64.000000,15.500000,56.000000,0.000000,0.000000,0.000000,1770802665.340634,0.000000
104.000000,19273.439857,16198.912704,-3703.013504,-17649.429160,-16738.617925,-1552.552170,-19286.381517,-9657.741744,11425.228289,-9499.044359,-454.813296,8096.092414,20075.196931,22012.377919,4538.052325,2850.137991,0.004000,-0.016000,1.006000,192.000000,0.000000,0.000000,0.000000,0.000000,0.000000,0.000000,0.000000,0.000000,0.000000,1770802665.340661,0.000000
106.000000,19269.505950,16192.900085,-3712.200071,-17652.379591,-16742.216556,-1554.474420,-19293.712889,-9662.569721,11425.183585,-9478.972492,-449.672395,8109.816385,20091.178428,22023.665550,4532.732610,2847.992223,0.004000,-0.016000,1.006000,192.000000,0.000000,0.000000,0.000000,0.000000,0.000000,0.000000,0.000000,0.000000,0.000000,1770802665.340688,0.000000
108.000000,19266.488465,16187.513314,-3713.742341,-17661.096771,-16744.071751,-1564.555057,-19300.463116,-9666.682442,11419.483890,-9501.927734,-467.285570,8082.770775,20077.610919,22011.014463,4531.302098,2843.790095,0.004000,-0.016000,1.006000,192.000000,0.000000,0.000000,0.000000,0.000000,0.000000,0.000000,0.000000,0.000000,0.000000,1770802665.340715,0.000000
110.000000,19287.275587,16212.502564,-3701.828861,-17639.281468,-16731.755940,-1557.089574,-19280.078325,-9649.762171,11436.068885,-9480.939446,-449.560636,8106.508327,20089.077364,22028.180603,4530.676249,2841.621976,0.004000,-0.016000,1.006000,192.000000,0.000000,0.000000,0.000000,0.000000,0.000000,0.000000,0.000000,0.000000,0.000000,1770802665.340743,0.000000
112.000000,19266.935500,16190.754317,-3712.423588,-17665.969451,-16759.092123,-1582.659970,-19301.759517,-9665.341337,11423.641315,-9485.789774,-459.238942,8093.745481,20077.275643,22023.129108,4523.300174,2834.335307,0.002000,-0.014000,1.010000,192.000000,0.000000,8.000000,127.500000,72.000000,15.500000,72.000000,0.000000,0.000000,0.000000,1770802665.340770,0.000000
114.000000,19283.609901,16208.903934,-3701.203013,-17644.824701,-16743.870585,-1558.788307,-19283.587549,-9650.879759,11433.118455,-9489.611922,-449.515933,8099.802804,20078.549692,22020.268085,4529.223386,2834.737639,0.002000,-0.014000,1.010000,192.000000,0.000000,0.000000,0.000000,0.000000,0.000000,0.000000,0.000000,0.000000,0.000000,1770802665.340802,0.000000
116.000000,19280.659471,16204.701806,-3706.053341,-17649.026829,-16743.691771,-1551.412231,-19288.415526,-9653.718430,11437.722914,-9467.126068,-442.206912,8115.158452,20091.312539,22032.874469,4530.564491,2834.335307,0.002000,-0.014000,1.010000,192.000000,0.000000,0.000000,0.000000,0.000000,0.000000,0.000000,0.000000,0.000000,0.000000,1770802665.340831,0.000000
118.000000,19275.764439,16201.684320,-3710.009600,-17652.983088,-16756.521673,-1550.473458,-19295.188105,-9656.065363,11436.091237,-9485.879181,-456.199104,8094.751310,20078.996727,22019.597533,4530.765656,2837.352793,0.002000,-0.014000,1.010000,192.000000,0.000000,0.000000,0.000000,0.000000,0.000000,0.000000,0.000000,0.000000,0.000000,1770802665.340858,0.000000
120.000000,19286.426221,16217.464652,-3702.678228,-17638.409750,-16736.628620,-1558.743603,-19277.865503,-9645.470637,11445.858949,-9467.349585,-439.927034,8119.986429,20093.547713,22031.287495,4529.871587,2838.246863,0.002000,-0.014000,1.010000,192.000000,0.000000,0.000000,0.000000,0.000000,0.000000,0.000000,0.000000,0.000000,0.000000,1770802665.340885,0.000000
122.000000,19263.716848,16195.381128,-3715.530481,-17661.141474,-16758.868606,-1577.027330,-19299.412584,-9663.910826,11421.540251,-9478.637216,-456.869657,8099.735749,20076.292166,22017.429413,4524.887148,2833.150665,0.004000,-0.012000,1.006000,192.000000,0.000000,16.000000,127.500000,80.000000,15.500000,56.000000,0.000000,0.000000,0.000000,1770802665.340918,0.000000
124.000000,19275.898549,16208.568657,-3706.612135,-17644.735294,-16751.179606,-1554.832048,-19281.978224,-9652.153808,11434.750132,-9482.749937,-449.627691,8104.586077,20079.622576,22021.229210,4529.715124,2842.292528,0.004000,-0.012000,1.006000,192.000000,0.000000,0.000000,0.000000,0.000000,0.000000,0.000000,0.000000,0.000000,0.000000,1770802665.340946,0.000000
126.000000,19267.695459,16199.091518,-3712.155367,-17656.224091,-16754.666478,-1570.210048,-19290.203666,-9660.043974,11425.362399,-9471.261140,-448.487752,8112.588002,20073.744067,22029.812280,4528.485778,2838.895063,0.004000,-0.012000,1.006000,192.000000,0.000000,0.000000,0.000000,0.000000,0.000000,0.000000,0.000000,0.000000,0.000000,1770802665.340974,0.000000
128.000000,19263.828607,16194.956445,-3712.714161,-17659.375687,-16751.671344,-1585.118662,-19296.506857,-9661.966224,11422.188452,-9494.506954,-462.435241,8088.269304,20062.858768,22006.253541,4532.285575,2831.608395,0.004000,-0.012000,1.006000,192.000000,0.000000,0.000000,0.000000,0.000000,0.000000,0.000000,0.000000,0.000000,0.000000,1770802665.341001,0.000000
130.000000,19281.017099,16215.542402,-3703.818167,-17638.432102,-16729.788986,-1570.254751,-19276.434991,-9645.872968,11430.503300,-9477.206704,-445.403212,8115.449025,20078.415582,22015.171887,4534.833674,2836.615185,0.004000,-0.012000,1.006000,192.000000,0.000000,0.000000,0.000000,0.000000,0.000000,0.000000,0.000000,0.000000,0.000000,1770802665.341027,0.000000
132.000000,19248.942345,16182.394765,-3724.717048,-17665.656527,-16762.199016,-1572.556981,-19304.553485,-9671.756288,11417.360475,-9483.129917,-460.781212,8100.071025,20074.682841,22013.316693,4527.144674,2835.922281,0.003000,-0.010000,1.004000,192.000000,0.000000,8.000000,127.500000,96.000000,15.500000,40.000000,0.000000,0.000000,0.000000,1770802665.341056,0.000000
134.000000,19270.958814,16202.712500,-3709.920193,-17646.612840,-16747.871548,-1550.093478,-19284.168695,-9653.360802,11422.479024,-9494.261085,-459.618921,8098.327589,20068.938442,22002.520800,4524.820092,2842.426639,0.003000,-0.010000,1.004000,192.000000,0.000000,0.000000,0.000000,0.000000,0.000000,0.000000,0.000000,0.000000,0.000000,1770802665.341082,0.000000
136.000000,19267.762514,16196.096384,-3713.764693,-17652.893681,-16753.973574,-1548.752373,-19289.600168,-9660.446305,11428.178719,-9471.082326,-447.057241,8115.270211,20083.958815,22020.603361,4523.948374,2839.610319,0.003000,-0.010000,1.004000,192.000000,0.000000,0.000000,0.000000,0.000000,0.000000,0.000000,0.000000,0.000000,0.000000,1770802665.341110,0.000000
138.000000,19265.549691,16193.950617,-3712.133016,-17657.252271,-16753.459484,-1559.682376,-19293.444668,-9664.111991,11425.027123,-9492.137670,-461.183543,8091.532659,20071.799466,22012.221457,4529.960994,2842.024307,0.003000,-0.010000,1.004000,192.000000,0.000000,0.000000,0.000000,0.000000,0.000000,0.000000,0.000000,0.000000,0.000000,1770802665.341137,0.000000
140.000000,19280.860636,16213.530745,-3701.180661,-17638.856785,-16737.612097,-1544.997280,-19275.496218,-9650.611538,11438.348763,-9471.618768,-441.111677,8119.606450,20088.272701,22026.392463,4533.514921,2841.130238,0.003000,-0.010000,1.004000,192.000000,0.000000,0.000000,0.000000,0.000000,0.000000,0.000000,0.000000,0.000000,0.000000,1770802665.341164,0.000000
142.000000,19253.345639,16182.350061,-3716.759827,-17667.221149,-16762.310775,-1575.261542,-19302.854753,-9674.125573,11420.109739,-9485.923885,-460.289474,8100.473356,20085.232864,22013.428451,4528.664592,2835.631709,0.002500,-0.012000,1.002000,192.000000,0.000000,8.000000,127.500000,72.000000,15.500000,32.000000,0.000000,0.000000,0.000000,1770802665.341190,0.000000
144.000000,19272.948119,16203.964198,-3702.588821,-17645.539957,-16738.372056,-1566.879638,-19282.604072,-9656.266529,11430.726818,-9491.154193,-453.025157,8104.295505,20087.423335,22012.132050,4530.206863,2837.308089,0.002500,-0.012000,1.002000,192.000000,0.000000,0.000000,0.000000,0.000000,0.000000,0.000000,0.000000,0.000000,0.000000,1770802665.341218,0.000000
146.000000,19261.884005,16194.017672,-3715.105798,-17655.307669,-16752.543062,-1565.538533,-19293.824648,-9667.509457,11426.904670,-9474.345681,-449.135953,8115.493729,20088.250350,22026.168946,4526.898805,2836.749296,0.002500,-0.012000,1.002000,192.000000,0.000000,0.000000,0.000000,0.000000,0.000000,0.000000,0.000000,0.000000,0.000000,1770802665.341245,0.000000
148.000000,19262.532206,16193.950617,-3717.385676,-17661.074419,-16753.481836,-1562.118716,-19298.406756,-9667.688271,11417.785158,-9494.663417,-468.134936,8092.337321,20071.955928,22010.858001,4525.177720,2838.135104,0.002500,-0.012000,1.002000,192.000000,0.000000,0.000000,0.000000,0.000000,0.000000,0.000000,0.000000,0.000000,0.000000,1770802665.341272,0.000000
150.000000,19273.685726,16204.321826,-3709.137882,-17648.311573,-16736.226289,-1551.166362,-19282.604072,-9657.182951,11430.525652,-9481.028853,-450.834686,8117.326572,20082.550655,22016.155364,4528.664592,2839.923244,0.002500,-0.012000,1.002000,192.000000,0.000000,0.000000,0.000000,0.000000,0.000000,0.000000,0.000000,0.000000,0.000000,1770802665.341324,0.000000
152.000000,19253.949136,16184.406422,-3720.313754,-17667.467018,-16752.811283,-1578.591952,-19305.156983,-9673.209151,11413.739492,-9498.552620,-467.151459,8098.394644,20068.334945,21998.810410,4528.195206,2836.190502,0.003250,-0.015000,1.002000,192.000000,0.000000,16.000000,127.500000,56.000000,15.500000,40.000000,0.000000,0.000000,0.000000,1770802665.341352,0.000000
154.000000,19276.323232,16210.356797,-3707.103873,-17647.708076,-16735.578088,-1557.581312,-19285.800372,-9653.427858,11429.743341,-9496.093928,-456.422622,8108.251763,20072.537073,22005.359471,4534.073715,2840.929072,0.003250,-0.015000,1.002000,192.000000,0.000000,0.000000,0.000000,0.000000,0.000000,0.000000,0.000000,0.000000,0.000000,1770802665.341382,0.000000
156.000000,19277.530226,16211.630846,-3711.060132,-17652.044314,-16743.401199,-1544.729059,-19289.957796,-9653.360802,11429.877452,-9466.589626,-445.760840,8128.793017,20084.450553,22025.543097,4531.547967,2842.203121,0.003250,-0.015000,1.002000,192.000000,0.000000,0.000000,0.000000,0.000000,0.000000,0.000000,0.000000,0.000000,0.000000,1770802665.341409,0.000000
158.000000,19281.575892,16215.117719,-3709.450806,-17650.859672,-16747.983306,-1554.921455,-19293.467020,-9650.298613,11428.893975,-9484.068690,-452.488715,8110.486938,20073.095867,22016.088309,4530.765656,2839.185636,0.003250,-0.015000,1.002000,192.000000,0.000000,0.000000,0.000000,0.000000,0.000000,0.000000,0.000000,0.000000,0.000000,1770802665.341436,0.000000
160.000000,19298.853791,16235.502510,-3701.426530,-17634.699361,-16731.979457,-1542.449181,-19275.764439,-9639.882700,11447.132998,-9461.761649,-433.534435,8136.370258,20088.384460,22031.063978,4534.319584,2843.119543,0.003250,-0.015000,1.002000,192.000000,0.000000,0.000000,0.000000,0.000000,0.000000,0.000000,0.000000,0.000000,0.000000,1770802665.341464,0.000000
162.000000,19270.802351,16206.601704,-3717.586841,-17658.772189,-16762.131961,-1558.967121,-19301.156020,-9662.972052,11428.491643,-9474.569198,-452.175790,8116.298391,20079.689631,22020.402196,4527.926985,2838.023345,0.003625,-0.014500,1.006000,192.000000,0.000000,16.000000,127.500000,72.000000,15.500000,72.000000,0.000000,0.000000,0.000000,1770802665.341477,0.000000
164.000000,19284.749840,16221.800890,-3706.410969,-17643.483596,-16743.401199,-1565.829106,-19283.833418,-9649.225730,11433.565489,-9483.956931,-449.962968,8115.761950,20075.822780,22013.026120,4533.112589,2844.594758,0.003625,-0.014500,1.006000,192.000000,0.000000,0.000000,0.000000,0.000000,0.000000,0.000000,0.000000,0.000000,0.000000,1770802665.341490,0.000000
166.000000,19274.333927,16207.473422,-3716.715123,-17654.055971,-16754.286498,-1571.528801,-19293.042337,-9659.798105,11429.720989,-9469.227132,-444.710308,8124.568537,20086.596320,22018.301132,4527.032915,2836.436371,0.003625,-0.014500,1.006000,192.000000,0.000000,0.000000,0.000000,0.000000,0.000000,0.000000,0.000000,0.000000,0.000000,1770802665.341502,0.000000
168.000000,19268.857750,16201.527858,-3717.676248,-17661.454399,-16760.679097,-1567.036100,-19299.904323,-9663.307329,11420.690885,-9495.244562,-463.619883,8097.813499,20065.071591,21990.495561,4526.027086,2835.676412,0.003625,-0.014500,1.006000,192.000000,0.000000,0.000000,0.000000,0.000000,0.000000,0.000000,0.000000,0.000000,0.000000,1770802665.341515,0.000000
170.000000,19281.330023,16215.698864,-3709.651972,-17647.082227,-16737.388580,-1547.724193,-19283.676956,-9653.114933,11427.776388,-9480.782983,-450.588816,8122.668639,20075.398096,22008.309902,4530.720953,2840.146761,0.003625,-0.014500,1.006000,192.000000,0.000000,0.000000,0.000000,0.000000,0.000000,0.000000,0.000000,0.000000,0.000000,1770802665.341528,0.000000
172.000000,19261.213453,16193.481230,-3721.498397,-17664.628347,-16755.024106,-1561.671682,-19306.341625,-9670.884570,11410.364379,-9486.236809,-469.029006,8103.647304,20064.110466,22009.293379,4526.429418,2839.565616,0.005812,-0.014250,1.009000,192.000000,0.000000,32.000000,127.500000,72.000000,15.500000,80.000000,0.000000,0.000000,0.000000,1770802665.341541,0.000000
174.000000,19284.481619,16216.302361,-3705.047513,-17642.567175,-16727.419702,-1548.774725,-19285.263930,-9651.125628,11426.412931,-9488.293170,-458.255465,8112.744464,20071.911224,22010.858001,4536.979441,2848.483962,0.005812,-0.014250,1.009000,192.000000,0.000000,0.000000,0.000000,0.000000,0.000000,0.000000,0.000000,0.000000,0.000000,1770802665.341555,0.000000
176.000000,19272.009346,16203.226591,-3713.742341,-17654.324192,-16733.298210,-1560.710557,-19295.970416,-9662.770887,11427.128187,-9470.858809,-451.035851,8122.847453,20090.597283,22021.408024,4534.096066,2842.963081,0.005812,-0.014250,1.009000,192.000000,0.000000,0.000000,0.000000,0.000000,0.000000,0.000000,0.000000,0.000000,0.000000,1770802665.341568,0.000000
178.000000,19266.779037,16196.923399,-3715.664591,-17662.035544,-16742.820053,-1562.968083,-19303.413546,-9666.503628,11419.550946,-9497.166812,-466.749128,8095.846545,20071.084210,22003.548980,4533.201996,2842.739563,0.005812,-0.014250,1.009000,192.000000,0.000000,0.000000,0.000000,0.000000,0.000000,0.000000,0.000000,0.000000,0.000000,1770802665.341582,0.000000
180.000000,19282.313500,16215.542402,-3706.723893,-17645.271736,-16723.239925,-1555.279083,-19284.772192,-9655.327756,11433.587841,-9478.614864,-447.012537,8121.126368,20086.976300,22021.072748,4539.393430,2844.013613,0.005812,-0.014250,1.009000,192.000000,0.000000,0.000000,0.000000,0.000000,0.000000,0.000000,0.000000,0.000000,0.000000,1770802665.341594,0.000000
182.000000,19258.933575,16187.513314,-3720.961955,-17668.852826,-16755.292327,-1575.239190,-19309.739090,-9676.137230,11414.812376,-9494.328141,-464.223381,8098.796975,20066.144474,22005.940617,4535.370116,2843.208950,0.006906,-0.012125,1.009500,192.000000,0.000000,32.000000,127.500000,88.000000,15.500000,72.000000,0.000000,0.000000,0.000000,1770802665.341607,0.000000
184.000000,19276.412639,16205.573524,-3710.791911,-17651.329059,-16738.796739,-1547.254806,-19292.394136,-9662.435611,11424.378923,-9500.296056,-459.283645,8100.898039,20060.154207,22010.209800,4533.514921,2847.724002,0.006906,-0.012125,1.009500,192.000000,0.000000,0.000000,0.000000,0.000000,0.000000,0.000000,0.000000,0.000000,0.000000,1770802665.341620,0.000000
186.000000,19269.148322,16196.632826,-3721.744266,-17654.346544,-16752.677173,-1555.904932,-19299.054956,-9668.895265,11425.474158,-9478.100774,-453.919226,8116.320743,20064.378686,22027.778271,4529.513959,2848.685127,0.006906,-0.012125,1.009500,192.000000,0.000000,0.000000,0.000000,0.000000,0.000000,0.000000,0.000000,0.000000,0.000000,1770802665.341635,0.000000
188.000000,19269.796523,16199.225628,-3720.179644,-17658.213396,-16761.997850,-1561.135240,-19301.357186,-9663.687308,11420.534422,-9498.172641,-466.570314,8097.098243,20048.955983,22015.820088,4524.082485,2844.527703,0.006906,-0.012125,1.009500,192.000000,0.000000,0.000000,0.000000,0.000000,0.000000,0.000000,0.000000,0.000000,0.000000,1770802665.341648,0.000000
190.000000,19286.135648,16218.805756,-3710.948373,-17644.824701,-16745.077580,-1562.141068,-19284.235750,-9649.359840,11432.827882,-9479.799507,-447.481924,8123.853281,20060.243614,22024.649027,4528.441075,2845.801752,0.006906,-0.012125,1.009500,192.000000,0.000000,0.000000,0.000000,0.000000,0.000000,0.000000,0.000000,0.000000,0.000000,1770802665.341661,0.000000
192.000000,19265.817912,16194.934093,-3724.202958,-17669.165751,-16765.417667,-1586.929153,-19307.369805,-9667.487105,11422.099045,-9485.990940,-458.300168,8108.162356,20054.968602,22018.211725,4521.333220,2837.464552,0.006453,-0.012063,1.008750,192.000000,0.000000,24.000000,127.500000,80.000000,15.500000,64.000000,0.000000,0.000000,0.000000,1770802665.341674,0.000000
194.000000,19284.839247,16214.067187,-3709.674324,-17654.927689,-16744.787007,-1572.936961,-19289.264892,-9653.651375,11430.279783,-9492.294132,-452.041680,8107.916487,20056.242651,22009.919227,4527.547005,2836.816351,0.006453,-0.012063,1.008750,192.000000,0.000000,0.000000,0.000000,0.000000,0.000000,0.000000,0.000000,0.000000,0.000000,1770802665.341687,0.000000
196.000000,19277.731392,16204.120660,-3715.776350,-17657.721657,-16748.318583,-1565.315016,-19295.433974,-9660.535712,11429.028085,-9477.206704,-445.090287,8119.070008,20066.211530,22020.916286,4528.865758,2836.391668,0.006453,-0.012063,1.008750,192.000000,0.000000,0.000000,0.000000,0.000000,0.000000,0.000000,0.000000,0.000000,0.000000,1770802665.820230,0.000000
198.000000,19275.675032,16202.824259,-3714.882280,-17665.745934,-16752.721876,-1562.051661,-19299.993730,-9661.541541,11427.262298,-9495.155155,-455.886180,8097.880554,20052.599317,22016.580047,4530.340973,2841.778438,0.006453,-0.012063,1.008750,192.000000,0.000000,0.000000,0.000000,0.000000,0.000000,0.000000,0.000000,0.000000,0.000000,1770802665.820291,0.000000
200.000000,19289.242541,16223.320809,-3707.506205,-17646.210509,-16739.802568,-1556.597836,-19282.380555,-9650.656241,11431.531481,-9479.888914,-442.765706,8117.952420,20061.450608,22024.000826,4532.151464,2842.359584,0.006453,-0.012063,1.008750,192.000000,0.000000,0.000000,0.000000,0.000000,0.000000,0.000000,0.000000,0.000000,0.000000,1770802665.820342,0.000000
202.000000,19272.098753,16204.344178,-3721.923080,-17668.025812,-16762.087257,-1576.177964,-19306.073404,-9665.855427,11423.216632,-9483.487544,-455.439145,8102.797938,20055.639154,22014.009597,4527.368191,2840.303223,0.006453,-0.012063,1.008750,192.000000,0.000000,0.000000,0.000000,0.000000,0.000000,0.000000,0.000000,0.000000,0.000000,1770802665.820390,0.000000
204.000000,19294.539904,16228.059379,-3706.768597,-17649.585622,-16743.535309,-1565.002092,-19286.649738,-9646.252948,11441.902690,-9483.845172,-442.676299,8111.470415,20059.371896,22018.099966,4534.610156,2844.103020,0.012000,-0.010000,1.010000,192.000000,0.000000,48.000000,127.500000,88.000000,15.500000,72.000000,0.000000,0.000000,0.000000,1770802665.820437,0.000000
206.000000,19283.095811,16215.855326,-3717.855062,-17657.498140,-16752.654821,-1566.566714,-19296.037471,-9655.998308,11438.974612,-9469.852980,-438.988261,8120.768740,20063.283451,22029.320542,4525.892976,2840.929072,0.012000,-0.010000,1.010000,192.000000,0.000000,0.000000,0.000000,0.000000,0.000000,0.000000,0.000000,0.000000,0.000000,1770802665.820504,0.000000
208.000000,19284.861599,16218.381073,-3714.256431,-17658.727486,-16759.025068,-1569.293626,-19298.719680,-9654.143113,11429.698638,-9489.030777,-452.779287,8102.641476,20059.707172,22015.305998,4525.758866,2838.805656,0.012000,-0.010000,1.010000,192.000000,0.000000,0.000000,0.000000,0.000000,0.000000,0.000000,0.000000,0.000000,0.000000,1770802665.820517,0.000000
210.000000,19306.408680,16243.012696,-3703.326428,-17640.287297,-16740.271955,-1559.347100,-19278.223130,-9638.161616,11444.853120,-9464.756783,-434.204988,8132.458703,20069.139608,22037.121300,4529.357496,2839.789133,0.012000,-0.010000,1.010000,192.000000,0.000000,0.000000,0.000000,0.000000,0.000000,0.000000,0.000000,0.000000,0.000000,1770802665.820530,0.000000
212.000000,19283.744011,16218.381073,-3718.123283,-17659.755666,-16761.260243,-1580.313036,-19301.983035,-9655.372459,11436.851196,-9467.707213,-446.163171,8119.427636,20057.740218,22026.638332,4523.836616,2837.196331,0.012000,-0.010000,1.010000,192.000000,0.000000,0.000000,0.000000,0.000000,0.000000,0.000000,0.000000,0.000000,0.000000,1770802665.820543,0.000000
214.000000,19301.021910,16240.755169,-3706.075693,-17643.952983,-16742.171853,-1567.281969,-19283.095811,-9638.206320,11447.378868,-9474.658605,-440.105848,8122.735694,20056.644983,22021.720948,4527.278784,2836.950462,0.014000,-0.006000,1.008000,192.000000,0.000000,56.000000,127.500000,104.000000,15.500000,64.000000,0.000000,0.000000,0.000000,1770802665.820556,0.000000
216.000000,19288.259064,16228.841690,-3716.066923,-17645.562308,-16756.119341,-1572.914609,-19290.427183,-9648.376363,11446.283632,-9456.084306,-438.518874,8135.990278,20070.860692,22043.022161,4524.417761,2843.119543,0.014000,-0.006000,1.008000,192.000000,0.000000,0.000000,0.000000,0.000000,0.000000,0.000000,0.000000,0.000000,0.000000,1770802665.820568,0.000000
218.000000,19284.951006,16225.578335,-3713.697638,-17649.965602,-16751.470179,-1571.238228,-19294.226980,-9649.739820,11435.264222,-9481.788812,-457.093174,8109.726979,20046.027904,22026.906553,4522.808435,2842.270177,0.014000,-0.006000,1.008000,192.000000,0.000000,0.000000,0.000000,0.000000,0.000000,0.000000,0.000000,0.000000,0.000000,1770802665.820587,0.000000
220.000000,19299.904323,16245.560795,-3703.393484,-17633.358256,-16734.795777,-1561.917551,-19276.680860,-9637.871043,11447.915309,-9462.566312,-438.675337,8136.303203,20064.356335,22036.920135,4536.420648,2845.801752,0.014000,-0.006000,1.008000,192.000000,0.000000,0.000000,0.000000,0.000000,0.000000,0.000000,0.000000,0.000000,0.000000,1770802665.820600,0.000000
222.000000,19277.530226,16222.069111,-3720.224347,-17653.296012,-16762.087257,-1565.694996,-19299.725509,-9657.048840,11431.240908,-9469.920036,-454.120392,8122.556880,20055.393285,22030.080501,4528.552834,2845.779401,0.014000,-0.006000,1.008000,192.000000,0.000000,0.000000,0.000000,0.000000,0.000000,0.000000,0.000000,0.000000,0.000000,1770802665.820613,0.000000
224.000000,19299.546695,16240.531652,-3706.410969,-17637.314515,-16741.166024,-1544.706708,-19282.000575,-9641.201453,11439.756923,-9474.546847,-446.319633,8126.379028,20057.159073,22027.398292,4536.063020,2855.122430,0.010000,-0.010000,1.008000,192.000000,0.000000,40.000000,127.500000,88.000000,15.500000,64.000000,0.000000,0.000000,0.000000,1770802665.820626,0.000000
226.000000,19292.327081,16228.305248,-3714.502301,-17649.183291,-16749.838501,-1552.306301,-19291.030680,-9647.996384,11439.242833,-9453.893835,-436.998956,8136.012630,20072.425314,22038.663571,4530.072752,2849.512142,0.010000,-0.010000,1.008000,192.000000,0.000000,0.000000,0.000000,0.000000,0.000000,0.000000,0.000000,0.000000,0.000000,1770802665.820639,0.000000
228.000000,19289.399003,16223.253754,-3710.568394,-17650.323230,-16757.527501,-1566.969045,-19293.511724,-9649.315137,11431.352667,-9482.705233,-453.360433,8113.638534,20063.238748,22020.782175,4530.229214,2850.428563,0.010000,-0.010000,1.008000,192.000000,0.000000,0.000000,0.000000,0.000000,0.000000,0.000000,0.000000,0.000000,0.000000,1770802665.820652,0.000000
230.000000,19302.295959,16239.749341,-3704.667533,-17638.946192,-16735.756902,-1564.622112,-19277.485523,-9639.793293,11444.026106,-9466.343756,-437.915377,8134.895043,20074.861655,22033.947353,4531.883244,2845.153552,0.010000,-0.010000,1.008000,192.000000,0.000000,0.000000,0.000000,0.000000,0.000000,0.000000,0.000000,0.000000,0.000000,1770802665.820668,0.000000
232.000000,19277.127895,16216.078844,-3719.777312,-17660.180349,-16763.473065,-1584.895144,-19300.619578,-9655.797142,11426.591745,-9477.296111,-455.528552,8117.751255,20063.708134,22021.095100,4527.032915,2838.202159,0.010000,-0.010000,1.008000,192.000000,0.000000,0.000000,0.000000,0.000000,0.000000,0.000000,0.000000,0.000000,0.000000,1770802665.820682,0.000000
234.000000,19294.852828,16236.508338,-3707.953239,-17639.773207,-16754.800588,-1567.036100,-19279.787753,-9636.596994,11431.397370,-9477.117297,-447.012537,8124.993220,20055.683858,22022.883239,4528.128150,2843.521874,0.006000,-0.016000,1.006000,192.000000,0.000000,24.000000,127.500000,64.000000,15.500000,56.000000,0.000000,0.000000,0.000000,1770802665.820696,0.000000
236.000000,19290.226017,16228.104082,-3717.475083,-17648.736256,-16761.617871,-1581.631789,-19287.834381,-9644.643622,11430.950335,-9459.235902,-440.061145,8137.040810,20060.042448,22031.578068,4523.523691,2835.385839,0.006000,-0.016000,1.006000,192.000000,0.000000,0.000000,0.000000,0.000000,0.000000,0.000000,0.000000,0.000000,0.000000,1770802665.820709,0.000000
238.000000,19284.526322,16219.677474,-3720.201995,-17661.297937,-16761.751981,-1583.241115,-19296.976244,-9651.483256,11425.094178,-9484.694539,-457.115526,8108.564688,20041.691666,22014.568390,4522.361400,2839.252691,0.006000,-0.016000,1.006000,192.000000,0.000000,0.000000,0.000000,0.000000,0.000000,0.000000,0.000000,0.000000,0.000000,1770802665.820722,0.000000
240.000000,19304.687596,16241.939812,-3708.422626,-17638.566212,-16733.387617,-1563.839801,-19277.552578,-9639.279203,11437.231176,-9468.690690,-439.547055,8128.569499,20061.316497,22031.265143,4528.597537,2842.985433,0.006000,-0.016000,1.006000,192.000000,0.000000,0.000000,0.000000,0.000000,0.000000,0.000000,0.000000,0.000000,0.000000,1770802665.820735,0.000000
242.000000,19289.890741,16225.108948,-3720.559623,-17660.917957,-16750.106722,-1565.046795,-19302.094794,-9655.350108,11429.922155,-9471.596416,-450.298244,8113.794996,20060.288317,22029.879335,4527.770523,2840.057354,0.006000,-0.016000,1.006000,192.000000,0.000000,0.000000,0.000000,0.000000,0.000000,0.000000,0.000000,0.000000,0.000000,1770802665.820749,0.000000
244.000000,19313.449480,16248.779446,-3702.991152,-17638.968544,-16734.974591,-1534.111981,-19279.363069,-9630.740837,11444.584899,-9468.400117,-437.267177,8123.495653,20063.976355,22040.161138,4535.213653,2847.098153,0.012000,-0.016000,1.006000,192.000000,0.000000,48.000000,127.500000,64.000000,15.500000,56.000000,0.000000,0.000000,0.000000,1770802665.820762,0.000000
246.000000,19305.648721,16240.956335,-3708.847309,-17646.277564,-16744.965821,-1551.278120,-19284.682785,-9635.591165,11443.288498,-9451.055163,-426.605395,8139.454799,20070.748934,22057.483740,4531.905595,2846.919340,0.012000,-0.016000,1.006000,192.000000,0.000000,0.000000,0.000000,0.000000,0.000000,0.000000,0.000000,0.000000,0.000000,1770802665.820775,0.000000
248.000000,19294.271683,16228.484062,-3711.596574,-17655.262966,-16753.481836,-1569.517144,-19291.008328,-9642.140227,11438.795798,-9478.190181,-442.721002,8114.912583,20059.371896,22035.489623,4531.771485,2842.136066,0.012000,-0.016000,1.006000,192.000000,0.000000,0.000000,0.000000,0.000000,0.000000,0.000000,0.000000,0.000000,0.000000,1770802665.820788,0.000000
250.000000,19304.665244,16243.884414,-3708.087350,-17636.934535,-16746.284574,-1559.190638,-19273.819837,-9630.942003,11442.327373,-9466.589626,-431.299261,8135.967926,20067.038544,22030.594591,4526.518825,2841.174941,0.012000,-0.016000,1.006000,192.000000,0.000000,0.000000,0.000000,0.000000,0.000000,0.000000,0.000000,0.000000,0.000000,1770802665.820802,0.000000
252.000000,19276.658508,16216.570582,-3728.829769,-17664.784809,-16771.743211,-1576.334426,-19300.619578,-9653.405506,11422.970763,-9476.692614,-450.722927,8116.812482,20056.309707,22027.197126,4516.482892,2836.324613,0.012000,-0.016000,1.006000,192.000000,0.000000,0.000000,0.000000,0.000000,0.000000,0.000000,0.000000,0.000000,0.000000,1770802665.820815,0.000000
254.000000,19297.333872,16236.195414,-3712.580051,-17644.712942,-16744.339972,-1555.301434,-19279.675994,-9634.987668,11430.972687,-9481.297074,-446.029061,8114.554955,20058.097846,22033.142690,4522.808435,2842.069011,0.006000,-0.020000,1.010000,192.000000,0.000000,24.000000,127.500000,48.000000,15.500000,72.000000,0.000000,0.000000,0.000000,1770802665.820828,0.000000
0.000000,19288.549636,16226.561812,-3716.983344,-17647.462207,-16757.929833,-1572.691092,-19287.163828,-9642.251985,11433.453731,-9465.919073,-435.322575,8130.782322,20059.461303,22025.297228,4523.993078,2839.990299,0.006000,-0.020000,1.010000,192.000000,0.000000,0.000000,0.000000,0.000000,0.000000,0.000000,0.000000,0.000000,0.000000,1770802665.820842,0.000000
2.000000,19291.008328,16227.187661,-3709.316696,-17651.798445,-16757.862777,-1573.629865,-19288.773154,-9639.323907,11434.280745,-9483.398137,-444.240921,8110.643400,20053.560442,22015.797736,4527.614060,2838.403325,0.006000,-0.020000,1.010000,192.000000,0.000000,0.000000,0.000000,0.000000,0.000000,0.000000,0.000000,0.000000,0.000000,1770802665.820855,0.000000
4.000000,19308.152116,16244.219690,-3703.214670,-17639.884965,-16736.762731,-1575.976798,-19274.870369,-9628.751532,11449.926966,-9463.549788,-427.790037,8135.587947,20071.598300,22035.802547,4531.190339,2836.101095,0.006000,-0.020000,1.010000,192.000000,0.000000,0.000000,0.000000,0.000000,0.000000,0.000000,0.000000,0.000000,0.000000,1770802665.820868,0.000000
6.000000,19289.399003,16222.382036,-3716.357495,-17654.748875,-16752.118379,-1579.038987,-19297.378575,-9646.856445,11441.455655,-9465.986129,-441.581063,8122.266307,20068.670221,22030.751053,4528.709296,2837.062220,0.006000,-0.020000,1.010000,192.000000,0.000000,0.000000,0.000000,0.000000,0.000000,0.000000,0.000000,0.000000,0.000000,1770802665.820882,0.000000
8.000000,19308.666206,16244.018524,-3704.198146,-17637.202756,-16735.443978,-1551.903969,-19279.586587,-9631.210224,11452.631527,-9466.589626,-432.729773,8127.697781,20065.652736,22035.936658,4531.972651,2850.272101,0.008000,-0.018000,1.010000,192.000000,0.000000,32.000000,127.500000,56.000000,15.500000,72.000000,0.000000,0.000000,0.000000,1770802665.820896,0.000000
10.000000,19301.044262,16233.915536,-3712.624754,-17644.779997,-16745.904594,-1540.884559,-19287.990843,-9642.877834,11449.435228,-9454.162056,-427.968851,8138.381915,20081.321309,22049.526519,4529.223386,2852.216703,0.008000,-0.018000,1.010000,192.000000,0.000000,0.000000,0.000000,0.000000,0.000000,0.000000,0.000000,0.000000,0.000000,1770802665.820909,0.000000
12.000000,19301.066613,16233.781425,-3712.445940,-17649.451512,-16747.580975,-1555.949635,-19292.885875,-9643.928366,11445.411914,-9475.887951,-442.341023,8118.600621,20063.775189,22029.275838,4529.290441,2857.715232,0.008000,-0.018000,1.010000,192.000000,0.000000,0.000000,0.000000,0.000000,0.000000,0.000000,0.000000,0.000000,0.000000,1770802665.820922,0.000000
14.000000,19319.618561,16255.842597,-3704.913402,-17630.161957,-16728.649047,-1545.712536,-19273.417505,-9628.125683,11458.375926,-9455.056126,-426.180712,8143.768685,20074.258158,22045.771425,4533.917252,2856.396479,0.008000,-0.018000,1.010000,192.000000,0.000000,0.000000,0.000000,0.000000,0.000000,0.000000,0.000000,0.000000,0.000000,1770802665.820935,0.000000
16.000000,19304.575837,16238.005905,-3714.524652,-17650.390285,-16752.118379,-1562.386937,-19293.914055,-9642.497855,11451.089257,-9456.374878,-435.210816,8133.553938,20068.379649,22043.200975,4531.100932,2850.294453,0.008000,-0.018000,1.010000,192.000000,0.000000,0.000000,0.000000,0.000000,0.000000,0.000000,0.000000,0.000000,0.000000,1770802665.820949,0.000000
18.000000,19316.154041,16249.159425,-3709.584917,-17637.672143,-16743.222385,-1553.826219,-19281.642947,-9633.043067,11459.314699,-9460.934634,-427.745334,8139.723020,20070.748934,22044.720893,4531.816188,2854.563636,0.006000,-0.017000,1.008000,192.000000,0.000000,16.000000,127.500000,64.000000,15.500000,56.000000,0.000000,0.000000,0.000000,1770802665.820963,0.000000
20.000000,19312.466003,16246.946603,-3714.211728,-17640.309649,-16744.250565,-1556.083745,-19283.475790,-9636.149959,11452.944452,-9447.680050,-423.878482,8147.032040,20075.085172,22064.323373,4525.065961,2847.254616,0.006000,-0.017000,1.008000,192.000000,0.000000,0.000000,0.000000,0.000000,0.000000,0.000000,0.000000,0.000000,0.000000,1770802665.820976,0.000000
22.000000,19305.156983,16238.698809,-3716.290440,-17651.172596,-16743.691771,-1567.572542,-19292.081212,-9640.955584,11446.507150,-9469.987091,-432.126276,8128.167168,20069.273719,22028.471175,4528.575185,2849.243921,0.006000,-0.017000,1.008000,192.000000,0.000000,0.000000,0.000000,0.000000,0.000000,0.000000,0.000000,0.000000,0.000000,1770802665.820989,0.000000
24.000000,19319.775023,16254.881472,-3706.030989,-17626.585677,-16729.833690,-1547.075992,-19271.651718,-9627.231613,11458.308871,-9456.017251,-417.307069,8147.456723,20078.572044,22040.183489,4532.106761,2851.590854,0.006000,-0.017000,1.008000,192.000000,0.000000,0.000000,0.000000,0.000000,0.000000,0.000000,0.000000,0.000000,0.000000,1770802665.821002,0.000000
26.000000,19289.354299,16225.555983,-3724.605289,-17656.268794,-16754.666478,-1568.958350,-19298.496163,-9653.919596,11440.852158,-9466.522570,-437.557749,8128.010705,20065.898605,22028.024140,4528.195206,2850.585026,0.006000,-0.017000,1.008000,192.000000,0.000000,0.000000,0.000000,0.000000,0.000000,0.000000,0.000000,0.000000,0.000000,1770802665.821016,0.000000
28.000000,19302.720642,16240.933983,-3714.256431,-17642.343657,-16733.298210,-1552.440411,-19282.402907,-9643.190759,11441.902690,-9475.329158,-440.374069,8126.468435,20067.530282,22028.471175,4531.950299,2862.543209,0.008000,-0.016500,1.009000,192.000000,0.000000,40.000000,127.500000,64.000000,15.500000,72.000000,0.000000,0.000000,0.000000,1770802665.821029,0.000000
30.000000,19295.746898,16232.596783,-3720.783141,-17650.032657,-16739.847271,-1562.878676,-19290.181314,-9650.946814,11441.098027,-9457.827742,-434.786133,8134.112732,20070.748934,22038.283591,4530.586842,2851.792020,0.008000,-0.016500,1.009000,192.000000,0.000000,0.000000,0.000000,0.000000,0.000000,0.000000,0.000000,0.000000,0.000000,1770802665.821050,0.000000
32.000000,19292.751764,16226.673570,-3723.442998,-17651.910204,-16749.547929,-1552.351004,-19295.545732,-9653.874892,11437.454693,-9478.637216,-450.521761,8110.375179,20061.338849,22024.291399,4529.312793,2854.943616,0.008000,-0.016500,1.009000,192.000000,0.000000,0.000000,0.000000,0.000000,0.000000,0.000000,0.000000,0.000000,0.000000,1770802665.821063,0.000000
34.000000,19307.190991,16245.851367,-3715.150501,-17636.465149,-16727.173832,-1537.397687,-19278.156075,-9639.346259,11446.417743,-9459.928806,-437.669508,8134.738581,20073.922881,22044.899707,4529.201034,2853.803677,0.008000,-0.016500,1.009000,192.000000,0.000000,0.000000,0.000000,0.000000,0.000000,0.000000,0.000000,0.000000,0.000000,1770802665.821076,0.000000
36.000000,19285.085116,16223.790195,-3726.773408,-17659.465094,-16753.213615,-1557.782478,-19301.603055,-9657.048840,11438.684039,-9461.739297,-448.711270,8125.619069,20061.003573,22036.718969,4526.652935,2850.205046,0.008000,-0.016500,1.009000,192.000000,0.000000,0.000000,0.000000,0.000000,0.000000,0.000000,0.000000,0.000000,0.000000,1770802665.821089,0.000000
38.000000,19301.312483,16241.135149,-3716.178681,-17641.606050,-16738.684981,-1550.808734,-19283.654604,-9643.928366,11445.456618,-9469.964739,-445.000880,8127.966002,20063.283451,22021.944466,4532.509092,2854.854209,0.012000,-0.012250,1.009500,192.000000,0.000000,64.000000,127.500000,96.000000,15.500000,72.000000,0.000000,0.000000,0.000000,1770802665.821102,0.000000
40.000000,19295.053994,16233.624963,-3725.365248,-17652.647811,-16744.697600,-1564.309187,-19291.298901,-9651.393849,11443.914347,-9453.245634,-440.418773,8141.488807,20076.068649,22035.266106,4529.938642,2853.691918,0.012000,-0.012250,1.009500,192.000000,0.000000,0.000000,0.000000,0.000000,0.000000,0.000000,0.000000,0.000000,0.000000,1770802665.821114,0.000000
42.000000,19291.745936,16230.875698,-3725.588766,-17657.140512,-16749.346763,-1571.215876,-19295.858657,-9652.690250,11444.517844,-9476.290283,-454.925055,8116.879537,20057.829625,22020.871582,4528.284613,2850.026232,0.012000,-0.012250,1.009500,192.000000,0.000000,0.000000,0.000000,0.000000,0.000000,0.000000,0.000000,0.000000,0.000000,1770802665.821128,0.000000
44.000000,19305.425203,16249.762922,-3713.183548,-17638.946192,-16726.547983,-1561.246998,-19275.093886,-9637.446360,11454.330260,-9457.268948,-438.787095,8138.784246,20068.647870,22036.517803,4530.005697,2845.220607,0.012000,-0.012250,1.009500,192.000000,0.000000,0.000000,0.000000,0.000000,0.000000,0.000000,0.000000,0.000000,0.000000,1770802665.821141,0.000000
46.000000,19281.687651,16225.421873,-3726.326373,-17661.052067,-16749.033838,-1573.249885,-19298.809087,-9659.976919,11440.002792,-9464.108582,-453.472192,8124.479130,20069.407829,22028.739396,4529.871587,2843.991261,0.012000,-0.012250,1.009500,192.000000,0.000000,0.000000,0.000000,0.000000,0.000000,0.000000,0.000000,0.000000,0.000000,1770802665.821155,0.000000
48.000000,19297.065651,16241.425722,-3715.910460,-17644.154149,-16733.007638,-1539.185827,-19283.140514,-9647.616404,11443.891995,-9468.914207,-452.958101,8124.814406,20066.189178,22034.036760,4533.425514,2852.261406,0.012000,-0.011125,1.008750,192.000000,0.000000,48.000000,127.500000,88.000000,15.500000,64.000000,0.000000,0.000000,0.000000,1770802665.821168,0.000000
50.000000,19291.522418,16232.239155,-3723.666516,-17648.758608,-16741.277783,-1556.374318,-19290.337776,-9653.718430,11443.132036,-9453.089172,-446.341985,8138.605432,20077.096829,22042.396312,4533.246700,2855.189485,0.012000,-0.011125,1.008750,192.000000,0.000000,0.000000,0.000000,0.000000,0.000000,0.000000,0.000000,0.000000,0.000000,1770802665.821181,0.000000
52.000000,19284.459267,16225.690094,-3725.834635,-17657.162864,-16756.253452,-1568.868943,-19299.256122,-9660.222788,11438.706391,-9478.078422,-458.210761,8115.583136,20063.864596,22022.726777,4530.385677,2856.552941,0.012000,-0.011125,1.008750,192.000000,0.000000,0.000000,0.000000,0.000000,0.000000,0.000000,0.000000,0.000000,0.000000,1770802665.821194,0.000000
54.000000,19293.847000,16241.559832,-3717.519786,-17639.102654,-16742.350667,-1557.290740,-19279.161904,-9647.459942,11440.092199,-9467.349585,-445.537322,8136.146740,20076.940367,22033.299152,4530.206863,2856.776459,0.012000,-0.011125,1.008750,192.000000,0.000000,0.000000,0.000000,0.000000,0.000000,0.000000,0.000000,0.000000,0.000000,1770802665.821205,0.000000
56.000000,19276.323232,16223.790195,-3728.248623,-17657.609899,-16760.589690,-1571.618208,-19298.786735,-9660.669823,11433.967821,-9465.203818,-453.919226,8124.993220,20065.742143,22029.722873,4525.624755,2849.668604,0.012000,-0.011125,1.008750,192.000000,0.000000,0.000000,0.000000,0.000000,0.000000,0.000000,0.000000,0.000000,0.000000,1770802665.821218,0.000000
58.000000,19286.895607,16235.502510,-3721.029010,-17644.511777,-16747.737437,-1556.709594,-19285.062764,-9649.315137,11438.259356,-9470.881161,-453.025157,8125.619069,20064.088114,22026.303056,4527.792874,2856.418831,0.011000,-0.011562,1.010375,192.000000,0.000000,40.000000,127.500000,80.000000,15.500000,80.000000,0.000000,0.000000,0.000000,1770802665.821232,0.000000
60.000000,19288.773154,16233.490853,-3722.928908,-17647.193986,-16741.523652,-1544.617301,-19289.533113,-9651.393849,11439.242833,-9447.881216,-444.307976,8138.940709,20070.681878,22049.370056,4527.234081,2851.993186,0.011000,-0.011562,1.010375,192.000000,0.000000,0.000000,0.000000,0.000000,0.000000,0.000000,0.000000,0.000000,0.000000,1770802666.301084,0.000000
62.000000,19283.542846,16226.360646,-3721.297231,-17652.379591,-16750.084370,-1554.049737,-19295.456325,-9654.031355,11436.337106,-9471.439954,-454.120392,8116.924240,20062.903471,22040.943449,4527.904633,2853.356642,0.011000,-0.011562,1.010375,192.000000,0.000000,0.000000,0.000000,0.000000,0.000000,0.000000,0.000000,0.000000,0.000000,1770802666.301140,0.000000
64.000000,19294.316386,16238.922326,-3714.457597,-17638.275640,-16729.990152,-1545.489019,-19280.145381,-9645.984727,11445.590728,-9459.526474,-438.675337,8139.097171,20077.432105,22043.580955,4537.828808,2856.619997,0.011000,-0.011562,1.010375,192.000000,0.000000,0.000000,0.000000,0.000000,0.000000,0.000000,0.000000,0.000000,0.000000,1770802666.301180,0.000000
66.000000,19273.573968,16213.933076,-3726.035801,-17661.141474,-16750.754923,-1570.835897,-19301.826573,-9664.670785,11428.581050,-9468.802448,-455.014462,8120.120540,20066.435047,22037.054245,4534.632508,2856.508238,0.011000,-0.011562,1.010375,192.000000,0.000000,0.000000,0.000000,0.000000,0.000000,0.000000,0.000000,0.000000,0.000000,1770802666.301222,0.000000
68.000000,19297.669148,16238.072960,-3708.333219,-17644.131797,-16731.510071,-1555.457897,-19280.927692,-9644.911843,11440.360420,-9474.010405,-447.548979,8127.340153,20071.195969,22030.527536,4541.203921,2856.240017,0.008500,-0.010781,1.010188,192.000000,0.000000,24.000000,127.500000,88.000000,15.500000,72.000000,0.000000,0.000000,0.000000,1770802666.301234,0.000000
70.000000,19294.763421,16231.456844,-3714.524652,-17651.977259,-16737.008600,-1567.684301,-19289.376651,-9649.583358,11447.468275,-9449.848169,-437.289529,8142.964023,20089.233826,22055.360324,4535.213653,2850.316805,0.008500,-0.010781,1.010188,192.000000,0.000000,0.000000,0.000000,0.000000,0.000000,0.000000,0.000000,0.000000,0.000000,1770802666.301267,0.000000
72.000000,19285.778020,16222.538498,-3716.960992,-17658.414562,-16748.407990,-1557.938940,-19297.043299,-9653.316099,11442.685001,-9474.859771,-450.097078,8121.126368,20069.676050,22032.092158,4532.486741,2851.948482,0.008500,-0.010781,1.010188,192.000000,0.000000,0.000000,0.000000,0.000000,0.000000,0.000000,0.000000,0.000000,0.000000,1770802666.301307,0.000000
74.000000,19303.279436,16242.565661,-3707.975591,-17636.889832,-16723.597553,-1553.803868,-19275.831494,-9637.356953,11446.216577,-9462.566312,-440.105848,8141.980546,20078.303823,22047.939545,4531.391505,2854.854209,0.008500,-0.010781,1.010188,192.000000,0.000000,0.000000,0.000000,0.000000,0.000000,0.000000,0.000000,0.000000,0.000000,1770802666.301347,0.000000
76.000000,19276.345584,16216.078844,-3725.611118,-17660.314460,-16755.292327,-1573.227533,-19302.497125,-9661.250968,11431.263260,-9469.674166,-455.573255,8124.859110,20070.391306,22037.143652,4532.196168,2853.289587,0.008500,-0.010781,1.010188,192.000000,0.000000,0.000000,0.000000,0.000000,0.000000,0.000000,0.000000,0.000000,0.000000,1770802666.301361,0.000000
78.000000,19292.014157,16229.199318,-3715.083446,-17642.254250,-16738.103835,-1546.986585,-19284.861599,-9649.404544,11442.103856,-9474.233922,-451.214665,8128.100112,20080.650756,22032.293324,4536.532406,2864.197238,0.010250,-0.010391,1.010094,192.000000,0.000000,48.000000,127.500000,88.000000,15.500000,72.000000,0.000000,0.000000,0.000000,1770802666.301373,0.000000
80.000000,19288.862561,16223.901954,-3720.112588,-17647.439855,-16736.136882,-1549.065298,-19292.192971,-9653.249044,11434.414856,-9459.504123,-449.627691,8136.861996,20088.943254,22040.295248,4537.515883,2866.991206,0.010250,-0.010391,1.010094,192.000000,0.000000,0.000000,0.000000,0.000000,0.000000,0.000000,0.000000,0.000000,0.000000,1770802666.301385,0.000000
82.000000,19290.382479,16225.980666,-3720.269051,-17652.089018,-16726.905611,-1551.747507,-19299.501991,-9651.013869,11438.169949,-9471.283492,-456.981415,8121.439293,20078.527341,22033.746187,4544.087296,2867.684110,0.010250,-0.010391,1.010094,192.000000,0.000000,0.000000,0.000000,0.000000,0.000000,0.000000,0.000000,0.000000,0.000000,1770802666.301397,0.000000
84.000000,19307.325102,16248.757094,-3709.495510,-17638.186233,-16717.830803,-1531.720344,-19279.765401,-9634.562985,11448.965841,-9452.530378,-442.117505,8147.590834,20094.128858,22048.408931,4546.903616,2870.254561,0.010250,-0.010391,1.010094,192.000000,0.000000,0.000000,0.000000,0.000000,0.000000,0.000000,0.000000,0.000000,0.000000,1770802666.301415,0.000000
86.000000,19283.140514,16222.247925,-3723.711219,-17654.994745,-16741.970687,-1568.198391,-19300.843096,-9651.639718,11439.645164,-9458.542998,-450.968796,8138.068990,20089.569102,22045.123225,4539.192264,2859.995110,0.010250,-0.010391,1.010094,192.000000,0.000000,0.000000,0.000000,0.000000,0.000000,0.000000,0.000000,0.000000,0.000000,1770802666.301427,0.000000
88.000000,19297.132706,16235.211937,-3713.541176,-17640.309649,-16737.567393,-1548.126524,-19282.000575,-9637.580471,11442.550891,-9473.451611,-448.152476,8136.571424,20076.582739,22031.935696,4536.599462,2856.396479,0.010250,-0.010391,1.010094,192.000000,0.000000,0.000000,0.000000,0.000000,0.000000,0.000000,0.000000,0.000000,0.000000,1770802666.301439,0.000000
90.000000,19286.269758,16223.723140,-3720.157292,-17645.785826,-16743.289440,-1556.910760,-19286.381517,-9644.263642,11439.756923,-9454.474980,-441.201084,8148.931938,20086.797486,22040.295248,4533.738438,2852.551979,0.008000,-0.006000,1.000000,192.000000,0.000000,32.000000,127.500000,104.000000,15.500000,32.000000,0.000000,0.000000,0.000000,1770802666.301461,0.000000
92.000000,19274.445686,16212.033178,-3724.270013,-17657.922823,-16751.693696,-1566.611417,-19296.931541,-9654.076058,11430.369190,-9480.447707,-461.004729,8122.378066,20068.156131,22019.284608,4531.905595,2850.562674,0.008000,-0.006000,1.000000,192.000000,0.000000,0.000000,0.000000,0.000000,0.000000,0.000000,0.000000,0.000000,0.000000,1770802666.301474,0.000000
94.000000,19285.241578,16225.287762,-3720.649030,-17642.611878,-16731.487719,-1555.502600,-19282.402907,-9645.045953,11433.140806,-9471.305844,-455.439145,8136.861996,20071.799466,22029.611114,4532.419685,2853.177828,0.008000,-0.006000,1.000000,192.000000,0.000000,0.000000,0.000000,0.000000,0.000000,0.000000,0.000000,0.000000,0.000000,1770802666.301486,0.000000
96.000000,19272.188159,16207.942809,-3729.053286,-17664.807160,-16754.398257,-1562.923379,-19302.295959,-9658.836980,11424.155405,-9475.530323,-465.966817,8121.774569,20068.536111,22022.749129,4527.748171,2855.234188,0.008000,-0.006000,1.000000,192.000000,0.000000,0.000000,0.000000,0.000000,0.000000,0.000000,0.000000,0.000000,0.000000,1770802666.301498,0.000000
98.000000,19294.472849,16232.194451,-3718.145635,-17643.461245,-16737.142710,-1541.018670,-19284.146343,-9642.654317,11438.102894,-9476.334986,-456.087346,8125.954345,20078.035602,22027.934733,4533.023183,2860.822125,0.008000,-0.006000,1.000000,192.000000,0.000000,0.000000,0.000000,0.000000,0.000000,0.000000,0.000000,0.000000,0.000000,1770802666.301510,0.000000
100.000000,19292.707061,16230.607477,-3722.548929,-17646.389323,-16740.651934,-1547.813600,-19288.504933,-9645.336526,11439.354591,-9449.401134,-445.045584,8144.238072,20085.054050,22049.459463,4531.704430,2863.079651,0.004000,-0.008000,1.000000,192.000000,0.000000,16.000000,127.500000,96.000000,15.500000,32.000000,0.000000,0.000000,0.000000,1770802666.301522,0.000000
102.000000,19293.243503,16230.741588,-3717.005696,-17650.032657,-16737.276821,-1540.951614,-19291.365956,-9641.536730,11440.382772,-9470.635291,-457.227285,8122.512176,20075.711021,22029.186431,4531.972651,2854.675395,0.004000,-0.008000,1.000000,192.000000,0.000000,0.000000,0.000000,0.000000,0.000000,0.000000,0.000000,0.000000,0.000000,1770802666.301534,0.000000
104.000000,19311.817802,16252.556891,-3707.126225,-17633.671180,-16722.971704,-1550.875789,-19272.545787,-9625.041142,11459.851141,-9448.730582,-435.255520,8150.630671,20096.788716,22046.911364,4537.135903,2858.832819,0.004000,-0.008000,1.000000,192.000000,0.000000,0.000000,0.000000,0.000000,0.000000,0.000000,0.000000,0.000000,0.000000,1770802666.301546,0.000000
106.000000,19289.063727,16225.645390,-3722.817149,-17659.465094,-16749.167949,-1563.929208,-19296.976244,-9645.358878,11440.561585,-9459.258253,-450.678223,8134.380953,20088.295053,22032.941524,4533.425514,2850.674433,0.004000,-0.008000,1.000000,192.000000,0.000000,0.000000,0.000000,0.000000,0.000000,0.000000,0.000000,0.000000,0.000000,1770802666.301558,0.000000
108.000000,19308.576799,16244.644373,-3711.663629,-17639.370875,-16728.872565,-1537.397687,-19276.323232,-9627.701000,11446.373039,-9464.220341,-445.269101,8140.348868,20086.641024,22038.775329,4536.912386,2855.278892,0.004000,-0.008000,1.000000,192.000000,0.000000,0.000000,0.000000,0.000000,0.000000,0.000000,0.000000,0.000000,0.000000,1770802666.301570,0.000000
110.000000,19298.786735,16230.249850,-3721.788969,-17644.422370,-16738.819091,-1554.161495,-19285.554503,-9641.559081,11441.545062,-9447.657698,-437.937729,8152.485866,20093.011271,22046.039646,4532.374982,2854.809505,0.008000,-0.016000,1.002000,192.000000,0.000000,32.000000,127.500000,64.000000,15.500000,40.000000,0.000000,0.000000,0.000000,1770802666.301582,0.000000
112.000000,19292.170619,16224.863079,-3720.805492,-17657.118160,-16749.458522,-1561.001129,-19295.188105,-9648.801046,11437.387638,-9474.770364,-454.321558,8123.741522,20072.626480,22024.201992,4529.670421,2856.083555,0.008000,-0.016000,1.002000,192.000000,0.000000,0.000000,0.000000,0.000000,0.000000,0.000000,0.000000,0.000000,0.000000,1770802666.301594,0.000000
114.000000,19301.133669,16238.318829,-3714.390542,-17644.332963,-16731.264202,-1555.703766,-19280.860636,-9644.263642,11447.736495,-9461.515780,-442.206912,8140.907662,20086.417507,22037.076597,4530.005697,2849.668604,0.008000,-0.016000,1.002000,192.000000,0.000000,0.000000,0.000000,0.000000,0.000000,0.000000,0.000000,0.000000,0.000000,1770802666.301606,0.000000
116.000000,19277.686689,16211.474384,-3726.304022,-17665.120085,-16749.637335,-1562.543400,-19303.927637,-9666.816552,11437.007658,-9471.484658,-461.630578,8121.573403,20082.662413,22026.973608,4526.317659,2846.628767,0.008000,-0.016000,1.002000,192.000000,0.000000,0.000000,0.000000,0.000000,0.000000,0.000000,0.000000,0.000000,0.000000,1770802666.301617,0.000000
118.000000,19300.105488,16232.216803,-3710.300173,-17647.417503,-16733.946411,-1542.292719,-19283.878122,-9648.309308,11449.591690,-9475.195047,-456.646139,8122.132197,20081.075440,22034.439091,4531.659726,2853.535456,0.008000,-0.016000,1.002000,192.000000,0.000000,0.000000,0.000000,0.000000,0.000000,0.000000,0.000000,0.000000,0.000000,1770802666.301629,0.000000
120.000000,19296.775078,16226.561812,-3716.335144,-17647.238689,-16737.567393,-1551.054603,-19290.024852,-9651.930291,11453.033859,-9453.983242,-445.604377,8136.325554,20090.552579,22048.610097,4531.816188,2853.401345,0.004000,-0.014000,1.004000,192.000000,0.000000,16.000000,127.500000,72.000000,15.500000,48.000000,0.000000,0.000000,0.000000,1770802666.301641,0.000000
122.000000,19288.728450,16222.583201,-3720.134940,-17656.760532,-16744.407027,-1544.974928,-19298.205590,-9657.071192,11441.701524,-9477.050242,-460.267122,8115.829005,20075.845131,22031.667475,4529.737476,2854.854209,0.004000,-0.014000,1.004000,192.000000,0.000000,0.000000,0.000000,0.000000,0.000000,0.000000,0.000000,0.000000,0.000000,1770802666.301664,0.000000
124.000000,19309.202648,16243.102103,-3710.613097,-17636.733369,-16718.903687,-1533.016745,-19277.664337,-9641.536730,11452.519769,-9458.699460,-443.413907,8139.857130,20087.646852,22049.817091,4534.386639,2859.481020,0.004000,-0.014000,1.004000,192.000000,0.000000,0.000000,0.000000,0.000000,0.000000,0.000000,0.000000,0.000000,0.000000,1770802666.301676,0.000000
126.000000,19288.773154,16219.990399,-3724.091199,-17660.940309,-16743.937641,-1563.504525,-19302.005387,-9661.809762,11441.410952,-9464.622672,-459.417756,8122.601583,20081.813047,22039.088254,4528.955165,2855.413002,0.004000,-0.014000,1.004000,192.000000,0.000000,0.000000,0.000000,0.000000,0.000000,0.000000,0.000000,0.000000,0.000000,1770802666.301688,0.000000
128.000000,19304.218209,16240.263431,-3710.054303,-17644.377666,-16722.636428,-1538.805847,-19284.168695,-9646.208244,11452.139789,-9471.305844,-453.628654,8124.926165,20082.662413,22035.400216,4535.772447,2860.352738,0.004000,-0.014000,1.004000,192.000000,0.000000,0.000000,0.000000,0.000000,0.000000,0.000000,0.000000,0.000000,0.000000,1770802666.301700,0.000000
130.000000,19296.708023,16229.579297,-3715.888109,-17651.664335,-16731.532422,-1540.906911,-19291.969453,-9652.936119,11452.229196,-9450.764591,-445.269101,8139.655964,20091.938387,22054.198033,4534.453694,2856.240017,0.004000,-0.014000,1.004000,192.000000,0.000000,0.000000,127.500000,64.000000,15.500000,24.000000,0.000000,0.000000,0.000000,1770802666.301711,0.000000
132.000000,19292.416488,16226.405350,-3717.586841,-17661.610861,-16741.501301,-1555.010862,-19299.122012,-9655.752439,11446.417743,-9476.580855,-457.942540,8115.203156,20077.007422,22031.466309,4533.917252,2847.567540,0.004000,-0.014000,1.004000,192.000000,0.000000,0.000000,0.000000,0.000000,0.000000,0.000000,0.000000,0.000000,0.000000,1770802666.301723,0.000000
134.000000,19308.643855,16246.767789,-3712.602402,-17638.297992,-16725.519803,-1542.449181,-19279.608939,-9642.274337,11450.463408,-9459.168847,-442.810409,8137.353735,20090.172600,22045.391446,4533.760790,2848.640424,0.004000,-0.014000,1.004000,192.000000,0.000000,0.000000,0.000000,0.000000,0.000000,0.000000,0.000000,0.000000,0.000000,1770802666.301735,0.000000
136.000000,19283.766363,16217.598762,-3723.286536,-17663.220187,-16748.765617,-1564.040967,-19302.608884,-9662.368555,11440.740399,-9464.823838,-454.679186,8124.277964,20079.443762,22038.507109,4531.615023,2849.333328,0.004000,-0.014000,1.004000,192.000000,0.000000,0.000000,0.000000,0.000000,0.000000,0.000000,0.000000,0.000000,0.000000,1770802666.301747,0.000000
138.000000,19295.098698,16232.932059,-3713.697638,-17650.904375,-16733.007638,-1545.578426,-19288.147305,-9650.522131,11439.220481,-9478.100774,-455.975587,8120.411112,20070.771285,22027.040664,4534.476046,2851.568502,0.004000,-0.014000,1.004000,192.000000,0.000000,0.000000,0.000000,0.000000,0.000000,0.000000,0.000000,0.000000,0.000000,1770802666.301759,0.000000
140.000000,19289.443706,16221.957352,-3722.660687,-17658.816893,-16744.787007,-1552.440411,-19294.204628,-9657.227654,11437.521748,-9460.554655,-446.900779,8133.106903,20080.136666,22045.614963,4530.877415,2849.981529,-0.002000,-0.010000,1.004000,192.000000,127.500000,120.000000,127.500000,88.000000,15.500000,48.000000,0.000000,0.000000,0.000000,1770802666.301770,0.000000
142.000000,19283.252273,16213.486041,-3726.058152,-17665.075381,-16757.013411,-1564.085670,-19302.228904,-9660.491009,11429.251603,-9494.126975,-466.212686,8102.596772,20068.379649,22022.637370,4526.317659,2848.618072,-0.002000,-0.010000,1.004000,192.000000,0.000000,0.000000,0.000000,0.000000,0.000000,0.000000,0.000000,0.000000,0.000000,1770802666.301782,0.000000
144.000000,19308.330930,16242.386847,-3709.517862,-17640.354352,-16728.939620,-1544.013803,-19278.245482,-9639.189796,11448.988193,-9471.819934,-443.279796,8131.966964,20075.062820,22029.342893,4533.894901,2852.663738,-0.002000,-0.010000,1.004000,192.000000,0.000000,0.000000,0.000000,0.000000,0.000000,0.000000,0.000000,0.000000,0.000000,1770802666.301794,0.000000
146.000000,19287.990843,16222.404387,-3722.794798,-17660.850902,-16744.451731,-1557.268388,-19301.826573,-9656.579454,11443.355554,-9470.612940,-451.751107,8127.206043,20074.414620,22032.069806,4531.682078,2852.641386,-0.002000,-0.010000,1.004000,192.000000,0.000000,0.000000,0.000000,0.000000,0.000000,0.000000,0.000000,0.000000,0.000000,1770802666.301806,0.000000
148.000000,19304.620541,16242.833882,-3711.820091,-17641.807215,-16729.051379,-1542.985623,-19284.861599,-9643.257814,11449.144655,-9470.903512,-449.404174,8132.212833,20076.426277,22042.619829,4539.639299,2857.312901,-0.002000,-0.010000,1.004000,192.000000,0.000000,0.000000,0.000000,0.000000,0.000000,0.000000,0.000000,0.000000,0.000000,1770802666.301818,0.000000
150.000000,19296.551561,16231.970934,-3719.084408,-17651.552576,-16737.567393,-1564.398594,-19292.572950,-9649.829227,11450.664574,-9454.586739,-443.682127,8144.998031,20084.159980,22046.956068,4534.319584,2852.954311,0.004000,-0.010000,1.014000,192.000000,0.000000,16.000000,127.500000,88.000000,15.500000,88.000000,0.000000,0.000000,0.000000,1770802666.301831,0.000000
152.000000,19291.880046,16227.701751,-3717.519786,-17652.871329,-16743.423551,-1557.983644,-19297.579741,-9651.438552,11439.600460,-9479.955969,-458.970721,8123.182729,20069.586643,22031.913344,4532.531444,2852.976662,0.004000,-0.010000,1.014000,192.000000,0.000000,0.000000,0.000000,0.000000,0.000000,0.000000,0.000000,0.000000,0.000000,1770802666.301842,0.000000
154.000000,19308.286227,16246.454864,-3710.680152,-17634.319381,-16724.558678,-1533.910815,-19278.133724,-9639.458017,11449.144655,-9459.057088,-440.038793,8149.982470,20071.687707,22048.788911,4534.878377,2854.049546,0.004000,-0.010000,1.014000,192.000000,0.000000,0.000000,0.000000,0.000000,0.000000,0.000000,0.000000,0.000000,0.000000,1770802666.301854,0.000000
156.000000,19281.955872,16219.096329,-3727.533368,-17659.107466,-16756.767542,-1566.432603,-19303.346491,-9663.687308,11434.996001,-9468.377765,-456.422622,8131.162301,20064.535149,22045.056170,4529.960994,2853.043718,0.004000,-0.010000,1.014000,192.000000,0.000000,0.000000,0.000000,0.000000,0.000000,0.000000,0.000000,0.000000,0.000000,1770802666.301867,0.000000
158.000000,19295.366918,16233.669666,-3719.129112,-17642.567175,-16738.126187,-1553.401536,-19286.470924,-9650.253910,11440.159254,-9476.849076,-454.947407,8133.241014,20057.494349,22030.281667,4535.280709,2855.949444,0.004000,-0.010000,1.014000,192.000000,0.000000,0.000000,0.000000,0.000000,0.000000,0.000000,0.000000,0.000000,0.000000,1770802666.301878,0.000000
160.000000,19286.985014,16227.098254,-3725.454655,-17648.691553,-16741.255431,-1552.529818,-19292.215323,-9656.132419,11437.678210,-9456.956024,-450.991148,8148.171979,20066.300936,22048.990077,4529.983345,2857.804639,0.005000,-0.011000,1.011000,192.000000,0.000000,24.000000,127.500000,80.000000,15.500000,64.000000,0.000000,0.000000,0.000000,1770802666.301890,0.000000
162.000000,19281.553540,16219.096329,-3729.589728,-17657.676954,-16749.950260,-1549.847609,-19302.363015,-9661.318023,11430.145673,-9480.805335,-468.045529,8121.372237,20057.404942,22028.225306,4529.603366,2857.067032,0.005000,-0.011000,1.011000,192.000000,0.000000,0.000000,0.000000,0.000000,0.000000,0.000000,0.000000,0.000000,0.000000,1770802666.301902,0.000000
164.000000,19303.279436,16241.649239,-3714.099969,-17636.129872,-16728.649047,-1536.324803,-19280.100677,-9645.113009,11442.193263,-9463.862713,-449.560636,8148.797828,20062.970527,22045.302039,4533.425514,2855.703575,0.005000,-0.011000,1.011000,192.000000,0.000000,0.000000,0.000000,0.000000,0.000000,0.000000,0.000000,0.000000,0.000000,1770802666.301932,0.000000
166.000000,19281.732354,16220.772710,-3727.019277,-17661.923785,-16750.441998,-1561.068185,-19304.799355,-9665.117820,11431.263260,-9467.841323,-462.323482,8132.950441,20061.830588,22036.473100,4527.099970,2849.579197,0.005000,-0.011000,1.011000,192.000000,0.000000,0.000000,0.000000,0.000000,0.000000,0.000000,0.000000,0.000000,0.000000,1770802666.301944,0.000000
168.000000,19302.787698,16246.611327,-3711.641277,-17644.288259,-16728.805510,-1546.494847,-19284.615729,-9643.883663,11440.740399,-9470.054146,-454.366261,8137.063162,20063.350506,22038.350646,4534.029011,2852.306110,0.005000,-0.011000,1.011000,192.000000,0.000000,0.000000,0.000000,0.000000,0.000000,0.000000,0.000000,0.000000,0.000000,1770802666.301956,0.000000
170.000000,19298.674977,16240.174024,-3717.542138,-17649.540919,-16737.098007,-1561.157591,-19289.868389,-9646.543520,11445.434266,-9445.489579,-441.625767,8154.631633,20071.821817,22050.733513,4535.370116,2850.808543,0.008500,-0.011500,1.011500,192.000000,0.000000,48.000000,127.500000,80.000000,15.500000,80.000000,0.000000,0.000000,0.000000,1770802666.301968,0.000000
172.000000,19292.774116,16232.261507,-3718.190338,-17655.553538,-16741.881280,-1559.525914,-19295.813953,-9651.930291,11441.902690,-9469.897684,-455.059165,8131.922261,20056.019134,22037.590687,4535.973613,2851.501447,0.008500,-0.011500,1.011500,192.000000,0.000000,0.000000,0.000000,0.000000,0.000000,0.000000,0.000000,0.000000,0.000000,1770802666.301979,0.000000
174.000000,19299.390232,16243.817358,-3714.815225,-17637.225108,-16725.162175,-1546.204274,-19282.358203,-9649.359840,11446.976536,-9460.487599,-445.179694,8149.669546,20064.110466,22041.546946,4535.928909,2855.323595,0.008500,-0.011500,1.011500,192.000000,0.000000,0.000000,0.000000,0.000000,0.000000,0.000000,0.000000,0.000000,0.000000,1770802666.301991,0.000000
176.000000,19277.865503,16220.169213,-3728.874472,-17662.437876,-16753.101856,-1535.408382,-19307.101584,-9669.208189,11429.028085,-9469.562408,-463.262256,8130.290583,20058.857806,22037.769501,4534.721915,2857.894046,0.008500,-0.011500,1.011500,192.000000,0.000000,0.000000,0.000000,0.000000,0.000000,0.000000,0.000000,0.000000,0.000000,1770802666.302003,0.000000
178.000000,19300.932503,16244.644373,-3715.955164,-17640.801387,-16735.511033,-1528.971079,-19287.297939,-9649.113971,11435.152463,-9472.870466,-457.741375,8131.072894,20058.053143,22041.725760,4536.934738,2864.130183,0.008500,-0.011500,1.011500,192.000000,0.000000,0.000000,0.000000,0.000000,0.000000,0.000000,0.000000,0.000000,0.000000,1770802666.302015,0.000000
180.000000,19290.583645,16233.356742,-3726.102856,-17652.334887,-16744.071751,-1545.399612,-19297.289169,-9658.524055,11433.386676,-9458.006556,-450.231189,8145.914453,20067.351468,22045.659667,4533.090238,2864.778383,0.007250,-0.008750,1.009750,192.000000,0.000000,24.000000,127.500000,104.000000,15.500000,64.000000,0.000000,0.000000,0.000000,1770802666.783084,0.000000
182.000000,19292.684709,16231.121568,-3721.341934,-17657.498140,-16746.239870,-1555.033214,-19300.284302,-9656.400640,11430.391542,-9477.407870,-462.278779,8122.623935,20050.475901,22034.372036,4535.124246,2857.849343,0.007250,-0.008750,1.009750,192.000000,0.000000,0.000000,0.000000,0.000000,0.000000,0.000000,0.000000,0.000000,0.000000,1770802666.783187,0.000000
184.000000,19316.779890,16258.010716,-3708.087350,-17633.648829,-16729.811338,-1532.748524,-19278.580758,-9635.300593,11448.831731,-9455.592567,-439.100020,8150.183636,20064.691611,22041.837518,4533.850197,2855.725927,0.007250,-0.008750,1.009750,192.000000,0.000000,0.000000,0.000000,0.000000,0.000000,0.000000,0.000000,0.000000,0.000000,1770802666.783275,0.000000
186.000000,19294.405793,16232.485024,-3721.967783,-17658.258099,-16751.894862,-1554.496772,-19303.659416,-9655.394811,11436.202995,-9458.386535,-449.448878,8138.024287,20061.674125,22038.305943,4530.363325,2853.244883,0.007250,-0.008750,1.009750,192.000000,0.000000,0.000000,0.000000,0.000000,0.000000,0.000000,0.000000,0.000000,0.000000,1770802666.783340,0.000000
188.000000,19309.783794,16250.120550,-3708.176757,-17640.711980,-16728.045550,-1541.800981,-19284.369860,-9641.112046,11443.489664,-9465.315576,-447.839552,8140.147703,20067.932614,22046.844309,4535.772447,2851.657909,0.007250,-0.008750,1.009750,192.000000,0.000000,0.000000,0.000000,0.000000,0.000000,0.000000,0.000000,0.000000,0.000000,1770802666.783390,0.000000
190.000000,19303.368843,16243.347972,-3714.926984,-17645.294088,-16736.539213,-1548.238283,-19287.320290,-9643.928366,11442.573242,-9445.333117,-440.910511,8157.336194,20072.917053,22047.336048,4535.325412,2853.043718,0.005625,-0.008375,1.007875,192.000000,0.000000,16.000000,127.500000,96.000000,15.500000,56.000000,0.000000,0.000000,0.000000,1770802666.783439,0.000000
192.000000,19297.110355,16232.350914,-3721.230176,-17654.279489,-16747.424513,-1557.424850,-19298.920846,-9651.326794,11427.843443,-9473.831591,-458.613093,8130.044714,20051.369971,22032.226268,4532.419685,2848.953348,0.005625,-0.008375,1.007875,192.000000,0.000000,0.000000,0.000000,0.000000,0.000000,0.000000,0.000000,0.000000,0.000000,1770802666.783483,0.000000
194.000000,19316.824593,16251.238138,-3712.356533,-17635.995762,-16724.424568,-1543.119734,-19280.905340,-9639.122741,11443.266147,-9454.586739,-440.485828,8154.162246,20068.402000,22051.694638,4537.091200,2851.322633,0.005625,-0.008375,1.007875,192.000000,0.000000,0.000000,0.000000,0.000000,0.000000,0.000000,0.000000,0.000000,0.000000,1770802666.783497,0.000000
196.000000,19295.769250,16226.673570,-3724.918213,-17662.259062,-16748.631507,-1560.554094,-19305.179334,-9658.255834,11425.630620,-9466.209646,-456.892008,8134.984450,20054.990954,22039.691751,4531.279746,2848.707479,0.005625,-0.008375,1.007875,192.000000,0.000000,0.000000,0.000000,0.000000,0.000000,0.000000,0.000000,0.000000,0.000000,1770802666.783511,0.000000
198.000000,19306.006349,16237.983553,-3717.005696,-17643.796521,-16737.522690,-1554.161495,-19288.594340,-9648.219901,11435.487740,-9471.194085,-452.846343,8137.890177,20057.159073,22040.250545,4534.207825,2850.607377,0.005625,-0.008375,1.007875,192.000000,0.000000,0.000000,0.000000,0.000000,0.000000,0.000000,0.000000,0.000000,0.000000,1770802666.783524,0.000000
200.000000,19298.384404,16228.327600,-3722.168949,-17650.278527,-16745.055228,-1566.611417,-19292.528247,-9654.456038,11429.922155,-9456.665451,-449.985319,8150.138932,20065.496274,22043.893879,4527.882281,2847.768706,0.003812,-0.006188,1.004938,192.000000,0.000000,8.000000,127.500000,112.000000,15.500000,40.000000,0.000000,0.000000,0.000000,1770802666.783536,0.000000
202.000000,19293.757593,16224.103120,-3725.745228,-17654.413599,-16754.957051,-1562.632807,-19300.261951,-9656.825323,11418.500414,-9482.280550,-467.442032,8126.311973,20051.772303,22022.257390,4526.854101,2852.104944,0.003812,-0.006188,1.004938,192.000000,0.000000,0.000000,0.000000,0.000000,0.000000,0.000000,0.000000,0.000000,0.000000,1770802666.783550,0.000000
204.000000,19320.087948,16252.556891,-3711.261298,-17629.983143,-16733.074693,-1530.155722,-19276.613805,-9636.306421,11436.493568,-9458.341832,-445.872598,8157.135028,20066.233881,22041.904574,4529.022220,2856.999976,0.003812,-0.006188,1.004938,192.000000,0.000000,0.000000,0.000000,0.000000,0.000000,0.000000,0.000000,0.000000,0.000000,1770802666.783563,0.000000
206.000000,19303.190029,16233.960239,-3723.577109,-17652.580756,-16749.950260,-1553.803868,-19299.524343,-9653.249044,11427.754036,-9459.705288,-454.500372,8143.589871,20060.109503,22040.563469,4529.402200,2851.121467,0.003812,-0.006188,1.004938,192.000000,0.000000,0.000000,0.000000,0.000000,0.000000,0.000000,0.000000,0.000000,0.000000,1770802666.783578,0.000000
208.000000,19321.965494,16254.926175,-3711.507167,-17639.169710,-16727.285591,-1537.822370,-19283.967529,-9637.669878,11436.337106,-9465.047355,-448.755973,8146.003860,20066.211530,22037.568335,4536.822979,2855.614168,0.003812,-0.006188,1.004938,192.000000,0.000000,0.000000,0.000000,0.000000,0.000000,0.000000,0.000000,0.000000,0.000000,1770802666.783593,0.000000
210.000000,19307.995654,16245.381981,-3715.105798,-17646.612840,-16735.958068,-1552.060431,-19288.169657,-9644.733029,11435.711257,-9446.987146,-441.536360,8160.152514,20078.750858,22046.419626,4536.755924,2846.002918,0.004906,-0.008094,1.005469,192.000000,0.000000,24.000000,127.500000,88.000000,15.500000,56.000000,0.000000,0.000000,0.000000,1770802666.783607,0.000000
212.000000,19298.250294,16237.558870,-3715.753998,-17654.815931,-16745.032876,-1558.520086,-19294.338738,-9648.689288,11420.377960,-9471.417602,-458.255465,8136.839645,20065.585681,22029.499355,4539.572244,2843.141895,0.004906,-0.008094,1.005469,192.000000,0.000000,0.000000,0.000000,0.000000,0.000000,0.000000,0.000000,0.000000,0.000000,1770802666.783621,0.000000
214.000000,19310.677863,16251.841635,-3708.802606,-17636.800425,-16726.749149,-1545.868998,-19275.518569,-9637.088732,11427.821091,-9457.403059,-445.917302,8158.006747,20074.414620,22047.112530,4540.019279,2842.426639,0.004906,-0.008094,1.005469,192.000000,0.000000,0.000000,0.000000,0.000000,0.000000,0.000000,0.000000,0.000000,0.000000,1770802666.783634,0.000000
216.000000,19291.343604,16226.338294,-3722.168949,-17658.079285,-16743.512958,-1560.732908,-19297.713852,-9654.947776,11417.673399,-9467.438992,-460.222418,8140.527682,20070.547768,22028.761748,4534.029011,2843.991261,0.004906,-0.008094,1.005469,192.000000,0.000000,0.000000,0.000000,0.000000,0.000000,0.000000,0.000000,0.000000,0.000000,1770802666.783647,0.000000
218.000000,19306.229866,16241.559832,-3714.681115,-17646.791654,-16736.718027,-1552.216894,-19283.498142,-9642.251985,11431.889109,-9471.685823,-455.573255,8141.958194,20074.504027,22029.007617,4535.079543,2850.428563,0.004906,-0.008094,1.005469,192.000000,0.000000,0.000000,0.000000,0.000000,0.000000,0.000000,0.000000,0.000000,0.000000,1770802666.783661,0.000000
220.000000,19297.088003,16232.082693,-3722.258356,-17646.232861,-16745.614021,-1551.993376,-19289.846038,-9649.426895,11428.871623,-9458.185370,-452.958101,8153.134066,20072.805294,22035.400216,4528.642241,2854.742450,0.004906,-0.008094,1.005469,192.000000,0.000000,0.000000,0.000000,0.000000,0.000000,0.000000,0.000000,0.000000,0.000000,1770802666.783674,0.000000
222.000000,19292.148267,16230.540422,-3725.588766,-17657.475788,-16757.505150,-1561.045833,-19298.496163,-9653.249044,11419.841518,-9480.626521,-470.168945,8129.128293,20056.287355,22018.681111,4525.110665,2851.970834,0.004000,-0.014000,1.000000,192.000000,0.000000,16.000000,127.500000,72.000000,15.500000,32.000000,0.000000,0.000000,0.000000,1770802666.783687,0.000000
224.000000,19310.744919,16252.579242,-3714.524652,-17634.051160,-16743.669420,-1551.412231,-19278.290186,-9639.145093,11437.007658,-9457.939501,-449.314767,8154.676337,20068.849035,22040.697579,4527.926985,2847.880465,0.004000,-0.014000,1.000000,192.000000,0.000000,0.000000,0.000000,0.000000,0.000000,0.000000,0.000000,0.000000,0.000000,1770802666.783700,0.000000
226.000000,19292.617654,16232.909707,-3729.030934,-17655.553538,-16776.548836,-1559.056528,-19300.083137,-9655.774791,11423.238984,-9464.600320,-462.435241,8141.511159,20059.170730,22038.864736,4518.896880,2844.795924,0.004000,-0.014000,1.000000,192.000000,0.000000,0.000000,0.000000,0.000000,0.000000,0.000000,0.000000,0.000000,0.000000,1770802666.783714,0.000000
228.000000,19303.435898,16248.734742,-3717.117455,-17642.589526,-16755.292327,-1552.194542,-19283.922825,-9642.743724,11428.938678,-9472.088155,-460.155363,8143.366354,20055.527396,22033.880297,4521.154406,2843.901854,0.004000,-0.014000,1.000000,192.000000,0.000000,0.000000,0.000000,0.000000,0.000000,0.000000,0.000000,0.000000,0.000000,1770802666.783727,0.000000
