Sample_index,EXG Channel 0,EXG Channel 1,EXG Channel 2,EXG Channel 3,EXG Channel 4,EXG Channel 5,EXG Channel 6,EXG Channel 7,EXG Channel 8,EXG Channel 9,EXG Channel 10,EXG Channel 11,EXG Channel 12,EXG Channel 13,EXG Channel 14,EXG Channel 15,Accel Channel 0,Accel Channel 1,Accel Channel 2,Not Used,Digital Channel 0 (D11),Digital Channel 1 (D12),Digital Channel 2 (D13),Digital Channel 3 (D17),Not Used,Digital Channel 4 (D18),Analog Channel 0,Analog Channel 1,Analog Channel 2,Timestamp,Marker Channel
90.000000,19905.100155,16728.581992,-3060.199685,-17593.952131,-16274.595711,-559.173591,-18973.770019,-10259.540112,11847.989183,-10197.804594,1114.614441,10405.966390,19015.008988,22383.707450,4986.987112,4116.163148,0.002000,-0.012000,1.006000,192.000000,0.000000,0.000000,0.000000,0.000000,0.000000,0.000000,0.000000,0.000000,0.000000,1770802349.626494,101.000000
92.000000,19930.379978,16755.381734,-3047.235673,-17573.097953,-16260.223539,-542.454486,-18955.620403,-10236.249594,11863.478942,-10187.746309,1124.516264,10408.760358,19027.503613,22408.450831,4992.485642,4122.399285,0.002000,-0.012000,1.006000,192.000000,0.000000,0.000000,0.000000,0.000000,0.000000,0.000000,0.000000,0.000000,0.000000,1770802349.626554,0.000000
94.000000,19923.093310,16749.436170,-3055.483467,-17576.853046,-16264.179798,-548.064774,-18960.806007,-10243.357449,11865.289434,-10175.095221,1135.714488,10434.956602,19050.414151,22423.694721,4992.284476,4127.517835,0.002000,-0.012000,1.008000,192.000000,0.000000,8.000000,127.500000,80.000000,15.500000,72.000000,0.000000,0.000000,0.000000,1770802349.626596,0.000000
96.000000,19912.565638,16737.120359,-3060.244389,-17587.715994,-16276.897940,-550.635225,-18972.585377,-10253.147513,11857.443971,-10200.978541,1115.463807,10403.552401,19026.341322,22392.134058,4989.870487,4127.674297,0.002000,-0.012000,1.008000,192.000000,0.000000,0.000000,0.000000,0.000000,0.000000,0.000000,0.000000,0.000000,0.000000,1770802349.626637,0.000000
98.000000,19919.964066,16749.480873,-3055.148191,-17571.913311,-16262.168141,-545.941358,-18952.401752,-10241.546958,11860.439105,-10188.707434,1126.840845,10418.840995,19037.003104,22395.084488,4992.195069,4129.998878,0.002000,-0.012000,1.008000,192.000000,0.000000,0.000000,0.000000,0.000000,0.000000,0.000000,0.000000,0.000000,0.000000,1770802349.626678,0.000000
100.000000,19890.772687,16718.054321,-3074.102470,-17603.496325,-16293.862914,-572.964617,-18980.944929,-10266.782077,11832.901756,-10204.867745,1108.557118,10400.691378,19025.715473,22399.599540,4982.561467,4121.482864,0.002000,-0.012000,1.008000,192.000000,0.000000,0.000000,0.000000,0.000000,0.000000,0.000000,0.000000,0.000000,0.000000,1770802349.626719,0.000000
102.000000,19909.056414,16734.616963,-3062.837191,-17586.441944,-16283.111725,-562.280484,-18962.348278,-10251.381725,11841.484826,-10220.782187,1108.065380,10396.712768,19018.808784,22385.853217,4983.030854,4120.991125,0.002000,-0.012000,1.008000,192.000000,0.000000,0.000000,0.000000,0.000000,0.000000,0.000000,0.000000,0.000000,0.000000,1770802349.626746,0.000000
104.000000,19901.836801,16728.269068,-3068.268665,-17591.135811,-16289.191400,-573.836335,-18966.304537,-10255.360336,11834.622840,-10198.855126,1114.100351,10411.911954,19020.485165,22374.699697,4981.265066,4112.698628,0.003000,-0.012000,1.008000,192.000000,0.000000,16.000000,127.500000,80.000000,15.500000,64.000000,0.000000,0.000000,0.000000,1770802349.626757,0.000000
106.000000,19899.311054,16726.078597,-3068.670996,-17595.650863,-16291.001891,-576.630303,-18974.105295,-10258.243711,11836.679201,-10221.989181,1100.666952,10387.079166,19016.327741,22358.114702,4979.789851,4106.596602,0.003000,-0.012000,1.008000,192.000000,0.000000,0.000000,0.000000,0.000000,0.000000,0.000000,0.000000,0.000000,0.000000,1770802349.626769,0.000000
108.000000,19925.931981,16754.487664,-3051.884836,-17571.175703,-16258.211882,-549.249417,-18950.032467,-10237.031905,11850.581986,-10196.888172,1121.521130,10415.465881,19025.111976,22379.013584,4990.183412,4114.173843,0.003000,-0.012000,1.008000,192.000000,0.000000,0.000000,0.000000,0.000000,0.000000,0.000000,0.000000,0.000000,0.000000,1770802349.626780,0.000000
110.000000,19905.681301,16732.784120,-3067.307540,-17593.683910,-16278.283748,-559.642978,-18975.669918,-10259.987147,11844.569367,-10195.412957,1110.121740,10400.289047,19039.573555,22383.528636,4988.931714,4114.062084,0.003000,-0.012000,1.008000,192.000000,0.000000,0.000000,0.000000,0.000000,0.000000,0.000000,0.000000,0.000000,0.000000,1770802349.626791,0.000000
112.000000,19915.180792,16744.094103,-3054.209418,-17578.417668,-16260.000021,-540.889864,-18959.889586,-10249.459475,11852.146608,-10199.168050,1111.708714,10398.098576,19023.212078,22390.480028,4992.619752,4121.706381,0.003000,-0.012000,1.008000,192.000000,0.000000,0.000000,0.000000,0.000000,0.000000,0.000000,0.000000,0.000000,0.000000,1770802349.626803,0.000000
114.000000,19909.794022,16736.740379,-3061.093755,-17582.351575,-16260.089428,-546.880132,-18964.270528,-10254.153342,11850.917262,-10178.760908,1120.247080,10410.123814,19033.627991,22415.536334,4994.899630,4125.953212,0.004500,-0.011000,1.006000,192.000000,0.000000,24.000000,127.500000,88.000000,15.500000,48.000000,0.000000,0.000000,0.000000,1770802349.626814,0.000000
116.000000,19905.234266,16731.443016,-3064.222999,-17590.934645,-16275.154504,-549.629396,-18972.875949,-10259.406001,11842.043619,-10210.902716,1097.940039,10390.498983,19007.252932,22394.011604,4989.803432,4125.752047,0.004500,-0.011000,1.006000,192.000000,0.000000,0.000000,0.000000,0.000000,0.000000,0.000000,0.000000,0.000000,0.000000,1770802349.626825,0.000000
118.000000,19921.327522,16748.609155,-3054.678804,-17571.376869,-16264.045687,-545.248454,-18952.357048,-10244.586795,11854.627652,-10188.461565,1114.413275,10414.616515,19022.094491,22377.650127,4992.731511,4129.484788,0.004500,-0.011000,1.006000,192.000000,0.000000,0.000000,0.000000,0.000000,0.000000,0.000000,0.000000,0.000000,0.000000,1770802349.626837,0.000000
120.000000,19893.119620,16714.925076,-3073.074290,-17601.708186,-16293.661749,-574.439833,-18981.123743,-10270.268949,11833.505253,-10197.514021,1101.382208,10393.807041,19019.859316,22383.193360,4983.790813,4122.198119,0.004500,-0.011000,1.006000,192.000000,0.000000,0.000000,0.000000,0.000000,0.000000,0.000000,0.000000,0.000000,0.000000,1770802349.626849,0.000000
122.000000,19901.546228,16726.995018,-3061.004348,-17585.056136,-16281.524751,-552.378661,-18962.661202,-10255.941481,11836.589794,-10222.503271,1100.242269,10387.123869,19013.489069,22374.632642,4983.477889,4121.773436,0.004500,-0.011000,1.006000,192.000000,0.000000,0.000000,0.000000,0.000000,0.000000,0.000000,0.000000,0.000000,0.000000,1770802349.626861,0.000000
124.000000,19891.912626,16719.283667,-3071.576723,-17591.515790,-16289.951359,-568.561324,-18969.299670,-10263.608129,11826.039770,-10199.615085,1105.271412,10400.669026,19018.831136,22398.839581,4982.114432,4119.717076,0.006250,-0.009500,1.006000,192.000000,0.000000,32.000000,127.500000,96.000000,15.500000,56.000000,0.000000,0.000000,0.000000,1770802349.626884,0.000000
126.000000,19894.058394,16722.569373,-3067.709871,-17595.784974,-16301.104880,-572.070548,-18972.294804,-10258.467228,11826.486805,-10219.508138,1090.809833,10382.273541,18991.897284,22382.209883,4977.957008,4108.876480,0.006250,-0.009500,1.006000,192.000000,0.000000,0.000000,0.000000,0.000000,0.000000,0.000000,0.000000,0.000000,0.000000,1770802349.626895,0.000000
128.000000,19916.231324,16742.708295,-3054.902322,-17576.763639,-16276.383850,-563.576885,-18950.971240,-10239.244728,11842.982393,-10200.486803,1118.302479,10404.647637,19004.905999,22382.835732,4985.802470,4108.921183,0.006250,-0.009500,1.006000,192.000000,0.000000,0.000000,0.000000,0.000000,0.000000,0.000000,0.000000,0.000000,0.000000,1770802349.626906,0.000000
130.000000,19895.377147,16719.909515,-3068.268665,-17596.723747,-16297.416842,-576.272676,-18972.384211,-10257.394344,11828.051427,-10207.594658,1108.825339,10388.286160,19006.649435,22395.956206,4977.286455,4104.227317,0.006250,-0.009500,1.006000,192.000000,0.000000,0.000000,0.000000,0.000000,0.000000,0.000000,0.000000,0.000000,0.000000,1770802349.626918,0.000000
132.000000,19908.654083,16738.372056,-3055.327005,-17576.227197,-16274.394545,-559.598274,-18955.441589,-10240.965812,11834.980468,-10206.141794,1112.356915,10392.644750,19011.075081,22376.443133,4985.713063,4117.057218,0.006250,-0.009500,1.006000,192.000000,0.000000,0.000000,0.000000,0.000000,0.000000,0.000000,0.000000,0.000000,0.000000,1770802349.626929,0.000000
134.000000,19904.586065,16733.633486,-3059.931464,-17579.714069,-16276.741478,-560.604103,-18960.604842,-10246.084362,11834.622840,-10184.371195,1120.001211,10408.603896,19019.948723,22378.208921,4984.751938,4116.230204,0.005125,-0.009750,1.003000,192.000000,0.000000,16.000000,127.500000,88.000000,15.500000,32.000000,0.000000,0.000000,0.000000,1770802349.626940,0.000000
136.000000,19897.791135,16724.782196,-3062.457211,-17590.889942,-16280.563626,-565.946170,-18971.490141,-10254.980356,11829.504291,-10212.646152,1104.064417,10378.160820,19006.470621,22386.523770,4983.701406,4121.192291,0.005125,-0.009750,1.003000,192.000000,0.000000,0.000000,0.000000,0.000000,0.000000,0.000000,0.000000,0.000000,0.000000,1770802349.626952,0.000000
138.000000,19912.744452,16739.914327,-3058.031566,-17575.042555,-16267.532559,-549.808210,-18956.983859,-10246.665507,11840.970736,-10190.674387,1116.357877,10390.007244,19019.836965,22395.509171,4985.690711,4128.791884,0.005125,-0.009750,1.003000,192.000000,0.000000,0.000000,0.000000,0.000000,0.000000,0.000000,0.000000,0.000000,0.000000,1770802349.626964,0.000000
140.000000,19888.850437,16715.729739,-3073.655435,-17599.808288,-16294.064080,-567.510792,-18982.397793,-10268.704327,11830.331305,-10206.588829,1104.131473,10374.204561,19013.600828,22385.473238,4977.711138,4120.030000,0.005125,-0.009750,1.003000,192.000000,0.000000,0.000000,0.000000,0.000000,0.000000,0.000000,0.000000,0.000000,0.000000,1770802349.626975,0.000000
142.000000,19898.193466,16727.397350,-3064.245351,-17588.431250,-16275.847408,-554.837353,-18969.366726,-10260.702403,11829.526643,-10214.546050,1100.331676,10363.363965,19014.114918,22393.653976,4985.176621,4124.567404,0.005125,-0.009750,1.003000,192.000000,0.000000,0.000000,0.000000,0.000000,0.000000,0.000000,0.000000,0.000000,0.000000,1770802349.626986,0.000000
144.000000,19894.013690,16721.943524,-3069.475659,-17593.438040,-16278.149638,-551.752812,-18973.993537,-10266.782077,11831.180672,-10200.553858,1105.204356,10368.236645,19031.035189,22397.677290,4985.154269,4122.242823,0.003563,-0.009875,1.003500,192.000000,0.000000,8.000000,127.500000,88.000000,15.500000,48.000000,0.000000,0.000000,0.000000,1770802349.626997,0.000000
146.000000,19888.090478,16717.137899,-3066.592284,-17598.668349,-16288.699661,-558.771260,-18979.648528,-10269.263121,11822.374084,-10215.954210,1091.122757,10347.874206,18996.591150,22382.567511,4984.394310,4120.678201,0.003563,-0.009875,1.003500,192.000000,0.000000,0.000000,0.000000,0.000000,0.000000,0.000000,0.000000,0.000000,0.000000,1770802349.627007,0.000000
148.000000,19913.236190,16743.736475,-3054.276473,-17578.954110,-16267.018469,-542.543893,-18958.816702,-10250.800580,11835.829834,-10205.672408,1112.133397,10376.395032,19008.862258,22394.078659,4987.724720,4124.522701,0.003563,-0.009875,1.003500,192.000000,0.000000,0.000000,0.000000,0.000000,0.000000,0.000000,0.000000,0.000000,0.000000,1770802349.627019,0.000000
150.000000,19894.393670,16720.110681,-3069.229790,-17601.395261,-16287.872647,-564.739175,-18982.017813,-10267.810257,11832.030038,-10204.487765,1105.182005,10361.352308,19012.550296,22409.590770,4980.929790,4115.425541,0.003563,-0.009875,1.003500,192.000000,0.000000,0.000000,0.000000,0.000000,0.000000,0.000000,0.000000,0.000000,0.000000,1770802349.627030,0.000000
152.000000,19906.351853,16736.762731,-3059.171505,-17584.854971,-16271.846446,-559.933550,-18966.058667,-10254.376859,11838.310878,-10213.651981,1106.947792,10357.776029,19019.814613,22389.697717,4984.260200,4119.404151,0.003563,-0.009875,1.003500,192.000000,0.000000,0.000000,0.000000,0.000000,0.000000,0.000000,0.000000,0.000000,0.000000,1770802349.627040,0.000000
154.000000,19903.647292,16733.208803,-3060.624368,-17586.553703,-16271.913501,-559.508867,-18968.115028,-10256.880254,11832.857052,-10186.718129,1118.056609,10372.416421,19032.823328,22389.854180,4988.439976,4119.650021,0.002781,-0.007938,1.003750,192.000000,0.000000,8.000000,127.500000,104.000000,15.500000,48.000000,0.000000,0.000000,0.000000,1770802349.627051,0.000000
156.000000,19896.494734,16723.239925,-3062.211342,-17591.113459,-16282.664690,-561.229952,-18976.184008,-10262.959929,11830.823044,-10213.517870,1104.556156,10340.386372,18998.848677,22384.176837,4987.501203,4121.639326,0.002781,-0.007938,1.003750,192.000000,0.000000,0.000000,0.000000,0.000000,0.000000,0.000000,0.000000,0.000000,0.000000,1770802349.627062,0.000000
158.000000,19918.801775,16744.451731,-3053.449458,-17572.226235,-16256.781370,-547.863608,-18956.447417,-10244.564443,11843.787055,-10194.518887,1122.817531,10363.676889,19012.282075,22403.220523,4990.809261,4127.070800,0.002781,-0.007938,1.003750,192.000000,0.000000,0.000000,0.000000,0.000000,0.000000,0.000000,0.000000,0.000000,0.000000,1770802349.627073,0.000000
160.000000,19904.697824,16723.642257,-3068.179258,-17598.735404,-16282.776449,-558.480687,-18981.459019,-10261.842342,11831.359486,-10200.822079,1115.284993,10352.545721,19021.133366,22416.564514,4985.578953,4124.857977,0.002781,-0.007938,1.003750,192.000000,0.000000,0.000000,0.000000,0.000000,0.000000,0.000000,0.000000,0.000000,0.000000,1770802349.627084,0.000000
162.000000,19918.041816,16737.165062,-3060.490258,-17581.926892,-16267.510208,-547.595387,-18964.650508,-10248.744219,11853.130085,-10207.013512,1121.990516,10349.371773,19018.607619,22386.993156,4986.473022,4126.512006,0.002781,-0.007938,1.003750,192.000000,0.000000,0.000000,0.000000,0.000000,0.000000,0.000000,0.000000,0.000000,0.000000,1770802349.627095,0.000000
164.000000,19912.520935,16726.659742,-3067.151078,-17588.006567,-16283.983443,-558.234818,-18968.025621,-10255.963833,11833.035866,-10197.491669,1123.353973,10359.206540,19031.057540,22408.160258,4979.208705,4122.555747,0.002781,-0.007938,1.003750,192.000000,0.000000,0.000000,0.000000,0.000000,0.000000,0.000000,0.000000,0.000000,0.000000,1770802349.627105,0.000000
166.000000,19908.587028,16719.685998,-3067.173429,-17594.555628,-16295.852220,-563.666292,-18975.915787,-10258.556635,11833.684067,-10217.585888,1107.260717,10332.652668,18998.133421,22366.250737,4975.587723,4120.924070,0.002000,-0.010000,1.002000,192.000000,0.000000,8.000000,127.500000,88.000000,15.500000,40.000000,0.000000,0.000000,0.000000,1770802349.627116,0.000000
168.000000,19923.182717,16738.237946,-3056.042261,-17575.176665,-16273.411068,-548.221236,-18955.843920,-10245.100885,11846.379858,-10196.664655,1123.242214,10355.093820,19011.298598,22390.524732,4978.828726,4120.521739,0.002000,-0.010000,1.002000,192.000000,0.000000,0.000000,0.000000,0.000000,0.000000,0.000000,0.000000,0.000000,0.000000,1770802349.627127,0.000000
170.000000,19901.121545,16712.064053,-3066.324063,-17601.149392,-16281.010661,-573.791632,-18978.128609,-10263.518722,11829.660753,-10209.449853,1114.525034,10339.358191,19004.168392,22406.394471,4981.399176,4116.409018,0.002000,-0.010000,1.002000,192.000000,0.000000,0.000000,0.000000,0.000000,0.000000,0.000000,0.000000,0.000000,0.000000,1770802349.627137,0.000000
172.000000,19920.321693,16730.794815,-3050.566083,-17580.786953,-16264.850350,-560.134716,-18958.593185,-10244.273871,11846.223396,-10217.272963,1119.956508,10337.167720,19016.998293,22376.286671,4990.675150,4116.319611,0.002000,-0.010000,1.002000,192.000000,0.000000,0.000000,0.000000,0.000000,0.000000,0.000000,0.000000,0.000000,0.000000,1770802349.627148,0.000000
174.000000,19924.099138,16730.258373,-3057.338662,-17583.782087,-16262.369306,-561.185248,-18963.689383,-10248.453647,11848.503274,-10195.949399,1128.316060,10357.530160,19036.466662,22420.721939,4992.195069,4115.425541,0.002000,-0.010000,1.002000,192.000000,0.000000,0.000000,0.000000,0.000000,0.000000,0.000000,0.000000,0.000000,0.000000,1770802349.627159,0.000000
176.000000,19917.326560,16722.770539,-3058.344490,-17593.303930,-16282.329414,-563.532181,-18973.591205,-10258.869560,11845.999878,-10216.200079,1109.786464,10327.802340,19025.648418,22397.073793,4987.054168,4112.810387,0.002000,-0.010000,1.002000,192.000000,0.000000,8.000000,127.500000,88.000000,15.500000,40.000000,0.000000,0.000000,0.000000,1770802349.627170,0.000000
178.000000,19931.654028,16739.959030,-3049.269682,-17573.969671,-16263.397487,-549.495286,-18952.200586,-10246.956080,11847.475093,-10197.961056,1119.800045,10342.554491,19019.769909,22401.767659,4991.882144,4126.914338,0.002000,-0.010000,1.002000,192.000000,0.000000,0.000000,0.000000,0.000000,0.000000,0.000000,0.000000,0.000000,0.000000,1770802349.627181,0.000000
180.000000,19904.407251,16711.281742,-3066.145249,-17600.545895,-16288.565551,-577.747891,-18980.363784,-10270.894798,11831.180672,-10211.461510,1104.354990,10330.283383,19013.891401,22378.678307,4986.405967,4118.688896,0.002000,-0.010000,1.002000,192.000000,0.000000,0.000000,0.000000,0.000000,0.000000,0.000000,0.000000,0.000000,0.000000,1770802349.627192,0.000000
182.000000,19912.990321,16726.927963,-3054.790563,-17587.559532,-16265.766772,-564.403899,-18965.656336,-10258.176656,11835.874538,-10217.585888,1104.220880,10326.125959,19011.052729,22399.644244,4991.591572,4121.326401,0.002000,-0.010000,1.002000,192.000000,0.000000,0.000000,0.000000,0.000000,0.000000,0.000000,0.000000,0.000000,0.000000,1770802349.627202,0.000000
184.000000,19907.402385,16720.334199,-3062.211342,-17588.408898,-16271.868798,-562.213428,-18966.997441,-10259.204836,11827.850262,-10200.442100,1108.355952,10341.593366,19034.991447,22408.406128,4990.652798,4121.773436,0.002000,-0.010000,1.002000,192.000000,0.000000,0.000000,0.000000,0.000000,0.000000,0.000000,0.000000,0.000000,0.000000,1770802349.627214,0.000000
186.000000,19900.115716,16712.622847,-3061.674900,-17597.237837,-16280.228350,-564.560361,-18975.155827,-10262.579949,11823.692837,-10222.972658,1095.168423,10319.956877,19025.536659,22387.216674,4991.032778,4120.678201,0.004000,-0.016000,1.004000,192.000000,0.000000,16.000000,127.500000,64.000000,15.500000,48.000000,0.000000,0.000000,0.000000,1770802349.627224,0.000000
188.000000,19916.365435,16730.168966,-3054.790563,-17581.681023,-16261.765809,-548.757678,-18957.140321,-10247.693687,11834.153454,-10211.930896,1110.948755,10336.027781,19018.115880,22413.301160,4990.451633,4123.405114,0.004000,-0.016000,1.004000,192.000000,0.000000,0.000000,0.000000,0.000000,0.000000,0.000000,0.000000,0.000000,0.000000,1770802349.627235,0.000000
190.000000,19900.026309,16713.315751,-3065.072365,-17597.126078,-16288.967882,-569.276580,-18975.111124,-10259.964795,11824.721017,-10211.707379,1102.991534,10329.054037,19010.046901,22398.660767,4982.717929,4119.292393,0.004000,-0.016000,1.004000,192.000000,0.000000,0.000000,0.000000,0.000000,0.000000,0.000000,0.000000,0.000000,0.000000,1770802349.627246,0.000000
192.000000,19923.160365,16735.265164,-3053.807086,-17582.798610,-16280.138943,-559.486515,-18957.900281,-10239.982336,11846.402210,-10212.422635,1111.418141,10340.296965,19020.887497,22408.339072,4986.093043,4115.984334,0.004000,-0.016000,1.004000,192.000000,0.000000,0.000000,0.000000,0.000000,0.000000,0.000000,0.000000,0.000000,0.000000,1770802349.627258,0.000000
194.000000,19922.087481,16729.766635,-3054.544694,-17583.469162,-16276.920292,-564.538010,-18958.034391,-10240.272908,11848.995012,-10194.652998,1123.197511,10357.932491,19029.694084,22402.840543,4982.270894,4114.330305,0.004000,-0.016000,1.004000,192.000000,0.000000,0.000000,0.000000,0.000000,0.000000,0.000000,0.000000,0.000000,0.000000,1770802349.627269,0.000000
196.000000,19911.559810,16721.451786,-3055.461115,-17591.471087,-16275.109801,-574.193963,-18964.762266,-10247.090190,11839.272003,-10216.490652,1108.981801,10332.451502,19028.643552,22370.497569,4985.802470,4113.637401,0.006000,-0.016000,1.000000,192.000000,0.000000,24.000000,127.500000,64.000000,15.500000,32.000000,0.000000,0.000000,0.000000,1770802349.627281,0.000000
198.000000,19921.394577,16733.119396,-3051.616615,-17576.629529,-16268.605443,-563.800402,-18950.010115,-10240.183501,11853.510064,-10208.958114,1121.588185,10347.941261,19032.376293,22408.473183,4986.987112,4119.314744,0.006000,-0.016000,1.000000,192.000000,0.000000,0.000000,0.000000,0.000000,0.000000,0.000000,0.000000,0.000000,0.000000,1770802349.627292,0.000000
200.000000,19898.104059,16709.918286,-3063.172467,-17598.645997,-16291.560685,-571.444699,-18974.887606,-10260.992975,11830.644230,-10219.821062,1102.835071,10330.953935,19008.057595,22417.346825,4983.254371,4117.772474,0.006000,-0.016000,1.000000,192.000000,0.000000,0.000000,0.000000,0.000000,0.000000,0.000000,0.000000,0.000000,0.000000,1770802349.627303,0.000000
202.000000,19919.673493,16733.007638,-3050.253159,-17580.921064,-16271.801743,-557.564265,-18958.146150,-10244.609147,11839.294355,-10224.067894,1107.752455,10334.798436,19007.789374,22389.585959,4986.271857,4121.840492,0.006000,-0.016000,1.000000,192.000000,0.000000,0.000000,0.000000,0.000000,0.000000,0.000000,0.000000,0.000000,0.000000,1770802349.627314,0.000000
204.000000,19920.053473,16731.063036,-3056.399889,-17580.719898,-16275.646243,-562.861629,-18961.454208,-10248.677164,11846.245747,-10196.329379,1118.525996,10358.357174,19041.294639,22420.811346,4983.567295,4121.549919,0.006000,-0.016000,1.000000,192.000000,0.000000,0.000000,0.000000,0.000000,0.000000,0.000000,0.000000,0.000000,0.000000,1770802349.627325,0.000000
206.000000,19915.940752,16722.859946,-3056.891627,-17587.850104,-16288.319682,-573.478707,-18969.277319,-10253.058106,11848.167997,-10213.853146,1107.819510,10335.021953,19020.015779,22383.752153,4982.650874,4121.818140,0.014000,-0.008000,1.006000,192.000000,0.000000,56.000000,127.500000,96.000000,15.500000,56.000000,0.000000,0.000000,0.000000,1770802349.627337,0.000000
208.000000,19933.665685,16743.132978,-3048.599130,-17569.298156,-16268.337222,-560.067661,-18950.211281,-10240.138798,11860.103829,-10207.751120,1126.818493,10364.481552,19032.420997,22413.167049,4980.929790,4123.159244,0.014000,-0.008000,1.006000,192.000000,0.000000,0.000000,0.000000,0.000000,0.000000,0.000000,0.000000,0.000000,0.000000,1770802349.627348,0.000000
210.000000,19909.436394,16717.182603,-3061.943121,-17595.852029,-16289.549028,-581.033597,-18977.167484,-10262.289377,11843.340021,-10212.489690,1114.100351,10349.639994,19026.475433,22374.520883,4976.079461,4118.353619,0.014000,-0.008000,1.006000,192.000000,0.000000,0.000000,0.000000,0.000000,0.000000,0.000000,0.000000,0.000000,0.000000,1770802350.106784,0.000000
212.000000,19919.204106,16732.314734,-3053.002423,-17584.810267,-16268.069001,-564.001568,-18964.717563,-10253.505141,11853.666527,-10221.788016,1115.061476,10348.611814,19033.672694,22381.539331,4986.741243,4120.901718,0.014000,-0.008000,1.006000,192.000000,0.000000,0.000000,0.000000,0.000000,0.000000,0.000000,0.000000,0.000000,0.000000,1770802350.106842,0.000000
214.000000,19916.276028,16727.911440,-3058.635063,-17587.917160,-16270.974728,-562.883981,-18968.942042,-10262.199970,11849.933785,-10202.811385,1117.497816,10356.971366,19050.078875,22403.332282,4987.434147,4119.091227,0.014000,-0.008000,1.006000,192.000000,0.000000,0.000000,0.000000,0.000000,0.000000,0.000000,0.000000,0.000000,0.000000,1770802350.106884,0.000000
216.000000,19912.722100,16721.205917,-3060.244389,-17598.981273,-16273.701641,-572.562286,-18979.492066,-10268.860789,11844.815236,-10229.633478,1098.208260,10334.440808,19031.795148,22400.739479,4988.998769,4112.363352,0.012000,-0.014000,1.008000,192.000000,0.000000,48.000000,127.500000,72.000000,15.500000,64.000000,0.000000,0.000000,0.000000,1770802350.106926,0.000000
218.000000,19931.452862,16740.964859,-3050.297862,-17580.339918,-16246.231347,-555.083222,-18959.219034,-10256.075592,11858.405096,-10212.824966,1115.776731,10358.200712,19057.209081,22392.022299,4998.006522,4116.610183,0.012000,-0.014000,1.008000,192.000000,0.000000,0.000000,0.000000,0.000000,0.000000,0.000000,0.000000,0.000000,0.000000,1770802350.106977,0.000000
220.000000,19908.117641,16714.746262,-3066.011139,-17602.848125,-16265.342088,-567.913123,-18984.811781,-10276.929769,11840.814273,-10206.745292,1104.690266,10341.414552,19052.336401,22403.153468,4994.229078,4114.844395,0.012000,-0.014000,1.008000,192.000000,0.000000,0.000000,0.000000,0.000000,0.000000,0.000000,0.000000,0.000000,0.000000,1770802350.107018,0.000000
222.000000,19923.875621,16732.068864,-3050.901359,-17583.312700,-16251.484007,-554.837353,-18964.762266,-10257.237882,11855.029983,-10219.508138,1114.390923,10348.611814,19042.903965,22386.948453,4999.481738,4119.225337,0.012000,-0.014000,1.008000,192.000000,0.000000,0.000000,0.000000,0.000000,0.000000,0.000000,0.000000,0.000000,0.000000,1770802350.107039,0.000000
224.000000,19923.607400,16733.521728,-3057.763345,-17586.151372,-16260.134132,-562.056966,-18964.561101,-10253.214568,11847.855073,-10194.988274,1127.332583,10369.443639,19065.456875,22413.703491,4993.647932,4119.940593,0.012000,-0.014000,1.008000,192.000000,0.000000,0.000000,0.000000,0.000000,0.000000,0.000000,0.000000,0.000000,0.000000,1770802350.107050,0.000000
226.000000,19910.174001,16723.910478,-3068.156906,-17596.164953,-16281.144772,-572.741100,-18976.988670,-10260.970624,11838.020305,-10216.647114,1106.500758,10345.102590,19026.542488,22382.098124,4984.595476,4115.760817,0.004000,-0.018000,1.000000,192.000000,0.000000,16.000000,127.500000,56.000000,15.500000,32.000000,0.000000,0.000000,0.000000,1770802350.107060,0.000000
228.000000,19920.500507,16738.841443,-3064.021833,-17579.848180,-16274.103972,-550.389355,-18960.068400,-10249.928862,11843.787055,-10198.296332,1114.279165,10365.643843,19026.229564,22395.352709,4983.187316,4120.879367,0.004000,-0.018000,1.000000,192.000000,0.000000,0.000000,0.000000,0.000000,0.000000,0.000000,0.000000,0.000000,0.000000,1770802350.107070,0.000000
230.000000,19898.729908,16712.824012,-3077.544639,-17599.338901,-16298.981464,-570.081242,-18981.414316,-10266.200932,11820.451834,-10219.195213,1101.605725,10360.704107,19030.141119,22406.886209,4976.459441,4118.711247,0.004000,-0.018000,1.000000,192.000000,0.000000,0.000000,0.000000,0.000000,0.000000,0.000000,0.000000,0.000000,0.000000,1770802350.107081,0.000000
232.000000,19915.963103,16726.078597,-3066.547581,-17585.950206,-16287.649129,-565.767356,-18968.092676,-10253.907472,11832.141797,-10225.811330,1108.802987,10359.698279,19021.021607,22369.424685,4979.208705,4119.694724,0.004000,-0.018000,1.000000,192.000000,0.000000,0.000000,0.000000,0.000000,0.000000,0.000000,0.000000,0.000000,0.000000,1770802350.107091,0.000000
234.000000,19911.872734,16721.608248,-3069.006272,-17591.716956,-16282.038841,-564.538010,-18970.394906,-10257.886083,11838.266175,-10208.332265,1121.275261,10373.019919,19039.975886,22399.756002,4979.029891,4115.738465,0.004000,-0.018000,1.000000,192.000000,0.000000,0.000000,0.000000,0.000000,0.000000,0.000000,0.000000,0.000000,0.000000,1770802350.107101,0.000000
236.000000,19908.922304,16714.545097,-3065.765269,-17598.489535,-16279.893074,-565.856763,-18977.815685,-10262.177618,11832.499425,-10221.564498,1109.272374,10345.661383,19028.442386,22374.386772,4982.337950,4117.660715,0.001000,-0.016000,1.001000,192.000000,127.500000,120.000000,127.500000,72.000000,15.500000,40.000000,0.000000,0.000000,0.000000,1770802350.107112,0.000000
238.000000,19916.432490,16725.162175,-3058.813877,-17582.217465,-16261.452885,-554.747946,-18960.940118,-10252.566368,11844.122332,-10225.252536,1128.830150,10365.286215,19048.246032,22383.193360,4989.982246,4120.030000,0.001000,-0.016000,1.001000,192.000000,0.000000,0.000000,0.000000,0.000000,0.000000,0.000000,0.000000,0.000000,0.000000,1770802350.107122,0.000000
240.000000,19904.317844,16713.271047,-3067.620464,-17600.009453,-16277.881417,-569.254228,-18980.252025,-10265.619786,11826.173881,-10221.296277,1113.228633,10353.976232,19057.030267,22374.744400,4987.121223,4111.335172,0.001000,-0.016000,1.001000,192.000000,0.000000,0.000000,0.000000,0.000000,0.000000,0.000000,0.000000,0.000000,0.000000,1770802350.107133,0.000000
242.000000,19926.557830,16739.109664,-3054.902322,-17584.117363,-16257.183702,-558.145411,-18964.494045,-10248.140722,11845.217567,-10218.234088,1118.391886,10358.871264,19048.648363,22405.098069,4996.263086,4115.626707,0.001000,-0.016000,1.001000,192.000000,0.000000,0.000000,0.000000,0.000000,0.000000,0.000000,0.000000,0.000000,0.000000,1770802350.107143,0.000000
244.000000,19925.999037,16742.373019,-3057.137496,-17583.960901,-16271.980556,-562.593408,-18965.298708,-10247.067839,11854.247672,-10189.668559,1130.372421,10380.217180,19073.034116,22415.469279,4996.151328,4111.961020,0.001000,-0.016000,1.001000,192.000000,0.000000,0.000000,0.000000,0.000000,0.000000,0.000000,0.000000,0.000000,0.000000,1770802350.107154,0.000000
246.000000,19914.331426,16732.001809,-3061.809011,-17587.470125,-16284.922217,-568.404861,-18972.831246,-10250.666469,11849.911433,-10212.400283,1114.368572,10360.122962,19049.967116,22368.374153,4988.194107,4112.855090,0.001500,-0.012000,1.001500,192.000000,0.000000,8.000000,127.500000,96.000000,15.500000,40.000000,0.000000,0.000000,0.000000,1770802350.107165,0.000000
248.000000,19929.441205,16750.732571,-3056.109316,-17569.991060,-16265.073867,-554.189152,-18952.915842,-10235.109655,11856.616957,-10193.490707,1130.439476,10388.509677,19054.884500,22428.545049,4988.127051,4120.275869,0.001500,-0.012000,1.001500,192.000000,0.000000,0.000000,0.000000,0.000000,0.000000,0.000000,0.000000,0.000000,0.000000,1770802350.107175,0.000000
250.000000,19907.312978,16729.677228,-3072.046110,-17591.962825,-16293.460583,-564.739175,-18976.653394,-10253.214568,11839.830797,-10197.044634,1119.196548,10373.981044,19045.094436,22382.925139,4979.834554,4121.661678,0.001500,-0.012000,1.001500,192.000000,0.000000,0.000000,0.000000,0.000000,0.000000,0.000000,0.000000,0.000000,0.000000,1770802350.107187,0.000000
252.000000,19921.439281,16746.306926,-3062.591322,-17578.462372,-16275.825057,-545.740193,-18961.677726,-10236.227242,11848.302108,-10213.294353,1124.918595,10373.042270,19025.111976,22412.496497,4981.242714,4128.300146,0.001500,-0.012000,1.001500,192.000000,0.000000,0.000000,0.000000,0.000000,0.000000,0.000000,0.000000,0.000000,0.000000,1770802350.107198,0.000000
254.000000,19917.013635,16741.702466,-3068.626293,-17583.580921,-16280.764792,-558.592446,-18966.036316,-10241.345792,11843.585890,-10191.859030,1134.149865,10392.510640,19039.126520,22411.557723,4977.934656,4122.019305,0.001500,-0.012000,1.001500,192.000000,0.000000,0.000000,0.000000,0.000000,0.000000,0.000000,0.000000,0.000000,0.000000,1770802350.107209,0.000000
0.000000,19912.878563,16732.873527,-3067.173429,-17592.253398,-16279.714260,-559.732385,-18972.607729,-10246.486693,11835.181634,-10217.228260,1114.122702,10361.307604,19034.365598,22396.559703,4980.460403,4117.504253,0.002750,-0.011000,1.001750,192.000000,0.000000,16.000000,127.500000,88.000000,15.500000,40.000000,0.000000,0.000000,0.000000,1770802350.107227,0.000000
2.000000,19926.468423,16747.670382,-3059.685595,-17577.635357,-16264.090391,-551.194018,-18957.810874,-10236.763684,11853.286547,-10204.018379,1133.546368,10392.242419,19063.802846,22402.840543,4990.764557,4116.788997,0.002750,-0.011000,1.001750,192.000000,0.000000,0.000000,0.000000,0.000000,0.000000,0.000000,0.000000,0.000000,0.000000,1770802350.107238,0.000000
4.000000,19904.854286,16721.116510,-3072.113165,-17599.517715,-16286.240969,-572.562286,-18980.922577,-10257.059068,11831.739465,-10212.534393,1113.921537,10372.237608,19049.587136,22409.300197,4986.361264,4111.648096,0.002750,-0.011000,1.001750,192.000000,0.000000,0.000000,0.000000,0.000000,0.000000,0.000000,0.000000,0.000000,0.000000,1770802350.107248,0.000000
6.000000,19925.082615,16741.054266,-3056.064612,-17580.541084,-16270.393583,-553.160972,-18964.762266,-10242.262213,11852.437181,-10220.022228,1118.816569,10368.460163,19058.125503,22404.829848,4990.317522,4114.151491,0.002750,-0.011000,1.001750,192.000000,0.000000,0.000000,0.000000,0.000000,0.000000,0.000000,0.000000,0.000000,0.000000,1770802350.107258,0.000000
8.000000,19923.428586,16742.417722,-3053.248293,-17573.790857,-16265.051516,-554.613835,-18962.348278,-10240.295260,11864.238902,-10189.847373,1132.764057,10390.342521,19075.068125,22415.759851,4989.557563,4113.145663,0.002750,-0.011000,1.001750,192.000000,0.000000,0.000000,0.000000,0.000000,0.000000,0.000000,0.000000,0.000000,0.000000,1770802350.107269,0.000000
10.000000,19914.353778,16738.059132,-3055.014080,-17582.664500,-16272.181722,-569.053062,-18971.914824,-10244.095057,11863.434239,-10202.923143,1120.537653,10373.556360,19077.437410,22422.063043,4987.612961,4113.033904,0.002375,-0.012500,1.000875,192.000000,0.000000,8.000000,127.500000,72.000000,15.500000,32.000000,0.000000,0.000000,0.000000,1770802350.107279,0.000000
12.000000,19941.242926,16765.283557,-3044.665223,-17564.269014,-16260.000021,-560.268827,-18952.558214,-10225.923088,11882.612036,-10189.199172,1139.335470,10405.027617,19096.726966,22426.287523,4986.808298,4115.872576,0.002375,-0.012500,1.000875,192.000000,0.000000,0.000000,0.000000,0.000000,0.000000,0.000000,0.000000,0.000000,0.000000,1770802350.107290,0.000000
14.000000,19934.336237,16750.509054,-3057.070441,-17585.547875,-16283.245836,-572.361120,-18974.440572,-10240.384667,11885.160134,-10174.022338,1137.346165,10401.071358,19093.977701,22410.373081,4983.030854,4112.609221,0.002375,-0.012500,1.000875,192.000000,0.000000,0.000000,0.000000,0.000000,0.000000,0.000000,0.000000,0.000000,0.000000,1770802350.107300,0.000000
16.000000,19948.619002,16761.014373,-3049.202627,-17575.020203,-16270.013603,-550.456411,-18959.643717,-10230.214623,11892.916190,-10179.900846,1141.637700,10402.412463,19085.998128,22408.450831,4982.941447,4116.856053,0.002375,-0.012500,1.000875,192.000000,0.000000,0.000000,0.000000,0.000000,0.000000,0.000000,0.000000,0.000000,0.000000,1770802350.107310,0.000000
18.000000,19933.285705,16742.462426,-3059.842057,-17589.839410,-16281.658862,-560.537047,-18968.159731,-10243.916243,11881.449745,-10169.060250,1146.152752,10408.738006,19081.952462,22422.778299,4979.611037,4114.643230,0.002375,-0.012500,1.000875,192.000000,0.000000,0.000000,0.000000,0.000000,0.000000,0.000000,0.000000,0.000000,0.000000,1770802350.107320,0.000000
20.000000,19920.746377,16726.011542,-3062.591322,-17605.217410,-16291.806554,-574.596295,-18981.414316,-10257.439048,11865.401192,-10215.171899,1122.348144,10370.181247,19047.284907,22411.222447,4976.817069,4107.960058,0.004188,-0.011250,1.000437,192.000000,0.000000,24.000000,127.500000,88.000000,15.500000,32.000000,0.000000,0.000000,0.000000,1770802350.107331,0.000000
22.000000,19926.177851,16739.780216,-3058.478601,-17584.095011,-16273.992213,-565.387376,-18961.409505,-10245.749086,11863.814218,-10213.674332,1130.171255,10382.899390,19061.098285,22368.776485,4982.203839,4108.094169,0.004188,-0.011250,1.000437,192.000000,0.000000,0.000000,0.000000,0.000000,0.000000,0.000000,0.000000,0.000000,0.000000,1770802350.107341,0.000000
24.000000,19902.641464,16718.389597,-3076.471755,-17606.044424,-16296.098089,-583.469937,-18983.850656,-10260.657699,11826.017419,-10225.654867,1110.166444,10368.884846,19046.301430,22399.018395,4976.459441,4104.204965,0.004188,-0.011250,1.000437,192.000000,0.000000,0.000000,0.000000,0.000000,0.000000,0.000000,0.000000,0.000000,0.000000,1770802350.107352,0.000000
26.000000,19921.863964,16738.461463,-3064.491220,-17585.883151,-16285.570417,-571.891734,-18966.550406,-10242.061048,11840.724866,-10231.779245,1119.375362,10376.663253,19023.592058,22375.012621,4980.683920,4109.904660,0.004188,-0.011250,1.000437,192.000000,0.000000,0.000000,0.000000,0.000000,0.000000,0.000000,0.000000,0.000000,0.000000,1770802350.107364,0.000000
28.000000,19923.316827,16739.981382,-3065.429993,-17585.681985,-16282.888208,-569.433042,-18967.064496,-10242.999821,11837.685029,-10207.214678,1128.517226,10393.158840,19044.848567,22402.438212,4979.275761,4105.993105,0.004188,-0.011250,1.000437,192.000000,0.000000,0.000000,0.000000,0.000000,0.000000,0.000000,0.000000,0.000000,0.000000,1770802350.107374,0.000000
30.000000,19917.103042,16736.181585,-3060.691423,-17591.627549,-16282.485876,-569.209524,-18974.954662,-10247.984260,11850.336117,-10212.847318,1118.749513,10378.943131,19064.853378,22378.007755,4982.673226,4110.485805,0.004094,-0.009625,1.000219,192.000000,0.000000,16.000000,127.500000,96.000000,15.500000,32.000000,0.000000,0.000000,0.000000,1770802350.107385,0.000000
32.000000,19937.666647,16760.165007,-3044.642871,-17563.196130,-16257.094295,-554.345614,-18952.580566,-10231.689838,11870.184466,-10183.745347,1137.524979,10405.117024,19073.011765,22412.541200,4988.082348,4115.827872,0.004094,-0.009625,1.000219,192.000000,0.000000,0.000000,0.000000,0.000000,0.000000,0.000000,0.000000,0.000000,0.000000,1770802350.107395,0.000000
34.000000,19922.154537,16745.546966,-3059.618540,-17586.196075,-16278.440211,-569.500097,-18976.385173,-10249.995917,11871.547922,-10173.418841,1128.025487,10399.193811,19085.327576,22424.231163,4983.187316,4115.604355,0.004094,-0.009625,1.000219,192.000000,0.000000,0.000000,0.000000,0.000000,0.000000,0.000000,0.000000,0.000000,0.000000,1770802350.107405,0.000000
36.000000,19938.940697,16761.394353,-3051.504857,-17574.126133,-16266.459676,-543.482666,-18962.147112,-10236.048429,11886.992977,-10176.659844,1132.361726,10397.718596,19069.480189,22420.319607,4983.366130,4121.236994,0.004094,-0.009625,1.000219,192.000000,0.000000,0.000000,0.000000,0.000000,0.000000,0.000000,0.000000,0.000000,0.000000,1770802350.107415,0.000000
38.000000,19937.823109,16757.840426,-3058.769173,-17575.936625,-16277.747307,-543.907350,-18966.393944,-10237.545995,11880.667434,-10152.989346,1140.073078,10410.168518,19084.925244,22427.829793,4981.063900,4128.434256,0.004094,-0.009625,1.000219,192.000000,0.000000,0.000000,0.000000,0.000000,0.000000,0.000000,0.000000,0.000000,0.000000,1770802350.107426,0.000000
40.000000,19938.828938,16752.319545,-3056.377537,-17586.374889,-16281.614158,-553.898579,-18975.602862,-10241.479902,11875.750050,-10188.416861,1125.365630,10389.962541,19075.962195,22423.091224,4979.119298,4122.578099,0.007047,-0.011813,1.003109,192.000000,0.000000,40.000000,127.500000,72.000000,15.500000,56.000000,0.000000,0.000000,0.000000,1770802350.107436,0.000000
42.000000,19953.849310,16767.786952,-3049.873179,-17570.214578,-16257.720144,-538.900559,-18957.810874,-10228.113559,11895.844268,-10165.327509,1142.911749,10411.867250,19097.822201,22429.908506,4988.685845,4127.808407,0.007047,-0.011813,1.003109,192.000000,0.000000,0.000000,0.000000,0.000000,0.000000,0.000000,0.000000,0.000000,0.000000,1770802350.107446,0.000000
44.000000,19937.085502,16746.821016,-3062.099583,-17586.084317,-16279.513094,-549.092954,-18980.252025,-10245.637327,11883.014367,-10164.656957,1132.361726,10398.635018,19078.554997,22420.856049,4980.661569,4120.789960,0.007047,-0.011813,1.003109,192.000000,0.000000,0.000000,0.000000,0.000000,0.000000,0.000000,0.000000,0.000000,0.000000,1770802350.107457,0.000000
46.000000,19946.361476,16757.348687,-3054.678804,-17578.082392,-16267.979594,-548.355347,-18967.310365,-10236.540167,11893.944370,-10175.586960,1136.362688,10400.221992,19095.788192,22419.246724,4985.288380,4120.365276,0.007047,-0.011813,1.003109,192.000000,0.000000,0.000000,0.000000,0.000000,0.000000,0.000000,0.000000,0.000000,0.000000,1770802350.107474,0.000000
48.000000,19946.786159,16757.192225,-3056.824572,-17577.613005,-16266.862007,-559.195943,-18966.215130,-10236.830740,11890.256332,-10156.386811,1142.174142,10415.287067,19090.468477,22468.107637,4983.567295,4112.475111,0.007047,-0.011813,1.003109,192.000000,0.000000,0.000000,0.000000,0.000000,0.000000,0.000000,0.000000,0.000000,0.000000,1770802350.107485,0.000000
50.000000,19935.297362,16746.508091,-3058.255083,-17589.481782,-16278.797839,-571.489402,-18974.887606,-10241.703420,11889.116393,-10177.419803,1129.567758,10396.399843,19079.605529,22390.971767,4984.684883,4106.596602,0.007047,-0.011813,1.003109,192.000000,0.000000,0.000000,0.000000,0.000000,0.000000,0.000000,0.000000,0.000000,0.000000,1770802350.107496,0.000000
52.000000,19955.995078,16768.077525,-3046.855694,-17570.415744,-16253.965050,-554.859704,-18951.954717,-10223.822024,11891.798603,-10169.283768,1145.213979,10412.314285,19082.041869,22406.573284,4985.064862,4106.194270,0.008000,-0.016000,1.006000,192.000000,0.000000,32.000000,127.500000,64.000000,15.500000,56.000000,0.000000,0.000000,0.000000,1770802350.107506,0.000000
54.000000,19931.519917,16742.037742,-3060.266740,-17592.298101,-16282.619987,-569.567152,-18975.222883,-10244.564443,11885.718928,-10175.922236,1132.965223,10406.569887,19087.607454,22409.590770,4982.405005,4107.423616,0.008000,-0.016000,1.006000,192.000000,0.000000,0.000000,0.000000,0.000000,0.000000,0.000000,0.000000,0.000000,0.000000,1770802350.107516,0.000000
56.000000,19941.086464,16754.666478,-3047.772115,-17579.401145,-16272.405240,-556.111402,-18959.353144,-10232.293335,11884.668396,-10191.188477,1127.913729,10400.758433,19083.517085,22414.284636,4986.607133,4116.163148,0.008000,-0.016000,1.006000,192.000000,0.000000,0.000000,0.000000,0.000000,0.000000,0.000000,0.000000,0.000000,0.000000,1770802350.107526,0.000000
58.000000,19934.045665,16748.072713,-3057.137496,-17579.512904,-16279.200170,-558.413632,-18962.594147,-10238.529472,11879.885123,-10179.297349,1133.479313,10416.941096,19077.795038,22421.794822,4981.108604,4118.666544,0.008000,-0.016000,1.006000,192.000000,0.000000,0.000000,0.000000,0.000000,0.000000,0.000000,0.000000,0.000000,0.000000,1770802350.107538,0.000000
60.000000,19924.903801,16736.852138,-3063.284226,-17589.928817,-16288.811420,-563.465126,-18974.775848,-10247.403115,11870.586797,-10204.688931,1116.916670,10392.711805,19060.271270,22386.389659,4976.794717,4119.448855,0.008000,-0.016000,1.006000,192.000000,0.000000,0.000000,0.000000,0.000000,0.000000,0.000000,0.000000,0.000000,0.000000,1770802350.107549,0.000000
62.000000,19933.151595,16749.324411,-3059.126801,-17576.562473,-16267.621966,-552.199847,-18958.682592,-10238.305955,11874.319538,-10196.195268,1127.578453,10409.877945,19068.988451,22413.435270,4979.141650,4121.549919,0.002000,-0.014000,1.002000,192.000000,0.000000,8.000000,127.500000,72.000000,15.500000,40.000000,0.000000,0.000000,0.000000,1770802350.107560,0.000000
64.000000,19914.867868,16728.872565,-3067.866333,-17596.433174,-16293.773507,-560.917027,-18979.693232,-10253.460437,11864.529474,-10194.898867,1114.815606,10397.472727,19058.013744,22392.178761,4976.794717,4119.135930,0.002000,-0.014000,1.002000,192.000000,0.000000,0.000000,0.000000,0.000000,0.000000,0.000000,0.000000,0.000000,0.000000,1770802350.107571,0.000000
66.000000,19921.059301,16737.567393,-3062.121935,-17586.509000,-16280.943606,-554.144449,-18969.031449,-10245.234996,11873.425469,-10207.974638,1117.475464,10398.791480,19061.232395,22395.129191,4981.868563,4120.991125,0.002000,-0.014000,1.002000,192.000000,0.000000,0.000000,0.000000,0.000000,0.000000,0.000000,0.000000,0.000000,0.000000,1770802350.107581,0.000000
68.000000,19912.051548,16731.800643,-3066.726395,-17589.817058,-16283.558760,-562.839277,-18971.646604,-10251.560539,11859.477980,-10198.564553,1120.783522,10410.883774,19062.238224,22392.268168,4978.493450,4118.599489,0.002000,-0.014000,1.002000,192.000000,0.000000,0.000000,0.000000,0.000000,0.000000,0.000000,0.000000,0.000000,0.000000,1770802350.107591,0.000000
70.000000,19904.809583,16724.759844,-3066.815801,-17597.282540,-16283.312891,-569.969484,-18979.894397,-10255.963833,11844.211739,-10220.849242,1100.421083,10383.413480,19059.913642,22394.302177,4978.269932,4111.961020,0.002000,-0.014000,1.002000,192.000000,0.000000,0.000000,0.000000,0.000000,0.000000,0.000000,0.000000,0.000000,0.000000,1770802350.107602,0.000000
72.000000,19920.567563,16746.664553,-3057.562179,-17579.132924,-16267.465504,-556.558437,-18960.113103,-10239.848225,11859.925015,-10199.503326,1119.732990,10403.284181,19065.769799,22411.781241,4986.853002,4109.547032,0.004000,-0.010000,1.012000,192.000000,0.000000,16.000000,127.500000,88.000000,15.500000,80.000000,0.000000,0.000000,0.000000,1770802350.107612,0.000000
74.000000,19908.095289,16736.069827,-3067.866333,-17593.773317,-16291.672443,-577.122042,-18979.559121,-10249.414772,11840.613108,-10196.575248,1111.596955,10400.601971,19067.088552,22392.983424,4983.634351,4102.774453,0.004000,-0.010000,1.012000,192.000000,0.000000,0.000000,0.000000,0.000000,0.000000,0.000000,0.000000,0.000000,0.000000,1770802350.587715,0.000000
76.000000,19926.446071,16759.002716,-3057.249255,-17577.300081,-16281.591807,-557.698376,-18963.622327,-10230.572251,11860.126181,-10192.618989,1122.303441,10408.827413,19069.726058,22400.605369,4987.277685,4101.388645,0.004000,-0.010000,1.012000,192.000000,0.000000,0.000000,0.000000,0.000000,0.000000,0.000000,0.000000,0.000000,0.000000,1770802350.587796,0.000000
78.000000,19927.228382,16757.616908,-3060.177333,-17577.255377,-16284.743403,-554.971463,-18964.494045,-10234.260289,11857.779247,-10165.640434,1133.971051,10427.222899,19086.020480,22425.929895,4980.683920,4103.802634,0.004000,-0.010000,1.012000,192.000000,0.000000,0.000000,0.000000,0.000000,0.000000,0.000000,0.000000,0.000000,0.000000,1770802350.587847,0.000000
80.000000,19923.808566,16754.577071,-3061.607845,-17583.826790,-16285.481010,-561.453469,-18974.529979,-10240.004687,11859.254463,-10169.574341,1119.420066,10407.016922,19072.654137,22418.598523,4977.979359,4110.709323,0.004000,-0.010000,1.012000,192.000000,0.000000,0.000000,0.000000,0.000000,0.000000,0.000000,0.000000,0.000000,0.000000,1770802350.587897,0.000000
82.000000,19935.699694,16770.670327,-3058.612711,-17566.593595,-16271.600577,-540.062850,-18958.213205,-10229.767588,11870.117410,-10169.239064,1131.132380,10428.206376,19094.268274,22428.030959,4979.789851,4119.627669,0.002000,-0.014000,1.008000,192.000000,0.000000,8.000000,127.500000,72.000000,15.500000,64.000000,0.000000,0.000000,0.000000,1770802350.587945,0.000000
84.000000,19914.621999,16748.832673,-3067.531057,-17588.073622,-16288.856124,-558.368928,-18978.016851,-10244.966775,11851.856035,-10173.910579,1119.196548,10413.051893,19070.463666,22410.931875,4973.307845,4119.582965,0.002000,-0.014000,1.008000,192.000000,0.000000,0.000000,0.000000,0.000000,0.000000,0.000000,0.000000,0.000000,0.000000,1770802350.587993,0.000000
86.000000,19927.295438,16761.282594,-3056.690461,-17577.702412,-16275.981519,-551.685757,-18965.924557,-10236.160187,11861.936672,-10189.802669,1123.510435,10413.588335,19064.987488,22405.455697,4980.639217,4124.746218,0.002000,-0.014000,1.008000,192.000000,0.000000,0.000000,0.000000,0.000000,0.000000,0.000000,0.000000,0.000000,0.000000,1770802350.588035,0.000000
88.000000,19921.238115,16751.671344,-3062.278397,-17584.676157,-16273.187551,-550.255245,-18968.718525,-10242.709248,11862.070782,-10174.648187,1131.892339,10420.875003,19075.202236,22426.801613,4985.042511,4121.102884,0.002000,-0.014000,1.008000,192.000000,0.000000,0.000000,0.000000,0.000000,0.000000,0.000000,0.000000,0.000000,0.000000,1770802350.588058,0.000000
90.000000,19908.162344,16736.047475,-3067.218133,-17597.841334,-16283.938740,-568.673082,-18981.771944,-10252.611071,11852.861864,-10205.515946,1114.636792,10389.537858,19061.701782,22391.575264,4986.137746,4118.264212,0.002000,-0.014000,1.008000,192.000000,0.000000,0.000000,0.000000,0.000000,0.000000,0.000000,0.000000,0.000000,0.000000,1770802350.588086,0.000000
92.000000,19927.854231,16755.046458,-3055.483467,-17578.194151,-16267.241987,-554.904408,-18960.291917,-10235.176711,11863.098963,-10195.480012,1127.645508,10405.385245,19070.933052,22410.730709,4984.550772,4114.509119,0.004000,-0.014000,1.010000,192.000000,0.000000,16.000000,127.500000,72.000000,15.500000,72.000000,0.000000,0.000000,0.000000,1770802350.588104,0.000000
94.000000,19910.889257,16739.132016,-3068.089851,-17598.422479,-16289.660786,-578.194926,-18982.062516,-10248.610109,11861.109657,-10192.708396,1123.108104,10395.103442,19081.170151,22418.307950,4979.499278,4109.524680,0.004000,-0.014000,1.010000,192.000000,0.000000,0.000000,0.000000,0.000000,0.000000,0.000000,0.000000,0.000000,0.000000,1770802350.588117,0.000000
96.000000,19925.104967,16757.974536,-3056.064612,-17580.943415,-16273.120495,-565.946170,-18963.510569,-10231.511024,11867.904588,-10203.258419,1127.846673,10397.003340,19091.139029,22379.170046,4983.924923,4110.865785,0.004000,-0.014000,1.010000,192.000000,0.000000,0.000000,0.000000,0.000000,0.000000,0.000000,0.000000,0.000000,0.000000,1770802350.588128,0.000000
98.000000,19921.036949,16753.705353,-3059.864409,-17586.441944,-16279.624853,-567.846068,-18966.371592,-10234.550862,11870.609149,-10182.694815,1140.117781,10411.554326,19082.667718,22416.855087,4984.573124,4109.099997,0.004000,-0.014000,1.010000,192.000000,0.000000,0.000000,0.000000,0.000000,0.000000,0.000000,0.000000,0.000000,0.000000,1770802350.588141,0.000000
100.000000,19913.437356,16747.089237,-3064.267703,-17597.081375,-16290.398394,-577.233801,-18976.943967,-10240.742295,11860.953195,-10200.240934,1122.616365,10388.219105,19072.587082,22420.409014,4980.952141,4104.383779,0.004000,-0.014000,1.010000,192.000000,0.000000,0.000000,0.000000,0.000000,0.000000,0.000000,0.000000,0.000000,0.000000,1770802350.588154,0.000000
102.000000,19937.063150,16771.162065,-3058.568008,-17571.399220,-16268.672498,-553.362137,-18955.754513,-10222.235050,11873.470172,-10182.583056,1137.457924,10415.018846,19090.826105,22412.049462,4983.097909,4107.937706,0.006000,-0.010000,1.016000,192.000000,0.000000,24.000000,127.500000,88.000000,15.500000,96.000000,0.000000,0.000000,0.000000,1770802350.588166,0.000000
104.000000,19916.968932,16746.597498,-3074.683616,-17586.643110,-16290.621911,-560.738213,-18977.189836,-10239.781170,11866.965814,-10176.212809,1128.316060,10409.006227,19076.856265,22400.068927,4978.113470,4109.904660,0.006000,-0.010000,1.016000,192.000000,0.000000,0.000000,0.000000,0.000000,0.000000,0.000000,0.000000,0.000000,0.000000,1770802350.588178,0.000000
106.000000,19930.357627,16760.656746,-3065.050014,-17572.695622,-16274.081620,-546.544855,-18965.343412,-10229.566423,11878.767536,-10186.807536,1128.628985,10404.312361,19078.353832,22411.580075,4974.961874,4119.851186,0.006000,-0.010000,1.016000,192.000000,0.000000,0.000000,0.000000,0.000000,0.000000,0.000000,0.000000,0.000000,0.000000,1770802350.588190,0.000000
108.000000,19926.602534,16759.673269,-3070.548543,-17576.562473,-16275.758001,-546.433097,-18968.003269,-10234.684972,11875.370070,-10173.888227,1137.860255,10417.701056,19079.851398,22427.136889,4970.312711,4115.850224,0.006000,-0.010000,1.016000,192.000000,0.000000,0.000000,0.000000,0.000000,0.000000,0.000000,0.000000,0.000000,0.000000,1770802350.588202,0.000000
110.000000,19915.180792,16752.587766,-3075.890610,-17591.672253,-16295.986330,-558.592446,-18980.073211,-10241.569309,11861.266120,-10189.847373,1117.743685,10388.777898,19062.729962,22403.511095,4967.518743,4114.464416,0.006000,-0.010000,1.016000,192.000000,0.000000,0.000000,0.000000,0.000000,0.000000,0.000000,0.000000,0.000000,0.000000,1770802350.588224,0.000000
112.000000,19926.423720,16765.618833,-3067.911037,-17573.120305,-16282.418821,-553.250379,-18958.883757,-10228.895870,11862.674280,-10184.393547,1130.081848,10410.034407,19060.964174,22408.920218,4971.296188,4115.514948,0.006000,-0.016000,1.010000,192.000000,0.000000,24.000000,127.500000,64.000000,15.500000,72.000000,0.000000,0.000000,0.000000,1770802350.588236,0.000000
114.000000,19890.571522,16731.465367,-3088.251124,-17601.417613,-16306.715167,-577.546725,-18984.588264,-10256.276757,11840.031962,-10187.455736,1110.747589,10389.023768,19052.872843,22410.171915,4966.378804,4111.201061,0.006000,-0.016000,1.010000,192.000000,0.000000,0.000000,0.000000,0.000000,0.000000,0.000000,0.000000,0.000000,0.000000,1770802350.588248,0.000000
116.000000,19900.383937,16741.948335,-3078.483412,-17592.856895,-16294.734632,-570.193001,-18971.579548,-10247.693687,11838.109712,-10212.869670,1104.667914,10374.249265,19039.193575,22397.900808,4973.956045,4110.351695,0.006000,-0.016000,1.010000,192.000000,0.000000,0.000000,0.000000,0.000000,0.000000,0.000000,0.000000,0.000000,0.000000,1770802350.588261,0.000000
118.000000,19901.948560,16741.478949,-3078.885743,-17594.555628,-16290.599560,-571.712920,-18972.160694,-10247.693687,11832.566480,-10193.669521,1113.921537,10387.257980,19065.322765,22389.027165,4973.754880,4105.769587,0.006000,-0.016000,1.010000,192.000000,0.000000,0.000000,0.000000,0.000000,0.000000,0.000000,0.000000,0.000000,0.000000,1770802350.588273,0.000000
120.000000,19898.729908,16734.147577,-3075.421223,-17605.217410,-16294.756984,-575.468013,-18980.676708,-10251.135856,11831.806520,-10217.742350,1103.885603,10362.045212,19057.812578,22377.918348,4977.778194,4101.478052,0.006000,-0.016000,1.010000,192.000000,0.000000,0.000000,0.000000,0.000000,0.000000,0.000000,0.000000,0.000000,0.000000,1770802350.588285,0.000000
122.000000,19917.013635,16754.331202,-3064.155944,-17585.905503,-16273.344013,-555.463201,-18960.738952,-10237.724809,11847.363335,-10202.610219,1126.617328,10381.155954,19068.988451,22413.614084,4983.701406,4105.680180,0.008000,-0.013000,1.008000,192.000000,0.000000,40.000000,127.500000,88.000000,15.500000,56.000000,0.000000,0.000000,0.000000,1770802350.588299,0.000000
124.000000,19897.098231,16733.633486,-3077.276418,-17603.518677,-16296.366310,-568.293103,-18984.208284,-10255.337984,11839.249651,-10198.676312,1119.844749,10374.316320,19072.564730,22414.843430,4975.252447,4103.646172,0.008000,-0.013000,1.008000,192.000000,0.000000,0.000000,0.000000,0.000000,0.000000,0.000000,0.000000,0.000000,0.000000,1770802350.588310,0.000000
126.000000,19909.771670,16749.011487,-3065.944083,-17585.905503,-16278.015527,-558.368928,-18968.495008,-10241.792827,11846.759837,-10210.656847,1119.107141,10370.672985,19079.739640,22398.772526,4976.504144,4106.306029,0.008000,-0.013000,1.008000,192.000000,0.000000,0.000000,0.000000,0.000000,0.000000,0.000000,0.000000,0.000000,0.000000,1770802350.588323,0.000000
128.000000,19905.971874,16750.330240,-3073.320159,-17583.647976,-16277.903769,-546.433097,-18969.411429,-10242.172807,11846.111637,-10188.528620,1126.460865,10396.578657,19111.657931,22427.181593,4975.945351,4115.447893,0.008000,-0.013000,1.008000,192.000000,0.000000,0.000000,0.000000,0.000000,0.000000,0.000000,0.000000,0.000000,0.000000,1770802350.588335,0.000000
130.000000,19899.601626,16739.847271,-3073.744842,-17593.147468,-16288.073812,-546.991890,-18981.257854,-10250.018269,11834.064047,-10209.874536,1111.485197,10369.622453,19073.503503,22384.735630,4977.420566,4123.785093,0.008000,-0.013000,1.008000,192.000000,0.000000,0.000000,0.000000,0.000000,0.000000,0.000000,0.000000,0.000000,0.000000,1770802350.588347,0.000000
132.000000,19914.197315,16755.471141,-3065.631159,-17578.372965,-16269.343051,-537.447695,-18962.683554,-10239.937632,11845.374029,-10198.586905,1127.265528,10382.295893,19078.376183,22411.982407,4982.472060,4131.407038,0.008000,-0.012500,1.008000,192.000000,0.000000,32.000000,127.500000,80.000000,15.500000,64.000000,0.000000,0.000000,0.000000,1770802350.588359,0.000000
134.000000,19892.046737,16732.605306,-3079.176316,-17601.395261,-16288.006757,-557.005472,-18985.080002,-10261.663528,11836.433332,-10203.705454,1113.698019,10368.214294,19078.823218,22388.937758,4980.795679,4124.545053,0.008000,-0.012500,1.008000,192.000000,0.000000,0.000000,0.000000,0.000000,0.000000,0.000000,0.000000,0.000000,0.000000,1770802350.588371,0.000000
136.000000,19894.639539,16738.617925,-3073.007235,-17593.505096,-16282.508228,-559.821792,-18974.753496,-10255.449743,11836.589794,-10216.110672,1110.769941,10362.313433,19063.266404,22395.375060,4983.701406,4121.035829,0.008000,-0.012500,1.008000,192.000000,0.000000,0.000000,0.000000,0.000000,0.000000,0.000000,0.000000,0.000000,0.000000,1770802350.588383,0.000000
138.000000,19885.095344,16729.341952,-3081.545601,-17600.255322,-16288.833772,-571.288237,-18977.726278,-10263.161095,11824.832776,-10205.717111,1113.206281,10370.024785,19072.967061,22404.114593,4974.246618,4106.440140,0.008000,-0.012500,1.008000,192.000000,0.000000,0.000000,0.000000,0.000000,0.000000,0.000000,0.000000,0.000000,0.000000,1770802350.588395,0.000000
140.000000,19876.288757,16717.383768,-3081.769119,-17607.318474,-16301.015473,-587.850879,-18986.219941,-10270.760688,11811.108805,-10226.615992,1090.519260,10340.140502,19057.969041,22370.408162,4973.441955,4106.060160,0.008000,-0.012500,1.008000,192.000000,0.000000,0.000000,0.000000,0.000000,0.000000,0.000000,0.000000,0.000000,0.000000,1770802350.588407,0.000000
142.000000,19892.583179,16736.829786,-3072.984883,-17592.141639,-16285.481010,-569.455393,-18966.393944,-10256.187350,11827.470282,-10223.531452,1111.418141,10363.833352,19060.159512,22412.004758,4977.621731,4107.870651,0.007000,-0.009250,1.003000,192.000000,0.000000,24.000000,127.500000,104.000000,15.500000,24.000000,0.000000,0.000000,0.000000,1770802350.588420,0.000000
144.000000,19875.193521,16719.238963,-3085.255991,-17607.474936,-16306.715167,-568.762489,-18987.561046,-10272.861752,11813.522793,-10218.323495,1099.683475,10354.870302,19045.943802,22365.446075,4968.122240,4101.992142,0.007000,-0.009250,1.003000,192.000000,0.000000,0.000000,0.000000,0.000000,0.000000,0.000000,0.000000,0.000000,0.000000,1770802350.588432,0.000000
146.000000,19887.576388,16734.169928,-3072.649607,-17593.080413,-16289.325510,-559.799440,-18971.154865,-10257.349641,11825.883308,-10221.005705,1101.181042,10355.742020,19046.212023,22386.970805,4976.057109,4107.758893,0.007000,-0.009250,1.003000,192.000000,0.000000,0.000000,0.000000,0.000000,0.000000,0.000000,0.000000,0.000000,0.000000,1770802350.588444,0.000000
148.000000,19885.385917,16731.443016,-3076.851735,-17588.386546,-16289.213751,-559.598274,-18971.177217,-10259.495408,11822.396436,-10200.017416,1108.735932,10373.265788,19063.668735,22394.637453,4973.777231,4114.285602,0.007000,-0.009250,1.003000,192.000000,0.000000,0.000000,0.000000,0.000000,0.000000,0.000000,0.000000,0.000000,0.000000,1770802350.588455,0.000000
150.000000,19875.685260,16720.043626,-3078.461060,-17597.349596,-16296.254551,-558.480687,-18982.509551,-10265.977414,11817.188480,-10228.515891,1092.374455,10345.683735,19055.420942,22380.421743,4972.860810,4119.895890,0.007000,-0.009250,1.003000,192.000000,0.000000,0.000000,0.000000,0.000000,0.000000,0.000000,0.000000,0.000000,0.000000,1770802350.588467,0.000000
152.000000,19897.478211,16743.580013,-3066.391118,-17577.411840,-16266.392620,-536.307756,-18960.850711,-10249.414772,11825.995067,-10209.025169,1109.048856,10369.086012,19062.707610,22408.942569,4977.129993,4124.165073,0.006500,-0.008625,1.001500,192.000000,0.000000,24.000000,127.500000,96.000000,15.500000,32.000000,0.000000,0.000000,0.000000,1770802350.588479,0.000000
154.000000,19874.925300,16716.690864,-3078.796337,-17604.300988,-16290.376042,-555.262036,-18983.940063,-10267.765554,11819.401302,-10205.717111,1099.616420,10357.552511,19066.999145,22418.285599,4976.012406,4120.611146,0.006500,-0.008625,1.001500,192.000000,0.000000,0.000000,0.000000,0.000000,0.000000,0.000000,0.000000,0.000000,0.000000,1770802350.588492,0.000000
156.000000,19889.364527,16732.650010,-3067.441650,-17588.878285,-16274.506304,-549.070603,-18969.009098,-10252.074629,11822.955230,-10231.063990,1105.874909,10356.904311,19046.793168,22403.935779,4980.303941,4119.225337,0.006500,-0.008625,1.001500,192.000000,0.000000,0.000000,0.000000,0.000000,0.000000,0.000000,0.000000,0.000000,0.000000,1770802350.588504,0.000000
158.000000,19882.904873,16726.413873,-3074.035415,-17592.275750,-16283.379946,-566.706129,-18971.020755,-10256.969661,11818.395474,-10210.880364,1113.586261,10372.282311,19064.428695,22364.864929,4975.855944,4108.071817,0.006500,-0.008625,1.001500,192.000000,0.000000,0.000000,0.000000,0.000000,0.000000,0.000000,0.000000,0.000000,0.000000,1770802350.588517,0.000000
160.000000,19869.270309,16717.406120,-3079.802165,-17603.093994,-16301.954246,-583.559344,-18982.934234,-10263.988109,11808.650113,-10227.331248,1090.429853,10344.096761,19057.723171,22368.865892,4976.012406,4109.278811,0.006500,-0.008625,1.001500,192.000000,0.000000,0.000000,0.000000,0.000000,0.000000,0.000000,0.000000,0.000000,0.000000,1770802350.588529,0.000000
162.000000,19884.894178,16737.209766,-3069.810935,-17584.050308,-16280.273054,-569.835373,-18962.840016,-10245.324402,11819.066026,-10223.665562,1105.629039,10370.807096,19053.610450,22399.264264,4973.799583,4104.942573,0.007250,-0.008313,1.000750,192.000000,0.000000,32.000000,127.500000,96.000000,15.500000,32.000000,0.000000,0.000000,0.000000,1770802350.588542,0.000000
164.000000,19868.085667,16715.908553,-3079.645703,-17602.557552,-16301.328397,-575.266847,-18983.448325,-10261.641176,11800.558782,-10222.190347,1096.420121,10362.626357,19056.627936,22387.954281,4970.066842,4101.545108,0.007250,-0.008313,1.000750,192.000000,0.000000,0.000000,0.000000,0.000000,0.000000,0.000000,0.000000,0.000000,0.000000,1770802350.588553,0.000000
166.000000,19887.151705,16734.169928,-3065.318235,-17589.146505,-16282.128248,-565.879114,-18968.338545,-10249.213606,11823.961058,-10223.285582,1103.907955,10361.776991,19053.230471,22406.997968,4976.906476,4109.144701,0.007250,-0.008313,1.000750,192.000000,0.000000,0.000000,0.000000,0.000000,0.000000,0.000000,0.000000,0.000000,0.000000,1770802350.588565,0.000000
168.000000,19886.347042,16735.086350,-3070.123860,-17585.145543,-16288.945531,-569.745966,-18968.025621,-10248.408943,11818.194308,-10202.476108,1111.619307,10377.289102,19069.167265,22394.101011,4976.772365,4109.256459,0.007250,-0.008313,1.000750,192.000000,0.000000,0.000000,0.000000,0.000000,0.000000,0.000000,0.000000,0.000000,0.000000,1770802350.588581,0.000000
170.000000,19879.663870,16730.325428,-3073.856601,-17592.454564,-16297.595656,-570.103594,-18979.760287,-10253.751010,11817.322590,-10217.429425,1099.951696,10359.139485,19061.299451,22398.012566,4975.878295,4113.615050,0.007250,-0.008313,1.000750,192.000000,0.000000,0.000000,0.000000,0.000000,0.000000,0.000000,0.000000,0.000000,0.000000,1770802350.588597,0.000000
172.000000,19898.260522,16750.062019,-3062.770136,-17572.136828,-16274.528655,-549.741155,-18958.660240,-10237.948327,11828.431407,-10206.074739,1112.356915,10386.229800,19068.072029,22415.379872,4979.991016,4120.968773,0.007625,-0.009156,1.000375,192.000000,0.000000,32.000000,127.500000,88.000000,15.500000,32.000000,0.000000,0.000000,0.000000,1770802350.588615,0.000000
174.000000,19878.680394,16724.201050,-3076.739976,-17593.192171,-16289.973711,-560.715861,-18983.873008,-10259.070725,11817.948439,-10205.471242,1101.046932,10371.410593,19067.177959,22410.887171,4978.627560,4122.399285,0.007625,-0.009156,1.000375,192.000000,0.000000,0.000000,0.000000,0.000000,0.000000,0.000000,0.000000,0.000000,0.000000,1770802350.588632,0.000000
176.000000,19901.255655,16748.765617,-3057.383365,-17575.556645,-16269.253644,-536.330108,-18964.047010,-10241.323440,11835.561614,-10206.745292,1105.092598,10372.796401,19073.056468,22398.973691,4985.958932,4128.344849,0.007625,-0.009156,1.000375,192.000000,0.000000,0.000000,0.000000,0.000000,0.000000,0.000000,0.000000,0.000000,0.000000,1770802350.588644,0.000000
178.000000,19897.008824,16743.714123,-3064.088889,-17577.300081,-16271.220597,-552.401012,-18967.198606,-10243.312745,11831.672410,-10182.605408,1116.849615,10391.862439,19087.294529,22424.857011,4986.450671,4128.970698,0.007625,-0.009156,1.000375,192.000000,0.000000,0.000000,0.000000,0.000000,0.000000,0.000000,0.000000,0.000000,0.000000,1770802350.588656,0.000000
180.000000,19882.793115,16726.547983,-3067.933389,-17594.376814,-16286.017452,-566.706129,-18977.167484,-10251.694650,11830.845395,-10214.121367,1100.599897,10364.928587,19060.159512,22405.165125,4978.895781,4119.985297,0.007625,-0.009156,1.000375,192.000000,0.000000,0.000000,0.000000,0.000000,0.000000,0.000000,0.000000,0.000000,0.000000,1770802350.588669,0.000000
182.000000,19889.319824,16733.924059,-3065.877028,-17579.199979,-16273.388716,-564.180382,-18959.978993,-10244.005650,11832.052390,-10209.092225,1108.311249,10378.272579,19076.811561,22433.104805,4982.203839,4118.554785,0.006812,-0.010578,1.004188,192.000000,0.000000,24.000000,127.500000,80.000000,15.500000,64.000000,0.000000,0.000000,0.000000,1770802350.588682,0.000000
184.000000,19866.297527,16712.444033,-3079.735110,-17601.104689,-16301.060176,-591.136586,-18982.353089,-10262.647004,11811.354674,-10214.881327,1096.397769,10366.202637,19067.423829,22378.320679,4975.453612,4110.754026,0.006812,-0.010578,1.004188,192.000000,0.000000,0.000000,0.000000,0.000000,0.000000,0.000000,0.000000,0.000000,0.000000,1770802350.588694,0.000000
186.000000,19882.614301,16729.386655,-3069.900342,-17590.264093,-16300.099051,-575.758585,-18968.249138,-10250.577062,11818.976619,-10225.878385,1100.868118,10366.113230,19055.264480,22380.712316,4975.855944,4110.754026,0.006812,-0.010578,1.004188,192.000000,0.000000,0.000000,0.000000,0.000000,0.000000,0.000000,0.000000,0.000000,0.000000,1770802350.588710,0.000000
188.000000,19887.978719,16732.739417,-3070.414432,-17589.191209,-16296.478068,-573.925742,-18967.220958,-10250.666469,11816.562631,-10196.485841,1110.345258,10383.145259,19057.119674,22423.985293,4973.106679,4108.921183,0.006812,-0.010578,1.004188,192.000000,0.000000,0.000000,0.000000,0.000000,0.000000,0.000000,0.000000,0.000000,0.000000,1770802350.588724,0.000000
190.000000,19878.032193,16722.591725,-3073.633084,-17595.382642,-16308.212734,-582.866440,-18977.279243,-10257.684917,11814.170994,-10224.939612,1095.369589,10364.749773,19040.937011,22393.363403,4970.603284,4110.061122,0.006812,-0.010578,1.004188,192.000000,0.000000,0.000000,0.000000,0.000000,0.000000,0.000000,0.000000,0.000000,0.000000,1770802350.588739,0.000000
192.000000,19896.360623,16743.848234,-3063.775964,-17575.087258,-16281.591807,-558.704204,-18957.296784,-10241.122275,11818.954267,-10207.237030,1109.831167,10386.185096,19061.724134,22406.461526,4974.157211,4117.727771,0.006812,-0.010578,1.004188,192.000000,0.000000,0.000000,0.000000,0.000000,0.000000,0.000000,0.000000,0.000000,0.000000,1770802350.588757,0.000000
194.000000,19875.238225,16719.462480,-3078.751633,-17597.729575,-16299.361443,-571.332940,-18981.213150,-10259.383650,11810.952343,-10200.844431,1100.018752,10374.159858,19057.924337,22415.603389,4968.256351,4120.812311,0.008000,-0.008000,1.006000,192.000000,0.000000,32.000000,127.500000,96.000000,15.500000,56.000000,0.000000,0.000000,0.000000,1770802351.069479,0.000000
196.000000,19889.543341,16736.226289,-3066.502877,-17576.048383,-16282.418821,-548.064774,-18965.879853,-10246.553748,11826.173881,-10214.635457,1103.349162,10371.947035,19063.624032,22405.768622,4975.654778,4130.736486,0.008000,-0.008000,1.006000,192.000000,0.000000,0.000000,0.000000,0.000000,0.000000,0.000000,0.000000,0.000000,0.000000,1770802351.069546,0.000000
198.000000,19887.442277,16734.013466,-3071.710834,-17581.301043,-16278.283748,-542.163914,-18970.193740,-10250.644118,11824.676314,-10188.796841,1111.485197,10387.012111,19082.287739,22440.011494,4975.967702,4134.692745,0.008000,-0.008000,1.006000,192.000000,0.000000,0.000000,0.000000,0.000000,0.000000,0.000000,0.000000,0.000000,0.000000,1770802351.069586,0.000000
200.000000,19879.529760,16724.133995,-3071.375557,-17592.253398,-16283.826981,-547.058946,-18979.000327,-10258.042545,11821.345904,-10217.295315,1094.520222,10358.245415,19072.654137,22402.482915,4980.728624,4129.127160,0.008000,-0.008000,1.006000,192.000000,0.000000,0.000000,0.000000,0.000000,0.000000,0.000000,0.000000,0.000000,0.000000,1770802351.069625,0.000000
202.000000,19890.012728,16737.656800,-3065.720566,-17578.887055,-16271.086487,-545.583730,-18962.705906,-10247.850150,11824.139872,-10202.140832,1111.932231,10378.630206,19074.598739,22409.143735,4984.394310,4126.132026,0.008000,-0.008000,1.006000,192.000000,0.000000,0.000000,0.000000,0.000000,0.000000,0.000000,0.000000,0.000000,0.000000,1770802351.069668,0.000000
204.000000,19862.676545,16710.588838,-3080.986807,-17606.826735,-16298.668539,-572.830507,-18985.124705,-10267.765554,11812.159337,-10213.316704,1097.135377,10362.000509,19061.567671,22410.462488,4974.872467,4110.508157,0.006000,-0.008000,1.002000,192.000000,0.000000,24.000000,127.500000,96.000000,15.500000,40.000000,0.000000,0.000000,0.000000,1770802351.069710,0.000000
206.000000,19866.722210,16717.964914,-3077.276418,-17593.840372,-16300.322568,-566.348501,-18973.099467,-10260.680051,11815.601506,-10225.096074,1096.196603,10356.479628,19054.593927,22396.559703,4978.091118,4117.325439,0.006000,-0.008000,1.002000,192.000000,0.000000,0.000000,0.000000,0.000000,0.000000,0.000000,0.000000,0.000000,0.000000,1770802351.069750,0.000000
208.000000,19863.637670,16714.276876,-3083.378444,-17596.611988,-16302.557743,-568.114289,-18972.495970,-10265.105696,11805.967904,-10214.970734,1099.012923,10367.208465,19060.897119,22417.950322,4969.485696,4111.670448,0.006000,-0.008000,1.002000,192.000000,0.000000,0.000000,0.000000,0.000000,0.000000,0.000000,0.000000,0.000000,0.000000,1770802351.069790,0.000000
210.000000,19858.407361,16701.692844,-3083.400796,-17608.011378,-16310.917295,-577.233801,-18983.694194,-10273.688766,11798.882401,-10241.256385,1080.975065,10340.699296,19042.278116,22387.753116,4966.602321,4111.223413,0.006000,-0.008000,1.002000,192.000000,0.000000,0.000000,0.000000,0.000000,0.000000,0.000000,0.000000,0.000000,0.000000,1770802351.069830,0.000000
212.000000,19880.915568,16727.419702,-3070.481488,-17585.883151,-16286.017452,-569.678911,-18962.236519,-10255.673260,11814.416863,-10220.983353,1098.342371,10370.404764,19064.741619,22383.036898,4972.145554,4110.016419,0.006000,-0.008000,1.002000,192.000000,0.000000,0.000000,0.000000,0.000000,0.000000,0.000000,0.000000,0.000000,0.000000,1770802351.069842,0.000000
214.000000,19866.297527,16708.644236,-3076.047072,-17602.959884,-16296.232199,-574.752757,-18982.174275,-10270.604225,11801.631665,-10222.592678,1091.972124,10360.771163,19062.998183,22394.436287,4968.502220,4108.272983,0.006000,-0.008000,1.002000,192.000000,0.000000,0.000000,127.500000,72.000000,15.500000,24.000000,0.000000,0.000000,0.000000,1770802351.069854,0.000000
216.000000,19874.724135,16720.356550,-3070.302674,-17589.750003,-16287.358557,-558.637149,-18971.132513,-10261.596472,11823.446968,-10225.029019,1098.834109,10367.230817,19068.295547,22387.931930,4976.593551,4118.286564,0.006000,-0.008000,1.002000,192.000000,0.000000,0.000000,0.000000,0.000000,0.000000,0.000000,0.000000,0.000000,0.000000,1770802351.069866,0.000000
218.000000,19877.518103,16723.865774,-3067.866333,-17586.352537,-16283.067022,-548.534161,-18968.740877,-10257.729621,11813.500442,-10202.632571,1107.439531,10381.357119,19079.761991,22421.504250,4978.113470,4122.153416,0.006000,-0.008000,1.002000,192.000000,0.000000,0.000000,0.000000,0.000000,0.000000,0.000000,0.000000,0.000000,0.000000,1770802351.069887,0.000000
220.000000,19875.014707,16722.658780,-3067.396947,-17591.784011,-16282.888208,-550.724632,-18977.122781,-10258.109600,11816.674389,-10216.378893,1094.944906,10358.670099,19069.927224,22408.562590,4978.158173,4125.260308,0.006000,-0.008000,1.002000,192.000000,0.000000,0.000000,0.000000,0.000000,0.000000,0.000000,0.000000,0.000000,0.000000,1770802351.069899,0.000000
222.000000,19901.322711,16752.163083,-3055.237598,-17568.113514,-16260.201187,-534.296099,-18955.821568,-10235.981373,11840.724866,-10207.728768,1117.073133,10389.716672,19086.512218,22418.486764,4985.176621,4129.149512,0.006000,-0.008000,1.002000,192.000000,0.000000,0.000000,0.000000,0.000000,0.000000,0.000000,0.000000,0.000000,0.000000,1770802351.069911,0.000000
224.000000,19881.429658,16730.168966,-3071.375557,-17590.688776,-16290.957188,-557.184286,-18979.916749,-10254.779190,11830.599526,-10196.284675,1111.485197,10381.826506,19091.787230,22406.863857,4978.113470,4126.020268,0.002000,-0.010000,0.998000,192.000000,0.000000,8.000000,127.500000,88.000000,15.500000,24.000000,0.000000,0.000000,0.000000,1770802351.069923,0.000000
226.000000,19887.822257,16738.260298,-3064.290054,-17580.786953,-16280.630682,-551.417536,-18967.310365,-10246.173769,11825.413922,-10212.556745,1106.590164,10367.543741,19060.561843,22405.679215,4984.304903,4127.115503,0.002000,-0.010000,0.998000,192.000000,0.000000,0.000000,0.000000,0.000000,0.000000,0.000000,0.000000,0.000000,0.000000,1770802351.069943,0.000000
228.000000,19882.904873,16733.253507,-3072.113165,-17585.212598,-16288.923179,-563.286312,-18970.104333,-10252.700478,11816.361465,-10193.848335,1113.362743,10381.580637,19068.317898,22435.518794,4980.348644,4120.253518,0.002000,-0.010000,0.998000,192.000000,0.000000,0.000000,0.000000,0.000000,0.000000,0.000000,0.000000,0.000000,0.000000,1770802351.069956,0.000000
230.000000,19871.773705,16720.602419,-3074.817726,-17595.539104,-16302.468336,-575.780937,-18979.961452,-10260.188313,11807.577229,-10224.403170,1092.486214,10356.747849,19054.213948,22389.518903,4976.235923,4117.124273,0.002000,-0.010000,0.998000,192.000000,0.000000,0.000000,0.000000,0.000000,0.000000,0.000000,0.000000,0.000000,0.000000,1770802351.069968,0.000000
232.000000,19888.537513,16741.702466,-3064.535924,-17576.718936,-16282.731746,-567.086109,-18959.017868,-10241.077571,11819.021323,-10209.539260,1107.819510,10380.038366,19072.609433,22398.772526,4977.554676,4111.491634,0.002000,-0.010000,0.998000,192.000000,0.000000,0.000000,0.000000,0.000000,0.000000,0.000000,0.000000,0.000000,0.000000,1770802351.069981,0.000000
234.000000,19872.667774,16726.235059,-3074.437746,-17598.936570,-16301.149583,-584.676931,-18978.977976,-10254.198045,11813.433386,-10210.478033,1103.751493,10375.098631,19069.256672,22417.726805,4976.370034,4106.931878,0.002000,-0.018000,0.998000,192.000000,0.000000,8.000000,127.500000,56.000000,15.500000,24.000000,0.000000,0.000000,0.000000,1770802351.069993,0.000000
236.000000,19885.967062,16743.468254,-3060.266740,-17587.380718,-16290.063118,-572.316417,-18963.756438,-10239.535301,11816.763796,-10221.251574,1107.126606,10374.942169,19052.895195,22390.971767,4980.795679,4108.675314,0.002000,-0.018000,0.998000,192.000000,0.000000,0.000000,0.000000,0.000000,0.000000,0.000000,0.000000,0.000000,0.000000,1770802351.070005,0.000000
238.000000,19889.632748,16747.469216,-3063.328929,-17583.223293,-16282.105897,-565.275617,-18963.756438,-10240.228205,11817.054369,-10197.938704,1118.794217,10395.528125,19079.069087,22415.312817,4983.075557,4109.457625,0.002000,-0.018000,0.998000,192.000000,0.000000,0.000000,0.000000,0.000000,0.000000,0.000000,0.000000,0.000000,0.000000,1770802351.070017,0.000000
240.000000,19885.452972,16739.623754,-3061.093755,-17584.251473,-16289.884304,-560.738213,-18968.763229,-10241.926937,11820.340076,-10214.926030,1107.685400,10376.730308,19069.033154,22418.643226,4981.466232,4119.337096,0.002000,-0.018000,0.998000,192.000000,0.000000,0.000000,0.000000,0.000000,0.000000,0.000000,0.000000,0.000000,0.000000,1770802351.070029,0.000000
242.000000,19896.874714,16753.839463,-3059.551485,-17570.214578,-16269.968899,-546.857780,-18954.391057,-10233.254460,11831.448893,-10196.284675,1120.828226,10396.779823,19087.093364,22419.492593,4987.590610,4125.126198,0.002000,-0.018000,0.998000,192.000000,0.000000,0.000000,0.000000,0.000000,0.000000,0.000000,0.000000,0.000000,0.000000,1770802351.070041,0.000000
244.000000,19876.355812,16735.891013,-3075.398871,-17589.928817,-16294.913446,-562.034614,-18978.530941,-10249.861807,11810.751177,-10194.943570,1107.752455,10386.319207,19087.182771,22417.145660,4981.779156,4124.366239,0.008000,-0.018000,1.002000,192.000000,0.000000,32.000000,127.500000,56.000000,15.500000,40.000000,0.000000,0.000000,0.000000,1770802351.070053,0.000000
246.000000,19886.525856,16749.011487,-3067.732223,-17572.561511,-16278.216693,-545.203751,-18964.918728,-10240.675240,11827.336172,-10211.819138,1108.870042,10390.588390,19073.816427,22421.571305,4986.204801,4132.278756,0.008000,-0.018000,1.002000,192.000000,0.000000,0.000000,0.000000,0.000000,0.000000,0.000000,0.000000,0.000000,0.000000,1770802351.070064,0.000000
248.000000,19879.350946,16740.942507,-3074.214229,-17576.607177,-16288.096164,-550.277597,-18968.651470,-10247.023135,11819.915392,-10187.947474,1113.228633,10400.691378,19076.118657,22415.961017,4980.929790,4134.312765,0.008000,-0.018000,1.002000,192.000000,0.000000,0.000000,0.000000,0.000000,0.000000,0.000000,0.000000,0.000000,0.000000,1770802351.070076,0.000000
250.000000,19868.353888,16726.927963,-3074.907133,-17593.348633,-16295.963978,-562.526353,-18982.621310,-10257.729621,11809.432424,-10217.965867,1098.275316,10375.478610,19064.652212,22411.647130,4978.046415,4127.294317,0.008000,-0.018000,1.002000,192.000000,0.000000,0.000000,0.000000,0.000000,0.000000,0.000000,0.000000,0.000000,0.000000,1770802351.070089,0.000000
252.000000,19883.083687,16741.635411,-3064.982958,-17580.406973,-16274.886283,-557.765431,-18963.331755,-10247.246653,11820.116558,-10204.085434,1112.133397,10391.147183,19075.559864,22427.963904,4981.823859,4117.884233,0.008000,-0.018000,1.002000,192.000000,0.000000,0.000000,0.000000,0.000000,0.000000,0.000000,0.000000,0.000000,0.000000,1770802351.070101,0.000000
254.000000,19858.653231,16715.170946,-3082.059691,-17601.931703,-16302.244818,-579.223106,-18985.996423,-10269.553693,11803.352750,-10212.221469,1096.151900,10371.678814,19087.540399,22415.022244,4977.509973,4108.697666,0.008000,-0.018000,1.002000,192.000000,0.000000,32.000000,127.500000,56.000000,15.500000,40.000000,0.000000,0.000000,0.000000,1770802351.070113,0.000000
0.000000,19876.132295,16736.807434,-3069.855639,-17588.565360,-16287.604426,-576.451490,-18969.813760,-10254.019231,11811.533488,-10223.866728,1096.464824,10368.817791,19074.710497,22393.341052,4978.962836,4106.283677,0.008000,-0.018000,1.002000,192.000000,0.000000,0.000000,0.000000,0.000000,0.000000,0.000000,0.000000,0.000000,0.000000,1770802351.070125,0.000000
2.000000,19875.327632,16733.544079,-3074.482450,-17590.264093,-16287.447964,-568.561324,-18969.366726,-10255.002708,11821.994105,-10192.596637,1114.010944,10387.548552,19081.773648,22412.474145,4981.086252,4101.925087,0.008000,-0.018000,1.002000,192.000000,0.000000,0.000000,0.000000,0.000000,0.000000,0.000000,0.000000,0.000000,0.000000,1770802351.070136,0.000000
4.000000,19869.560882,16726.324466,-3078.058729,-17600.903523,-16298.713243,-582.374702,-18979.268548,-10258.109600,11809.633590,-10228.135911,1095.414292,10361.687584,19067.781456,22394.928026,4974.537191,4098.505270,0.008000,-0.018000,1.002000,192.000000,0.000000,0.000000,0.000000,0.000000,0.000000,0.000000,0.000000,0.000000,0.000000,1770802351.070148,0.000000
6.000000,19888.559865,16751.134902,-3068.693348,-17574.193188,-16275.735650,-561.386414,-18955.910975,-10237.903623,11826.307991,-10201.962018,1117.743685,10386.028634,19087.808619,22410.663654,4980.370996,4103.109730,0.008000,-0.018000,1.002000,192.000000,0.000000,0.000000,0.000000,0.000000,0.000000,0.000000,0.000000,0.000000,0.000000,1770802351.070160,0.000000
8.000000,19868.443295,16732.135920,-3082.931409,-17590.219389,-16297.036862,-569.835373,-18977.413354,-10253.751010,11810.013570,-10200.755024,1107.171310,10385.671006,19098.023367,22416.989197,4975.721833,4109.368218,0.007000,-0.017000,1.001000,192.000000,0.000000,24.000000,127.500000,64.000000,15.500000,32.000000,0.000000,0.000000,0.000000,1770802351.070171,0.000000
10.000000,19878.121600,16743.825882,-3072.984883,-17576.674232,-16283.581112,-554.524428,-18964.292880,-10242.955118,11816.070892,-10199.749196,1103.684438,10385.827468,19080.767820,22420.900753,4979.745147,4119.024172,0.007000,-0.017000,1.001000,192.000000,0.000000,0.000000,0.000000,0.000000,0.000000,0.000000,0.000000,0.000000,0.000000,1770802351.070182,0.000000
12.000000,19878.367469,16742.395370,-3080.696235,-17579.378793,-16284.542237,-554.010338,-18966.863330,-10248.945385,11812.762834,-10191.747271,1108.512415,10403.552401,19080.186675,22427.226296,4975.140688,4120.767608,0.007000,-0.017000,1.001000,192.000000,0.000000,0.000000,0.000000,0.000000,0.000000,0.000000,0.000000,0.000000,0.000000,1770802351.070194,0.000000
14.000000,19862.475379,16723.172870,-3088.362883,-17592.543971,-16297.685063,-559.710033,-18980.408487,-10263.250502,11803.352750,-10216.110672,1088.909935,10373.243436,19063.020535,22421.034863,4972.391423,4126.847282,0.007000,-0.017000,1.001000,192.000000,0.000000,0.000000,0.000000,0.000000,0.000000,0.000000,0.000000,0.000000,0.000000,1770802351.070206,0.000000
16.000000,19878.389821,16740.808396,-3080.115089,-17575.578997,-16276.294443,-540.643995,-18962.281223,-10247.000783,11810.594715,-10208.086396,1098.699999,10387.772070,19082.310090,22444.146567,4974.291322,4128.657774,0.007000,-0.017000,1.001000,192.000000,0.000000,0.000000,0.000000,0.000000,0.000000,0.000000,0.000000,0.000000,0.000000,1770802351.070217,0.000000
18.000000,19857.736809,16718.836632,-3091.603886,-17597.617817,-16300.076699,-560.000606,-18984.476505,-10263.697536,11796.177840,-10213.540222,1090.385150,10379.948959,19068.519064,22382.969842,4970.737394,4120.030000,0.006500,-0.013500,1.000500,192.000000,0.000000,24.000000,127.500000,88.000000,15.500000,32.000000,0.000000,0.000000,0.000000,1770802351.070229,0.000000
20.000000,19872.690126,16731.733588,-3082.283209,-17589.258264,-16295.315778,-555.977292,-18972.250101,-10252.164036,11807.107843,-10223.039713,1093.804967,10374.651596,19069.100209,22384.288595,4975.297150,4119.001820,0.006500,-0.013500,1.000500,192.000000,0.000000,0.000000,0.000000,0.000000,0.000000,0.000000,0.000000,0.000000,0.000000,1770802351.070240,0.000000
22.000000,19868.309184,16729.252545,-3085.926543,-17593.840372,-16297.483897,-563.867457,-18971.803066,-10255.606205,11803.866840,-10207.237030,1100.555193,10384.866343,19078.242073,22408.294369,4971.497353,4109.770550,0.006500,-0.013500,1.000500,192.000000,0.000000,0.000000,0.000000,0.000000,0.000000,0.000000,0.000000,0.000000,0.000000,1770802351.070252,0.000000
24.000000,19862.117751,16721.854117,-3086.887668,-17603.317511,-16303.764737,-577.300856,-18981.570778,-10261.730583,11790.455793,-10234.506158,1084.283124,10354.646785,19061.210044,22397.587883,4966.311749,4102.215660,0.006500,-0.013500,1.000500,192.000000,0.000000,0.000000,0.000000,0.000000,0.000000,0.000000,0.000000,0.000000,0.000000,1770802351.070264,0.000000
26.000000,19879.149780,16739.981382,-3078.863392,-17584.363232,-16283.447001,-567.600199,-18961.588319,-10245.614975,11807.532526,-10216.602411,1105.584336,10380.217180,19070.106038,22401.611197,4974.291322,4105.791939,0.006500,-0.013500,1.000500,192.000000,0.000000,0.000000,0.000000,0.000000,0.000000,0.000000,0.000000,0.000000,0.000000,1770802351.070277,0.000000
28.000000,19862.251861,16720.110681,-3088.787566,-17606.357349,-16302.155412,-587.336789,-18981.391964,-10260.434182,11795.395529,-10221.788016,1095.838975,10369.890674,19071.447143,22408.875514,4970.603284,4100.785148,0.007250,-0.009750,1.002250,192.000000,0.000000,32.000000,127.500000,104.000000,15.500000,48.000000,0.000000,0.000000,0.000000,1770802351.070288,0.000000
30.000000,19876.802847,16736.539213,-3078.036377,-17588.990043,-16291.672443,-565.365024,-18967.355069,-10245.883196,11805.856145,-10225.721923,1101.762188,10366.135581,19071.670660,22410.395433,4977.688787,4108.071817,0.007250,-0.009750,1.002250,192.000000,0.000000,0.000000,0.000000,0.000000,0.000000,0.000000,0.000000,0.000000,0.000000,1770802351.070300,0.000000
32.000000,19880.468533,16740.249603,-3081.769119,-17585.637282,-16285.928045,-565.901466,-18967.064496,-10244.318574,11803.218639,-10205.314780,1109.272374,10385.380433,19096.324634,22408.830811,4972.950217,4109.770550,0.007250,-0.009750,1.002250,192.000000,0.000000,0.000000,0.000000,0.000000,0.000000,0.000000,0.000000,0.000000,0.000000,1770802351.070312,0.000000
34.000000,19872.287795,16733.141748,-3085.300694,-17594.577979,-16296.790993,-573.948094,-18981.146095,-10254.399211,11802.346921,-10224.313763,1099.683475,10364.034517,19073.190579,22409.367253,4973.978397,4116.207852,0.007250,-0.009750,1.002250,192.000000,0.000000,0.000000,0.000000,0.000000,0.000000,0.000000,0.000000,0.000000,0.000000,1770802351.070323,0.000000
36.000000,19888.693975,16751.872510,-3074.571857,-17575.377831,-16268.381926,-553.853876,-18959.420199,-10239.423542,11810.102977,-10205.940629,1115.128531,10385.581599,19083.830009,22418.889096,4974.336025,4122.667506,0.007250,-0.009750,1.002250,192.000000,0.000000,0.000000,0.000000,0.000000,0.000000,0.000000,0.000000,0.000000,0.000000,1770802351.070335,0.000000
38.000000,19865.068181,16724.916306,-3088.966380,-17599.696529,-16298.556781,-559.441812,-18984.476505,-10261.909397,11798.167145,-10200.643265,1102.991534,10372.461125,19081.103096,22426.488689,4973.084327,4124.343887,0.005625,-0.008875,1.004125,192.000000,0.000000,16.000000,127.500000,96.000000,15.500000,56.000000,0.000000,0.000000,0.000000,1770802351.070347,0.000000
40.000000,19881.831990,16741.434245,-3079.444537,-17580.362270,-16291.404222,-552.065736,-18969.143208,-10246.576100,11803.442157,-10226.548937,1100.845766,10372.349366,19080.320785,22419.291427,4973.017272,4121.862843,0.005625,-0.008875,1.004125,192.000000,0.000000,0.000000,0.000000,0.000000,0.000000,0.000000,0.000000,0.000000,0.000000,1770802351.070358,0.000000
42.000000,19872.734830,16732.694713,-3086.306523,-17589.638244,-16292.633568,-560.447640,-18972.563025,-10253.505141,11806.996084,-10197.648132,1111.976935,10393.739986,19096.615207,22433.864764,4973.598417,4120.141759,0.005625,-0.008875,1.004125,192.000000,0.000000,0.000000,0.000000,0.000000,0.000000,0.000000,0.000000,0.000000,0.000000,1770802351.070369,0.000000
44.000000,19853.400571,16714.701559,-3091.335665,-17605.753852,-16307.363368,-577.412615,-18985.705851,-10267.139705,11790.589904,-10231.399266,1086.831222,10356.859607,19071.201273,22408.942569,4972.346720,4110.843433,0.005625,-0.008875,1.004125,192.000000,0.000000,0.000000,0.000000,0.000000,0.000000,0.000000,0.000000,0.000000,0.000000,1770802351.070381,0.000000
46.000000,19863.972946,16726.547983,-3085.054825,-17589.839410,-16294.555818,-569.209524,-18968.115028,-10258.981318,11793.227410,-10220.536318,1096.353066,10373.265788,19071.715363,22420.654883,4974.179563,4110.888137,0.005625,-0.008875,1.004125,192.000000,0.000000,0.000000,0.000000,0.000000,0.000000,0.000000,0.000000,0.000000,0.000000,1770802351.070392,0.000000
48.000000,19848.326725,16708.711291,-3094.844889,-17611.498250,-16313.197173,-586.263905,-18990.109144,-10274.895760,11778.654072,-10228.404132,1083.500812,10358.915968,19079.873750,22389.049517,4970.491525,4103.333247,0.006812,-0.012438,1.008063,192.000000,0.000000,32.000000,127.500000,64.000000,15.500000,80.000000,0.000000,0.000000,0.000000,1770802351.070404,0.000000
50.000000,19866.319879,16728.671399,-3084.428976,-17595.829677,-16295.382833,-576.764414,-18974.842903,-10256.053240,11796.937799,-10232.695667,1090.899240,10359.564168,19071.335384,22406.573284,4973.888990,4106.730712,0.006812,-0.012438,1.008063,192.000000,0.000000,0.000000,0.000000,0.000000,0.000000,0.000000,0.000000,0.000000,0.000000,1770802351.070416,0.000000
52.000000,19870.589062,16735.019295,-3085.635970,-17592.812192,-16292.097126,-577.390263,-18971.445438,-10254.421562,11797.541296,-10209.405149,1104.667914,10384.464012,19076.118657,22430.132023,4971.787926,4103.355599,0.006812,-0.012438,1.008063,192.000000,0.000000,0.000000,0.000000,0.000000,0.000000,0.000000,0.000000,0.000000,0.000000,1770802351.070428,0.000000
54.000000,19863.816483,16731.711236,-3083.646665,-17598.534238,-16297.059214,-570.952960,-18980.564950,-10258.623690,11797.384834,-10224.157300,1092.285048,10362.112267,19072.408268,22413.502325,4968.613978,4104.339076,0.006812,-0.012438,1.008063,192.000000,0.000000,0.000000,0.000000,0.000000,0.000000,0.000000,0.000000,0.000000,0.000000,1770802351.070439,0.000000
56.000000,19886.481152,16752.610118,-3072.962531,-17578.663537,-16279.378984,-556.536085,-18961.185987,-10241.837530,11812.114634,-10204.733635,1111.172272,10382.809983,19085.864018,22415.916314,4978.582856,4112.206890,0.006812,-0.012438,1.008063,192.000000,0.000000,0.000000,0.000000,0.000000,0.000000,0.000000,0.000000,0.000000,0.000000,1770802351.070451,0.000000
58.000000,19868.778571,16731.778292,-3083.914886,-17596.388471,-16299.719071,-570.260056,-18981.459019,-10255.941481,11806.906677,-10207.237030,1104.667914,10376.372680,19088.792096,22431.115500,4972.883162,4109.479977,0.006406,-0.015219,1.008031,192.000000,0.000000,24.000000,127.500000,56.000000,15.500000,64.000000,0.000000,0.000000,0.000000,1770802351.548980,0.000000
60.000000,19878.278062,16745.882242,-3073.431918,-17587.201904,-16286.486839,-558.145411,-18970.037278,-10245.637327,11814.975657,-10214.188422,1106.254888,10375.165686,19082.868884,22433.730654,4981.063900,4117.168977,0.006406,-0.015219,1.008031,192.000000,0.000000,0.000000,0.000000,0.000000,0.000000,0.000000,0.000000,0.000000,0.000000,1770802351.549054,0.000000
62.000000,19875.618205,16745.032876,-3075.488278,-17582.239816,-16283.804629,-549.852914,-18969.746705,-10247.648984,11810.818232,-10189.713262,1112.848653,10389.716672,19087.160419,22437.910430,4975.230095,4117.213680,0.006406,-0.015219,1.008031,192.000000,0.000000,0.000000,0.000000,0.000000,0.000000,0.000000,0.000000,0.000000,0.000000,1770802351.549104,0.000000
64.000000,19863.235338,16732.091216,-3079.019854,-17596.410822,-16294.578170,-565.365024,-18983.493028,-10255.203874,11805.833793,-10217.697646,1098.588240,10365.554436,19080.611358,22427.427462,4972.838458,4117.236032,0.006406,-0.015219,1.008031,192.000000,0.000000,0.000000,0.000000,0.000000,0.000000,0.000000,0.000000,0.000000,0.000000,1770802351.549153,0.000000
66.000000,19883.798943,16750.844330,-3069.252142,-17578.104744,-16279.155466,-551.305777,-18962.102409,-10240.518777,11822.195270,-10198.050463,1114.256813,10385.916875,19096.615207,22434.200041,4973.509010,4115.269079,0.006406,-0.015219,1.008031,192.000000,0.000000,0.000000,0.000000,0.000000,0.000000,0.000000,0.000000,0.000000,0.000000,1770802351.549205,0.000000
68.000000,19859.234376,16723.709312,-3085.635970,-17604.613913,-16311.833717,-570.796498,-18986.532865,-10261.551769,11806.973732,-10204.867745,1101.806891,10371.432945,19080.186675,22417.525639,4967.250522,4111.178709,0.005203,-0.017609,1.007016,192.000000,0.000000,16.000000,127.500000,48.000000,15.500000,56.000000,0.000000,0.000000,0.000000,1770802351.549237,0.000000
70.000000,19871.438428,16739.243774,-3074.281284,-17593.527447,-16295.852220,-571.847030,-18970.953699,-10248.096019,11814.036884,-10226.481882,1104.243231,10367.476686,19070.195445,22422.733596,4969.485696,4108.787073,0.005203,-0.017609,1.007016,192.000000,0.000000,0.000000,0.000000,0.000000,0.000000,0.000000,0.000000,0.000000,0.000000,1770802351.549260,0.000000
72.000000,19867.728039,16736.695675,-3082.819651,-17598.064852,-16306.938685,-587.292086,-18974.462923,-10252.991051,11810.348846,-10210.478033,1111.820473,10376.976177,19083.271215,22416.095128,4965.752955,4099.220526,0.005203,-0.017609,1.007016,192.000000,0.000000,0.000000,0.000000,0.000000,0.000000,0.000000,0.000000,0.000000,0.000000,1770802351.549283,0.000000
74.000000,19871.818408,16739.132016,-3080.204496,-17601.641131,-16314.068891,-591.762434,-18980.743764,-10252.074629,11814.148642,-10221.430388,1100.868118,10358.178360,19086.936901,22416.005721,4965.462382,4094.660770,0.005203,-0.017609,1.007016,192.000000,0.000000,0.000000,0.000000,0.000000,0.000000,0.000000,0.000000,0.000000,0.000000,1770802351.549306,0.000000
76.000000,19891.711461,16759.941490,-3070.526191,-17581.301043,-16299.562609,-566.728481,-18960.224862,-10235.489635,11830.264250,-10202.207887,1118.168368,10380.753622,19091.854285,22438.245706,4972.480830,4101.969791,0.005203,-0.017609,1.007016,192.000000,0.000000,0.000000,0.000000,0.000000,0.000000,0.000000,0.000000,0.000000,0.000000,1770802351.549329,0.000000
78.000000,19875.797019,16746.239870,-3079.757462,-17594.510924,-16318.516888,-579.133699,-18980.319080,-10247.671336,11817.367294,-10193.624818,1110.367609,10376.819715,19078.018555,22429.260305,4962.914284,4098.617029,0.005203,-0.017609,1.007016,192.000000,0.000000,0.000000,0.000000,0.000000,0.000000,0.000000,0.000000,0.000000,0.000000,1770802351.549352,0.000000
80.000000,19890.549170,16765.909405,-3069.989749,-17578.574130,-16293.438231,-559.128888,-18967.131551,-10235.064952,11830.666581,-10198.564553,1113.250984,10379.099593,19080.253730,22445.599430,4966.445859,4103.512061,0.004000,-0.018000,1.006000,192.000000,0.000000,16.000000,127.500000,56.000000,15.500000,56.000000,0.000000,0.000000,0.000000,1770802351.549375,0.000000
82.000000,19883.240149,16760.589690,-3077.097604,-17576.830694,-16295.159315,-549.025899,-18968.427952,-10241.792827,11825.995067,-10169.127306,1122.281089,10398.724425,19096.503448,22449.108654,4967.965778,4113.436236,0.004000,-0.018000,1.006000,192.000000,0.000000,0.000000,0.000000,0.000000,0.000000,0.000000,0.000000,0.000000,0.000000,1770802351.549398,0.000000
84.000000,19862.698896,16735.958068,-3083.624313,-17593.236875,-16305.686987,-560.067661,-18984.744726,-10257.774324,11809.410072,-10204.420710,1099.370551,10367.342575,19081.393669,22436.994009,4966.289397,4115.045561,0.004000,-0.018000,1.006000,192.000000,0.000000,0.000000,0.000000,0.000000,0.000000,0.000000,0.000000,0.000000,0.000000,1770802351.549421,0.000000
86.000000,19877.585158,16750.956088,-3070.861467,-17573.902616,-16275.869760,-537.671213,-18964.114066,-10246.062010,11812.695779,-10196.888172,1110.658182,10380.708919,19095.229399,22434.669427,4974.716005,4127.920166,0.004000,-0.018000,1.006000,192.000000,0.000000,0.000000,0.000000,0.000000,0.000000,0.000000,0.000000,0.000000,0.000000,1770802351.549443,0.000000
88.000000,19850.271326,16719.127204,-3085.255991,-17603.652788,-16297.215676,-558.726556,-18990.913807,-10270.783039,11798.882401,-10202.967847,1098.476481,10366.135581,19080.968986,22438.513927,4970.312711,4122.265175,0.004000,-0.018000,1.006000,192.000000,0.000000,0.000000,0.000000,0.000000,0.000000,0.000000,0.000000,0.000000,0.000000,1770802351.549467,0.000000
90.000000,19859.994335,16729.476062,-3077.365825,-17594.376814,-16292.901789,-555.530257,-18977.815685,-10258.713097,11804.895020,-10224.805501,1094.877850,10353.730363,19082.377146,22439.229183,4976.325330,4118.621840,0.002000,-0.018000,1.008000,192.000000,0.000000,8.000000,127.500000,56.000000,15.500000,64.000000,0.000000,0.000000,0.000000,1770802351.549511,0.000000
92.000000,19862.497731,16730.459539,-3081.679712,-17594.309758,-16298.154449,-568.650731,-18975.781676,-10257.103772,11799.038863,-10201.716149,1105.271412,10375.970349,19085.931073,22432.568363,4967.965778,4110.575212,0.002000,-0.018000,1.008000,192.000000,0.000000,0.000000,0.000000,0.000000,0.000000,0.000000,0.000000,0.000000,0.000000,1770802351.549534,0.000000
94.000000,19853.713495,16721.362379,-3083.736072,-17600.903523,-16301.082528,-580.295990,-18983.895360,-10260.724754,11795.507287,-10225.163129,1091.480385,10349.885863,19079.404364,22383.953319,4965.574141,4108.965887,0.002000,-0.018000,1.008000,192.000000,0.000000,0.000000,0.000000,0.000000,0.000000,0.000000,0.000000,0.000000,0.000000,1770802351.549557,0.000000
96.000000,19864.867015,16741.322487,-3076.315293,-17584.162066,-16288.386737,-560.984082,-18964.829321,-10246.732562,11803.710378,-10218.882289,1106.187833,10372.796401,19095.587027,22400.158334,4970.916208,4113.056256,0.002000,-0.018000,1.008000,192.000000,0.000000,0.000000,0.000000,0.000000,0.000000,0.000000,0.000000,0.000000,0.000000,1770802351.549580,0.000000
98.000000,19844.862204,16718.009617,-3088.027607,-17609.374834,-16312.660731,-577.434966,-18989.393889,-10267.810257,11784.197305,-10216.669466,1093.916725,10356.971366,19084.478210,22411.445965,4965.395327,4105.009628,0.002000,-0.018000,1.008000,192.000000,0.000000,0.000000,0.000000,0.000000,0.000000,0.000000,0.000000,0.000000,0.000000,1770802351.549592,0.000000
100.000000,19862.587138,16733.499376,-3077.321121,-17595.472049,-16294.466411,-566.549667,-18975.669918,-10256.008536,11805.722035,-10219.821062,1094.877850,10351.383430,19093.038928,22425.415805,4970.603284,4109.301163,0.002000,-0.014000,1.006000,192.000000,0.000000,8.000000,127.500000,72.000000,15.500000,56.000000,0.000000,0.000000,0.000000,1770802351.549603,0.000000
102.000000,19867.191597,16740.406065,-3075.644741,-17589.392375,-16286.263321,-563.398071,-18971.579548,-10250.688821,11811.064102,-10205.538297,1103.438569,10373.690471,19091.474306,22405.299235,4975.945351,4108.563555,0.002000,-0.014000,1.006000,192.000000,0.000000,0.000000,0.000000,0.000000,0.000000,0.000000,0.000000,0.000000,0.000000,1770802351.549615,0.000000
104.000000,19858.541472,16733.879356,-3079.690406,-17599.495363,-16301.060176,-566.415556,-18983.671842,-10256.857903,11801.877535,-10217.474129,1090.519260,10354.803247,19085.059355,22410.909523,4973.956045,4110.463454,0.002000,-0.014000,1.006000,192.000000,0.000000,0.000000,0.000000,0.000000,0.000000,0.000000,0.000000,0.000000,0.000000,1770802351.549626,0.000000
106.000000,19880.557940,16756.924004,-3067.508706,-17582.373927,-16275.020394,-547.573036,-18962.795313,-10239.647059,11819.781282,-10204.353655,1106.612516,10370.516523,19096.391689,22455.881233,4976.302979,4115.090265,0.002000,-0.014000,1.006000,192.000000,0.000000,0.000000,0.000000,0.000000,0.000000,0.000000,0.000000,0.000000,0.000000,1770802351.549639,0.000000
108.000000,19859.659059,16736.896841,-3082.104395,-17598.109555,-16296.612179,-554.926760,-18985.996423,-10255.852074,11811.220564,-10192.864858,1103.662086,10364.325090,19114.273085,22415.111651,4976.437089,4117.481901,0.002000,-0.014000,1.006000,192.000000,0.000000,0.000000,0.000000,0.000000,0.000000,0.000000,0.000000,0.000000,0.000000,1770802351.549650,0.000000
110.000000,19868.510350,16745.412856,-3076.471755,-17584.474991,-16288.297330,-547.796553,-18973.702964,-10248.543054,11816.428520,-10216.289486,1099.370551,10360.055907,19087.272178,22418.643226,4974.559542,4125.684992,0.004000,-0.018000,1.006000,192.000000,0.000000,16.000000,127.500000,56.000000,15.500000,56.000000,0.000000,0.000000,0.000000,1770802351.549661,0.000000
112.000000,19861.961289,16740.137844,-3084.473680,-17586.956035,-16288.610254,-546.544855,-18976.027545,-10255.695612,11808.940686,-10192.171954,1104.332638,10374.741003,19099.565637,22440.078549,4972.369072,4131.272928,0.004000,-0.018000,1.006000,192.000000,0.000000,0.000000,0.000000,0.000000,0.000000,0.000000,0.000000,0.000000,0.000000,1770802351.549673,0.000000
114.000000,19852.707666,16729.051379,-3086.842965,-17600.814116,-16301.306045,-559.374757,-18987.873970,-10265.083345,11796.848392,-10215.797748,1085.825394,10346.130770,19089.328538,22429.617933,4970.960912,4124.746218,0.004000,-0.018000,1.006000,192.000000,0.000000,0.000000,0.000000,0.000000,0.000000,0.000000,0.000000,0.000000,0.000000,1770802351.549684,0.000000
116.000000,19866.498693,16742.820053,-3080.092738,-17583.603273,-16284.564589,-557.072527,-18968.249138,-10253.281624,11806.705511,-10206.588829,1099.325848,10358.290119,19106.002939,22445.845299,4976.034758,4124.656811,0.004000,-0.018000,1.006000,192.000000,0.000000,0.000000,0.000000,0.000000,0.000000,0.000000,0.000000,0.000000,0.000000,1770802351.549697,0.000000
118.000000,19843.029361,16716.444995,-3095.358979,-17610.112442,-16310.783185,-584.565173,-18992.456078,-10271.900627,11790.768718,-10219.396379,1085.378359,10343.761485,19082.690070,22434.937648,4964.165981,4110.932840,0.004000,-0.018000,1.006000,192.000000,0.000000,0.000000,0.000000,0.000000,0.000000,0.000000,0.000000,0.000000,0.000000,1770802351.549708,0.000000
120.000000,19856.999201,16731.398312,-3084.071348,-17599.517715,-16300.970769,-575.423309,-18976.452229,-10257.953138,11797.720110,-10230.639306,1086.786519,10340.922814,19068.653174,22422.666540,4965.529438,4104.383779,0.004000,-0.014000,1.004000,192.000000,0.000000,16.000000,127.500000,72.000000,15.500000,48.000000,0.000000,0.000000,0.000000,1770802351.549720,0.000000
122.000000,19859.770818,16733.857004,-3085.032473,-17595.449697,-16300.031996,-578.485498,-18974.306461,-10254.041583,11796.714282,-10201.492632,1100.778711,10358.535988,19092.010747,22418.062081,4963.249560,4102.081549,0.004000,-0.014000,1.004000,192.000000,0.000000,0.000000,0.000000,0.000000,0.000000,0.000000,0.000000,0.000000,0.000000,1770802351.549733,0.000000
124.000000,19853.422922,16727.486757,-3087.245296,-17605.373872,-16307.653941,-576.786766,-18986.644624,-10259.048374,11792.221581,-10222.615030,1091.525089,10344.968479,19074.554035,22391.664671,4965.015348,4101.992142,0.004000,-0.014000,1.004000,192.000000,0.000000,0.000000,0.000000,0.000000,0.000000,0.000000,0.000000,0.000000,0.000000,1770802351.549744,0.000000
126.000000,19876.802847,16752.878338,-3075.644741,-17582.284520,-16285.771583,-556.066699,-18964.449342,-10241.301088,11803.196288,-10206.857050,1107.640696,10364.459200,19083.561788,22410.060157,4969.619807,4109.435273,0.004000,-0.014000,1.004000,192.000000,0.000000,0.000000,0.000000,0.000000,0.000000,0.000000,0.000000,0.000000,0.000000,1770802351.549756,0.000000
128.000000,19861.849530,16733.141748,-3086.150060,-17600.098860,-16302.133060,-572.651693,-18985.459982,-10257.751972,11798.345959,-10202.118480,1101.538670,10362.849875,19098.380995,22424.141756,4968.658682,4109.859956,0.004000,-0.014000,1.004000,192.000000,0.000000,0.000000,0.000000,0.000000,0.000000,0.000000,0.000000,0.000000,0.000000,1770802351.549767,0.000000
130.000000,19872.779533,16747.648030,-3076.181182,-17584.586750,-16291.426574,-556.267864,-18973.188874,-10245.436161,11808.895982,-10211.685027,1100.264621,10357.932491,19085.148762,22435.228221,4974.581894,4117.817178,0.006000,-0.014000,1.002000,192.000000,0.000000,24.000000,127.500000,72.000000,15.500000,40.000000,0.000000,0.000000,0.000000,1770802351.549779,0.000000
132.000000,19872.511312,16749.212652,-3080.405662,-17581.613968,-16286.777411,-547.617739,-18972.898301,-10246.084362,11807.152546,-10181.197248,1108.132435,10377.087936,19091.228436,22431.696645,4970.513877,4120.834663,0.006000,-0.014000,1.002000,192.000000,0.000000,0.000000,0.000000,0.000000,0.000000,0.000000,0.000000,0.000000,0.000000,1770802351.549791,0.000000
134.000000,19854.831082,16736.762731,-3086.798261,-17592.678081,-16296.612179,-549.115306,-18987.069307,-10257.349641,11791.618084,-10212.534393,1085.400711,10358.245415,19083.762954,22442.224317,4969.239827,4124.612108,0.006000,-0.014000,1.002000,192.000000,0.000000,0.000000,0.000000,0.000000,0.000000,0.000000,0.000000,0.000000,0.000000,1770802351.549802,0.000000
136.000000,19870.834931,16754.666478,-3075.398871,-17572.762677,-16283.044670,-537.134771,-18966.371592,-10244.743257,11808.270134,-10195.480012,1098.856461,10376.283273,19086.892198,22430.310837,4973.061976,4129.954175,0.006000,-0.014000,1.002000,192.000000,0.000000,0.000000,0.000000,0.000000,0.000000,0.000000,0.000000,0.000000,0.000000,1770802351.549814,0.000000
138.000000,19845.264536,16724.670437,-3093.392026,-17598.400128,-16306.469298,-565.320321,-18991.539656,-10268.614920,11787.661825,-10197.245800,1087.412368,10363.587482,19086.422811,22420.498421,4964.456554,4126.333192,0.006000,-0.014000,1.002000,192.000000,0.000000,0.000000,0.000000,0.000000,0.000000,0.000000,0.000000,0.000000,0.000000,1770802351.549825,0.000000
140.000000,19854.249937,16734.080521,-3084.987770,-17587.224255,-16302.021301,-566.572018,-18978.329775,-10257.461400,11791.752194,-10213.026132,1083.456109,10354.557378,19071.693012,22408.696700,4965.238865,4125.573233,0.008000,-0.014000,1.008000,192.000000,0.000000,32.000000,127.500000,72.000000,15.500000,64.000000,0.000000,0.000000,0.000000,1770802351.549837,0.000000
142.000000,19858.161492,16738.215594,-3088.072310,-17592.163991,-16300.456679,-568.337806,-18978.218016,-10257.841379,11790.500497,-10198.028111,1094.654333,10377.266750,19083.561788,22431.093148,4958.823914,4117.057218,0.008000,-0.014000,1.008000,192.000000,0.000000,0.000000,0.000000,0.000000,0.000000,0.000000,0.000000,0.000000,0.000000,1770802351.549848,0.000000
144.000000,19854.093475,16729.856042,-3089.592229,-17599.718881,-16305.508173,-569.500097,-18987.762211,-10263.809295,11790.567552,-10219.329324,1082.137356,10349.796456,19080.700765,22404.785145,4961.483772,4109.681143,0.008000,-0.014000,1.008000,192.000000,0.000000,0.000000,0.000000,0.000000,0.000000,0.000000,0.000000,0.000000,0.000000,1770802351.549860,0.000000
146.000000,19878.121600,16753.928870,-3075.980017,-17583.491514,-16280.854199,-556.603140,-18965.589281,-10245.905548,11810.125328,-10195.234143,1104.422045,10375.456259,19100.929093,22420.140793,4969.731566,4108.764721,0.008000,-0.014000,1.008000,192.000000,0.000000,0.000000,0.000000,0.000000,0.000000,0.000000,0.000000,0.000000,0.000000,1770802351.549871,0.000000
148.000000,19862.609489,16735.443978,-3086.060653,-17606.670273,-16303.474164,-579.491327,-18987.695156,-10261.372955,11800.312913,-10195.301198,1096.442473,10363.073392,19101.398480,22425.438157,4969.217476,4102.685047,0.008000,-0.014000,1.008000,192.000000,0.000000,0.000000,0.000000,0.000000,0.000000,0.000000,0.000000,0.000000,0.000000,1770802351.549883,0.000000
150.000000,19877.808676,16750.106722,-3074.817726,-17591.918122,-16289.750193,-558.994777,-18972.607729,-10246.285528,11821.345904,-10209.338094,1101.896298,10360.368831,19096.928131,22419.336131,4975.855944,4108.228279,0.006000,-0.013000,1.008000,192.000000,0.000000,16.000000,127.500000,80.000000,15.500000,64.000000,0.000000,0.000000,0.000000,1770802351.549895,0.000000
152.000000,19881.474362,16751.671344,-3078.773985,-17588.431250,-16284.855161,-554.904408,-18971.333679,-10245.302051,11818.708398,-10186.136983,1111.507548,10378.183172,19092.882465,22447.119349,4971.586760,4112.989201,0.006000,-0.013000,1.008000,192.000000,0.000000,0.000000,0.000000,0.000000,0.000000,0.000000,0.000000,0.000000,0.000000,1770802351.549906,0.000000
154.000000,19875.171170,16746.351629,-3077.410528,-17591.828715,-16289.504324,-555.954940,-18979.290900,-10247.559577,11817.568459,-10194.697701,1098.677647,10358.625395,19092.278968,22391.485857,4971.698519,4118.532433,0.006000,-0.013000,1.008000,192.000000,0.000000,0.000000,0.000000,0.000000,0.000000,0.000000,0.000000,0.000000,0.000000,1770802351.549927,0.000000
156.000000,19887.084649,16762.578996,-3072.515496,-17573.187360,-16268.247815,-526.450637,-18961.588319,-10237.166016,11828.520814,-10185.220562,1112.669839,10381.468878,19103.477192,22434.937648,4975.788888,4128.881291,0.006000,-0.013000,1.008000,192.000000,0.000000,0.000000,0.000000,0.000000,0.000000,0.000000,0.000000,0.000000,0.000000,1770802351.549938,0.000000
158.000000,19860.195501,16732.515899,-3089.681636,-17595.561456,-16294.421708,-539.213483,-18986.018775,-10261.819990,11811.645247,-10186.673425,1096.934211,10364.660366,19100.169134,22437.105767,4971.519705,4131.943480,0.006000,-0.013000,1.008000,192.000000,0.000000,0.000000,0.000000,0.000000,0.000000,0.000000,0.000000,0.000000,0.000000,1770802351.549950,0.000000
160.000000,19861.514254,16736.695675,-3084.518383,-17590.577017,-16287.805592,-546.097821,-18977.636871,-10258.646042,11815.065064,-10203.012550,1094.341409,10351.495189,19099.252713,22414.374043,4976.638255,4135.519759,0.008000,-0.009500,1.007000,192.000000,0.000000,40.000000,127.500000,104.000000,15.500000,56.000000,0.000000,0.000000,0.000000,1770802351.549962,0.000000
162.000000,19859.524949,16733.633486,-3089.994560,-17592.812192,-16288.006757,-556.871361,-18978.821514,-10264.256330,11801.005817,-10195.077681,1094.542574,10361.888750,19109.847440,22423.828831,4972.614941,4128.344849,0.008000,-0.009500,1.007000,192.000000,0.000000,0.000000,0.000000,0.000000,0.000000,0.000000,0.000000,0.000000,0.000000,1770802351.549973,0.000000
164.000000,19848.997277,16721.071806,-3096.789491,-17606.446756,-16306.491650,-567.287274,-18992.411374,-10275.678071,11794.881439,-10216.445949,1074.381301,10329.411665,19081.483076,22407.914389,4970.200952,4128.009573,0.008000,-0.009500,1.007000,192.000000,0.000000,0.000000,0.000000,0.000000,0.000000,0.000000,0.000000,0.000000,0.000000,1770802351.549985,0.000000
166.000000,19864.665850,16739.042609,-3089.212249,-17592.767488,-16291.247760,-566.482611,-18974.395868,-10260.925920,11801.318741,-10208.466376,1087.769996,10341.526311,19094.111811,22405.254532,4969.575103,4118.554785,0.008000,-0.009500,1.007000,192.000000,0.000000,0.000000,0.000000,0.000000,0.000000,0.000000,0.000000,0.000000,0.000000,1770802351.549997,0.000000
168.000000,19839.944820,16712.220515,-3102.913869,-17613.509907,-16316.527583,-584.386359,-18996.993482,-10280.438993,11788.444136,-10207.527603,1080.013940,10329.791645,19070.977756,22400.158334,4959.717984,4102.774453,0.008000,-0.009500,1.007000,192.000000,0.000000,0.000000,0.000000,0.000000,0.000000,0.000000,0.000000,0.000000,0.000000,1770802351.550009,0.000000
170.000000,19853.534681,16726.592687,-3089.078139,-17600.568247,-16307.519830,-572.919914,-18981.079040,-10265.664490,11792.243933,-10225.230184,1076.348254,10319.062807,19071.894177,22387.417839,4960.992034,4102.036846,0.007000,-0.008750,1.004500,192.000000,0.000000,24.000000,127.500000,96.000000,15.500000,40.000000,0.000000,0.000000,0.000000,1770802351.550020,0.000000
172.000000,19865.917547,16740.450769,-3088.631104,-17595.941436,-16296.343958,-565.163859,-18975.714621,-10255.270929,11798.524773,-10196.284675,1093.268525,10344.722610,19086.512218,22428.634456,4961.930807,4101.433349,0.007000,-0.008750,1.004500,192.000000,0.000000,0.000000,0.000000,0.000000,0.000000,0.000000,0.000000,0.000000,0.000000,1770802351.550032,0.000000
174.000000,19864.419981,16741.166024,-3087.915848,-17599.361253,-16307.944513,-569.254228,-18985.057650,-10253.639251,11803.889192,-10212.601449,1086.719464,10337.525348,19083.874712,22403.354633,4962.936635,4103.445006,0.007000,-0.008750,1.004500,192.000000,0.000000,0.000000,0.000000,0.000000,0.000000,0.000000,0.000000,0.000000,0.000000,1770802351.550043,0.000000
176.000000,19894.237208,16771.989080,-3071.017929,-17569.521674,-16277.546141,-541.359251,-18957.363839,-10227.241841,11818.127253,-10190.316759,1108.914746,10363.878055,19091.071974,22399.420726,4970.044490,4111.916317,0.007000,-0.008750,1.004500,192.000000,0.000000,0.000000,0.000000,0.000000,0.000000,0.000000,0.000000,0.000000,0.000000,1770802351.550055,0.000000
178.000000,19878.702745,16755.538196,-3082.730244,-17588.699471,-16301.820135,-552.780992,-18978.575644,-10241.770475,11812.159337,-10175.564608,1109.048856,10364.816828,19097.576332,22435.451738,4968.725737,4115.961983,0.007000,-0.008750,1.004500,192.000000,0.000000,0.000000,0.000000,0.000000,0.000000,0.000000,0.000000,0.000000,0.000000,1770802352.029769,0.000000
180.000000,19893.968987,16769.642147,-3072.359034,-17576.875398,-16282.083545,-543.326204,-18965.633984,-10230.795769,11818.328419,-10189.422690,1108.981801,10357.820732,19106.785251,22440.190308,4975.341854,4123.829797,0.005500,-0.009375,1.005250,192.000000,0.000000,16.000000,127.500000,88.000000,15.500000,56.000000,0.000000,0.000000,0.000000,1770802352.029843,0.000000
182.000000,19892.516123,16769.061001,-3078.282246,-17575.646052,-16280.943606,-536.218349,-18967.243310,-10235.377876,11825.279811,-10170.602521,1119.151845,10373.779878,19112.574352,22439.206831,4975.453612,4122.265175,0.005500,-0.009375,1.005250,192.000000,0.000000,0.000000,0.000000,0.000000,0.000000,0.000000,0.000000,0.000000,0.000000,1770802352.029899,0.000000
184.000000,19873.561844,16746.418684,-3088.362883,-17595.248532,-16296.790993,-548.355347,-18984.498857,-10255.002708,11813.947477,-10194.094204,1094.006132,10342.956822,19089.015614,22420.140793,4972.190258,4127.853111,0.005500,-0.009375,1.005250,192.000000,0.000000,0.000000,0.000000,0.000000,0.000000,0.000000,0.000000,0.000000,0.000000,1770802352.029951,0.000000
186.000000,19882.144914,16758.041591,-3079.131613,-17582.731555,-16284.408126,-548.958844,-18966.103371,-10246.754914,11814.774491,-10195.323550,1098.118853,10353.730363,19099.833858,22417.413881,4970.290359,4126.087323,0.005500,-0.009375,1.005250,192.000000,0.000000,0.000000,0.000000,0.000000,0.000000,0.000000,0.000000,0.000000,0.000000,1770802352.030003,0.000000
188.000000,19852.126521,16726.503280,-3094.129633,-17611.431195,-16309.844412,-577.077338,-18990.645586,-10270.805391,11791.193401,-10207.840527,1082.539687,10336.363058,19099.051547,22409.546066,4965.015348,4119.694724,0.005500,-0.009375,1.005250,192.000000,0.000000,0.000000,0.000000,0.000000,0.000000,0.000000,0.000000,0.000000,0.000000,1770802352.030048,0.000000
190.000000,19869.270309,16742.641239,-3081.255028,-17597.237837,-16294.622874,-565.186210,-18975.379345,-10257.416696,11802.212811,-10223.017362,1081.846783,10325.857738,19081.796000,22423.202982,4970.692691,4119.493558,0.005500,-0.009375,1.005250,192.000000,0.000000,0.000000,127.500000,96.000000,15.500000,40.000000,0.000000,0.000000,0.000000,1770802352.030074,0.000000
192.000000,19869.002088,16741.791873,-3086.664151,-17599.741232,-16295.986330,-574.395129,-18977.480409,-10258.109600,11801.609314,-10204.264248,1091.435682,10344.275575,19092.390727,22384.310947,4966.311749,4110.083474,0.005500,-0.009375,1.005250,192.000000,0.000000,0.000000,0.000000,0.000000,0.000000,0.000000,0.000000,0.000000,0.000000,1770802352.030100,0.000000
194.000000,19858.586175,16730.325428,-3084.563087,-17612.973465,-16306.961037,-579.603085,-18986.152886,-10262.267025,11796.848392,-10228.895870,1076.057682,10321.610906,19086.691032,22383.059249,4970.022138,4105.076683,0.005500,-0.009375,1.005250,192.000000,0.000000,0.000000,0.000000,0.000000,0.000000,0.000000,0.000000,0.000000,0.000000,1770802352.030125,0.000000
196.000000,19883.821295,16760.097952,-3067.732223,-17587.403069,-16283.871685,-556.513733,-18959.978993,-10242.061048,11811.712302,-10214.791920,1095.034313,10341.056924,19087.786268,22419.984331,4970.871505,4106.775416,0.005500,-0.009375,1.005250,192.000000,0.000000,0.000000,0.000000,0.000000,0.000000,0.000000,0.000000,0.000000,0.000000,1770802352.030151,0.000000
198.000000,19861.782475,16738.506167,-3085.255991,-17608.860744,-16310.291446,-576.876173,-18985.035298,-10262.155266,11801.676369,-10206.410015,1088.865231,10339.984040,19097.822201,22407.400299,4966.848191,4104.003799,0.005500,-0.009375,1.005250,192.000000,0.000000,0.000000,0.000000,0.000000,0.000000,0.000000,0.000000,0.000000,0.000000,1770802352.030177,0.000000
200.000000,19877.361641,16757.706315,-3072.224924,-17588.475953,-16295.338129,-558.950074,-18965.119894,-10243.491559,11814.573325,-10211.819138,1093.335580,10336.877148,19098.179829,22387.730764,4970.580932,4110.195233,0.005500,-0.009375,1.005250,192.000000,0.000000,0.000000,127.500000,80.000000,15.500000,48.000000,0.000000,0.000000,0.000000,1770802352.030202,0.000000
202.000000,19872.377202,16756.208748,-3077.231714,-17589.034747,-16286.844467,-559.777088,-18968.293842,-10244.944423,11809.253610,-10190.629684,1104.913784,10357.418401,19101.040852,22420.632532,4969.016310,4116.409018,0.005500,-0.009375,1.005250,192.000000,0.000000,0.000000,0.000000,0.000000,0.000000,0.000000,0.000000,0.000000,0.000000,1770802352.030228,0.000000
204.000000,19864.621146,16747.111588,-3081.478546,-17599.495363,-16304.882324,-560.626454,-18981.056688,-10253.751010,11808.493651,-10219.664600,1089.133452,10334.999601,19084.880541,22403.220523,4965.864714,4119.091227,0.005500,-0.009375,1.005250,192.000000,0.000000,0.000000,0.000000,0.000000,0.000000,0.000000,0.000000,0.000000,0.000000,1770802352.030253,0.000000
206.000000,19881.496713,16767.809304,-3071.040281,-17573.567340,-16280.384812,-543.840294,-18958.414371,-10238.596527,11819.378951,-10197.871649,1101.851595,10355.138523,19100.191486,22408.987273,4974.850115,4129.060105,0.005500,-0.009375,1.005250,192.000000,0.000000,0.000000,0.000000,0.000000,0.000000,0.000000,0.000000,0.000000,0.000000,1770802352.030278,0.000000
208.000000,19854.898137,16737.992077,-3089.212249,-17600.657654,-16308.905638,-569.142469,-18985.795258,-10262.892874,11800.268209,-10201.313818,1089.178156,10347.807151,19091.876637,22413.859953,4966.647025,4123.025134,0.005500,-0.009375,1.005250,192.000000,0.000000,0.000000,0.000000,0.000000,0.000000,0.000000,0.000000,0.000000,0.000000,1770802352.030304,0.000000
210.000000,19862.363620,16744.630545,-3081.053863,-17589.571189,-16300.233161,-573.165783,-18972.495970,-10254.309804,11806.258477,-10221.072760,1086.630057,10341.571014,19092.346024,22385.294424,4967.988130,4125.461474,0.005500,-0.009375,1.005250,192.000000,0.000000,0.000000,127.500000,88.000000,15.500000,64.000000,0.000000,0.000000,0.000000,1770802352.030330,0.000000
212.000000,19862.229510,16742.574184,-3082.350264,-17593.013357,-16303.094185,-576.697359,-18972.428915,-10253.818065,11802.458680,-10206.365312,1093.961429,10356.189055,19081.952462,22406.126250,4963.137801,4119.046523,0.005500,-0.009375,1.005250,192.000000,0.000000,0.000000,0.000000,0.000000,0.000000,0.000000,0.000000,0.000000,0.000000,1770802352.030355,0.000000
214.000000,19854.093475,16730.973629,-3081.322084,-17605.709148,-16313.286580,-582.844088,-18981.459019,-10258.668394,11798.614180,-10223.196175,1079.343388,10333.680848,19071.201273,22365.937813,4963.920112,4109.658791,0.005500,-0.009375,1.005250,192.000000,0.000000,0.000000,0.000000,0.000000,0.000000,0.000000,0.000000,0.000000,0.000000,1770802352.030380,0.000000
216.000000,19867.728039,16743.535309,-3069.229790,-17592.052232,-16293.617045,-579.223106,-18962.303574,-10241.882234,11807.130195,-10224.269059,1098.029446,10352.277500,19078.845570,22381.025241,4972.078499,4104.830814,0.005500,-0.009375,1.005250,192.000000,0.000000,0.000000,0.000000,0.000000,0.000000,0.000000,0.000000,0.000000,0.000000,1770802352.030406,0.000000
218.000000,19855.546338,16728.738454,-3083.646665,-17614.068701,-16319.187441,-594.936382,-18985.392926,-10257.528455,11801.989293,-10220.245745,1089.915763,10340.811055,19079.918454,22370.631679,4964.188333,4097.588849,0.005500,-0.009375,1.005250,192.000000,0.000000,0.000000,0.000000,0.000000,0.000000,0.000000,0.000000,0.000000,0.000000,1770802352.030432,0.000000
220.000000,19877.741620,16751.939565,-3072.560200,-17594.801497,-16302.982426,-574.328074,-18968.718525,-10240.831702,11819.982448,-10220.804539,1097.113025,10347.471875,19085.618149,22373.470351,4967.027005,4103.377951,0.005500,-0.009375,1.005250,192.000000,0.000000,0.000000,0.000000,0.000000,0.000000,0.000000,0.000000,0.000000,0.000000,1770802352.030457,0.000000
222.000000,19871.661946,16749.480873,-3077.522287,-17592.856895,-16304.502345,-579.513678,-18967.667993,-10243.089228,11814.573325,-10201.470280,1105.517281,10364.056869,19090.624939,22397.319662,4961.416717,4103.020323,-0.002000,-0.008000,1.004000,192.000000,127.500000,120.000000,127.500000,96.000000,15.500000,48.000000,0.000000,0.000000,0.000000,1770802352.030482,0.000000
224.000000,19860.217853,16736.472158,-3076.672921,-17599.629474,-16312.057234,-574.328074,-18977.078077,-10250.755876,11798.502421,-10220.804539,1085.847746,10340.319316,19079.136143,22387.060212,4960.746164,4108.697666,-0.002000,-0.008000,1.004000,192.000000,0.000000,0.000000,0.000000,0.000000,0.000000,0.000000,0.000000,0.000000,0.000000,1770802352.030506,0.000000
