Sample_index,EXG Channel 0,EXG Channel 1,EXG Channel 2,EXG Channel 3,EXG Channel 4,EXG Channel 5,EXG Channel 6,EXG Channel 7,EXG Channel 8,EXG Channel 9,EXG Channel 10,EXG Channel 11,EXG Channel 12,EXG Channel 13,EXG Channel 14,EXG Channel 15,Accel Channel 0,Accel Channel 1,Accel Channel 2,Not Used,Digital Channel 0 (D11),Digital Channel 1 (D12),Digital Channel 2 (D13),Digital Channel 3 (D17),Not Used,Digital Channel 4 (D18),Analog Channel 0,Analog Channel 1,Analog Channel 2,Timestamp,Marker Channel
90.000000,37947.674149,32885.719286,14770.636233,-2744.034260,864.453717,21876.188740,-1322.195092,1697.793805,28724.427965,1730.226187,23552.077836,35795.916414,36316.801467,40351.336044,20540.627306,24565.237709,0.008000,-0.004000,1.006000,192.000000,0.000000,0.000000,0.000000,0.000000,0.000000,0.000000,0.000000,0.000000,0.000000,1770800812.148083,101.000000
92.000000,37952.122146,32887.932108,14766.881140,-2745.889455,872.634455,21868.477388,-1323.960879,1697.056198,28735.425023,1729.801503,23556.816406,35802.063143,36316.935577,40344.339948,20541.141396,24563.986011,0.008000,-0.004000,1.006000,192.000000,0.000000,0.000000,0.000000,0.000000,0.000000,0.000000,0.000000,0.000000,0.000000,1770800812.148149,0.000000
94.000000,37959.073539,32893.184768,14781.029794,-2740.480332,873.774394,21865.951641,-1317.411818,1703.895832,28743.046968,1733.847169,23557.106979,35801.839626,36325.272778,40345.569294,20544.315343,24563.181348,0.002000,-0.012000,1.004000,192.000000,0.000000,8.000000,127.500000,80.000000,15.500000,48.000000,0.000000,0.000000,0.000000,1770800812.148192,0.000000
96.000000,37961.308713,32897.275138,14782.393251,-2741.195588,873.640284,21844.538670,-1318.216481,1704.856957,28748.500794,1739.636271,23568.484016,35808.522798,36331.531266,40355.448765,20548.405713,24560.007401,0.002000,-0.012000,1.004000,192.000000,0.000000,0.000000,0.000000,0.000000,0.000000,0.000000,0.000000,0.000000,0.000000,1770800812.148230,0.000000
98.000000,37960.571106,32897.364545,14781.275664,-2739.474504,871.248647,21845.075112,-1316.227176,1704.454625,28751.786500,1738.183408,23561.733790,35810.646213,36320.265987,40351.179582,20539.330904,24550.150281,0.002000,-0.012000,1.004000,192.000000,0.000000,0.000000,0.000000,0.000000,0.000000,0.000000,0.000000,0.000000,0.000000,1770800812.148281,0.000000
100.000000,37958.179469,32893.251824,14780.560408,-2740.346222,867.314740,21853.613478,-1315.869548,1703.024114,28740.588276,1738.719849,23562.314935,35800.610280,36320.355394,40356.096966,20545.365875,24547.333961,0.002000,-0.012000,1.004000,192.000000,0.000000,0.000000,0.000000,0.000000,0.000000,0.000000,0.000000,0.000000,0.000000,1770800812.148321,0.000000
102.000000,37952.882105,32891.955422,14769.496294,-2744.861274,857.189400,21842.683475,-1319.579937,1699.559593,28733.681587,1735.523550,23559.565670,35804.901815,36307.614900,40349.503201,20541.677838,24543.444758,0.002000,-0.012000,1.004000,192.000000,0.000000,0.000000,0.000000,0.000000,0.000000,0.000000,0.000000,0.000000,0.000000,1770800812.148359,0.000000
104.000000,37951.853925,32888.982640,14774.301919,-2742.089658,862.240894,21848.114949,-1317.814150,1699.470186,28733.860401,1736.171751,23550.669676,35800.900853,36300.819969,40345.971626,20542.750721,24545.210546,0.003000,-0.013000,1.003000,192.000000,0.000000,16.000000,127.500000,72.000000,15.500000,40.000000,0.000000,0.000000,0.000000,1770800812.148374,0.000000
106.000000,37950.915152,32891.441332,14768.021079,-2744.838923,865.191324,21827.283123,-1323.335030,1694.910430,28730.574695,1731.164960,23550.379103,35797.793960,36303.993917,40347.469192,20546.595221,24552.564270,0.003000,-0.013000,1.003000,192.000000,0.000000,0.000000,0.000000,0.000000,0.000000,0.000000,0.000000,0.000000,0.000000,1770800812.148392,0.000000
108.000000,37945.684844,32887.283908,14766.009422,-2742.670803,863.537295,21850.975973,-1324.072638,1693.681084,28729.501811,1732.617823,23541.527813,35800.319707,36294.114446,40345.792812,20536.089901,24556.609935,0.003000,-0.013000,1.003000,192.000000,0.000000,0.000000,0.000000,0.000000,0.000000,0.000000,0.000000,0.000000,0.000000,1770800812.148406,0.000000
110.000000,37951.228076,32893.229472,14775.531265,-2740.547388,867.582961,21863.358839,-1321.748057,1699.023151,28728.898314,1734.182445,23547.316914,35797.324574,36301.401115,40354.867620,20544.583564,24566.981145,0.003000,-0.013000,1.003000,192.000000,0.000000,0.000000,0.000000,0.000000,0.000000,0.000000,0.000000,0.000000,0.000000,1770800812.148418,0.000000
112.000000,37955.676074,32897.006917,14775.240693,-2739.854484,872.701511,21882.804857,-1323.066810,1699.649000,28734.106271,1737.088172,23551.742560,35812.434353,36303.435123,40355.337006,20540.247326,24570.244499,0.003000,-0.013000,1.003000,192.000000,0.000000,0.000000,0.000000,0.000000,0.000000,0.000000,0.000000,0.000000,0.000000,1770800812.148430,0.000000
114.000000,37959.922905,32899.644422,14784.471963,-2735.607652,885.240839,21880.972014,-1320.675173,1704.879308,28737.436680,1746.721774,23549.976772,35814.513065,36312.487580,40360.991998,20542.929535,24570.065686,0.005500,-0.010500,1.003500,192.000000,0.000000,32.000000,127.500000,96.000000,15.500000,48.000000,0.000000,0.000000,0.000000,1770800812.148443,0.000000
116.000000,37958.738263,32893.810617,14781.298015,-2738.960414,878.110633,21878.088639,-1323.647955,1699.984276,28739.493041,1747.504085,23560.280926,35809.081591,36317.896702,40364.992960,20549.322134,24574.603090,0.005500,-0.010500,1.003500,192.000000,0.000000,0.000000,0.000000,0.000000,0.000000,0.000000,0.000000,0.000000,0.000000,1770800812.148455,0.000000
118.000000,37956.525440,32891.307222,14777.542922,-2735.540597,878.267095,21884.972976,-1321.993926,1699.201965,28740.722387,1741.424411,23554.313010,35807.293452,36310.587682,40364.680036,20540.403788,24574.200758,0.005500,-0.010500,1.003500,192.000000,0.000000,0.000000,0.000000,0.000000,0.000000,0.000000,0.000000,0.000000,0.000000,1770800812.148468,0.000000
120.000000,37952.524478,32885.763989,14778.749916,-2735.652356,877.596543,21876.300499,-1321.792760,1698.978448,28736.319093,1743.637233,23555.385894,35800.543225,36315.750935,40372.592553,20544.494157,24579.676936,0.005500,-0.010500,1.003500,192.000000,0.000000,0.000000,0.000000,0.000000,0.000000,0.000000,0.000000,0.000000,0.000000,1770800812.148480,0.000000
122.000000,37950.423414,32884.042905,14774.324271,-2743.006080,878.870592,21866.644545,-1323.603251,1697.436177,28742.152899,1734.093038,23555.609412,35800.431466,36309.514798,40365.842326,20542.661314,24570.758590,0.005500,-0.010500,1.003500,192.000000,0.000000,0.000000,0.000000,0.000000,0.000000,0.000000,0.000000,0.000000,0.000000,1770800812.148491,0.000000
124.000000,37949.663454,32880.936012,14781.275664,-2744.168370,879.094109,21854.529900,-1320.563414,1699.537241,28737.682550,1728.482750,23550.267345,35795.223510,36309.850074,40361.774309,20545.589393,24561.750837,0.009750,-0.011250,1.008750,192.000000,0.000000,56.000000,127.500000,80.000000,15.500000,88.000000,0.000000,0.000000,0.000000,1770800812.148504,0.000000
126.000000,37944.656663,32877.203271,14779.018137,-2751.119763,877.998874,21833.541612,-1324.609080,1695.670390,28736.676721,1729.913262,23554.983563,35787.087475,36316.712060,40357.661588,20551.110274,24558.778055,0.009750,-0.011250,1.008750,192.000000,0.000000,0.000000,0.000000,0.000000,0.000000,0.000000,0.000000,0.000000,0.000000,1770800812.148516,0.000000
128.000000,37936.900608,32872.442349,14778.705213,-2751.298577,873.729691,21840.604763,-1325.011411,1690.551840,28733.882753,1723.319498,23545.349961,35783.533547,36301.199949,40348.720890,20543.644791,24554.374761,0.009750,-0.011250,1.008750,192.000000,0.000000,0.000000,0.000000,0.000000,0.000000,0.000000,0.000000,0.000000,0.000000,1770800812.148528,0.000000
130.000000,37939.649873,32873.895213,14781.253312,-2746.224731,864.207848,21845.633906,-1323.759714,1694.195174,28727.803079,1725.487617,23548.501557,35776.068065,36304.038620,40356.029911,20548.964506,24554.911203,0.009750,-0.011250,1.008750,192.000000,0.000000,0.000000,0.000000,0.000000,0.000000,0.000000,0.000000,0.000000,0.000000,1770800812.148540,0.000000
132.000000,37947.696501,32881.852434,14771.619710,-2743.944853,857.144696,21851.601821,-1324.631432,1696.966791,28736.989646,1727.387515,23553.351885,35779.599640,36297.713077,40361.461384,20538.950925,24561.393209,0.009750,-0.011250,1.008750,192.000000,0.000000,0.000000,0.000000,0.000000,0.000000,0.000000,0.000000,0.000000,0.000000,1770800812.148552,0.000000
134.000000,37959.140594,32891.530739,14782.013271,-2736.144094,858.776374,21871.852502,-1318.685868,1708.097960,28746.667951,1738.965719,23556.928165,35780.627821,36300.439990,40370.692655,20533.742968,24562.443741,0.010875,-0.009625,1.010375,192.000000,0.000000,48.000000,127.500000,96.000000,15.500000,80.000000,0.000000,0.000000,0.000000,1770800812.148564,0.000000
136.000000,37963.365074,32896.917510,14783.533190,-2736.613481,864.051385,21869.594976,-1319.848158,1708.209718,28755.049855,1745.604187,23568.685182,35786.975716,36315.706231,40383.053170,20542.147224,24565.930613,0.010875,-0.009625,1.010375,192.000000,0.000000,0.000000,0.000000,0.000000,0.000000,0.000000,0.000000,0.000000,0.000000,1770800812.148577,0.000000
138.000000,37961.241658,32895.911681,14785.410736,-2734.043030,876.098976,21875.942871,-1320.161083,1705.505157,28758.290858,1746.878236,23565.734752,35794.061219,36315.907397,40380.147443,20539.330904,24566.377648,0.010875,-0.009625,1.010375,192.000000,0.000000,0.000000,0.000000,0.000000,0.000000,0.000000,0.000000,0.000000,0.000000,1770800812.148589,0.000000
140.000000,37949.104661,32885.875748,14787.355338,-2737.351088,881.016359,21874.355897,-1322.150388,1700.252497,28746.712654,1745.559483,23566.047676,35786.796902,36318.209626,40383.991943,20553.546614,24572.569081,0.010875,-0.009625,1.010375,192.000000,0.000000,0.000000,0.000000,0.000000,0.000000,0.000000,0.000000,0.000000,0.000000,1770800812.148601,0.000000
142.000000,37945.818954,32879.706666,14776.872370,-2745.017737,875.540182,21862.464769,-1325.212577,1694.530451,28740.700035,1732.282547,23560.638554,35785.835777,36310.252405,40368.144556,20548.182195,24569.417485,0.010875,-0.009625,1.010375,192.000000,0.000000,0.000000,0.000000,0.000000,0.000000,0.000000,0.000000,0.000000,0.000000,1770800812.148613,0.000000
144.000000,37948.098832,32877.270326,14780.560408,-2743.184894,873.796746,21859.670801,-1321.636298,1696.318590,28742.018788,1727.722791,23553.977734,35781.074855,36310.878254,40363.338931,20544.069474,24566.087075,0.010437,-0.009813,1.013187,192.000000,0.000000,40.000000,127.500000,88.000000,15.500000,96.000000,0.000000,0.000000,0.000000,1770800812.148625,0.000000
146.000000,37943.159097,32873.314068,14778.884027,-2748.281091,869.102880,21846.617382,-1324.452618,1692.742311,28738.889544,1729.376820,23560.437388,35774.011704,36312.174655,40361.886068,20545.678800,24564.768322,0.010437,-0.009813,1.013187,192.000000,0.000000,0.000000,0.000000,0.000000,0.000000,0.000000,0.000000,0.000000,0.000000,1770800812.148637,0.000000
148.000000,37942.823820,32876.666829,14781.052146,-2746.783524,870.108708,21832.312266,-1322.463312,1694.888079,28737.146108,1721.330192,23550.982601,35770.904812,36302.429295,40354.599399,20541.029637,24559.336848,0.010437,-0.009813,1.013187,192.000000,0.000000,0.000000,0.000000,0.000000,0.000000,0.000000,0.000000,0.000000,0.000000,1770800812.148649,0.000000
150.000000,37947.405928,32878.745541,14783.779059,-2742.894321,866.845353,21834.055702,-1320.675173,1700.274849,28738.442509,1727.119294,23554.715342,35765.965076,36316.175618,40361.260219,20546.863442,24555.291182,0.010437,-0.009813,1.013187,192.000000,0.000000,0.000000,0.000000,0.000000,0.000000,0.000000,0.000000,0.000000,0.000000,1770800812.148660,0.000000
152.000000,37946.020120,32877.985582,14775.151286,-2743.408411,864.766641,21856.586260,-1322.172740,1698.643172,28739.761262,1724.347678,23555.363542,35771.374198,36309.693612,40359.270914,20540.090864,24554.754741,0.010437,-0.009813,1.013187,192.000000,0.000000,0.000000,0.000000,0.000000,0.000000,0.000000,0.000000,0.000000,0.000000,1770800812.148672,0.000000
154.000000,37950.378710,32882.500634,14783.734355,-2738.803952,873.327359,21859.156711,-1317.769446,1703.426445,28744.969218,1730.963794,23557.174034,35770.457777,36313.694574,40368.591591,20539.777939,24557.995744,0.011219,-0.008906,1.011594,192.000000,0.000000,48.000000,127.500000,96.000000,15.500000,72.000000,0.000000,0.000000,0.000000,1770800812.148683,0.000000
156.000000,37946.824783,32882.277117,14781.007443,-2742.760210,870.511040,21854.328734,-1322.597423,1699.581945,28748.232573,1733.377783,23561.890252,35768.982562,36319.953063,40368.211611,20546.394056,24560.342677,0.011219,-0.008906,1.011594,192.000000,0.000000,0.000000,0.000000,0.000000,0.000000,0.000000,0.000000,0.000000,0.000000,1770800812.148695,0.000000
158.000000,37949.194068,32885.339306,14779.353414,-2741.284995,877.618894,21861.481292,-1322.575071,1700.520718,28752.278239,1732.886044,23551.831967,35773.542318,36314.812161,40363.562448,20539.062683,24562.756665,0.011219,-0.008906,1.011594,192.000000,0.000000,0.000000,0.000000,0.000000,0.000000,0.000000,0.000000,0.000000,0.000000,1770800812.148723,0.000000
160.000000,37947.093004,32881.964193,14782.795582,-2739.854484,875.651941,21874.825284,-1323.826769,1698.129082,28742.622285,1737.378745,23547.652191,35765.249820,36315.125086,40366.445823,20546.841091,24571.719715,0.011219,-0.008906,1.011594,192.000000,0.000000,0.000000,0.000000,0.000000,0.000000,0.000000,0.000000,0.000000,0.000000,1770800812.148735,0.000000
162.000000,37946.243637,32880.868957,14777.319405,-2741.843789,874.444947,21861.883624,-1325.301984,1695.133948,28743.158727,1733.958928,23549.485034,35764.311047,36311.772324,40367.809280,20545.030599,24573.507854,0.011219,-0.008906,1.011594,192.000000,0.000000,0.000000,0.000000,0.000000,0.000000,0.000000,0.000000,0.000000,0.000000,1770800812.148746,0.000000
164.000000,37948.903495,32881.204233,14783.600245,-2740.033298,880.368159,21864.230557,-1321.636298,1698.844337,28747.539669,1735.724716,23545.707589,35760.153623,36317.024984,40367.339893,20545.231765,24570.602127,0.011609,-0.008453,1.012797,192.000000,0.000000,48.000000,127.500000,96.000000,15.500000,88.000000,0.000000,0.000000,0.000000,1770800812.148758,0.000000
166.000000,37953.217382,32883.193539,14781.767402,-2743.944853,876.523659,21853.233499,-1322.128036,1701.414788,28751.540631,1735.434143,23557.665772,35757.605524,36323.752859,40366.892858,20549.076265,24568.366953,0.011609,-0.008453,1.012797,192.000000,0.000000,0.000000,0.000000,0.000000,0.000000,0.000000,0.000000,0.000000,0.000000,1770800812.148768,0.000000
168.000000,37951.004559,32882.031248,14781.365071,-2743.162542,870.667502,21847.667914,-1320.876339,1701.146567,28750.803024,1731.768457,23554.715342,35755.616219,36315.527417,40360.366149,20538.459186,24560.208566,0.011609,-0.008453,1.012797,192.000000,0.000000,0.000000,0.000000,0.000000,0.000000,0.000000,0.000000,0.000000,0.000000,1770800812.148780,0.000000
170.000000,37950.378710,32883.327649,14785.902475,-2740.457981,869.661673,21854.552252,-1319.110551,1703.471148,28745.036274,1736.775248,23557.844586,35751.950532,36325.362185,40365.462347,20544.270640,24561.750837,0.011609,-0.008453,1.012797,192.000000,0.000000,0.000000,0.000000,0.000000,0.000000,0.000000,0.000000,0.000000,0.000000,1770800812.148791,0.000000
172.000000,37947.964722,32884.489940,14777.520570,-2744.816571,863.738461,21842.996400,-1322.262147,1699.649000,28740.051835,1735.389440,23558.470435,35759.125442,36322.277644,40361.975475,20540.560250,24556.386418,0.011609,-0.008453,1.012797,192.000000,0.000000,0.000000,0.000000,0.000000,0.000000,0.000000,0.000000,0.000000,0.000000,1770800812.148802,0.000000
174.000000,37949.037605,32883.081780,14781.879161,-2742.536693,865.571304,21869.013830,-1318.887033,1701.280677,28741.549401,1732.796637,23553.642458,35754.632742,36328.759650,40365.171774,20538.369779,24553.815967,0.011609,-0.008453,1.012797,192.000000,0.000000,0.000000,0.000000,0.000000,0.000000,0.000000,0.000000,0.000000,0.000000,1770800812.148812,0.000000
176.000000,37941.259198,32878.432617,14776.090059,-2748.482257,865.660711,21860.028429,-1323.223272,1695.782148,28736.095576,1728.706268,23555.184729,35749.737710,36332.045356,40360.209687,20544.829434,24557.660467,0.012000,-0.008000,1.018000,192.000000,0.000000,48.000000,127.500000,96.000000,15.500000,104.000000,0.000000,0.000000,0.000000,1770800812.148823,0.000000
178.000000,37936.274759,32876.197443,14773.161980,-2748.750478,863.872571,21853.501720,-1324.072638,1691.378855,28731.848744,1721.509006,23547.853356,35751.190573,36316.376783,40354.755861,20537.006323,24558.219261,0.012000,-0.008000,1.018000,192.000000,0.000000,0.000000,0.000000,0.000000,0.000000,0.000000,0.000000,0.000000,0.000000,1770800812.148834,0.000000
180.000000,37936.922960,32875.169262,14775.195989,-2746.492952,870.086356,21854.775769,-1325.436094,1689.881288,28730.150012,1722.179559,23546.489900,35746.899038,36326.300958,40361.819012,20545.298820,24565.796502,0.012000,-0.008000,1.018000,192.000000,0.000000,0.000000,0.000000,0.000000,0.000000,0.000000,0.000000,0.000000,0.000000,1770800812.148846,0.000000
182.000000,37937.057070,32874.454006,14771.105620,-2745.509475,873.148545,21862.509473,-1326.799551,1690.194212,28736.028521,1722.268966,23547.182804,35755.817384,36325.697461,40360.097928,20543.153053,24567.338773,0.012000,-0.008000,1.018000,192.000000,0.000000,0.000000,0.000000,0.000000,0.000000,0.000000,0.000000,0.000000,0.000000,1770800812.148857,0.000000
184.000000,37939.918094,32882.165358,14781.521533,-2739.474504,869.616970,21864.230557,-1320.317545,1700.766587,28736.632018,1727.074591,23547.115749,35757.672579,36325.853923,40362.936600,20542.013114,24565.796502,0.012000,-0.008000,1.018000,192.000000,0.000000,0.000000,0.000000,0.000000,0.000000,0.000000,0.000000,0.000000,0.000000,1770800812.148868,0.000000
186.000000,37942.220323,32887.507425,14779.621634,-2741.933196,865.414842,21850.372475,-1321.524539,1702.979410,28733.949808,1728.169826,23556.995220,35756.599695,36331.911246,40365.104719,20544.449454,24567.003497,0.010000,-0.010000,1.008000,192.000000,0.000000,40.000000,127.500000,88.000000,15.500000,64.000000,0.000000,0.000000,0.000000,1770800812.148879,0.000000
188.000000,37951.406890,32897.699821,14782.393251,-2741.709678,868.678197,21841.029446,-1318.216481,1710.199024,28754.088730,1728.572157,23559.453912,35763.998123,36330.704252,40361.371977,20536.849861,24559.247441,0.010000,-0.010000,1.008000,192.000000,0.000000,0.000000,0.000000,0.000000,0.000000,0.000000,0.000000,0.000000,0.000000,1770800812.148890,0.000000
190.000000,37956.346626,32905.992318,14788.785850,-2735.697059,875.227258,21855.468673,-1314.908423,1715.608146,28754.960448,1742.989033,23565.600641,35768.401416,36347.222191,40366.602286,20544.315343,24561.750837,0.010000,-0.010000,1.008000,192.000000,0.000000,0.000000,0.000000,0.000000,0.000000,0.000000,0.000000,0.000000,0.000000,1770800812.148901,0.000000
192.000000,37954.737300,32903.019536,14781.119201,-2740.435629,863.850220,21860.073133,-1318.887033,1711.517776,28758.939059,1741.670280,23563.834854,35773.318800,36347.311598,40369.731530,20538.034503,24560.163863,0.010000,-0.010000,1.008000,192.000000,0.000000,0.000000,0.000000,0.000000,0.000000,0.000000,0.000000,0.000000,0.000000,1770800812.148912,0.000000
194.000000,37958.782966,32905.388821,14786.617730,-2736.613481,867.001816,21867.359801,-1315.109589,1714.244689,28754.178137,1740.239768,23556.458778,35769.697818,36336.828630,40368.904515,20539.397960,24556.207604,0.010000,-0.010000,1.008000,192.000000,0.000000,0.000000,0.000000,0.000000,0.000000,0.000000,0.000000,0.000000,0.000000,1770800812.148923,0.000000
196.000000,37954.804355,32900.896120,14781.141553,-2741.329699,866.487726,21859.044952,-1318.015315,1709.863747,28747.338503,1738.161056,23560.079761,35771.642419,36340.293150,40365.529402,20543.376570,24555.134720,0.008000,-0.008000,1.002000,192.000000,0.000000,32.000000,127.500000,96.000000,15.500000,40.000000,0.000000,0.000000,0.000000,1770800812.148935,0.000000
198.000000,37947.785908,32898.236263,14778.101716,-2740.122705,861.145659,21849.456054,-1318.819978,1704.387570,28739.403634,1732.908396,23551.384932,35774.615201,36326.725641,40358.555658,20533.452396,24548.049217,0.008000,-0.008000,1.002000,192.000000,0.000000,0.000000,0.000000,0.000000,0.000000,0.000000,0.000000,0.000000,0.000000,1770800812.148946,0.000000
200.000000,37950.244600,32900.136161,14782.527361,-2739.854484,865.191324,21844.225746,-1318.395295,1706.510986,28735.872058,1735.478846,23552.457816,35770.547184,36334.481696,40367.630466,20539.979105,24555.067665,0.008000,-0.008000,1.002000,192.000000,0.000000,0.000000,0.000000,0.000000,0.000000,0.000000,0.000000,0.000000,0.000000,1770800812.148957,0.000000
202.000000,37948.344701,32896.693992,14776.358280,-2740.010946,869.773432,21851.490063,-1321.993926,1703.851128,28741.214125,1728.795675,23555.430598,35768.759044,36330.972473,40366.915210,20537.207489,24558.509834,0.008000,-0.008000,1.002000,192.000000,0.000000,0.000000,0.000000,0.000000,0.000000,0.000000,0.000000,0.000000,0.000000,1770800812.148970,0.000000
204.000000,37953.172678,32905.210007,14784.583722,-2732.836036,873.170897,21863.850577,-1319.311716,1709.483768,28745.438605,1742.385536,23551.921374,35770.793053,36333.922903,40375.408873,20536.067550,24561.594374,0.008000,-0.008000,1.002000,192.000000,0.000000,0.000000,0.000000,0.000000,0.000000,0.000000,0.000000,0.000000,0.000000,1770800812.149000,0.000000
206.000000,37952.591533,32907.422830,14782.482658,-2737.239329,867.806478,21857.703848,-1322.686830,1706.823910,28740.677683,1742.989033,23558.381028,35773.989352,36339.197915,40377.576992,20542.080169,24566.332944,0.006000,-0.002000,1.006000,192.000000,0.000000,24.000000,127.500000,120.000000,15.500000,56.000000,0.000000,0.000000,0.000000,1770800812.149014,0.000000
208.000000,37950.222248,32903.555978,14781.052146,-2737.418143,868.544086,21874.132380,-1323.402086,1702.688837,28743.717521,1742.743163,23553.351885,35777.543280,36330.368975,40373.888954,20533.362989,24565.751799,0.006000,-0.002000,1.006000,192.000000,0.000000,0.000000,0.000000,0.000000,0.000000,0.000000,0.000000,0.000000,0.000000,1770800812.149026,0.000000
210.000000,37951.228076,32898.683297,14784.360204,-2740.547388,867.582961,21860.006077,-1324.139693,1701.928878,28737.235515,1738.853960,23550.513214,35768.826099,36338.057976,40369.776233,20543.600088,24565.863558,0.006000,-0.002000,1.006000,192.000000,0.000000,0.000000,0.000000,0.000000,0.000000,0.000000,0.000000,0.000000,0.000000,1770800812.628105,0.000000
212.000000,37950.579876,32898.728001,14776.984129,-2744.257777,864.386662,21847.265583,-1327.000717,1699.067855,28740.968256,1732.818989,23553.910679,35768.312009,36336.694519,40358.376844,20541.566079,24564.745970,0.006000,-0.002000,1.006000,192.000000,0.000000,0.000000,0.000000,0.000000,0.000000,0.000000,0.000000,0.000000,0.000000,1770800812.628204,0.000000
214.000000,37948.054129,32897.275138,14784.114335,-2739.943891,875.607237,21875.674650,-1324.318507,1699.872518,28739.046006,1734.383611,23550.535566,35766.970905,36333.453516,40359.159155,20540.470843,24569.529244,0.006000,-0.002000,1.006000,192.000000,0.000000,0.000000,0.000000,0.000000,0.000000,0.000000,0.000000,0.000000,0.000000,1770800812.628262,0.000000
216.000000,37948.344701,32897.141027,14782.013271,-2741.530864,872.008606,21866.197511,-1325.704315,1696.899736,28739.783614,1736.059992,23556.414074,35766.345056,36340.539019,40365.372940,20546.304649,24573.999593,0.006000,-0.004000,1.000000,192.000000,0.000000,24.000000,127.500000,112.000000,15.500000,32.000000,0.000000,0.000000,0.000000,1770800812.628309,0.000000
218.000000,37945.975416,32892.447161,14780.873332,-2741.217940,871.293351,21855.893356,-1323.737362,1695.201003,28742.555230,1731.410829,23551.630801,35772.111806,36328.469077,40361.774309,20536.402826,24563.963659,0.006000,-0.004000,1.000000,192.000000,0.000000,0.000000,0.000000,0.000000,0.000000,0.000000,0.000000,0.000000,0.000000,1770800812.628359,0.000000
220.000000,37947.003597,32892.067181,14785.366033,-2741.754382,874.757871,21848.383170,-1322.575071,1698.844337,28739.202468,1736.082344,23553.173072,35765.003951,36334.146420,40368.412777,20545.142358,24559.113331,0.006000,-0.004000,1.000000,192.000000,0.000000,0.000000,0.000000,0.000000,0.000000,0.000000,0.000000,0.000000,0.000000,1770800812.628384,0.000000
222.000000,37949.059957,32893.765914,14780.426297,-2741.508513,869.438156,21841.722350,-1323.782065,1698.732579,28746.757358,1732.371954,23556.704647,35774.928126,36331.732432,40362.869544,20540.046160,24558.465130,0.006000,-0.004000,1.000000,192.000000,0.000000,0.000000,0.000000,0.000000,0.000000,0.000000,0.000000,0.000000,0.000000,1770800812.628409,0.000000
224.000000,37951.585704,32895.844626,14782.795582,-2738.625138,867.001816,21847.958487,-1320.295193,1701.817119,28740.632980,1740.083306,23552.346057,35773.072931,36329.497257,40361.997826,20539.040332,24559.895642,0.006000,-0.004000,1.000000,192.000000,0.000000,0.000000,0.000000,0.000000,0.000000,0.000000,0.000000,0.000000,0.000000,1770800812.628433,0.000000
226.000000,37945.506030,32887.306260,14778.749916,-2743.117838,863.984330,21863.358839,-1325.570205,1694.888079,28734.061567,1729.622689,23553.262479,35765.585097,36328.826705,40360.254390,20544.158881,24565.952965,0.006000,-0.002000,0.998000,192.000000,0.000000,24.000000,127.500000,120.000000,15.500000,24.000000,0.000000,0.000000,0.000000,1770800812.628457,0.000000
228.000000,37943.874352,32885.048733,14776.693556,-2745.420068,868.879362,21863.694115,-1326.240757,1692.518794,28736.073224,1724.839416,23545.640534,35764.758082,36322.054127,40353.615922,20539.554422,24566.355296,0.006000,-0.002000,0.998000,192.000000,0.000000,0.000000,0.000000,0.000000,0.000000,0.000000,0.000000,0.000000,0.000000,1770800812.628481,0.000000
230.000000,37952.323312,32892.178940,14782.437954,-2744.771867,867.091223,21861.548348,-1324.452618,1697.257363,28732.787518,1728.616861,23552.390760,35760.913582,36323.730507,40355.471117,20546.125835,24573.910186,0.006000,-0.002000,0.998000,192.000000,0.000000,0.000000,0.000000,0.000000,0.000000,0.000000,0.000000,0.000000,0.000000,1770800812.628505,0.000000
232.000000,37950.669283,32891.083704,14775.732431,-2747.342318,863.291426,21851.758284,-1326.173702,1694.038712,28744.186907,1729.220358,23555.229432,35767.373236,36324.065784,40355.024082,20539.599125,24572.546729,0.006000,-0.002000,0.998000,192.000000,0.000000,0.000000,0.000000,0.000000,0.000000,0.000000,0.000000,0.000000,0.000000,1770800812.628528,0.000000
234.000000,37951.943332,32890.547262,14781.119201,-2743.520170,868.164106,21851.355952,-1322.217443,1695.938611,28739.314227,1725.129989,23548.076874,35758.968980,36318.813124,40356.991036,20537.833338,24567.092904,0.006000,-0.002000,0.998000,192.000000,0.000000,0.000000,0.000000,0.000000,0.000000,0.000000,0.000000,0.000000,0.000000,1770800812.628550,0.000000
236.000000,37951.049262,32890.234338,14777.900550,-2743.855446,863.045557,21858.620269,-1324.005583,1695.178651,28736.319093,1728.527454,23553.575403,35757.851393,36321.271815,40357.706291,20539.889698,24565.237709,0.004000,-0.010000,1.000000,192.000000,0.000000,16.000000,127.500000,88.000000,15.500000,32.000000,0.000000,0.000000,0.000000,1770800812.628563,0.000000
238.000000,37949.462289,32890.100228,14777.677033,-2745.330661,864.744289,21843.622249,-1323.044458,1696.497404,28737.615494,1724.302974,23546.691066,35760.958285,36312.621690,40352.967722,20535.352294,24562.242575,0.004000,-0.010000,1.000000,192.000000,0.000000,0.000000,0.000000,0.000000,0.000000,0.000000,0.000000,0.000000,0.000000,1770800812.628575,0.000000
240.000000,37950.334007,32891.575443,14784.047280,-2743.073135,868.722900,21845.097464,-1321.323373,1700.073683,28735.000340,1730.047373,23550.803787,35753.939838,36322.456458,40357.639236,20546.237593,24557.906337,0.004000,-0.010000,1.000000,192.000000,0.000000,0.000000,0.000000,0.000000,0.000000,0.000000,0.000000,0.000000,0.000000,1770800812.628586,0.000000
242.000000,37951.451594,32894.816446,14779.129896,-2744.794219,869.840487,21840.336542,-1322.396257,1701.951230,28742.622285,1729.376820,23553.307182,35755.079777,36320.042470,40357.549829,20543.913012,24557.302839,0.004000,-0.010000,1.000000,192.000000,0.000000,0.000000,0.000000,0.000000,0.000000,0.000000,0.000000,0.000000,0.000000,1770800812.628597,0.000000
244.000000,37954.759652,32897.163379,14785.008405,-2740.390925,868.812307,21854.261679,-1318.283536,1708.612050,28746.220916,1730.784980,23550.937897,35754.118652,36321.540036,40354.532344,20543.018942,24556.051142,0.004000,-0.010000,1.000000,192.000000,0.000000,0.000000,0.000000,0.000000,0.000000,0.000000,0.000000,0.000000,0.000000,1770800812.628608,0.000000
246.000000,37956.614847,32899.040925,14782.661472,-2744.257777,865.079566,21844.650429,-1319.959917,1707.874442,28747.785538,1735.724716,23558.828063,35754.319817,36327.776173,40359.539134,20543.734198,24556.341714,0.007000,-0.009000,1.000000,192.000000,0.000000,40.000000,127.500000,96.000000,15.500000,32.000000,0.000000,0.000000,0.000000,1770800812.628619,0.000000
248.000000,37950.602228,32894.391763,14778.168771,-2744.727164,860.385699,21827.841917,-1320.026972,1704.365218,28756.390960,1729.175655,23551.496691,35756.331474,36316.689708,40352.096004,20532.424215,24552.854842,0.007000,-0.009000,1.000000,192.000000,0.000000,0.000000,0.000000,0.000000,0.000000,0.000000,0.000000,0.000000,0.000000,1770800812.628630,0.000000
250.000000,37949.529344,32892.961251,14780.739222,-2742.335527,852.897865,21836.112062,-1319.110551,1701.280677,28746.824413,1727.029887,23548.881537,35746.876686,36323.864618,40355.024082,20535.307590,24557.995744,0.007000,-0.009000,1.000000,192.000000,0.000000,0.000000,0.000000,0.000000,0.000000,0.000000,0.000000,0.000000,0.000000,1770800812.628642,0.000000
252.000000,37951.429242,32892.491864,14773.340794,-2744.123667,854.238970,21849.925441,-1322.150388,1698.062026,28743.918686,1723.878291,23546.467548,35751.034111,36317.360260,40351.291341,20530.345503,24560.454435,0.007000,-0.009000,1.000000,192.000000,0.000000,0.000000,0.000000,0.000000,0.000000,0.000000,0.000000,0.000000,0.000000,1770800812.628654,0.000000
254.000000,37953.552658,32894.682335,14780.761573,-2742.067306,864.140792,21846.863252,-1319.311716,1700.051332,28741.325884,1724.660602,23541.170185,35741.847544,36322.255292,40357.974512,20533.877079,24561.862595,0.007000,-0.009000,1.000000,192.000000,0.000000,0.000000,0.000000,0.000000,0.000000,0.000000,0.000000,0.000000,0.000000,1770800812.628664,0.000000
0.000000,37956.033701,32895.889329,14778.995786,-2744.995385,868.387624,21853.859348,-1322.530368,1698.754930,28744.835108,1726.806370,23548.747426,35739.858239,36329.944292,40361.349626,20542.907184,24564.745970,0.010500,-0.009500,1.002000,192.000000,0.000000,56.000000,127.500000,88.000000,15.500000,48.000000,0.000000,0.000000,0.000000,1770800812.628676,0.000000
2.000000,37957.285399,32895.442295,14780.023966,-2746.805876,876.836583,21859.134359,-1322.172740,1697.860861,28752.389998,1724.302974,23543.941801,35741.467564,36327.105621,40357.035739,20539.912050,24562.756665,0.010500,-0.009500,1.002000,192.000000,0.000000,0.000000,0.000000,0.000000,0.000000,0.000000,0.000000,0.000000,0.000000,1770800812.628695,0.000000
4.000000,37953.530306,32892.000126,14783.622597,-2747.252911,877.864763,21852.428836,-1321.926871,1696.497404,28745.840936,1724.235919,23545.707589,35734.471468,36333.341757,40355.761690,20547.623402,24561.616726,0.010500,-0.009500,1.002000,192.000000,0.000000,0.000000,0.000000,0.000000,0.000000,0.000000,0.000000,0.000000,0.000000,1770800812.628706,0.000000
6.000000,37950.579876,32889.317917,14773.094925,-2749.555141,864.923103,21861.280127,-1325.592557,1690.060102,28747.942000,1721.263137,23546.422845,35739.165335,36330.368975,40350.397271,20539.308553,24563.941308,0.010500,-0.009500,1.002000,192.000000,0.000000,0.000000,0.000000,0.000000,0.000000,0.000000,0.000000,0.000000,0.000000,1770800812.628717,0.000000
8.000000,37951.719815,32889.317917,14778.727565,-2745.442420,862.330301,21853.367609,-1320.831635,1694.664561,28743.695169,1719.944384,23542.064255,35731.990425,36326.859752,40353.839440,20534.234707,24560.990877,0.010500,-0.009500,1.002000,192.000000,0.000000,0.000000,0.000000,0.000000,0.000000,0.000000,0.000000,0.000000,0.000000,1770800812.628728,0.000000
10.000000,37950.110489,32886.680411,14775.978300,-2750.493914,855.781240,21824.690321,-1323.647955,1692.205869,28736.721425,1714.937593,23546.333438,35730.738727,36322.367051,40347.491544,20537.498061,24560.297973,0.009250,-0.010750,1.005000,192.000000,0.000000,32.000000,127.500000,80.000000,15.500000,64.000000,0.000000,0.000000,0.000000,1770800812.628739,0.000000
12.000000,37947.517687,32884.981678,14775.844190,-2750.605673,853.590769,21831.820528,-1323.558548,1690.931820,28741.459994,1712.791826,23542.310124,35733.264474,36315.907397,40337.969701,20528.713826,24554.464168,0.009250,-0.010750,1.005000,192.000000,0.000000,0.000000,0.000000,0.000000,0.000000,0.000000,0.000000,0.000000,0.000000,1770800812.628751,0.000000
14.000000,37945.126050,32882.321821,14780.918036,-2750.762135,862.173839,21840.403597,-1323.759714,1691.222392,28735.492079,1715.496387,23542.287772,35724.368480,36329.094926,40344.652873,20541.454320,24555.425293,0.009250,-0.010750,1.005000,192.000000,0.000000,0.000000,0.000000,0.000000,0.000000,0.000000,0.000000,0.000000,0.000000,1770800812.628762,0.000000
16.000000,37940.163963,32881.561861,14772.983166,-2755.433649,861.279769,21830.278257,-1327.872435,1687.534355,28737.146108,1711.406018,23542.712455,35725.866047,36328.714946,40340.897780,20539.934402,24552.005476,0.009250,-0.010750,1.005000,192.000000,0.000000,0.000000,0.000000,0.000000,0.000000,0.000000,0.000000,0.000000,0.000000,1770800812.628773,0.000000
18.000000,37940.007501,32881.494806,14779.219303,-2749.912769,863.023205,21844.583374,-1324.229100,1691.200041,28733.078090,1712.635364,23537.549202,35723.407355,36324.088135,40339.333157,20541.141396,24551.938421,0.009250,-0.010750,1.005000,192.000000,0.000000,0.000000,0.000000,0.000000,0.000000,0.000000,0.000000,0.000000,0.000000,1770800812.628785,0.000000
20.000000,37943.024986,32883.506463,14775.575969,-2748.504609,861.749156,21849.724275,-1325.816074,1691.401206,28739.627151,1711.875404,23544.210022,35721.932140,36329.363147,40345.591646,20545.388227,24561.147339,0.007625,-0.007375,1.005500,192.000000,0.000000,24.000000,127.500000,112.000000,15.500000,56.000000,0.000000,0.000000,0.000000,1770800812.628796,0.000000
22.000000,37945.506030,32886.836873,14776.738259,-2744.570702,861.436231,21841.074150,-1322.977403,1694.888079,28740.945904,1713.395323,23545.573478,35728.458849,36321.003595,40340.718966,20536.425178,24564.097770,0.007625,-0.007375,1.005500,192.000000,0.000000,0.000000,0.000000,0.000000,0.000000,0.000000,0.000000,0.000000,0.000000,1770800812.628808,0.000000
24.000000,37950.043434,32890.770780,14784.516666,-2739.452152,857.412917,21854.820473,-1320.228138,1701.168919,28738.129585,1721.576061,23548.054522,35730.023471,36330.726603,40346.262198,20539.912050,24570.445665,0.007625,-0.007375,1.005500,192.000000,0.000000,0.000000,0.000000,0.000000,0.000000,0.000000,0.000000,0.000000,0.000000,1770800812.628819,0.000000
26.000000,37953.373844,32895.978736,14777.922902,-2740.927367,859.022243,21857.882662,-1321.345725,1700.766587,28746.176213,1721.285489,23551.519042,35736.974864,36328.066746,40347.290378,20537.989800,24570.155092,0.007625,-0.007375,1.005500,192.000000,0.000000,0.000000,0.000000,0.000000,0.000000,0.000000,0.000000,0.000000,0.000000,1770800812.628831,0.000000
28.000000,37960.682864,32901.589024,14787.310635,-2738.982766,863.984330,21844.896298,-1315.914251,1707.963849,28750.557154,1729.130951,23550.826138,35738.450079,36330.212513,40347.446841,20537.185137,24562.779017,0.007625,-0.007375,1.005500,192.000000,0.000000,0.000000,0.000000,0.000000,0.000000,0.000000,0.000000,0.000000,0.000000,1770800812.628842,0.000000
30.000000,37958.671207,32898.817408,14784.807239,-2743.922501,863.112612,21830.054740,-1319.267013,1705.192233,28752.255887,1727.521625,23556.369371,35737.645416,36336.448650,40343.311768,20544.874137,24560.677953,0.008813,-0.006688,1.004750,192.000000,0.000000,40.000000,127.500000,104.000000,15.500000,48.000000,0.000000,0.000000,0.000000,1770800812.628854,0.000000
32.000000,37957.441861,32896.962213,14782.393251,-2743.363707,863.157316,21842.303496,-1319.535234,1704.655791,28752.322942,1724.928823,23549.999124,35743.188649,36334.012310,40343.691748,20535.620515,24554.419464,0.008813,-0.006688,1.004750,192.000000,0.000000,0.000000,0.000000,0.000000,0.000000,0.000000,0.000000,0.000000,0.000000,1770800812.628865,0.000000
34.000000,37949.372882,32891.217815,14783.287321,-2745.531827,861.950321,21848.025542,-1319.088199,1703.582907,28744.544535,1722.023096,23549.172109,35739.500611,36333.364109,40346.485716,20541.163747,24555.715866,0.008813,-0.006688,1.004750,192.000000,0.000000,0.000000,0.000000,0.000000,0.000000,0.000000,0.000000,0.000000,0.000000,1770800812.628876,0.000000
36.000000,37945.684844,32890.167283,14775.017175,-2748.214036,858.441098,21834.458033,-1320.719876,1701.280677,28739.649503,1715.071704,23547.316914,35745.043843,36323.328176,40338.059108,20538.190965,24552.921898,0.008813,-0.006688,1.004750,192.000000,0.000000,0.000000,0.000000,0.000000,0.000000,0.000000,0.000000,0.000000,0.000000,1770800812.628887,0.000000
38.000000,37948.568219,32892.313050,14782.035623,-2743.430763,857.927007,21839.531879,-1317.076542,1706.600393,28737.257867,1719.430294,23543.092435,35747.457832,36329.139629,40337.902646,20536.358122,24554.084188,0.008813,-0.006688,1.004750,192.000000,0.000000,0.000000,0.000000,0.000000,0.000000,0.000000,0.000000,0.000000,0.000000,1770800812.628898,0.000000
40.000000,37942.667358,32887.708591,14778.436992,-2748.392850,852.920217,21826.143184,-1322.977403,1699.581945,28732.251076,1722.693649,23548.590964,35744.619160,36329.854885,40341.724794,20538.436835,24557.638116,0.010406,-0.006344,1.002375,192.000000,0.000000,48.000000,127.500000,104.000000,15.500000,32.000000,0.000000,0.000000,0.000000,1770800812.628908,0.000000
42.000000,37946.981245,32893.609451,14775.531265,-2748.549312,852.987272,21814.162649,-1324.564376,1698.442006,28736.341445,1715.339925,23539.136176,35744.440346,36319.908359,40335.108678,20531.016055,24556.520528,0.010406,-0.006344,1.002375,192.000000,0.000000,0.000000,0.000000,0.000000,0.000000,0.000000,0.000000,0.000000,0.000000,1770800812.628920,0.000000
44.000000,37949.886972,32895.777571,14779.040489,-2742.491989,854.618949,21846.036237,-1324.139693,1700.096035,28732.474593,1720.704343,23539.672618,35736.013739,36329.385499,40346.418660,20536.179308,24565.863558,0.010406,-0.006344,1.002375,192.000000,0.000000,0.000000,0.000000,0.000000,0.000000,0.000000,0.000000,0.000000,0.000000,1770800812.628931,0.000000
46.000000,37945.841306,32894.861149,14770.636233,-2744.816571,851.266188,21846.595031,-1326.061943,1697.547936,28736.475555,1726.180521,23546.020513,35747.837811,36326.055089,40347.580951,20528.825585,24569.752761,0.010406,-0.006344,1.002375,192.000000,0.000000,0.000000,0.000000,0.000000,0.000000,0.000000,0.000000,0.000000,0.000000,1770800812.628942,0.000000
48.000000,37948.970550,32898.035097,14775.240693,-2742.179065,860.564513,21836.872022,-1322.016278,1701.392436,28734.553305,1722.872463,23542.354827,35742.093413,36327.284435,40344.943445,20530.725483,24565.617688,0.010406,-0.006344,1.002375,192.000000,0.000000,0.000000,0.000000,0.000000,0.000000,0.000000,0.000000,0.000000,0.000000,1770800812.628953,0.000000
50.000000,37945.908361,32897.006917,14772.804352,-2745.911806,861.503287,21828.288952,-1323.737362,1700.923050,28735.223858,1725.912300,23550.714380,35738.338320,36329.318443,40347.245675,20538.481538,24565.014191,0.010406,-0.006344,1.002375,192.000000,0.000000,0.000000,0.000000,0.000000,0.000000,0.000000,0.000000,0.000000,0.000000,1770800812.628964,0.000000
52.000000,37942.287379,32893.430638,14770.166847,-2745.285957,861.771507,21849.187833,-1322.552719,1696.989143,28731.893448,1720.994916,23541.930144,35741.355806,36320.042470,40348.206800,20533.228878,24558.778055,0.008000,-0.004000,1.002000,192.000000,0.000000,32.000000,127.500000,112.000000,15.500000,40.000000,0.000000,0.000000,0.000000,1770800812.628975,0.000000
54.000000,37943.963759,32891.486036,14774.547788,-2745.353013,862.754984,21844.873946,-1322.239795,1695.983314,28729.770032,1721.553710,23541.572516,35730.224637,36321.182408,40358.756823,20540.694361,24561.683781,0.008000,-0.004000,1.002000,192.000000,0.000000,0.000000,0.000000,0.000000,0.000000,0.000000,0.000000,0.000000,0.000000,1770800812.628986,0.000000
56.000000,37939.985149,32889.720248,14768.177541,-2749.443382,858.709318,21830.971161,-1324.676135,1693.479919,28733.636884,1717.977431,23547.831005,35732.683329,36315.169789,40353.593570,20534.592335,24559.806235,0.008000,-0.004000,1.002000,192.000000,0.000000,0.000000,0.000000,0.000000,0.000000,0.000000,0.000000,0.000000,0.000000,1770800812.628997,0.000000
58.000000,37947.361225,32892.089533,14777.699384,-2745.040088,861.257417,21846.952659,-1320.004621,1699.112558,28734.843878,1720.592585,23547.853356,35730.515209,36318.276682,40349.905533,20532.245401,24555.492348,0.008000,-0.004000,1.002000,192.000000,0.000000,0.000000,0.000000,0.000000,0.000000,0.000000,0.000000,0.000000,0.000000,1770800812.629009,0.000000
60.000000,37949.149364,32893.274175,14776.313576,-2747.454077,852.137906,21827.685455,-1322.396257,1699.291372,28740.409463,1723.185387,23558.023400,35733.800916,36333.229999,40355.873448,20535.061721,24551.960773,0.008000,-0.004000,1.002000,192.000000,0.000000,0.000000,0.000000,0.000000,0.000000,0.000000,0.000000,0.000000,0.000000,1770800812.629019,0.000000
62.000000,37946.757727,32893.408286,14776.335928,-2745.710641,852.137906,21829.697112,-1322.217443,1698.844337,28741.884678,1721.866634,23550.088531,35739.880590,36327.038566,40355.180544,20525.852802,24548.317438,0.006000,-0.004000,1.008000,192.000000,0.000000,24.000000,127.500000,112.000000,15.500000,64.000000,0.000000,0.000000,0.000000,1770800812.629030,0.000000
64.000000,37941.259198,32887.932108,14779.442820,-2747.007042,853.948397,21843.912821,-1322.664478,1696.407997,28733.078090,1721.531358,23546.534603,35728.570608,36331.263045,40360.254390,20535.195832,24551.178461,0.006000,-0.004000,1.008000,192.000000,0.000000,0.000000,0.000000,0.000000,0.000000,0.000000,0.000000,0.000000,0.000000,1770800812.629041,0.000000
66.000000,37936.051242,32885.205196,14768.445762,-2750.024527,847.064060,21830.926458,-1327.201882,1690.171860,28735.737948,1714.468207,23544.679409,35729.598788,36327.284435,40349.570256,20531.641904,24553.748912,0.006000,-0.004000,1.008000,192.000000,0.000000,0.000000,0.000000,0.000000,0.000000,0.000000,0.000000,0.000000,0.000000,1770800812.629052,0.000000
68.000000,37941.236847,32889.630841,14771.083268,-2745.822399,855.513019,21841.342371,-1325.301984,1692.719959,28731.535820,1719.251480,23535.425786,35725.128439,36324.334004,40348.273855,20531.418387,24560.297973,0.006000,-0.004000,1.008000,192.000000,0.000000,0.000000,0.000000,0.000000,0.000000,0.000000,0.000000,0.000000,0.000000,1770800812.629063,0.000000
70.000000,37935.604207,32886.099265,14766.545864,-2750.918597,858.932836,21842.549365,-1331.426362,1684.338055,28732.273428,1719.631460,23540.723150,35716.366555,36329.921941,40351.246637,20539.599125,24572.278508,0.006000,-0.004000,1.008000,192.000000,0.000000,0.000000,0.000000,0.000000,0.000000,0.000000,0.000000,0.000000,0.000000,1770800812.629074,0.000000
72.000000,37940.454536,32887.797998,14769.026908,-2752.259702,872.187420,21838.771920,-1331.471065,1683.399282,28731.893448,1716.122236,23534.151737,35714.041974,36324.825743,40347.178620,20534.301762,24571.540901,0.006000,-0.008000,1.010000,192.000000,0.000000,24.000000,127.500000,96.000000,15.500000,72.000000,0.000000,0.000000,0.000000,1770800812.629085,0.000000
74.000000,37944.097870,32895.107018,14778.593454,-2751.656205,873.930856,21839.330714,-1328.922967,1687.422596,28734.150974,1722.716000,23534.487013,35710.063363,36335.711042,40356.856925,20544.561213,24571.160921,0.006000,-0.008000,1.010000,192.000000,0.000000,0.000000,0.000000,0.000000,0.000000,0.000000,0.000000,0.000000,0.000000,1770800813.109317,0.000000
76.000000,37945.707195,32900.091457,14775.419506,-2753.511399,874.333188,21839.509528,-1329.168836,1689.478956,28737.906067,1726.314631,23538.398568,35725.195494,36342.528324,40356.700463,20541.879003,24564.097770,0.006000,-0.008000,1.010000,192.000000,0.000000,0.000000,0.000000,0.000000,0.000000,0.000000,0.000000,0.000000,0.000000,1770800813.109404,0.000000
78.000000,37954.424376,32906.864036,14786.461268,-2749.644548,879.317627,21839.688342,-1323.200920,1698.933744,28744.566887,1730.539111,23539.359693,35723.474410,36348.876220,40356.722815,20542.840128,24559.180386,0.006000,-0.008000,1.010000,192.000000,0.000000,0.000000,0.000000,0.000000,0.000000,0.000000,0.000000,0.000000,0.000000,1770800813.109450,0.000000
80.000000,37952.792698,32906.506408,14782.661472,-2752.147943,867.784127,21841.767054,-1324.922004,1700.297201,28747.673779,1734.361259,23548.255688,35725.977805,36352.832479,40363.115414,20543.868309,24559.269793,0.006000,-0.008000,1.010000,192.000000,0.000000,0.000000,0.000000,0.000000,0.000000,0.000000,0.000000,0.000000,0.000000,1770800813.109499,0.000000
82.000000,37943.293207,32900.694954,14777.364108,-2755.388946,861.123307,21824.824432,-1325.793722,1693.457567,28745.550364,1723.811236,23541.080778,35718.735840,36336.046319,40352.230114,20535.285239,24551.849014,0.010000,-0.014000,1.008000,192.000000,0.000000,40.000000,127.500000,72.000000,15.500000,64.000000,0.000000,0.000000,0.000000,1770800813.109539,0.000000
84.000000,37932.787887,32891.173111,14773.810181,-2753.466696,855.468316,21846.192699,-1326.240757,1687.891983,28732.474593,1718.245652,23536.565725,35698.038125,36340.918999,40355.471117,20539.710884,24555.984087,0.010000,-0.014000,1.008000,192.000000,0.000000,0.000000,0.000000,0.000000,0.000000,0.000000,0.000000,0.000000,0.000000,1770800813.109581,0.000000
86.000000,37930.060974,32890.055524,14765.249463,-2757.825286,848.874551,21825.763205,-1330.197016,1684.405110,28735.715596,1708.679105,23531.380121,35701.077962,36332.872371,40347.111565,20533.452396,24560.029752,0.010000,-0.014000,1.008000,192.000000,0.000000,0.000000,0.000000,0.000000,0.000000,0.000000,0.000000,0.000000,0.000000,1770800813.109617,0.000000
88.000000,37933.927826,32892.022478,14771.463248,-2753.645510,850.483877,21835.195641,-1327.671269,1688.003741,28733.972160,1714.445855,23529.614333,35700.787389,36327.664414,40344.004672,20529.384378,24563.516624,0.010000,-0.014000,1.008000,192.000000,0.000000,0.000000,0.000000,0.000000,0.000000,0.000000,0.000000,0.000000,0.000000,1770800813.109649,0.000000
90.000000,37939.538114,32895.688164,14770.658585,-2753.198475,856.071813,21842.705827,-1329.817036,1689.657770,28734.620361,1715.786960,23539.426749,35705.056573,36336.627464,40353.057129,20534.726445,24568.702229,0.010000,-0.014000,1.008000,192.000000,0.000000,0.000000,0.000000,0.000000,0.000000,0.000000,0.000000,0.000000,0.000000,1770800813.109668,0.000000
92.000000,37939.448707,32899.577367,14771.731469,-2747.588187,866.487726,21846.371513,-1327.157179,1694.955134,28741.839974,1716.815140,23535.112862,35716.590073,36334.280531,40350.039643,20528.602067,24568.411656,0.006000,-0.012000,1.008000,192.000000,0.000000,24.000000,127.500000,80.000000,15.500000,64.000000,0.000000,0.000000,0.000000,1770800813.109679,0.000000
94.000000,37944.299036,32905.522931,14775.799486,-2743.542521,863.380833,21847.802025,-1324.385562,1701.839471,28740.163593,1724.012402,23540.007894,35715.763058,36349.636179,40363.808318,20534.972314,24571.764418,0.006000,-0.012000,1.008000,192.000000,0.000000,0.000000,0.000000,0.000000,0.000000,0.000000,0.000000,0.000000,0.000000,1770800813.109690,0.000000
96.000000,37940.745108,32903.868902,14766.009422,-2744.347184,857.658786,21849.321943,-1327.470103,1698.129082,28740.901201,1724.817064,23541.684275,35726.335433,36348.250371,40364.903553,20530.792538,24567.405828,0.006000,-0.012000,1.008000,192.000000,0.000000,0.000000,0.000000,0.000000,0.000000,0.000000,0.000000,0.000000,0.000000,1770800813.109701,0.000000
98.000000,37943.919056,32905.455876,14773.273739,-2741.553216,862.263246,21843.890470,-1323.200920,1701.303029,28738.643675,1722.693649,23535.001103,35731.275169,36343.847077,40359.248562,20529.362026,24560.208566,0.006000,-0.012000,1.008000,192.000000,0.000000,0.000000,0.000000,0.000000,0.000000,0.000000,0.000000,0.000000,0.000000,1770800813.109711,0.000000
100.000000,37947.808259,32908.629824,14772.759649,-2745.643585,863.380833,21842.236440,-1325.883129,1699.827814,28740.588276,1726.448742,23543.584173,35734.113840,36349.814993,40362.914248,20534.949962,24558.599241,0.006000,-0.012000,1.008000,192.000000,0.000000,0.000000,0.000000,0.000000,0.000000,0.000000,0.000000,0.000000,0.000000,1770800813.109722,0.000000
102.000000,37945.126050,32908.674527,14773.273739,-2746.515303,861.547990,21830.792347,-1324.944356,1700.319552,28746.220916,1725.621727,23537.146871,35737.041919,36345.232886,40360.991998,20531.239573,24551.066703,0.008000,-0.010000,1.008000,192.000000,0.000000,32.000000,127.500000,88.000000,15.500000,64.000000,0.000000,0.000000,0.000000,1770800813.109733,0.000000
104.000000,37940.119259,32905.657042,14774.547788,-2744.749516,859.134002,21837.676685,-1324.564376,1699.805462,28734.419195,1729.287413,23538.599734,35735.656111,36348.809165,40362.400158,20537.051026,24550.865537,0.008000,-0.010000,1.008000,192.000000,0.000000,0.000000,0.000000,0.000000,0.000000,0.000000,0.000000,0.000000,0.000000,1770800813.109744,0.000000
106.000000,37931.402079,32900.359678,14763.416620,-2747.588187,850.796801,21832.759301,-1328.632394,1694.217526,28733.547477,1726.426390,23536.901002,35741.266399,36337.409775,40362.131937,20530.546669,24552.050179,0.008000,-0.010000,1.008000,192.000000,0.000000,0.000000,0.000000,0.000000,0.000000,0.000000,0.000000,0.000000,0.000000,1770800813.109755,0.000000
108.000000,37923.735431,32893.005954,14769.585701,-2747.252911,855.848295,21838.436644,-1327.559510,1692.742311,28722.081032,1726.672259,23528.228525,35737.488954,36336.046319,40357.728643,20527.037445,24548.898584,0.008000,-0.010000,1.008000,192.000000,0.000000,0.000000,0.000000,0.000000,0.000000,0.000000,0.000000,0.000000,0.000000,1770800813.109766,0.000000
110.000000,37917.611053,32887.418018,14768.736335,-2751.633853,849.120420,21837.743740,-1330.129961,1687.154375,28714.101459,1715.250518,23530.441347,35727.050689,36334.861676,40357.013387,20533.228878,24551.446682,0.008000,-0.010000,1.008000,192.000000,0.000000,0.000000,0.000000,0.000000,0.000000,0.000000,0.000000,0.000000,0.000000,1770800813.109777,0.000000
112.000000,37913.565387,32882.768855,14765.897663,-2751.410335,845.097106,21830.479423,-1330.375830,1686.550878,28718.683567,1716.189291,23525.658074,35727.073041,36325.183371,40349.793774,20525.897506,24547.959810,0.004000,-0.006000,1.004000,192.000000,0.000000,16.000000,127.500000,104.000000,15.500000,48.000000,0.000000,0.000000,0.000000,1770800813.109788,0.000000
114.000000,37918.773343,32882.522986,14772.133800,-2749.152809,850.617987,21833.340446,-1329.146484,1689.769529,28711.106326,1715.496387,23527.177993,35713.684346,36333.855848,40352.386576,20531.641904,24556.945212,0.004000,-0.006000,1.004000,192.000000,0.000000,0.000000,0.000000,0.000000,0.000000,0.000000,0.000000,0.000000,0.000000,1770800813.109799,0.000000
116.000000,37920.270910,32884.780512,14769.138666,-2747.923463,857.524676,21825.494984,-1329.347650,1691.512965,28725.344387,1716.524567,23536.588077,35725.933102,36342.103641,40354.532344,20530.144337,24560.297973,0.004000,-0.006000,1.004000,192.000000,0.000000,0.000000,0.000000,0.000000,0.000000,0.000000,0.000000,0.000000,0.000000,1770800813.109810,0.000000
118.000000,37918.348660,32885.249899,14774.190161,-2741.530864,867.448851,21841.387074,-1325.234929,1696.184480,28723.600951,1717.083361,23527.155641,35728.101221,36343.578856,40356.923980,20532.044236,24560.186214,0.004000,-0.006000,1.004000,192.000000,0.000000,0.000000,0.000000,0.000000,0.000000,0.000000,0.000000,0.000000,0.000000,1770800813.109821,0.000000
120.000000,37927.155248,32893.408286,14777.252350,-2742.424934,861.100955,21848.629039,-1325.994888,1697.614991,28722.617474,1727.096942,23535.179917,35733.085660,36351.491374,40366.356417,20537.520413,24560.432084,0.004000,-0.006000,1.004000,192.000000,0.000000,0.000000,0.000000,0.000000,0.000000,0.000000,0.000000,0.000000,0.000000,1770800813.109832,0.000000
122.000000,37922.036698,32888.915585,14773.407849,-2744.056612,854.574246,21838.660161,-1326.754847,1693.412863,28730.775861,1725.085285,23533.794109,35736.170201,36347.132784,40362.154289,20528.311494,24554.978258,0.005000,-0.008000,1.002000,192.000000,0.000000,24.000000,127.500000,88.000000,15.500000,32.000000,0.000000,0.000000,0.000000,1770800813.109849,0.000000
124.000000,37922.081402,32887.485074,14776.984129,-2744.995385,853.344900,21833.206336,-1325.369039,1691.937648,28724.651483,1722.805407,23536.655132,35727.408317,36349.814993,40359.963818,20532.312457,24551.312572,0.005000,-0.008000,1.002000,192.000000,0.000000,0.000000,0.000000,0.000000,0.000000,0.000000,0.000000,0.000000,0.000000,1770800813.109861,0.000000
126.000000,37918.058088,32883.260594,14770.524474,-2749.890417,851.601464,21820.577600,-1329.191188,1687.623762,28727.311340,1719.363239,23535.783414,35730.179933,36346.641045,40353.347701,20528.222087,24546.685761,0.005000,-0.008000,1.002000,192.000000,0.000000,0.000000,0.000000,0.000000,0.000000,0.000000,0.000000,0.000000,0.000000,1770800813.109872,0.000000
128.000000,37918.013384,32883.729980,14776.067707,-2746.537655,862.710281,21833.675722,-1326.911310,1687.400244,28727.467802,1714.982297,23527.177993,35720.546331,36347.155136,40350.643140,20531.016055,24548.049217,0.005000,-0.008000,1.002000,192.000000,0.000000,0.000000,0.000000,0.000000,0.000000,0.000000,0.000000,0.000000,0.000000,1770800813.109883,0.000000
130.000000,37917.119314,32885.875748,14772.692594,-2747.208208,858.619912,21847.287935,-1329.995850,1685.455642,28728.764204,1720.145550,23532.207135,35716.925349,36353.212458,40358.622713,20536.894564,24554.263002,0.005000,-0.008000,1.002000,192.000000,0.000000,0.000000,0.000000,0.000000,0.000000,0.000000,0.000000,0.000000,0.000000,1770800813.109894,0.000000
132.000000,37911.531378,32883.372353,14770.144495,-2747.007042,858.262284,21837.274353,-1330.152313,1683.891020,28730.708805,1715.719904,23530.106071,35721.485105,36343.757670,40352.990073,20530.300800,24551.133758,0.004500,-0.009000,1.000000,192.000000,0.000000,16.000000,127.500000,88.000000,15.500000,24.000000,0.000000,0.000000,0.000000,1770800813.109905,0.000000
134.000000,37911.017288,32882.053600,14777.766440,-2745.442420,861.123307,21834.279219,-1327.738324,1686.930858,28726.640788,1724.995878,23534.576420,35713.952567,36356.162889,40359.829707,20535.039369,24553.905374,0.004500,-0.009000,1.000000,192.000000,0.000000,0.000000,0.000000,0.000000,0.000000,0.000000,0.000000,0.000000,0.000000,1770800813.109916,0.000000
136.000000,37906.770457,32876.063332,14771.709117,-2750.248045,860.385699,21825.249115,-1330.822865,1683.041654,28730.194715,1714.311744,23539.404397,35716.031279,36347.199839,40356.432242,20530.233744,24554.844148,0.004500,-0.009000,1.000000,192.000000,0.000000,0.000000,0.000000,0.000000,0.000000,0.000000,0.000000,0.000000,0.000000,1770800813.109927,0.000000
138.000000,37907.172788,32877.404437,14777.878198,-2744.771867,859.558685,21839.733045,-1327.224234,1685.992084,28727.333692,1719.810274,23530.709568,35713.214959,36345.366996,40360.947294,20528.937343,24554.777092,0.004500,-0.009000,1.000000,192.000000,0.000000,0.000000,0.000000,0.000000,0.000000,0.000000,0.000000,0.000000,0.000000,1770800813.109938,0.000000
140.000000,37898.947346,32866.966172,14774.704251,-2750.650376,857.345862,21838.682513,-1330.956975,1681.320570,28715.420212,1716.770436,23536.565725,35709.705735,36347.155136,40363.584800,20535.240535,24556.945212,0.004500,-0.009000,1.000000,192.000000,0.000000,0.000000,0.000000,0.000000,0.000000,0.000000,0.000000,0.000000,0.000000,1770800813.109949,0.000000
142.000000,37898.410904,32866.317972,14774.011347,-2750.829190,864.788993,21841.208260,-1331.560472,1680.448852,28713.430907,1707.963849,23528.429690,35712.656166,36335.576932,40359.762652,20532.625381,24554.978258,0.004250,-0.007500,1.001000,192.000000,0.000000,16.000000,127.500000,104.000000,15.500000,40.000000,0.000000,0.000000,0.000000,1770800813.109960,0.000000
144.000000,37899.930823,32872.285887,14779.129896,-2746.939987,865.012510,21850.171310,-1330.129961,1686.014436,28717.186000,1716.569271,23535.515193,35708.498741,36345.568162,40369.552716,20543.421274,24555.469996,0.004250,-0.007500,1.001000,192.000000,0.000000,0.000000,0.000000,0.000000,0.000000,0.000000,0.000000,0.000000,0.000000,1770800813.109971,0.000000
146.000000,37908.782114,32880.891309,14776.581797,-2745.688289,868.275865,21841.878813,-1331.560472,1689.300142,28732.765166,1725.644079,23544.746464,35722.870913,36348.652702,40380.549774,20542.527204,24558.085150,0.004250,-0.007500,1.001000,192.000000,0.000000,0.000000,0.000000,0.000000,0.000000,0.000000,0.000000,0.000000,0.000000,1770800813.109982,0.000000
148.000000,37924.338928,32893.877672,14786.416565,-2735.473542,878.624723,21866.063400,-1326.263109,1700.163090,28745.930343,1738.049297,23549.417978,35731.342224,36353.950066,40394.229042,20542.907184,24562.175520,0.004250,-0.007500,1.001000,192.000000,0.000000,0.000000,0.000000,0.000000,0.000000,0.000000,0.000000,0.000000,0.000000,1770800813.109993,0.000000
150.000000,37928.563407,32895.285832,14786.528323,-2734.534768,875.406072,21870.980784,-1326.285461,1702.890003,28755.116910,1749.180466,23563.588984,35738.383024,36368.858679,40411.372830,20544.717675,24567.338773,0.004250,-0.007500,1.001000,192.000000,0.000000,0.000000,0.000000,0.000000,0.000000,0.000000,0.000000,0.000000,0.000000,1770800813.110003,0.000000
152.000000,37925.858846,32892.223643,14784.717832,-2735.518245,864.297255,21853.591127,-1324.251452,1701.772416,28755.295724,1744.687765,23554.760045,35743.948608,36359.135671,40400.129902,20532.826547,24561.572023,0.005125,-0.007750,1.004500,192.000000,0.000000,24.000000,127.500000,96.000000,15.500000,64.000000,0.000000,0.000000,0.000000,1770800813.110015,0.000000
154.000000,37920.203855,32887.328611,14788.472925,-2739.429800,858.083470,21843.868118,-1322.172740,1701.303029,28748.567849,1741.223245,23554.156548,35735.164372,36356.386406,40396.710085,20535.151128,24554.911203,0.005125,-0.007750,1.004500,192.000000,0.000000,0.000000,0.000000,0.000000,0.000000,0.000000,0.000000,0.000000,0.000000,1770800813.110027,0.000000
156.000000,37908.715058,32875.906870,14783.041451,-2748.929292,850.416821,21820.443490,-1325.570205,1693.725788,28743.851631,1731.544939,23553.821272,35737.287788,36348.496240,40380.393312,20529.026750,24545.881098,0.005125,-0.007750,1.004500,192.000000,0.000000,0.000000,0.000000,0.000000,0.000000,0.000000,0.000000,0.000000,0.000000,1770800813.110038,0.000000
158.000000,37904.401172,32871.078893,14783.577893,-2749.376327,850.640339,21810.720481,-1324.117342,1693.278753,28734.665064,1719.631460,23544.098263,35729.822305,36332.872371,40368.792757,20526.769224,24540.717845,0.005125,-0.007750,1.004500,192.000000,0.000000,0.000000,0.000000,0.000000,0.000000,0.000000,0.000000,0.000000,0.000000,1770800813.110049,0.000000
160.000000,37899.573195,32868.061408,14777.297053,-2752.214998,855.848295,21817.157783,-1329.302946,1687.981390,28729.322997,1715.675201,23546.400493,35727.363614,36335.152249,40364.970608,20535.665218,24542.997723,0.005125,-0.007750,1.004500,192.000000,0.000000,0.000000,0.000000,0.000000,0.000000,0.000000,0.000000,0.000000,0.000000,1770800813.110060,0.000000
162.000000,37886.832701,32858.472509,14772.379669,-2749.711603,855.065984,21835.016827,-1332.320432,1680.046520,28723.355081,1706.443930,23534.889345,35726.044861,36330.391327,40363.540097,20531.172518,24551.021999,0.006563,-0.008875,1.002250,192.000000,0.000000,32.000000,127.500000,88.000000,15.500000,32.000000,0.000000,0.000000,0.000000,1770800813.110071,0.000000
164.000000,37891.012477,32863.948687,14777.967605,-2742.894321,864.185496,21858.977897,-1331.851045,1681.812308,28716.090765,1712.814178,23536.029284,35721.887436,36341.209572,40381.645010,20539.532070,24568.948098,0.006563,-0.008875,1.002250,192.000000,0.000000,0.000000,0.000000,0.000000,0.000000,0.000000,0.000000,0.000000,0.000000,1770800813.110082,0.000000
166.000000,37890.118407,32865.848585,14773.139629,-2744.838923,863.805516,21852.987630,-1333.192150,1681.879363,28725.836125,1721.084323,23542.243068,35729.732898,36342.573028,40390.965687,20538.325076,24574.871311,0.006563,-0.008875,1.002250,192.000000,0.000000,0.000000,0.000000,0.000000,0.000000,0.000000,0.000000,0.000000,0.000000,1770800813.110093,0.000000
168.000000,37891.928898,32868.262573,14780.403945,-2740.592091,865.481897,21853.524071,-1327.581862,1686.528526,28724.137393,1721.687820,23536.923353,35732.884494,36343.735319,40391.680943,20536.089901,24569.618651,0.006563,-0.008875,1.002250,192.000000,0.000000,0.000000,0.000000,0.000000,0.000000,0.000000,0.000000,0.000000,0.000000,1770800813.110104,0.000000
170.000000,37889.112579,32864.216908,14777.721736,-2743.877798,857.591731,21868.052705,-1328.632394,1686.059139,28717.700090,1722.894814,23539.650266,35733.108012,36348.116261,40391.122149,20538.548593,24565.640040,0.006563,-0.008875,1.002250,192.000000,0.000000,0.000000,0.000000,0.000000,0.000000,0.000000,0.000000,0.000000,0.000000,1770800813.110115,0.000000
172.000000,37889.380799,32861.892326,14778.012309,-2745.330661,854.216618,21847.198528,-1325.793722,1687.914334,28718.705919,1717.843320,23531.804804,35742.227524,36336.716871,40382.002638,20526.948038,24554.039485,0.006281,-0.008438,0.999125,192.000000,0.000000,24.000000,127.500000,96.000000,15.500000,16.000000,0.000000,0.000000,0.000000,1770800813.110126,0.000000
174.000000,37892.040657,32862.451120,14783.086155,-2744.905978,858.530505,21835.285048,-1324.631432,1689.903640,28714.056756,1718.357410,23533.212964,35735.499649,36337.499182,40382.114396,20532.468919,24553.368932,0.006281,-0.008438,0.999125,192.000000,0.000000,0.000000,0.000000,0.000000,0.000000,0.000000,0.000000,0.000000,0.000000,1770800813.110137,0.000000
176.000000,37892.800616,32858.383102,14779.152248,-2750.963301,852.808458,21832.736949,-1327.179531,1688.003741,28723.064509,1712.858881,23538.689141,35739.880590,36334.146420,40376.928792,20528.311494,24550.060874,0.006281,-0.008438,0.999125,192.000000,0.000000,0.000000,0.000000,0.000000,0.000000,0.000000,0.000000,0.000000,0.000000,1770800813.110147,0.000000
178.000000,37892.040657,32858.874841,14780.582759,-2746.939987,856.563551,21831.485251,-1324.787894,1689.769529,28721.790459,1710.668410,23533.034150,35735.700814,36332.067708,40374.984190,20526.389244,24547.535127,0.006281,-0.008438,0.999125,192.000000,0.000000,0.000000,0.000000,0.000000,0.000000,0.000000,0.000000,0.000000,0.000000,1770800813.110158,0.000000
180.000000,37891.526567,32855.656189,14778.079364,-2749.935120,856.384737,21824.913838,-1330.040554,1684.181593,28722.438660,1717.217471,23535.604600,35736.281960,36336.068670,40379.655704,20533.720617,24551.603145,0.006281,-0.008438,0.999125,192.000000,0.000000,0.000000,0.000000,0.000000,0.000000,0.000000,0.000000,0.000000,0.000000,1770800813.110169,0.000000
182.000000,37884.217546,32850.202364,14772.871408,-2750.270397,856.921179,21830.971161,-1330.845217,1679.733596,28726.841954,1712.769474,23527.312103,35736.416070,36329.743127,40374.179527,20528.691474,24555.961735,0.006141,-0.006219,1.003563,192.000000,0.000000,24.000000,127.500000,112.000000,15.500000,64.000000,0.000000,0.000000,0.000000,1770800813.110180,0.000000
184.000000,37873.153433,32838.154773,14771.016213,-2752.684385,857.703490,21844.739836,-1333.393315,1673.318645,28714.347328,1708.276773,23522.394719,35718.489971,36333.386461,40376.012370,20536.089901,24564.611860,0.006141,-0.006219,1.003563,192.000000,0.000000,0.000000,0.000000,0.000000,0.000000,0.000000,0.000000,0.000000,0.000000,1770800813.110191,0.000000
186.000000,37871.924087,32835.696082,14765.830608,-2754.584283,853.724879,21847.757321,-1336.321394,1669.496497,28708.222950,1698.576116,23522.618237,35718.311157,36316.309728,40373.598382,20533.407692,24565.997668,0.006141,-0.006219,1.003563,192.000000,0.000000,0.000000,0.000000,0.000000,0.000000,0.000000,0.000000,0.000000,0.000000,1770800813.110204,0.000000
188.000000,37872.393474,32837.797146,14774.346623,-2749.733955,858.575208,21847.064417,-1331.962804,1675.844392,28711.441602,1699.984276,23517.745557,35717.171218,36316.175618,40371.944353,20532.491271,24560.990877,0.006141,-0.006219,1.003563,192.000000,0.000000,0.000000,0.000000,0.000000,0.000000,0.000000,0.000000,0.000000,0.000000,1770800813.110214,0.000000
190.000000,37874.583945,32838.691215,14775.039527,-2750.560969,856.854124,21844.583374,-1333.035688,1676.894924,28708.960558,1705.169881,23528.787318,35721.999195,36321.405926,40372.458443,20537.006323,24558.755703,0.006141,-0.006219,1.003563,192.000000,0.000000,0.000000,0.000000,0.000000,0.000000,0.000000,0.000000,0.000000,0.000000,1770800813.110226,0.000000
192.000000,37871.588811,32834.198515,14771.954986,-2748.169333,858.642263,21841.677647,-1331.649879,1674.458584,28716.493096,1703.337038,23526.574496,35726.916579,36315.482714,40368.971571,20528.691474,24558.554537,0.006141,-0.006219,1.003563,192.000000,0.000000,0.000000,0.000000,0.000000,0.000000,0.000000,0.000000,0.000000,0.000000,1770800813.110237,0.000000
194.000000,37873.622820,32838.288884,14779.599283,-2743.944853,860.273941,21844.628077,-1328.967670,1679.912410,28711.978044,1706.332172,23528.116766,35723.094430,36329.720775,40373.307809,20534.882907,24559.113331,0.006000,-0.010000,1.002000,192.000000,0.000000,24.000000,127.500000,88.000000,15.500000,40.000000,0.000000,0.000000,0.000000,1770800813.110248,0.000000
196.000000,37875.321552,32843.139213,14774.950120,-2749.197513,861.413880,21834.502737,-1331.046382,1681.633494,28713.520314,1707.852090,23533.570592,35733.756212,36328.983167,40375.587687,20532.603029,24556.051142,0.006000,-0.010000,1.002000,192.000000,0.000000,0.000000,0.000000,0.000000,0.000000,0.000000,0.000000,0.000000,0.000000,1770800813.589623,0.000000
198.000000,37876.349732,32846.313160,14781.923864,-2746.180027,867.538258,21848.316115,-1326.687792,1687.176727,28716.850724,1708.075608,23527.870897,35731.699852,36329.161981,40376.682922,20533.251230,24554.374761,0.006000,-0.010000,1.002000,192.000000,0.000000,0.000000,0.000000,0.000000,0.000000,0.000000,0.000000,0.000000,0.000000,1770800813.589691,0.000000
200.000000,37871.365293,32843.072157,14782.795582,-2750.382155,861.056252,21833.116929,-1327.961842,1685.992084,28720.047023,1710.668410,23531.290714,35731.923369,36334.906380,40379.543946,20540.940230,24554.039485,0.006000,-0.010000,1.002000,192.000000,0.000000,0.000000,0.000000,0.000000,0.000000,0.000000,0.000000,0.000000,0.000000,1770800813.589740,0.000000
202.000000,37864.257439,32833.952646,14777.945254,-2753.176123,864.230199,21821.583429,-1329.302946,1678.995988,28715.621378,1705.840433,23522.484126,35734.113840,36324.624577,40369.865640,20533.877079,24548.920935,0.006000,-0.010000,1.002000,192.000000,0.000000,0.000000,0.000000,0.000000,0.000000,0.000000,0.000000,0.000000,0.000000,1770800813.589788,0.000000
204.000000,37861.597581,32831.672768,14779.532227,-2749.309271,855.937702,21831.060568,-1330.308775,1676.179668,28712.134506,1700.520718,23518.594923,35724.591997,36328.133801,40370.960876,20539.822643,24549.546784,0.006000,-0.012000,1.002000,192.000000,0.000000,24.000000,127.500000,80.000000,15.500000,40.000000,0.000000,0.000000,0.000000,1770800813.589840,0.000000
206.000000,37850.198191,32823.693195,14769.988033,-2754.763097,854.551894,21828.378359,-1337.081353,1666.456660,28709.698166,1695.603334,23513.699891,35727.989462,36318.924882,40367.362245,20534.793500,24555.894680,0.006000,-0.012000,1.002000,192.000000,0.000000,0.000000,0.000000,0.000000,0.000000,0.000000,0.000000,0.000000,0.000000,1770800813.589887,0.000000
208.000000,37857.216639,32826.889494,14775.218341,-2748.236388,855.870647,21833.340446,-1333.303909,1672.670445,28712.335671,1693.994009,23507.664920,35725.642529,36313.828685,40363.026007,20531.798367,24561.750837,0.006000,-0.012000,1.002000,192.000000,0.000000,0.000000,0.000000,0.000000,0.000000,0.000000,0.000000,0.000000,0.000000,1770800813.589911,0.000000
210.000000,37856.322569,32825.593093,14773.988995,-2749.733955,855.289502,21844.605725,-1333.996813,1674.257418,28711.106326,1696.273887,23517.320873,35729.129401,36321.629443,40372.257277,20531.731311,24570.468017,0.006000,-0.012000,1.002000,192.000000,0.000000,0.000000,0.000000,0.000000,0.000000,0.000000,0.000000,0.000000,0.000000,1770800813.589922,0.000000
212.000000,37860.032959,32826.084831,14775.620672,-2748.772830,854.484839,21843.532842,-1331.873397,1676.738462,28715.710785,1693.144642,23518.505516,35732.191590,36324.602225,40374.939486,20524.601105,24564.745970,0.006000,-0.012000,1.002000,192.000000,0.000000,0.000000,0.000000,0.000000,0.000000,0.000000,0.000000,0.000000,0.000000,1770800813.589933,0.000000
214.000000,37868.191346,32834.578494,14783.734355,-2743.833094,859.782202,21847.556156,-1328.095952,1681.991122,28716.828372,1704.611087,23527.513269,35732.973901,36325.719813,40386.450635,20533.072416,24558.286316,0.010000,-0.010000,1.012000,192.000000,0.000000,40.000000,127.500000,88.000000,15.500000,80.000000,0.000000,0.000000,0.000000,1770800813.589944,0.000000
216.000000,37866.604372,32837.461869,14774.436030,-2744.257777,859.424574,21841.118853,-1328.967670,1680.784128,28722.393956,1710.064913,23532.408301,35743.792146,36326.502124,40386.920021,20530.949000,24554.017133,0.010000,-0.010000,1.012000,192.000000,0.000000,0.000000,0.000000,0.000000,0.000000,0.000000,0.000000,0.000000,0.000000,1770800813.589955,0.000000
218.000000,37867.230221,32840.680521,14782.661472,-2739.675670,862.754984,21855.938060,-1323.178568,1686.617933,28717.945959,1711.584832,23527.647379,35743.747442,36321.271815,40386.182414,20529.563192,24554.151243,0.010000,-0.010000,1.012000,192.000000,0.000000,0.000000,0.000000,0.000000,0.000000,0.000000,0.000000,0.000000,0.000000,1770800813.589975,0.000000
220.000000,37862.514003,32837.864201,14781.320367,-2744.682460,858.262284,21846.907955,-1327.157179,1680.471203,28715.062584,1713.797654,23535.604600,35742.160468,36329.586664,40391.055094,20534.502928,24556.364066,0.010000,-0.010000,1.012000,192.000000,0.000000,0.000000,0.000000,0.000000,0.000000,0.000000,0.000000,0.000000,0.000000,1770800813.589985,0.000000
222.000000,37858.021302,32834.042053,14780.046318,-2748.348146,858.575208,21833.809833,-1328.207711,1676.447889,28713.900294,1704.946364,23525.009874,35739.254742,36320.355394,40384.818957,20530.233744,24552.631325,0.010000,-0.010000,1.012000,192.000000,0.000000,0.000000,0.000000,0.000000,0.000000,0.000000,0.000000,0.000000,0.000000,1770800813.589996,0.000000
224.000000,37851.718110,32825.324872,14783.734355,-2749.733955,861.212714,21835.530917,-1328.408876,1676.559648,28708.245302,1702.644134,23523.869935,35731.319872,36324.088135,40379.655704,20538.056855,24551.938421,0.010000,-0.010000,1.012000,192.000000,0.000000,40.000000,127.500000,88.000000,15.500000,80.000000,0.000000,0.000000,0.000000,1770800813.590007,0.000000
226.000000,37851.695758,32823.380270,14777.811143,-2754.584283,863.961978,21836.424987,-1332.432190,1673.050424,28711.374546,1696.028018,23525.345150,35731.431631,36325.071612,40371.542021,20534.458224,24555.268831,0.010000,-0.010000,1.012000,192.000000,0.000000,0.000000,0.000000,0.000000,0.000000,0.000000,0.000000,0.000000,0.000000,1770800813.590017,0.000000
228.000000,37850.354654,32823.044994,14778.191123,-2749.778658,860.966845,21848.427874,-1329.213539,1677.252552,28711.910988,1698.240840,23520.114841,35728.548256,36322.970548,40374.760672,20529.853765,24556.028790,0.010000,-0.010000,1.012000,192.000000,0.000000,0.000000,0.000000,0.000000,0.000000,0.000000,0.000000,0.000000,0.000000,1770800813.590027,0.000000
230.000000,37847.359520,32822.732070,14771.887931,-2752.483219,852.227313,21841.945868,-1333.125095,1676.604352,28708.580578,1698.889041,23527.625028,35730.135230,36326.680938,40377.487585,20530.211393,24558.778055,0.010000,-0.010000,1.012000,192.000000,0.000000,0.000000,0.000000,0.000000,0.000000,0.000000,0.000000,0.000000,0.000000,1770800813.590038,0.000000
232.000000,37846.666616,32823.715547,14770.077440,-2751.835019,856.094164,21842.705827,-1333.683888,1675.106785,28710.346366,1696.072721,23520.137193,35733.487992,36313.269891,40374.179527,20523.774090,24559.538014,0.010000,-0.010000,1.012000,192.000000,0.000000,0.000000,0.000000,0.000000,0.000000,0.000000,0.000000,0.000000,0.000000,1770800813.590048,0.000000
234.000000,37849.482936,32827.336529,14778.436992,-2745.800048,859.245760,21854.395789,-1329.928795,1679.644189,28705.943073,1699.559593,23519.064309,35730.001119,36318.164923,40382.002638,20531.418387,24563.248403,0.008000,-0.008000,1.008000,192.000000,0.000000,32.000000,127.500000,96.000000,15.500000,64.000000,0.000000,0.000000,0.000000,1770800813.590058,0.000000
236.000000,37846.957188,32827.940026,14777.274701,-2748.996347,857.479973,21837.095539,-1329.951147,1677.766642,28707.775916,1703.381741,23523.847583,35738.494782,36326.926807,40380.773292,20530.770186,24557.928688,0.008000,-0.008000,1.008000,192.000000,0.000000,0.000000,0.000000,0.000000,0.000000,0.000000,0.000000,0.000000,0.000000,1770800813.590068,0.000000
238.000000,37852.366311,32832.790355,14786.125992,-2742.313175,862.196191,21834.323923,-1323.312679,1687.422596,28710.614587,1704.454625,23520.383062,35736.013739,36321.450629,40379.611001,20530.770186,24549.524432,0.008000,-0.008000,1.008000,192.000000,0.000000,0.000000,0.000000,0.000000,0.000000,0.000000,0.000000,0.000000,0.000000,1770800813.590079,0.000000
240.000000,37853.997988,32835.204343,14782.840286,-2740.748553,861.369176,21829.473594,-1325.234929,1690.484785,28715.286102,1707.270945,23529.279057,35741.489916,36335.755746,40383.366094,20536.894564,24550.463206,0.008000,-0.008000,1.008000,192.000000,0.000000,0.000000,0.000000,0.000000,0.000000,0.000000,0.000000,0.000000,0.000000,1770800813.590090,0.000000
242.000000,37857.440157,32838.825326,14780.426297,-2737.664013,864.386662,21847.198528,-1323.871472,1691.535317,28718.147125,1706.846262,23527.982656,35753.246934,36328.469077,40387.724684,20531.306628,24545.590525,0.008000,-0.008000,1.008000,192.000000,0.000000,0.000000,0.000000,0.000000,0.000000,0.000000,0.000000,0.000000,0.000000,1770800813.590100,0.000000
244.000000,37861.083491,32838.378291,14786.416565,-2739.362745,870.175763,21843.756359,-1322.038629,1692.407035,28713.766183,1719.206777,23535.492842,35751.257628,36338.795583,40393.625545,20537.140433,24547.065740,0.010000,-0.008000,1.004000,192.000000,0.000000,40.000000,127.500000,96.000000,15.500000,48.000000,0.000000,0.000000,0.000000,1770800813.590110,0.000000
246.000000,37858.758910,32831.695119,14779.599283,-2746.537655,868.655845,21840.604763,-1325.637260,1684.919201,28717.565980,1711.942460,23535.895173,35754.252762,36336.448650,40386.920021,20534.346465,24545.344656,0.010000,-0.008000,1.004000,192.000000,0.000000,0.000000,0.000000,0.000000,0.000000,0.000000,0.000000,0.000000,0.000000,1770800813.590121,0.000000
248.000000,37849.170011,32821.435669,14783.846114,-2748.638719,866.823002,21838.414292,-1324.989060,1679.286561,28716.560151,1705.929840,23523.467603,35749.894172,36336.448650,40380.527422,20533.161823,24541.366046,0.010000,-0.008000,1.004000,192.000000,0.000000,0.000000,0.000000,0.000000,0.000000,0.000000,0.000000,0.000000,0.000000,1770800813.590132,0.000000
250.000000,37839.826982,32814.998366,14777.855847,-2754.561931,859.201057,21842.392903,-1331.471065,1670.189401,28705.630148,1702.487672,23520.092490,35741.467564,36337.543885,40379.611001,20540.739064,24548.406845,0.010000,-0.008000,1.004000,192.000000,0.000000,0.000000,0.000000,0.000000,0.000000,0.000000,0.000000,0.000000,0.000000,1770800813.590144,0.000000
252.000000,37827.622930,32801.699078,14773.251387,-2758.518190,854.350728,21834.256868,-1334.399144,1662.500401,28698.008203,1689.456605,23508.626045,35736.483125,36316.242673,40370.178565,20530.837242,24548.362142,0.010000,-0.008000,1.004000,192.000000,0.000000,0.000000,0.000000,0.000000,0.000000,0.000000,0.000000,0.000000,0.000000,1770800813.590155,0.000000
254.000000,37829.858104,32801.609671,14774.324271,-2758.160562,857.234103,21837.341408,-1334.488551,1662.902732,28686.832331,1685.835622,23506.435574,35723.094430,36316.801467,40373.017236,20534.346465,24554.665334,0.008000,-0.014000,1.002000,192.000000,0.000000,32.000000,127.500000,72.000000,15.500000,40.000000,0.000000,0.000000,0.000000,1770800813.590166,0.000000
0.000000,37827.935854,32799.218035,14766.322346,-2761.960359,850.930911,21834.122757,-1337.506036,1659.862895,28691.257976,1681.611142,23509.296597,35722.557988,36313.471057,40365.328236,20530.904297,24557.571060,0.008000,-0.014000,1.002000,192.000000,0.000000,0.000000,0.000000,0.000000,0.000000,0.000000,0.000000,0.000000,0.000000,1770800813.590177,0.000000
2.000000,37838.932912,32811.869122,14777.006480,-2752.416164,864.207848,21849.813682,-1330.331126,1670.032939,28691.079162,1686.863802,23507.150830,35722.602692,36314.856865,40371.877297,20528.959695,24555.671162,0.008000,-0.014000,1.002000,192.000000,0.000000,0.000000,0.000000,0.000000,0.000000,0.000000,0.000000,0.000000,0.000000,1770800813.590188,0.000000
4.000000,37846.174877,32818.976977,14781.208608,-2750.203341,871.740386,21844.583374,-1329.012374,1676.269075,28708.737041,1700.163090,23524.764004,35734.046785,36332.000653,40385.400103,20536.626343,24551.916069,0.008000,-0.014000,1.002000,192.000000,0.000000,0.000000,0.000000,0.000000,0.000000,0.000000,0.000000,0.000000,0.000000,1770800813.590199,0.000000
6.000000,37842.665654,32817.658224,14783.086155,-2748.862237,874.936685,21841.945868,-1326.218406,1677.274904,28713.095631,1700.364256,23523.467603,35741.221695,36327.262083,40382.092045,20531.284276,24544.092958,0.008000,-0.014000,1.002000,192.000000,0.000000,0.000000,0.000000,0.000000,0.000000,0.000000,0.000000,0.000000,0.000000,1770800813.590209,0.000000
8.000000,37844.230276,32818.820515,14791.624521,-2747.789353,869.438156,21838.034312,-1321.502187,1683.153413,28704.400802,1701.191270,23529.748443,35740.282922,36337.633292,40385.847138,20538.570945,24546.238726,0.007000,-0.014000,1.005000,192.000000,0.000000,24.000000,127.500000,72.000000,15.500000,64.000000,0.000000,0.000000,0.000000,1770800813.590220,0.000000
10.000000,37842.509191,32820.094564,14784.583722,-2750.315100,862.442060,21838.458996,-1322.798589,1681.879363,28706.345404,1698.442006,23534.196440,35742.451041,36335.107545,40382.047341,20533.273582,24541.455453,0.007000,-0.014000,1.005000,192.000000,0.000000,0.000000,0.000000,0.000000,0.000000,0.000000,0.000000,0.000000,0.000000,1770800813.590231,0.000000
12.000000,37840.475183,32817.948797,14786.170696,-2749.197513,867.962941,21842.012923,-1321.099856,1683.309875,28705.518389,1700.476015,23530.866031,35742.585152,36324.691632,40381.421492,20530.323151,24541.835432,0.007000,-0.014000,1.005000,192.000000,0.000000,0.000000,0.000000,0.000000,0.000000,0.000000,0.000000,0.000000,0.000000,1770800813.590242,0.000000
14.000000,37841.682177,32814.350166,14784.002576,-2752.930254,862.509115,21831.753472,-1327.179531,1680.627666,28696.689450,1696.631515,23535.068159,35737.153678,36328.558484,40380.706236,20537.498061,24546.551650,0.007000,-0.014000,1.005000,192.000000,0.000000,0.000000,0.000000,0.000000,0.000000,0.000000,0.000000,0.000000,0.000000,1770800813.590252,0.000000
16.000000,37837.904732,32813.657262,14775.598320,-2752.058536,862.084432,21828.713635,-1330.197016,1675.911448,28701.182151,1696.072721,23530.217830,35736.326663,36326.010385,40380.125091,20526.836279,24544.294124,0.007000,-0.014000,1.005000,192.000000,0.000000,0.000000,0.000000,0.000000,0.000000,0.000000,0.000000,0.000000,0.000000,1770800813.590263,0.000000
18.000000,37839.312892,32812.249102,14777.140591,-2749.018699,860.855086,21837.631981,-1330.599347,1675.732634,28688.486360,1698.151433,23528.563801,35728.861180,36336.649816,40382.203803,20532.424215,24550.038522,0.009500,-0.011000,1.005500,192.000000,0.000000,48.000000,127.500000,96.000000,15.500000,56.000000,0.000000,0.000000,0.000000,1770800813.590274,0.000000
20.000000,37828.628758,32801.676727,14764.154227,-2752.729088,854.641301,21840.940039,-1335.673193,1668.065985,28683.993659,1688.540183,23525.389853,35726.670709,36322.076478,40379.588649,20529.898468,24553.838319,0.009500,-0.011000,1.005500,192.000000,0.000000,0.000000,0.000000,0.000000,0.000000,0.000000,0.000000,0.000000,0.000000,1770800813.590285,0.000000
22.000000,37824.873665,32798.055744,14766.814085,-2752.192647,858.284635,21845.298629,-1334.086220,1665.540238,28673.957726,1683.086357,23512.403490,35720.009890,36311.258234,40376.168832,20524.176422,24557.146377,0.009500,-0.011000,1.005500,192.000000,0.000000,0.000000,0.000000,0.000000,0.000000,0.000000,0.000000,0.000000,0.000000,1770800813.590295,0.000000
24.000000,37821.655014,32794.278299,14767.417582,-2758.652301,855.624778,21839.241307,-1338.377754,1660.444040,28668.526252,1681.454680,23512.358786,35713.550235,36313.895740,40375.744149,20532.737140,24560.253270,0.009500,-0.011000,1.005500,192.000000,0.000000,0.000000,0.000000,0.000000,0.000000,0.000000,0.000000,0.000000,0.000000,1770800813.590306,0.000000
26.000000,37820.112743,32793.451285,14768.088134,-2760.954530,857.055289,21833.072225,-1337.595443,1658.812363,28671.677848,1676.939628,23504.535676,35715.070154,36307.704307,40372.257277,20529.697303,24555.201775,0.009500,-0.011000,1.005500,192.000000,0.000000,0.000000,0.000000,0.000000,0.000000,0.000000,0.000000,0.000000,0.000000,1770800813.590318,0.000000
28.000000,37826.550046,32799.754477,14778.816972,-2757.512362,863.716109,21821.717539,-1333.527426,1663.238008,28666.916927,1683.466337,23503.619254,35709.146942,36316.488542,40374.000713,20541.230803,24550.396150,0.008750,-0.010500,1.006750,192.000000,0.000000,32.000000,127.500000,88.000000,15.500000,64.000000,0.000000,0.000000,0.000000,1770800813.590329,0.000000
30.000000,37833.546142,32807.599939,14778.660509,-2754.830152,864.409013,21838.011961,-1332.342783,1668.423613,28678.316316,1688.093148,23514.459850,35726.670709,36313.493408,40375.230059,20540.940230,24549.971467,0.008750,-0.010500,1.006750,192.000000,0.000000,0.000000,0.000000,0.000000,0.000000,0.000000,0.000000,0.000000,0.000000,1770800813.590340,0.000000
32.000000,37841.592770,32818.306424,14785.120164,-2743.028431,875.741348,21867.359801,-1324.854949,1679.107747,28685.446523,1699.269020,23518.527868,35738.338320,36314.253368,40391.345667,20540.515547,24551.714903,0.008750,-0.010500,1.006750,192.000000,0.000000,0.000000,0.000000,0.000000,0.000000,0.000000,0.000000,0.000000,0.000000,1770800813.590351,0.000000
34.000000,37847.583037,32821.301558,14782.348547,-2742.961376,874.288484,21853.524071,-1327.335993,1680.337093,28687.704049,1706.890965,23528.563801,35747.435480,36329.139629,40401.292193,20546.282297,24553.190118,0.008750,-0.010500,1.006750,192.000000,0.000000,0.000000,0.000000,0.000000,0.000000,0.000000,0.000000,0.000000,0.000000,1770800813.590362,0.000000
36.000000,37844.431441,32813.925483,14776.246521,-2743.117838,873.170897,21861.302478,-1328.610042,1676.559648,28693.470799,1701.884175,23525.278094,35750.609428,36323.641100,40395.503091,20534.838204,24552.050179,0.008750,-0.010500,1.006750,192.000000,0.000000,0.000000,0.000000,0.000000,0.000000,0.000000,0.000000,0.000000,0.000000,1770800813.590373,0.000000
38.000000,37843.716186,32812.182046,14780.113373,-2746.269434,870.891019,21852.428836,-1328.610042,1675.620875,28688.262843,1701.370084,23528.250876,35740.394681,36328.245560,40397.470045,20535.911088,24554.866499,0.011375,-0.010250,1.007375,192.000000,0.000000,56.000000,127.500000,88.000000,15.500000,64.000000,0.000000,0.000000,0.000000,1770800813.590384,0.000000
40.000000,37833.032052,32806.839980,14771.642062,-2753.869027,859.670443,21842.862289,-1335.024993,1667.127212,28686.564110,1696.832680,23525.501612,35744.082718,36318.567254,40390.250431,20531.150166,24553.391284,0.011375,-0.010250,1.007375,192.000000,0.000000,0.000000,0.000000,0.000000,0.000000,0.000000,0.000000,0.000000,0.000000,1770800813.590396,0.000000
42.000000,37828.740517,32798.659241,14774.413678,-2754.941911,859.245760,21850.238365,-1335.047345,1663.439174,28686.072372,1692.027055,23518.416109,35737.041919,36307.145513,40385.400103,20525.383416,24557.302839,0.011375,-0.010250,1.007375,192.000000,0.000000,0.000000,0.000000,0.000000,0.000000,0.000000,0.000000,0.000000,0.000000,1770800813.590408,0.000000
44.000000,37821.230331,32791.238462,14770.435067,-2761.625083,851.512057,21841.431778,-1339.517693,1658.678253,28672.571918,1681.029997,23517.745557,35727.989462,36308.665432,40374.447748,20531.418387,24559.917994,0.011375,-0.010250,1.007375,192.000000,0.000000,0.000000,0.000000,0.000000,0.000000,0.000000,0.000000,0.000000,0.000000,1770800813.590419,0.000000
46.000000,37826.192418,32795.172369,14772.759649,-2761.021586,854.462487,21835.933249,-1337.886016,1662.567456,28675.567052,1681.320570,23510.838868,35730.157582,36298.517740,40365.082367,20525.472823,24552.497214,0.011375,-0.010250,1.007375,192.000000,0.000000,0.000000,0.000000,0.000000,0.000000,0.000000,0.000000,0.000000,0.000000,1770800813.590430,0.000000
48.000000,37829.142848,32796.736991,14783.130858,-2757.221789,863.067909,21838.816624,-1333.415667,1671.955189,28677.131674,1685.835622,23519.556048,35732.057480,36303.099847,40369.843289,20535.776977,24552.228993,0.012688,-0.011125,1.008688,192.000000,0.000000,56.000000,127.500000,80.000000,15.500000,72.000000,0.000000,0.000000,0.000000,1770800813.590441,0.000000
50.000000,37837.681215,32803.822494,14782.505009,-2755.970091,865.951284,21835.799138,-1334.019164,1675.084433,28686.430000,1690.708302,23527.848545,35743.278056,36309.157170,40374.201879,20534.905259,24547.669238,0.012688,-0.011125,1.008688,192.000000,0.000000,0.000000,0.000000,0.000000,0.000000,0.000000,0.000000,0.000000,0.000000,1770800813.590451,0.000000
52.000000,37844.364386,32809.142209,14789.165829,-2748.638719,875.473127,21850.372475,-1328.565339,1681.298218,28703.305567,1699.984276,23529.547278,35744.641512,36316.779115,40382.047341,20533.877079,24544.942325,0.012688,-0.011125,1.008688,192.000000,0.000000,0.000000,0.000000,0.000000,0.000000,0.000000,0.000000,0.000000,0.000000,1770800813.590462,0.000000
54.000000,37849.415880,32816.317119,14789.568161,-2745.040088,871.338054,21852.607650,-1327.939490,1685.388587,28709.049965,1704.789901,23541.371350,35749.245971,36326.703289,40391.211556,20537.989800,24549.010342,0.012688,-0.011125,1.008688,192.000000,0.000000,0.000000,0.000000,0.000000,0.000000,0.000000,0.000000,0.000000,0.000000,1770800813.590473,0.000000
56.000000,37847.493630,32816.808858,14788.942312,-2743.609577,869.147583,21851.199490,-1325.056115,1685.880326,28711.039270,1707.717980,23541.147833,35757.046730,36318.343737,40392.530309,20529.697303,24550.150281,0.012688,-0.011125,1.008688,192.000000,0.000000,0.000000,0.000000,0.000000,0.000000,0.000000,0.000000,0.000000,0.000000,1770800813.590483,0.000000
58.000000,37846.666616,32812.629081,14793.390309,-2741.799085,869.862839,21856.340391,-1322.820940,1686.282657,28705.786610,1711.696590,23542.913621,35753.291637,36323.484638,40396.061885,20535.352294,24551.558441,0.011344,-0.011562,1.005344,192.000000,0.000000,40.000000,127.500000,80.000000,15.500000,40.000000,0.000000,0.000000,0.000000,1770800813.590496,0.000000
60.000000,37829.746345,32800.983822,14781.677995,-2745.040088,865.638359,21834.167461,-1328.274766,1677.565477,28700.377488,1702.353561,23539.359693,35758.209021,36313.672222,40391.613888,20530.121986,24550.530261,0.011344,-0.011562,1.005344,192.000000,0.000000,0.000000,0.000000,0.000000,0.000000,0.000000,0.000000,0.000000,0.000000,1770800814.070453,0.000000
62.000000,37827.108839,32799.910939,14782.326196,-2743.363707,862.240894,21844.628077,-1329.191188,1673.810384,28694.633090,1696.318590,23527.066234,35754.096300,36310.498275,40388.886975,20527.685646,24553.793616,0.011344,-0.011562,1.005344,192.000000,0.000000,0.000000,0.000000,0.000000,0.000000,0.000000,0.000000,0.000000,0.000000,1770800814.070511,0.000000
64.000000,37818.726935,32789.360915,14778.235826,-2750.628024,855.065984,21847.064417,-1336.142580,1664.042671,28688.911043,1696.139776,23526.060405,35745.893210,36307.346679,40393.513786,20532.379512,24560.476787,0.011344,-0.011562,1.005344,192.000000,0.000000,0.000000,0.000000,0.000000,0.000000,0.000000,0.000000,0.000000,0.000000,1770800814.070556,0.000000
66.000000,37809.383906,32779.570851,14771.820876,-2756.975920,854.283673,21841.163557,-1340.903502,1654.096145,28677.534005,1681.745253,23512.045862,35738.852410,36290.180539,40383.567260,20525.942209,24563.047238,0.011344,-0.011562,1.005344,192.000000,0.000000,0.000000,0.000000,0.000000,0.000000,0.000000,0.000000,0.000000,0.000000,1770800814.070591,0.000000
68.000000,37801.739609,32774.385247,14773.430201,-2761.513324,855.289502,21830.479423,-1341.574054,1648.910540,28676.975212,1677.900753,23506.949664,35726.827172,36298.517740,40380.236850,20530.278448,24563.695438,0.011672,-0.010781,1.007672,192.000000,0.000000,48.000000,127.500000,88.000000,15.500000,72.000000,0.000000,0.000000,0.000000,1770800814.070633,0.000000
70.000000,37805.293537,32780.040238,14769.608053,-2761.781545,852.070850,21833.496908,-1341.752868,1652.598578,28675.254127,1674.771509,23509.900094,35730.671672,36298.495388,40376.101777,20526.165727,24555.447645,0.011672,-0.010781,1.007672,192.000000,0.000000,0.000000,0.000000,0.000000,0.000000,0.000000,0.000000,0.000000,0.000000,1770800814.070695,0.000000
72.000000,37812.177874,32788.086866,14781.253312,-2753.354937,860.944493,21843.555193,-1333.661536,1664.020319,28678.942165,1682.348750,23511.352958,35738.561838,36301.110542,40384.818957,20524.846974,24550.150281,0.011672,-0.010781,1.007672,192.000000,0.000000,0.000000,0.000000,0.000000,0.000000,0.000000,0.000000,0.000000,0.000000,1770800814.070736,0.000000
74.000000,37820.000985,32800.380325,14783.130858,-2749.666899,871.650979,21832.692246,-1332.678060,1669.630607,28685.893558,1691.267096,23523.378196,35747.748404,36310.073591,40396.330106,20534.569983,24545.478767,0.011672,-0.010781,1.007672,192.000000,0.000000,0.000000,0.000000,0.000000,0.000000,0.000000,0.000000,0.000000,0.000000,1770800814.070747,0.000000
76.000000,37826.527694,32805.208302,14784.874294,-2742.737859,873.684987,21861.414237,-1329.705278,1671.776375,28697.069430,1697.503233,23523.378196,35760.980637,36314.275719,40399.794626,20527.618590,24545.612877,0.011672,-0.010781,1.007672,192.000000,0.000000,0.000000,0.000000,0.000000,0.000000,0.000000,0.000000,0.000000,0.000000,1770800814.070758,0.000000
78.000000,37826.818267,32806.147075,14790.194010,-2740.055649,876.590714,21869.080886,-1328.319469,1672.379872,28701.092744,1704.141701,23528.161469,35758.544297,36322.367051,40409.517635,20534.748797,24557.504005,0.011672,-0.010781,1.007672,192.000000,0.000000,0.000000,0.000000,0.000000,0.000000,0.000000,0.000000,0.000000,0.000000,1770800814.070768,0.000000
80.000000,37821.252682,32800.983822,14781.901512,-2746.895283,874.288484,21851.043028,-1333.125095,1666.993101,28704.512561,1698.173785,23528.116766,35761.137099,36318.924882,40401.649821,20536.313419,24558.979220,0.008000,-0.010000,1.004000,192.000000,0.000000,32.000000,127.500000,88.000000,15.500000,48.000000,0.000000,0.000000,0.000000,1770800814.070779,0.000000
82.000000,37818.816342,32796.401715,14785.678957,-2746.224731,879.071758,21849.590164,-1331.783990,1666.188439,28696.980023,1692.384683,23515.868010,35754.141003,36315.750935,40394.787835,20536.805157,24558.331020,0.008000,-0.010000,1.004000,192.000000,0.000000,0.000000,0.000000,0.000000,0.000000,0.000000,0.000000,0.000000,0.000000,1770800814.070790,0.000000
84.000000,37817.363479,32798.994517,14782.303844,-2751.700908,877.551839,21840.180080,-1336.991946,1662.053366,28688.955747,1695.804500,23515.465679,35744.865029,36318.276682,40396.844196,20543.175404,24563.762494,0.008000,-0.010000,1.004000,192.000000,0.000000,0.000000,0.000000,0.000000,0.000000,0.000000,0.000000,0.000000,0.000000,1770800814.070800,0.000000
86.000000,37812.982537,32793.585395,14778.168771,-2754.651338,867.091223,21855.245156,-1337.751906,1659.035880,28692.107343,1690.015398,23508.693100,35741.065233,36304.284490,40392.731475,20531.664256,24562.175520,0.008000,-0.010000,1.004000,192.000000,0.000000,0.000000,0.000000,0.000000,0.000000,0.000000,0.000000,0.000000,0.000000,1770800814.070810,0.000000
88.000000,37812.021412,32792.065476,14780.225132,-2754.897208,863.649054,21858.508510,-1336.835484,1658.365328,28687.055848,1687.914334,23510.928275,35730.537561,36304.217434,40398.207652,20535.128776,24560.745008,0.008000,-0.010000,1.004000,192.000000,0.000000,0.000000,0.000000,0.000000,0.000000,0.000000,0.000000,0.000000,0.000000,1770800814.070821,0.000000
90.000000,37801.694906,32784.018848,14767.909320,-2762.362690,850.506228,21840.895336,-1339.294176,1652.598578,28680.663250,1681.879363,23509.765984,35728.727070,36301.088190,40394.206690,20529.272619,24556.989915,0.010000,-0.008000,1.002000,192.000000,0.000000,40.000000,127.500000,96.000000,15.500000,40.000000,0.000000,0.000000,0.000000,1770800814.070836,0.000000
92.000000,37800.487912,32781.470750,14771.463248,-2761.982711,850.550932,21838.593106,-1336.187284,1655.906636,28674.069485,1679.130099,23503.149867,35722.625044,36286.559556,40386.338876,20517.426195,24549.680895,0.010000,-0.008000,1.002000,192.000000,0.000000,0.000000,0.000000,0.000000,0.000000,0.000000,0.000000,0.000000,0.000000,1770800814.070847,0.000000
94.000000,37806.075848,32788.712715,14772.759649,-2765.335472,859.357519,21825.025597,-1337.550740,1660.086412,28674.024781,1683.913372,23510.347129,35719.205227,36293.890928,40391.725646,20524.712864,24545.590525,0.010000,-0.008000,1.002000,192.000000,0.000000,0.000000,0.000000,0.000000,0.000000,0.000000,0.000000,0.000000,0.000000,1770800814.070857,0.000000
96.000000,37813.563682,32801.207340,14774.190161,-2759.076984,868.700548,21848.182004,-1334.197978,1666.926046,28684.418343,1686.975561,23510.369481,35724.457887,36292.438065,40390.988039,20524.399939,24541.678970,0.010000,-0.008000,1.002000,192.000000,0.000000,0.000000,0.000000,0.000000,0.000000,0.000000,0.000000,0.000000,0.000000,1770800814.070867,0.000000
98.000000,37822.437325,32807.756401,14782.102678,-2750.605673,877.551839,21859.089656,-1329.504112,1673.966846,28687.458180,1694.575154,23515.398623,35723.586169,36306.474961,40404.779065,20538.235669,24551.178461,0.010000,-0.008000,1.002000,192.000000,0.000000,0.000000,0.000000,0.000000,0.000000,0.000000,0.000000,0.000000,0.000000,1770800814.070878,0.000000
100.000000,37828.114668,32813.880779,14781.633291,-2746.716469,881.686912,21856.139225,-1328.230063,1678.303084,28699.930453,1702.979410,23523.557010,35741.221695,36312.912263,40417.050173,20537.632172,24555.022962,0.010000,-0.012000,1.006000,192.000000,0.000000,40.000000,127.500000,80.000000,15.500000,56.000000,0.000000,0.000000,0.000000,1770800814.070888,0.000000
102.000000,37830.752174,32817.993500,14788.003539,-2737.887530,882.580982,21873.394772,-1322.999754,1684.338055,28705.160761,1706.578041,23521.657112,35745.155602,36306.832589,40418.748906,20537.051026,24559.470959,0.010000,-0.012000,1.006000,192.000000,0.000000,0.000000,0.000000,0.000000,0.000000,0.000000,0.000000,0.000000,0.000000,1770800814.070898,0.000000
104.000000,37824.069002,32812.673785,14784.427259,-2743.117838,877.373025,21862.487121,-1327.090124,1681.208811,28700.466895,1712.948288,23527.602676,35743.032186,36309.984185,40423.934510,20539.800291,24565.528281,0.010000,-0.012000,1.006000,192.000000,0.000000,0.000000,0.000000,0.000000,0.000000,0.000000,0.000000,0.000000,0.000000,1770800814.070909,0.000000
106.000000,37821.722069,32809.745706,14780.783925,-2747.856408,867.560609,21850.819510,-1329.302946,1677.073738,28700.422192,1705.549861,23521.724167,35746.384948,36300.596452,40415.016164,20529.138509,24563.918956,0.010000,-0.012000,1.006000,192.000000,0.000000,0.000000,0.000000,0.000000,0.000000,0.000000,0.000000,0.000000,0.000000,1770800814.070919,0.000000
108.000000,37812.334336,32800.089753,14784.829591,-2754.561931,866.264208,21845.119815,-1330.845217,1670.748195,28691.861474,1698.687875,23517.007949,35734.203247,36303.725696,40413.295080,20535.262887,24562.175520,0.010000,-0.012000,1.006000,192.000000,0.000000,0.000000,0.000000,0.000000,0.000000,0.000000,0.000000,0.000000,0.000000,1770800814.070930,0.000000
110.000000,37807.059325,32792.870139,14777.632329,-2761.647434,859.245760,21848.718446,-1336.254339,1662.947436,28692.710840,1689.098977,23513.208152,35730.962244,36296.975469,40406.455446,20531.865422,24559.895642,0.006000,-0.008000,1.002000,192.000000,0.000000,24.000000,127.500000,96.000000,15.500000,40.000000,0.000000,0.000000,0.000000,1770800814.070940,0.000000
112.000000,37804.555929,32789.584433,14781.543884,-2759.412260,866.264208,21850.506586,-1334.197978,1663.617988,28690.542721,1687.601410,23504.938007,35724.279073,36294.561481,40405.382562,20526.702169,24553.391284,0.006000,-0.008000,1.002000,192.000000,0.000000,0.000000,0.000000,0.000000,0.000000,0.000000,0.000000,0.000000,0.000000,1770800814.070950,0.000000
114.000000,37808.825112,32790.612613,14777.632329,-2761.133344,862.531467,21844.024580,-1337.036650,1662.031014,28687.525235,1689.054273,23509.654225,35720.144000,36297.444856,40405.807245,20531.932477,24553.346581,0.006000,-0.008000,1.002000,192.000000,0.000000,0.000000,0.000000,0.000000,0.000000,0.000000,0.000000,0.000000,0.000000,1770800814.070960,0.000000
116.000000,37811.775543,32796.826398,14777.297053,-2759.948702,868.700548,21838.481347,-1335.360269,1665.026148,28693.493151,1689.836584,23506.055594,35729.151753,36293.309783,40401.381600,20525.092843,24544.584697,0.006000,-0.008000,1.002000,192.000000,0.000000,0.000000,0.000000,0.000000,0.000000,0.000000,0.000000,0.000000,0.000000,1770800814.070971,0.000000
118.000000,37820.693889,32808.985747,14786.036585,-2752.371460,875.584886,21854.552252,-1329.481760,1676.447889,28698.499942,1701.861823,23515.331568,35725.597826,36305.379725,40411.328126,20534.011189,24546.082264,0.006000,-0.008000,1.002000,192.000000,0.000000,0.000000,0.000000,0.000000,0.000000,0.000000,0.000000,0.000000,0.000000,1770800814.070982,0.000000
120.000000,37821.945586,32809.611596,14780.269835,-2750.449210,876.031920,21860.319002,-1330.644051,1676.179668,28701.472724,1706.287468,23523.914638,35740.752308,36306.676126,40413.675060,20532.759492,24551.781959,0.006000,-0.012000,1.002000,192.000000,0.000000,24.000000,127.500000,80.000000,15.500000,40.000000,0.000000,0.000000,0.000000,1770800814.070992,0.000000
122.000000,37828.293482,32814.372517,14786.327158,-2742.626100,887.476014,21861.257775,-1326.754847,1681.119404,28703.171456,1706.533337,23518.729033,35741.579323,36308.397211,40420.715859,20529.652599,24556.073493,0.006000,-0.012000,1.002000,192.000000,0.000000,0.000000,0.000000,0.000000,0.000000,0.000000,0.000000,0.000000,0.000000,1770800814.071003,0.000000
124.000000,37827.175895,32812.919654,14784.002576,-2740.525036,881.373987,21884.548293,-1329.615871,1677.476070,28709.541703,1711.964811,23523.668769,35744.708567,36314.342775,40429.321281,20536.738102,24564.880081,0.006000,-0.012000,1.002000,192.000000,0.000000,0.000000,0.000000,0.000000,0.000000,0.000000,0.000000,0.000000,0.000000,1770800814.071014,0.000000
126.000000,37819.799819,32805.096543,14777.431163,-2743.117838,873.930856,21878.289804,-1330.599347,1672.335168,28706.703032,1711.785997,23513.454022,35749.000102,36299.702382,40422.571054,20528.892640,24567.070552,0.006000,-0.012000,1.002000,192.000000,0.000000,0.000000,0.000000,0.000000,0.000000,0.000000,0.000000,0.000000,0.000000,1770800814.071024,0.000000
128.000000,37819.665709,32802.459038,14781.342719,-2743.698984,875.517830,21872.277185,-1330.018202,1672.961017,28697.605872,1705.482805,23511.241199,35738.986521,36305.491484,40419.642975,20536.089901,24568.590470,0.006000,-0.012000,1.002000,192.000000,0.000000,0.000000,0.000000,0.000000,0.000000,0.000000,0.000000,0.000000,0.000000,1770800814.071034,0.000000
130.000000,37815.776505,32795.932328,14775.128934,-2750.583321,869.907542,21851.043028,-1335.829656,1666.389604,28700.399840,1699.358427,23512.269379,35738.472431,36300.417638,40414.837350,20536.961619,24563.628383,0.008000,-0.014000,1.006000,192.000000,0.000000,32.000000,127.500000,72.000000,15.500000,56.000000,0.000000,0.000000,0.000000,1770800814.071044,0.000000
132.000000,37811.328508,32793.451285,14778.392288,-2752.147943,873.103842,21850.350124,-1334.801475,1664.892037,28696.465933,1694.731616,23502.233446,35733.957378,36290.918146,40411.596347,20536.358122,24560.499139,0.008000,-0.014000,1.006000,192.000000,0.000000,0.000000,0.000000,0.000000,0.000000,0.000000,0.000000,0.000000,0.000000,1770800814.071055,0.000000
134.000000,37808.288671,32790.389096,14774.413678,-2754.137248,865.906580,21850.372475,-1335.673193,1662.768622,28691.056811,1692.965829,23505.027414,35729.911712,36299.188292,40411.484589,20538.347428,24560.745008,0.008000,-0.014000,1.006000,192.000000,0.000000,0.000000,0.000000,0.000000,0.000000,0.000000,0.000000,0.000000,0.000000,1770800814.071065,0.000000
136.000000,37799.415028,32784.041200,14768.289300,-2757.355899,855.513019,21835.352103,-1335.941414,1658.141811,28686.295889,1684.695683,23498.277187,35730.291692,36284.413789,40393.469083,20526.456300,24554.933555,0.008000,-0.014000,1.006000,192.000000,0.000000,0.000000,0.000000,0.000000,0.000000,0.000000,0.000000,0.000000,0.000000,1770800814.071075,0.000000
138.000000,37798.453903,32779.950831,14772.513780,-2754.092545,856.295330,21846.930307,-1334.220330,1659.617026,28678.450427,1685.857974,23496.913731,35721.529808,36285.464321,40395.816016,20528.758529,24555.469996,0.008000,-0.014000,1.006000,192.000000,0.000000,0.000000,0.000000,0.000000,0.000000,0.000000,0.000000,0.000000,0.000000,1770800814.071086,0.000000
140.000000,37800.599670,32781.068418,14767.417582,-2757.333548,858.597560,21844.717484,-1337.371926,1657.873590,28679.076276,1681.924067,23498.500705,35727.408317,36288.973545,40392.507958,20524.757567,24559.336848,0.004000,-0.012000,1.002000,192.000000,0.000000,16.000000,127.500000,80.000000,15.500000,40.000000,0.000000,0.000000,0.000000,1770800814.071096,0.000000
142.000000,37812.200226,32792.266642,14779.040489,-2753.265530,868.611141,21845.902127,-1332.365135,1666.054328,28691.347383,1684.449814,23501.093507,35729.688195,36289.375876,40388.752864,20525.517526,24556.475825,0.004000,-0.012000,1.002000,192.000000,0.000000,0.000000,0.000000,0.000000,0.000000,0.000000,0.000000,0.000000,0.000000,1770800814.071107,0.000000
144.000000,37813.697793,32793.965375,14779.800448,-2752.326757,865.571304,21838.727217,-1332.365135,1667.551895,28694.364869,1690.328323,23513.118745,35732.862143,36300.462341,40395.190167,20531.530146,24557.481653,0.004000,-0.012000,1.002000,192.000000,0.000000,0.000000,0.000000,0.000000,0.000000,0.000000,0.000000,0.000000,0.000000,1770800814.071118,0.000000
146.000000,37819.241025,32796.580529,14778.906379,-2748.929292,867.918237,21843.979877,-1329.705278,1671.977540,28704.825485,1689.322494,23516.784432,35739.522963,36298.696554,40393.536138,20525.316361,24553.927726,0.004000,-0.012000,1.002000,192.000000,0.000000,0.000000,0.000000,0.000000,0.000000,0.000000,0.000000,0.000000,0.000000,1770800814.071128,0.000000
148.000000,37825.030127,32801.274395,14784.941350,-2746.045917,873.617932,21861.078961,-1328.520635,1676.470241,28701.472724,1702.979410,23523.065272,35738.070099,36308.956004,40402.521539,20534.122948,24554.531223,0.004000,-0.012000,1.002000,192.000000,0.000000,0.000000,0.000000,0.000000,0.000000,0.000000,0.000000,0.000000,0.000000,1770800814.071138,0.000000
150.000000,37819.688060,32796.625232,14776.939425,-2749.197513,869.482859,21858.754380,-1331.940452,1671.552857,28706.770087,1698.129082,23524.562839,35739.433556,36306.810237,40405.315507,20531.865422,24554.598278,0.006000,-0.009000,1.006000,192.000000,0.000000,32.000000,127.500000,104.000000,15.500000,72.000000,0.000000,0.000000,0.000000,1770800814.071150,0.000000
152.000000,37818.637528,32797.809875,14780.605111,-2746.671766,871.181592,21849.232536,-1329.839388,1671.083471,28694.521331,1697.033846,23511.263551,35737.846582,36298.271870,40403.281498,20530.077282,24556.095845,0.006000,-0.009000,1.006000,192.000000,0.000000,0.000000,0.000000,0.000000,0.000000,0.000000,0.000000,0.000000,0.000000,1770800814.071160,0.000000
154.000000,37817.654052,32794.479465,14777.967605,-2752.349109,869.505211,21850.081903,-1335.293214,1664.087375,28697.762334,1702.420616,23518.147888,35733.242122,36303.345716,40409.070600,20538.638000,24563.471921,0.006000,-0.009000,1.006000,192.000000,0.000000,0.000000,0.000000,0.000000,0.000000,0.000000,0.000000,0.000000,0.000000,1770800814.071172,0.000000
156.000000,37806.813455,32787.125741,14772.603187,-2756.350071,872.343883,21873.819455,-1338.914196,1655.571360,28694.856607,1691.557669,23506.145001,35728.615311,36289.398228,40402.588594,20534.905259,24563.471921,0.006000,-0.009000,1.006000,192.000000,0.000000,0.000000,0.000000,0.000000,0.000000,0.000000,0.000000,0.000000,0.000000,1770800814.071182,0.000000
158.000000,37801.471389,32783.191834,14770.300957,-2760.127516,868.320569,21861.324830,-1342.311662,1649.223465,28687.189959,1691.267096,23498.321891,35716.970052,36296.036696,40402.678001,20538.056855,24573.105523,0.006000,-0.009000,1.006000,192.000000,0.000000,0.000000,0.000000,0.000000,0.000000,0.000000,0.000000,0.000000,0.000000,1770800814.071193,0.000000
160.000000,37791.636621,32774.005267,14759.996803,-2766.609522,855.647129,21847.399693,-1348.234874,1640.327470,28682.630203,1683.756910,23492.085754,35715.718355,36294.203853,40392.463254,20529.876116,24577.844093,0.008000,-0.006500,1.010000,192.000000,0.000000,40.000000,127.500000,112.000000,15.500000,88.000000,0.000000,0.000000,0.000000,1770800814.071203,0.000000
162.000000,37801.203168,32780.219052,14769.183370,-2760.663958,859.558685,21849.836034,-1340.523522,1648.932892,28679.098627,1680.582962,23486.520170,35715.159561,36288.638269,40391.502129,20524.735215,24569.998630,0.008000,-0.006500,1.010000,192.000000,0.000000,0.000000,0.000000,0.000000,0.000000,0.000000,0.000000,0.000000,0.000000,1770800814.071213,0.000000
164.000000,37808.936871,32783.817683,14772.782001,-2760.194571,863.336130,21840.783577,-1338.087182,1655.124325,28691.101514,1688.875459,23506.882609,35725.106087,36308.419562,40394.139635,20529.473785,24560.208566,0.008000,-0.006500,1.010000,192.000000,0.000000,0.000000,0.000000,0.000000,0.000000,0.000000,0.000000,0.000000,0.000000,1770800814.071223,0.000000
166.000000,37816.268243,32792.646622,14775.911245,-2755.523056,867.270037,21843.801063,-1334.019164,1661.896904,28698.656404,1691.557669,23508.111955,35736.907808,36303.546882,40398.498225,20525.338712,24549.613839,0.008000,-0.006500,1.010000,192.000000,0.000000,0.000000,0.000000,0.000000,0.000000,0.000000,0.000000,0.000000,0.000000,1770800814.071234,0.000000
168.000000,37814.435400,32790.925537,14782.102678,-2753.645510,871.852144,21843.331676,-1330.353478,1666.255494,28697.784686,1698.196137,23513.252856,35738.494782,36311.660565,40405.449618,20534.122948,24548.742121,0.008000,-0.006500,1.010000,192.000000,0.000000,0.000000,0.000000,0.000000,0.000000,0.000000,0.000000,0.000000,0.000000,1770800814.071244,0.000000
170.000000,37811.261453,32790.366744,14777.364108,-2750.471562,865.571304,21854.328734,-1330.018202,1666.166087,28691.459142,1691.535317,23513.655187,35742.495745,36302.764571,40404.197920,20531.753663,24549.770302,0.010000,-0.006250,1.010000,192.000000,0.000000,48.000000,127.500000,104.000000,15.500000,72.000000,0.000000,0.000000,0.000000,1770800814.071254,0.000000
172.000000,37811.999060,32792.981898,14783.354376,-2744.257777,874.824926,21860.542519,-1327.067772,1671.105822,28693.560206,1703.761721,23509.922446,35745.312064,36305.424429,40411.283423,20530.166689,24551.781959,0.010000,-0.006250,1.010000,192.000000,0.000000,0.000000,0.000000,0.000000,0.000000,0.000000,0.000000,0.000000,0.000000,1770800814.071265,0.000000
174.000000,37809.093333,32788.623308,14781.901512,-2745.576530,874.020263,21848.316115,-1329.973499,1667.306026,28693.090819,1702.286506,23515.108051,35738.584189,36316.577949,40413.920929,20538.638000,24558.979220,0.010000,-0.006250,1.010000,192.000000,0.000000,0.000000,0.000000,0.000000,0.000000,0.000000,0.000000,0.000000,0.000000,1770800814.071275,0.000000
176.000000,37803.773618,32786.812816,14777.587626,-2745.621234,875.741348,21862.867101,-1331.940452,1663.439174,28695.437753,1698.419654,23504.312158,35740.014701,36311.861731,40410.076429,20530.703131,24563.315459,0.010000,-0.006250,1.010000,192.000000,0.000000,0.000000,0.000000,0.000000,0.000000,0.000000,0.000000,0.000000,0.000000,1770800814.071286,0.000000
178.000000,37798.632717,32781.068418,14780.001614,-2746.738821,878.959999,21896.193552,-1333.303909,1660.019357,28684.820674,1698.620820,23503.462792,35732.325701,36315.616824,40417.944243,20535.218183,24571.876177,0.010000,-0.006250,1.010000,192.000000,0.000000,0.000000,0.000000,0.000000,0.000000,0.000000,0.000000,0.000000,0.000000,1770800814.071296,0.000000
180.000000,37786.339258,32766.986819,14769.920977,-2759.322853,868.432327,21867.382153,-1340.232949,1647.524732,28678.495130,1689.076625,23498.478353,35731.074003,36308.508969,40405.270804,20529.853765,24570.624479,0.009000,-0.007125,1.012000,192.000000,0.000000,32.000000,127.500000,96.000000,15.500000,88.000000,0.000000,0.000000,0.000000,1770800814.550732,0.000000
182.000000,37782.092426,32762.002380,14767.596396,-2763.413222,864.833696,21861.146016,-1340.545874,1644.239026,28676.483473,1677.990160,23487.816571,35720.121648,36301.401115,40392.731475,20525.673989,24568.366953,0.009000,-0.007125,1.012000,192.000000,0.000000,0.000000,0.000000,0.000000,0.000000,0.000000,0.000000,0.000000,0.000000,1770800814.550802,0.000000
184.000000,37775.051627,32754.983932,14760.510893,-2769.381138,846.997004,21840.269487,-1343.406897,1640.394526,28663.005371,1670.211753,23491.504609,35716.813590,36303.882158,40385.265992,20528.557364,24562.600203,0.009000,-0.007125,1.012000,192.000000,0.000000,0.000000,0.000000,0.000000,0.000000,0.000000,0.000000,0.000000,0.000000,1770800814.550850,0.000000
186.000000,37778.337333,32758.694322,14755.682916,-2765.871914,841.699641,21831.641714,-1341.261130,1642.987328,28659.630258,1664.288540,23484.128533,35719.160523,36284.190271,40376.057074,20515.727462,24553.547746,0.009000,-0.007125,1.012000,192.000000,0.000000,0.000000,0.000000,0.000000,0.000000,0.000000,0.000000,0.000000,0.000000,1770800814.550909,0.000000
188.000000,37788.932060,32768.417331,14768.468114,-2758.339376,854.395432,21841.141205,-1336.455504,1654.565532,28661.798377,1675.777337,23492.175161,35718.937006,36295.388495,40384.595440,20521.382454,24551.893717,0.009000,-0.007125,1.012000,192.000000,0.000000,0.000000,0.000000,0.000000,0.000000,0.000000,0.000000,0.000000,0.000000,1770800814.551116,0.000000
190.000000,37802.343107,32781.962488,14771.977338,-2755.411298,856.183571,21836.268525,-1333.505074,1663.774450,28682.026706,1689.367198,23509.050728,35737.779526,36305.156208,40394.117283,20523.215297,24551.021999,0.006500,-0.010563,1.009000,192.000000,0.000000,16.000000,127.500000,72.000000,15.500000,56.000000,0.000000,0.000000,0.000000,1770800814.551145,0.000000
192.000000,37814.927139,32789.584433,14785.500143,-2746.202379,869.639322,21848.405522,-1326.017240,1675.375006,28695.527160,1696.787977,23512.649359,35745.066195,36313.538112,40399.325240,20523.058834,24546.171671,0.006500,-0.010563,1.009000,192.000000,0.000000,0.000000,0.000000,0.000000,0.000000,0.000000,0.000000,0.000000,0.000000,1770800814.551170,0.000000
194.000000,37818.659880,32792.400753,14785.589550,-2746.649414,873.081490,21846.527975,-1326.553682,1677.587828,28704.423154,1703.180576,23525.367501,35749.022454,36325.675109,40409.607042,20532.267753,24547.870403,0.006500,-0.010563,1.009000,192.000000,0.000000,0.000000,0.000000,0.000000,0.000000,0.000000,0.000000,0.000000,0.000000,1770800814.551193,0.000000
196.000000,37813.563682,32788.086866,14783.264969,-2744.816571,875.942513,21855.871005,-1326.464275,1673.788032,28707.150067,1701.370084,23521.545353,35754.208059,36310.855903,40407.751847,20528.669122,24548.943287,0.006500,-0.010563,1.009000,192.000000,0.000000,0.000000,0.000000,0.000000,0.000000,0.000000,0.000000,0.000000,0.000000,1770800814.551216,0.000000
198.000000,37809.406258,32783.929441,14790.216361,-2742.514341,875.920162,21863.291784,-1325.704315,1674.100956,28701.495075,1702.465320,23521.299484,35745.669692,36315.594472,40413.250376,20536.939268,24556.229956,0.006500,-0.010563,1.009000,192.000000,0.000000,0.000000,0.000000,0.000000,0.000000,0.000000,0.000000,0.000000,0.000000,1770800814.551233,0.000000
200.000000,37806.612290,32780.666087,14782.594416,-2749.108106,873.863801,21873.640641,-1331.851045,1668.110689,28701.338613,1698.620820,23520.494821,35744.842678,36314.543940,40410.612871,20538.548593,24565.751799,0.004250,-0.012281,1.006500,192.000000,0.000000,8.000000,127.500000,72.000000,15.500000,48.000000,0.000000,0.000000,0.000000,1770800814.551244,0.000000
202.000000,37808.020450,32782.230709,14785.455440,-2747.454077,883.385644,21898.160505,-1330.822865,1669.161221,28700.735116,1701.101864,23514.504554,35740.618198,36313.225187,40415.373792,20536.268715,24572.233805,0.004250,-0.012281,1.006500,192.000000,0.000000,0.000000,0.000000,0.000000,0.000000,0.000000,0.000000,0.000000,0.000000,1770800814.551255,0.000000
204.000000,37800.778484,32771.881851,14779.129896,-2754.874856,878.691778,21882.156656,-1337.908368,1658.700604,28694.119000,1697.324419,23510.771812,35726.871875,36318.187275,40417.676022,20542.504852,24577.978203,0.004250,-0.012281,1.006500,192.000000,0.000000,0.000000,0.000000,0.000000,0.000000,0.000000,0.000000,0.000000,0.000000,1770800814.551266,0.000000
206.000000,37783.344124,32752.748758,14768.646928,-2761.938007,867.962941,21876.456961,-1341.797571,1643.791991,28686.832331,1681.745253,23495.349109,35717.841770,36308.643080,40402.230966,20527.909163,24572.189101,0.004250,-0.012281,1.006500,192.000000,0.000000,0.000000,0.000000,0.000000,0.000000,0.000000,0.000000,0.000000,0.000000,1770800814.551277,0.000000
208.000000,37773.129377,32742.332845,14767.954024,-2765.849562,847.935778,21856.809778,-1341.998737,1637.399392,28663.586517,1670.882305,23484.486161,35701.010907,36294.494426,40388.998734,20523.908201,24565.684744,0.004250,-0.012281,1.006500,192.000000,0.000000,0.000000,0.000000,0.000000,0.000000,0.000000,0.000000,0.000000,0.000000,1770800814.551287,0.000000
210.000000,37779.320810,32746.177345,14761.851998,-2764.419051,841.900807,21836.492042,-1341.261130,1640.618043,28661.708970,1663.774450,23486.967204,35709.191645,36286.872481,40379.566297,20516.353311,24555.760569,0.004250,-0.012281,1.006500,192.000000,0.000000,0.000000,0.000000,0.000000,0.000000,0.000000,0.000000,0.000000,0.000000,1770800814.551298,0.000000
212.000000,37790.384923,32754.492194,14770.837399,-2754.673690,853.099031,21841.096501,-1333.750943,1654.386718,28668.950935,1671.776375,23490.319966,35720.948663,36289.241766,40387.121187,20513.335826,24552.676028,0.006000,-0.012000,1.012000,192.000000,0.000000,24.000000,127.500000,80.000000,15.500000,80.000000,0.000000,0.000000,0.000000,1770800814.551308,0.000000
214.000000,37803.505397,32770.272526,14776.917073,-2750.337452,865.034862,21832.938115,-1330.062906,1667.730709,28672.147235,1682.102881,23506.301463,35735.812573,36303.256309,40396.307754,20527.283314,24549.569136,0.006000,-0.012000,1.012000,192.000000,0.000000,0.000000,0.000000,0.000000,0.000000,0.000000,0.000000,0.000000,0.000000,1770800814.551318,0.000000
216.000000,37809.987403,32778.654430,14781.476829,-2743.877798,871.807441,21849.344295,-1326.196054,1675.419709,28687.614642,1698.397302,23513.275208,35758.231373,36299.188292,40398.118245,20521.471861,24542.103653,0.006000,-0.012000,1.012000,192.000000,0.000000,0.000000,0.000000,0.000000,0.000000,0.000000,0.000000,0.000000,0.000000,1770800814.551329,0.000000
218.000000,37819.017508,32789.159750,14792.473888,-2738.669841,878.445909,21868.611499,-1324.586728,1679.465375,28691.123866,1706.980372,23518.371405,35759.639533,36313.426353,40410.769333,20530.993704,24549.926764,0.006000,-0.012000,1.012000,192.000000,0.000000,0.000000,0.000000,0.000000,0.000000,0.000000,0.000000,0.000000,0.000000,1770800814.551345,0.000000
220.000000,37817.832865,32792.132532,14789.590512,-2740.368574,875.987217,21862.531824,-1328.788856,1675.844392,28700.265729,1711.696590,23525.859240,35771.061274,36315.348603,40416.044344,20531.708960,24553.547746,0.006000,-0.012000,1.012000,192.000000,0.000000,0.000000,0.000000,0.000000,0.000000,0.000000,0.000000,0.000000,0.000000,1770800814.551361,0.000000
222.000000,37812.289633,32787.282203,14792.317425,-2737.954585,878.825888,21846.147996,-1327.492455,1674.324474,28691.101514,1708.679105,23516.605618,35766.814442,36311.727621,40410.456408,20530.077282,24557.883985,0.012000,-0.010000,1.004000,192.000000,0.000000,48.000000,127.500000,88.000000,15.500000,48.000000,0.000000,0.000000,0.000000,1770800814.551371,0.000000
224.000000,37807.595766,32782.208357,14786.461268,-2742.022603,871.315702,21857.480330,-1330.934624,1670.614084,28677.802226,1701.951230,23516.136231,35759.460719,36312.778153,40405.874301,20533.541803,24562.667258,0.012000,-0.010000,1.004000,192.000000,0.000000,0.000000,0.000000,0.000000,0.000000,0.000000,0.000000,0.000000,0.000000,1770800814.551382,0.000000
226.000000,37795.145845,32771.546575,14781.230960,-2748.415202,864.073737,21881.799028,-1333.281557,1663.461526,28675.723514,1695.871555,23507.284940,35759.840698,36298.808312,40398.408818,20524.332884,24559.135682,0.012000,-0.010000,1.004000,192.000000,0.000000,0.000000,0.000000,0.000000,0.000000,0.000000,0.000000,0.000000,0.000000,1770800814.551392,0.000000
228.000000,37787.658010,32763.298781,14780.225132,-2753.444344,860.184534,21874.467656,-1334.645013,1657.962997,28657.640953,1687.444948,23498.858332,35744.417995,36296.349620,40396.643030,20527.998570,24565.304764,0.012000,-0.010000,1.004000,192.000000,0.000000,0.000000,0.000000,0.000000,0.000000,0.000000,0.000000,0.000000,0.000000,1770800814.551403,0.000000
230.000000,37785.713409,32760.661275,14769.429239,-2759.009929,851.534409,21861.727162,-1339.651804,1651.860970,28650.130767,1678.504250,23497.383117,35747.457832,36290.381705,40387.031780,20522.008302,24567.517587,0.012000,-0.010000,1.004000,192.000000,0.000000,0.000000,0.000000,0.000000,0.000000,0.000000,0.000000,0.000000,0.000000,1770800814.551413,0.000000
232.000000,37777.219746,32753.084034,14767.797562,-2759.903998,853.769583,21843.957525,-1337.886016,1648.865837,28652.030665,1673.363349,23486.207245,35743.814497,36283.475016,40382.807300,20515.056910,24558.778055,0.006000,-0.010000,0.996000,192.000000,0.000000,24.000000,127.500000,88.000000,15.500000,16.000000,0.000000,0.000000,0.000000,1770800814.551424,0.000000
234.000000,37785.735760,32758.962543,14767.998727,-2760.105164,855.848295,21829.160670,-1338.198941,1651.101011,28646.979171,1671.977540,23490.476428,35739.813535,36289.174710,40379.879222,20519.013169,24551.960773,0.006000,-0.010000,0.996000,192.000000,0.000000,0.000000,0.000000,0.000000,0.000000,0.000000,0.000000,0.000000,0.000000,1770800814.551434,0.000000
