Sample_index,EXG Channel 0,EXG Channel 1,EXG Channel 2,EXG Channel 3,EXG Channel 4,EXG Channel 5,EXG Channel 6,EXG Channel 7,EXG Channel 8,EXG Channel 9,EXG Channel 10,EXG Channel 11,EXG Channel 12,EXG Channel 13,EXG Channel 14,EXG Channel 15,Accel Channel 0,Accel Channel 1,Accel Channel 2,Not Used,Digital Channel 0 (D11),Digital Channel 1 (D12),Digital Channel 2 (D13),Digital Channel 3 (D17),Not Used,Digital Channel 4 (D18),Analog Channel 0,Analog Channel 1,Analog Channel 2,Timestamp,Marker Channel
90.000000,22867.801531,19113.446070,-604.458225,-15702.368701,-13996.461212,2620.809093,-16655.111808,-10392.063605,15106.292380,-8934.841625,4496.589839,13721.266534,21621.915295,25258.052380,7251.822323,7849.664432,0.004000,-0.010000,1.006000,192.000000,0.000000,0.000000,0.000000,0.000000,0.000000,0.000000,0.000000,0.000000,0.000000,1770801997.585799,101.000000
92.000000,22850.478929,19093.128335,-614.717676,-15724.742797,-14005.781890,2600.223136,-16676.413021,-10413.208355,15089.863847,-8933.187596,4489.616095,13710.425938,21622.429385,25254.252583,7247.910768,7842.198949,0.004000,-0.010000,1.006000,192.000000,0.000000,0.000000,0.000000,0.000000,0.000000,0.000000,0.000000,0.000000,0.000000,1770801997.585854,0.000000
94.000000,22863.130017,19106.181753,-605.151129,-15715.109195,-13994.404852,2624.161854,-16667.405268,-10403.753567,15103.431356,-8945.257538,4490.957199,13700.859392,21621.736481,25252.799720,7257.589073,7844.322365,0.006000,-0.012000,1.004000,192.000000,0.000000,24.000000,127.500000,80.000000,15.500000,48.000000,0.000000,0.000000,0.000000,1770801997.585897,0.000000
96.000000,22865.901633,19110.830916,-605.888737,-15707.822526,-13991.968512,2622.016087,-16661.951442,-10396.824526,15104.571295,-8924.157491,4503.250659,13720.014837,21636.622743,25261.248679,7254.795105,7839.740257,0.006000,-0.012000,1.004000,192.000000,0.000000,0.000000,0.000000,0.000000,0.000000,0.000000,0.000000,0.000000,0.000000,1770801997.585941,0.000000
98.000000,22852.468235,19098.336291,-610.560252,-15715.757396,-13997.131765,2614.349438,-16673.551997,-10404.133547,15102.492583,-8936.361544,4492.164194,13703.251028,21620.283618,25255.996019,7255.242140,7839.963775,0.006000,-0.012000,1.004000,192.000000,0.000000,0.000000,0.000000,0.000000,0.000000,0.000000,0.000000,0.000000,0.000000,1770801997.585981,0.000000
100.000000,22870.126113,19117.737605,-602.178347,-15695.841991,-13984.167753,2623.401895,-16653.770704,-10388.956712,15111.545040,-8926.258555,4503.116548,13720.953610,21626.832679,25265.875490,7260.181875,7845.641118,0.006000,-0.012000,1.004000,192.000000,0.000000,0.000000,0.000000,0.000000,0.000000,0.000000,0.000000,0.000000,0.000000,1770801997.586030,0.000000
102.000000,22856.648011,19101.979625,-606.916917,-15712.426986,-13997.243523,2604.738188,-16671.160361,-10405.720521,15093.283664,-8918.614259,4495.584011,13716.930296,21627.950266,25270.681115,7254.884512,7845.194083,0.006000,-0.012000,1.004000,192.000000,0.000000,0.000000,0.000000,0.000000,0.000000,0.000000,0.000000,0.000000,0.000000,1770801997.586048,0.000000
104.000000,22861.811264,19108.126355,-596.590411,-15708.671893,-13989.934503,2618.551566,-16665.415962,-10401.943076,15102.917266,-8932.271174,4495.539307,13709.017779,21624.798670,25272.178682,7264.607521,7851.676089,0.007000,-0.012000,1.005000,192.000000,0.000000,32.000000,127.500000,80.000000,15.500000,56.000000,0.000000,0.000000,0.000000,1770801997.586061,0.000000
106.000000,22861.654802,19108.416928,-605.039371,-15707.286085,-13984.480677,2621.569052,-16664.320727,-10402.725387,15100.659740,-8922.056427,4503.094197,13721.065369,21632.308857,25264.444979,7261.232407,7846.937519,0.007000,-0.012000,1.005000,192.000000,0.000000,0.000000,0.000000,0.000000,0.000000,0.000000,0.000000,0.000000,0.000000,1770801997.586073,0.000000
108.000000,22853.854043,19095.922303,-609.822644,-15719.311323,-14000.417471,2606.325162,-16675.787172,-10410.079111,15096.725833,-8938.708477,4488.587915,13699.339473,21623.345807,25255.548984,7259.600730,7848.815065,0.007000,-0.012000,1.005000,192.000000,0.000000,0.000000,0.000000,0.000000,0.000000,0.000000,0.000000,0.000000,0.000000,1770801997.586086,0.000000
110.000000,22856.066865,19101.599646,-612.124874,-15705.989683,-13994.538962,2625.815883,-16662.152608,-10402.703035,15104.101909,-8934.998087,4497.148633,13711.521174,21614.181592,25259.460540,7258.304329,7848.837417,0.007000,-0.012000,1.005000,192.000000,0.000000,0.000000,0.000000,0.000000,0.000000,0.000000,0.000000,0.000000,0.000000,1770801997.586099,0.000000
112.000000,22841.873508,19087.093364,-620.126798,-15718.685474,-14010.699273,2620.026782,-16676.569483,-10416.270544,15083.247731,-8934.707515,4484.966932,13703.809822,21612.527563,25261.472197,7248.715430,7847.295147,0.007000,-0.012000,1.005000,192.000000,0.000000,0.000000,0.000000,0.000000,0.000000,0.000000,0.000000,0.000000,0.000000,1770801997.586111,0.000000
114.000000,22851.305944,19095.877599,-609.196795,-15714.192774,-13995.433032,2620.295002,-16669.215759,-10409.587372,15094.825935,-8945.414000,4485.257505,13694.846773,21610.940589,25254.453749,7261.120649,7849.306804,0.005500,-0.012000,1.006500,192.000000,0.000000,16.000000,127.500000,80.000000,15.500000,64.000000,0.000000,0.000000,0.000000,1770801997.586123,0.000000
116.000000,22851.238889,19096.637559,-609.979106,-15714.818622,-13988.034605,2613.142444,-16666.198273,-10409.319152,15094.423603,-8933.835797,4491.560697,13708.190764,21620.149508,25266.143711,7261.143000,7844.344717,0.005500,-0.012000,1.006500,192.000000,0.000000,0.000000,0.000000,0.000000,0.000000,0.000000,0.000000,0.000000,0.000000,1770801997.586135,0.000000
118.000000,22843.371075,19086.668681,-609.174443,-15725.614515,-13992.974340,2618.149235,-16677.463553,-10416.628172,15090.422641,-8947.448009,4475.422737,13688.320063,21613.846316,25253.582031,7262.484105,7839.047353,0.005500,-0.012000,1.006500,192.000000,0.000000,0.000000,0.000000,0.000000,0.000000,0.000000,0.000000,0.000000,0.000000,1770801997.586148,0.000000
120.000000,22863.062961,19109.914495,-601.798368,-15706.682587,-13982.983110,2642.177360,-16659.157474,-10399.640846,15102.626694,-8934.483997,4491.404234,13708.615447,21623.681083,25266.501339,7264.763983,7843.696516,0.005500,-0.012000,1.006500,192.000000,0.000000,0.000000,0.000000,0.000000,0.000000,0.000000,0.000000,0.000000,0.000000,1770801997.586160,0.000000
122.000000,22856.960935,19102.516067,-610.001458,-15715.913858,-13991.722642,2632.163779,-16672.859093,-10407.329846,15097.195220,-8924.269250,4490.845441,13707.766081,21624.865726,25270.278784,7258.036108,7841.327231,0.005500,-0.012000,1.006500,192.000000,0.000000,0.000000,0.000000,0.000000,0.000000,0.000000,0.000000,0.000000,0.000000,1770801997.586172,0.000000
124.000000,22863.442941,19110.339178,-605.173481,-15707.084919,-13981.262026,2629.950956,-16665.326555,-10399.819660,15111.723854,-8931.578270,4495.181679,13707.497860,21627.458528,25263.774426,7266.261550,7849.910301,0.006750,-0.012000,1.006250,192.000000,0.000000,32.000000,127.500000,80.000000,15.500000,56.000000,0.000000,0.000000,0.000000,1770801997.586184,0.000000
126.000000,22864.381714,19109.869791,-610.180272,-15706.280256,-13979.518590,2623.088971,-16662.845512,-10402.412463,15105.577124,-8917.764892,4499.652028,13720.014837,21629.738406,25269.742342,7260.606558,7844.322365,0.006750,-0.012000,1.006250,192.000000,0.000000,0.000000,0.000000,0.000000,0.000000,0.000000,0.000000,0.000000,0.000000,1770801997.586196,0.000000
128.000000,22850.881261,19097.106945,-611.096693,-15717.299666,-13994.762480,2621.658459,-16674.133143,-10412.604858,15094.960045,-8937.792055,4484.721063,13698.378348,21622.854069,25263.774426,7257.969053,7845.976394,0.006750,-0.012000,1.006250,192.000000,0.000000,0.000000,0.000000,0.000000,0.000000,0.000000,0.000000,0.000000,0.000000,1770801997.586208,0.000000
130.000000,22857.653839,19107.120527,-605.128778,-15706.794346,-13991.208552,2630.465046,-16659.202177,-10405.318189,15102.067900,-8936.540358,4495.516955,13709.263648,21613.220467,25272.357496,7257.656128,7845.909339,0.006750,-0.012000,1.006250,192.000000,0.000000,0.000000,0.000000,0.000000,0.000000,0.000000,0.000000,0.000000,0.000000,1770801997.586220,0.000000
132.000000,22835.123281,19082.846532,-617.399885,-15726.955620,-14012.755634,2620.295002,-16676.614186,-10424.406579,15082.532475,-8938.283794,4480.943618,13700.412357,21603.653920,25252.397389,7251.554102,7841.081362,0.006750,-0.012000,1.006250,192.000000,0.000000,0.000000,0.000000,0.000000,0.000000,0.000000,0.000000,0.000000,0.000000,1770801997.586232,0.000000
134.000000,22845.785063,19094.603550,-612.728371,-15721.770015,-13998.182297,2619.579747,-16670.735678,-10415.577640,15088.232170,-8957.193370,4476.830897,13687.694214,21606.872571,25243.747263,7258.036108,7841.863673,0.007375,-0.010000,1.004125,192.000000,0.000000,32.000000,127.500000,96.000000,15.500000,40.000000,0.000000,0.000000,0.000000,1770801997.586245,0.000000
136.000000,22855.753941,19103.343082,-612.728371,-15715.198602,-13991.297959,2616.092875,-16666.622957,-10409.185041,15091.786098,-8935.668640,4489.280819,13708.526040,21618.316664,25257.717104,7256.404430,7841.684859,0.007375,-0.010000,1.004125,192.000000,0.000000,0.000000,0.000000,0.000000,0.000000,0.000000,0.000000,0.000000,0.000000,1770801997.586257,0.000000
138.000000,22851.149482,19096.548152,-615.835263,-15723.200527,-14002.004445,2608.895613,-16678.134105,-10414.303591,15092.076670,-8946.285718,4478.708443,13693.460964,21610.404147,25254.297287,7255.644471,7842.757743,0.007375,-0.010000,1.004125,192.000000,0.000000,0.000000,0.000000,0.000000,0.000000,0.000000,0.000000,0.000000,0.000000,1770801997.586269,0.000000
140.000000,22863.621755,19113.244905,-612.862481,-15705.565000,-13988.012253,2633.236663,-16659.559805,-10400.177288,15103.565467,-8931.086532,4490.040778,13715.678598,21616.126194,25272.648069,7262.618215,7844.165903,0.007375,-0.010000,1.004125,192.000000,0.000000,0.000000,0.000000,0.000000,0.000000,0.000000,0.000000,0.000000,0.000000,1770801997.586281,0.000000
142.000000,22848.109644,19094.380032,-621.624365,-15721.345332,-13999.813974,2627.514616,-16673.842570,-10411.151995,15080.699632,-8928.538433,4478.797850,13709.978904,21607.118441,25275.106761,7254.303366,7838.063876,0.007375,-0.010000,1.004125,192.000000,0.000000,0.000000,0.000000,0.000000,0.000000,0.000000,0.000000,0.000000,0.000000,1770801997.586294,0.000000
144.000000,22862.370057,19105.086518,-609.822644,-15711.778785,-13986.805259,2632.923738,-16663.091381,-10398.523259,15100.078595,-8941.837721,4486.173926,13704.502726,21610.314740,25260.823996,7262.081774,7840.120237,0.007687,-0.010000,1.005063,192.000000,0.000000,32.000000,127.500000,88.000000,15.500000,56.000000,0.000000,0.000000,0.000000,1770801997.586305,0.000000
146.000000,22860.850139,19104.214800,-611.275507,-15710.527088,-13986.715852,2621.636107,-16659.492750,-10398.903239,15101.039720,-8928.158453,4496.254563,13716.572668,21626.296237,25268.512996,7256.538541,7840.321403,0.007687,-0.010000,1.005063,192.000000,0.000000,0.000000,0.000000,0.000000,0.000000,0.000000,0.000000,0.000000,0.000000,1770801997.586318,0.000000
148.000000,22848.668438,19091.004919,-613.667144,-15723.446396,-14006.206573,2610.661401,-16672.903797,-10411.286105,15088.902722,-8946.486884,4482.284723,13691.873991,21613.332225,25259.259374,7258.103163,7842.623632,0.007687,-0.010000,1.005063,192.000000,0.000000,0.000000,0.000000,0.000000,0.000000,0.000000,0.000000,0.000000,0.000000,1770801997.586329,0.000000
150.000000,22862.325354,19107.902838,-609.129740,-15707.688416,-13991.074442,2619.065657,-16657.928128,-10400.266695,15097.664606,-8938.619070,4492.901801,13706.849659,21613.935723,25260.846348,7260.606558,7842.869501,0.007687,-0.010000,1.005063,192.000000,0.000000,0.000000,0.000000,0.000000,0.000000,0.000000,0.000000,0.000000,0.000000,1770801997.586341,0.000000
152.000000,22847.975534,19090.557884,-620.037391,-15724.765149,-14008.262933,2604.917002,-16676.725945,-10413.700093,15080.207894,-8938.015573,4483.670531,13699.942970,21605.643225,25265.607269,7254.593939,7837.661545,0.007687,-0.010000,1.005063,192.000000,0.000000,0.000000,0.000000,0.000000,0.000000,0.000000,0.000000,0.000000,0.000000,1770801997.586354,0.000000
154.000000,22858.972592,19101.152611,-614.248289,-15717.098500,-14002.093852,2612.136616,-16668.835779,-10403.328884,15098.201048,-8948.699707,4490.130185,13696.187877,21608.504249,25252.062112,7261.902960,7841.595452,0.005844,-0.010000,1.006531,192.000000,0.000000,16.000000,127.500000,88.000000,15.500000,64.000000,0.000000,0.000000,0.000000,1770801997.586366,0.000000
156.000000,22861.006601,19104.080689,-615.365877,-15713.388111,-14000.484526,2608.426226,-16664.968927,-10401.160765,15099.229228,-8932.137064,4499.249697,13710.962380,21613.443984,25265.227290,7254.415125,7840.343754,0.005844,-0.010000,1.006531,192.000000,0.000000,0.000000,0.000000,0.000000,0.000000,0.000000,0.000000,0.000000,0.000000,1770801997.586378,0.000000
158.000000,22853.563470,19094.916474,-616.304650,-15722.619381,-14009.089948,2626.955822,-16675.340137,-10409.363855,15089.394461,-8946.352773,4485.615133,13688.521229,21605.754984,25262.858005,7254.370422,7839.807312,0.005844,-0.010000,1.006531,192.000000,0.000000,0.000000,0.000000,0.000000,0.000000,0.000000,0.000000,0.000000,0.000000,1770801997.586390,0.000000
160.000000,22866.594537,19109.579219,-607.945097,-15706.257904,-13993.779003,2623.401895,-16657.458741,-10397.428024,15104.258371,-8931.891195,4502.602458,13706.939066,21618.495478,25263.863833,7260.092468,7843.629461,0.005844,-0.010000,1.006531,192.000000,0.000000,0.000000,0.000000,0.000000,0.000000,0.000000,0.000000,0.000000,0.000000,1770801997.586402,0.000000
162.000000,22851.820034,19089.127372,-619.411542,-15723.021713,-14006.027759,2612.136616,-16675.451896,-10411.979009,15087.785135,-8930.930070,4495.136976,13699.048900,21615.254476,25264.020296,7255.800933,7841.304879,0.005844,-0.010000,1.006531,192.000000,0.000000,0.000000,0.000000,0.000000,0.000000,0.000000,0.000000,0.000000,0.000000,1770801997.586414,0.000000
164.000000,22863.822921,19100.258541,-614.605917,-15715.131547,-13995.164811,2619.043305,-16669.282814,-10403.150070,15094.602417,-8943.871730,4491.314827,13690.689348,21606.090260,25260.846348,7260.047765,7843.227129,0.005844,-0.010000,1.006531,192.000000,0.000000,0.000000,0.000000,0.000000,0.000000,0.000000,0.000000,0.000000,0.000000,1770801997.586426,0.000000
166.000000,22870.997831,19109.355701,-616.572871,-15708.269561,-13988.883971,2627.492264,-16662.845512,-10396.221029,15099.899781,-8920.245936,4505.597592,13710.738863,21615.835621,25281.253491,7257.790239,7843.987089,-0.002000,-0.014000,1.002000,192.000000,127.500000,120.000000,127.500000,72.000000,15.500000,40.000000,0.000000,0.000000,0.000000,1770801997.586439,0.000000
168.000000,22864.716991,19103.745413,-616.908147,-15717.791404,-14002.496183,2613.611831,-16674.021384,-10400.512564,15091.942560,-8937.903814,4495.651066,13691.471659,21608.370138,25269.295307,7254.593939,7841.193121,-0.002000,-0.014000,1.002000,192.000000,0.000000,0.000000,0.000000,0.000000,0.000000,0.000000,0.000000,0.000000,0.000000,1770801997.586451,0.000000
170.000000,22881.838427,19125.940696,-608.302725,-15698.479497,-13986.201762,2630.710915,-16655.312974,-10383.905218,15109.779252,-8923.844567,4515.320601,13714.963343,21618.674292,25274.078581,7260.181875,7846.199911,-0.002000,-0.014000,1.002000,192.000000,0.000000,0.000000,0.000000,0.000000,0.000000,0.000000,0.000000,0.000000,0.000000,1770801997.586464,0.000000
172.000000,22860.067828,19104.863000,-618.718638,-15713.902201,-14004.194916,2631.448523,-16670.981547,-10399.797308,15099.251580,-8921.408227,4507.117511,13707.095528,21615.835621,25274.279746,7250.391811,7842.869501,-0.002000,-0.014000,1.002000,192.000000,0.000000,0.000000,0.000000,0.000000,0.000000,0.000000,0.000000,0.000000,0.000000,1770801997.586476,0.000000
174.000000,22863.107665,19110.629751,-612.370743,-15710.817660,-14004.150212,2624.452427,-16664.834817,-10395.148146,15103.386653,-8937.523834,4498.042702,13697.596037,21610.158278,25267.753037,7252.448172,7842.914205,-0.002000,-0.014000,1.002000,192.000000,0.000000,0.000000,0.000000,0.000000,0.000000,0.000000,0.000000,0.000000,0.000000,1770801997.586488,0.000000
176.000000,22870.416685,19118.877544,-612.996592,-15704.380358,-13990.560352,2629.816846,-16658.308108,-10389.068471,15102.514935,-8915.596773,4506.849290,13715.835061,21620.820060,25282.751057,7251.040012,7841.796618,-0.002000,-0.016000,0.996000,192.000000,127.500000,120.000000,127.500000,64.000000,15.500000,16.000000,0.000000,0.000000,0.000000,1770801997.586501,0.000000
178.000000,22861.900671,19111.345006,-614.829435,-15712.762262,-14002.876163,2619.155064,-16671.897968,-10397.919762,15100.860906,-8925.319782,4494.332313,13698.914790,21623.681083,25274.682078,7253.454000,7843.472999,-0.002000,-0.016000,0.996000,192.000000,0.000000,0.000000,0.000000,0.000000,0.000000,0.000000,0.000000,0.000000,0.000000,1770801997.586514,0.000000
180.000000,22870.461389,19122.230306,-610.694362,-15698.948884,-13989.420413,2627.469912,-16656.832893,-10388.196753,15110.203935,-8920.335343,4506.290496,13713.666941,21624.821022,25274.771485,7259.980710,7847.608071,-0.002000,-0.016000,0.996000,192.000000,0.000000,0.000000,0.000000,0.000000,0.000000,0.000000,0.000000,0.000000,0.000000,1770801997.586526,0.000000
182.000000,22852.088255,19099.029195,-619.858577,-15716.182079,-14003.591419,2619.020953,-16674.893102,-10407.463957,15087.114583,-8925.319782,4490.957199,13700.322950,21614.941551,25265.964897,7254.504532,7844.568234,-0.002000,-0.016000,0.996000,192.000000,0.000000,0.000000,0.000000,0.000000,0.000000,0.000000,0.000000,0.000000,0.000000,1770801997.586539,0.000000
184.000000,22850.993019,19098.693919,-617.086961,-15711.912896,-14001.311541,2626.262918,-16670.713326,-10406.838108,15094.378900,-8942.284756,4484.586952,13685.749613,21611.991121,25266.635450,7258.997233,7847.272795,-0.002000,-0.016000,0.996000,192.000000,0.000000,0.000000,0.000000,0.000000,0.000000,0.000000,0.000000,0.000000,0.000000,1770801997.586552,0.000000
186.000000,22854.569299,19104.706538,-618.673935,-15708.738948,-13986.917017,2615.265860,-16666.131218,-10403.597105,15088.813315,-8926.146796,4492.968856,13700.345302,21620.261266,25265.026124,7258.818419,7847.451609,-0.002000,-0.016000,0.996000,192.000000,0.000000,0.000000,127.500000,72.000000,15.500000,40.000000,0.000000,0.000000,0.000000,1770801997.586564,0.000000
188.000000,22845.852118,19094.335329,-621.490255,-15724.072245,-14003.993750,2594.769310,-16679.430506,-10412.873079,15084.320615,-8942.798846,4479.446051,13676.317176,21612.348749,25252.196223,7257.454962,7843.160074,-0.002000,-0.016000,0.996000,192.000000,0.000000,0.000000,0.000000,0.000000,0.000000,0.000000,0.000000,0.000000,0.000000,1770801997.586577,0.000000
190.000000,22864.538177,19116.016521,-613.085999,-15706.973160,-13986.693500,2628.386334,-16660.744448,-10396.422195,15098.268103,-8934.394590,4494.801699,13692.701005,21617.288484,25263.170929,7260.785372,7846.915167,-0.002000,-0.016000,0.996000,192.000000,0.000000,0.000000,0.000000,0.000000,0.000000,0.000000,0.000000,0.000000,0.000000,1770801997.586589,0.000000
192.000000,22852.982325,19101.063204,-619.947984,-15717.970218,-14005.826593,2619.378581,-16673.261425,-10404.714692,15084.141801,-8926.102093,4491.739511,13688.677691,21621.535316,25262.522729,7249.363631,7841.841321,-0.002000,-0.016000,0.996000,192.000000,0.000000,0.000000,0.000000,0.000000,0.000000,0.000000,0.000000,0.000000,0.000000,1770801997.586602,0.000000
194.000000,22864.158197,19110.830916,-615.790560,-15709.565963,-14003.703177,2629.705087,-16666.421791,-10395.304608,15093.820106,-8937.009744,4493.393540,13686.800145,21617.802574,25261.494548,7251.352936,7843.227129,-0.002000,-0.016000,0.996000,192.000000,0.000000,0.000000,0.000000,0.000000,0.000000,0.000000,0.000000,0.000000,0.000000,1770801997.586616,0.000000
196.000000,22868.315621,19114.496602,-619.366839,-15705.073262,-13997.802317,2618.640973,-16662.599643,-10393.382358,15091.696691,-8918.010762,4505.396426,13703.921581,21624.262229,25272.916290,7250.145942,7840.991955,-0.002000,-0.016000,0.996000,192.000000,0.000000,0.000000,127.500000,80.000000,15.500000,40.000000,0.000000,0.000000,0.000000,1770801997.586630,0.000000
198.000000,22862.034781,19107.120527,-620.976164,-15715.466823,-14011.459233,2612.270726,-16674.088439,-10400.132585,15090.020310,-8931.310049,4492.544173,13684.855543,21612.304045,25261.941583,7250.660032,7838.488560,-0.002000,-0.016000,0.996000,192.000000,0.000000,0.000000,0.000000,0.000000,0.000000,0.000000,0.000000,0.000000,0.000000,1770801997.586642,0.000000
200.000000,22868.941470,19117.245867,-616.371705,-15703.039253,-13995.097756,2629.906253,-16661.102076,-10391.571866,15109.511031,-8925.699762,4502.982438,13699.227714,21620.931819,25269.965860,7256.069154,7844.724696,-0.002000,-0.016000,0.996000,192.000000,0.000000,0.000000,0.000000,0.000000,0.000000,0.000000,0.000000,0.000000,0.000000,1770801997.586654,0.000000
202.000000,22853.988153,19100.012672,-619.724467,-15717.277314,-13997.668206,2624.921814,-16676.301262,-10403.731215,15095.138859,-8926.504424,4491.113662,13691.717528,21621.512964,25273.765656,7254.459829,7844.523531,-0.002000,-0.016000,0.996000,192.000000,0.000000,0.000000,0.000000,0.000000,0.000000,0.000000,0.000000,0.000000,0.000000,1770801997.586667,0.000000
204.000000,22867.399200,19110.719158,-609.263850,-15710.012997,-13985.821782,2625.324145,-16665.438314,-10393.605875,15113.511993,-8933.768741,4495.047569,13686.800145,21626.229182,25269.049438,7264.831038,7846.915167,-0.002000,-0.016000,0.996000,192.000000,0.000000,0.000000,0.000000,0.000000,0.000000,0.000000,0.000000,0.000000,0.000000,1770801997.586679,0.000000
206.000000,22867.734476,19110.965027,-613.242461,-15709.118928,-13983.005462,2623.960689,-16662.689050,-10394.276428,15115.456595,-8918.010762,4503.809453,13702.580476,21630.811290,25283.913348,7261.925311,7839.136760,0.002000,-0.014000,1.002000,192.000000,0.000000,8.000000,127.500000,72.000000,15.500000,40.000000,0.000000,0.000000,0.000000,1770801997.586691,0.000000
208.000000,22854.926926,19099.453878,-618.316307,-15721.546498,-14003.881991,2621.501997,-16675.451896,-10406.703997,15108.125223,-8934.349887,4490.018426,13680.765174,21617.914333,25266.166063,7261.098297,7837.594490,0.002000,-0.014000,1.002000,192.000000,0.000000,0.000000,0.000000,0.000000,0.000000,0.000000,0.000000,0.000000,0.000000,1770801997.586704,0.000000
210.000000,22861.073656,19111.233248,-617.422237,-15704.693282,-13993.577837,2618.171587,-16659.559805,-10396.511602,15116.283609,-8931.533567,4497.126281,13692.499839,21618.942513,25263.461502,7260.628910,7842.109542,0.002000,-0.014000,1.002000,192.000000,0.000000,0.000000,0.000000,0.000000,0.000000,0.000000,0.000000,0.000000,0.000000,1770801998.066194,0.000000
212.000000,22840.621810,19089.283835,-631.906167,-15719.087806,-14014.744939,2616.070523,-16675.720117,-10413.118948,15095.205914,-8932.449988,4486.017464,13687.425993,21609.286560,25258.432360,7250.592977,7840.477865,0.002000,-0.014000,1.002000,192.000000,0.000000,0.000000,0.000000,0.000000,0.000000,0.000000,0.000000,0.000000,0.000000,1770801998.066265,0.000000
214.000000,22850.255412,19097.129297,-623.121932,-15712.538745,-14004.150212,2624.653593,-16668.075820,-10405.966390,15103.878391,-8944.788151,4485.682188,13680.765174,21608.236028,25257.784159,7254.415125,7844.411772,0.002000,-0.014000,1.002000,192.000000,0.000000,0.000000,0.000000,0.000000,0.000000,0.000000,0.000000,0.000000,0.000000,1770801998.066314,0.000000
216.000000,22858.994944,19105.421794,-621.602013,-15708.381320,-14000.931561,2621.211424,-16664.030154,-10401.920724,15106.113566,-8924.716285,4495.852231,13700.457060,21615.925028,25270.547005,7250.347108,7845.127028,0.002000,-0.018000,1.012000,192.000000,0.000000,8.000000,127.500000,56.000000,15.500000,80.000000,0.000000,0.000000,0.000000,1770801998.066364,0.000000
218.000000,22845.896822,19089.619111,-621.154978,-15724.429873,-14011.928619,2611.175491,-16677.642367,-10415.152957,15105.241848,-8939.714305,4485.168098,13680.541656,21603.475106,25259.304078,7254.996271,7843.025964,0.002000,-0.018000,1.012000,192.000000,0.000000,0.000000,0.000000,0.000000,0.000000,0.000000,0.000000,0.000000,0.000000,1770801998.066422,0.000000
220.000000,22855.418665,19101.130259,-614.337696,-15709.141279,-13994.628369,2617.702200,-16660.967965,-10403.954733,15112.327351,-8939.602547,4495.561659,13689.705871,21606.581999,25257.270069,7258.505494,7841.349583,0.002000,-0.018000,1.012000,192.000000,0.000000,0.000000,0.000000,0.000000,0.000000,0.000000,0.000000,0.000000,0.000000,1770801998.066469,0.000000
222.000000,22837.827842,19081.818352,-623.948946,-15726.195660,-14015.817823,2608.090950,-16676.122448,-10417.432835,15100.838554,-8936.920337,4488.476156,13684.676729,21602.513981,25255.459577,7253.856332,7836.007516,0.002000,-0.018000,1.012000,192.000000,0.000000,0.000000,0.000000,0.000000,0.000000,0.000000,0.000000,0.000000,0.000000,1770801998.066483,0.000000
224.000000,22837.045531,19080.901930,-619.836225,-15720.674779,-14013.493241,2600.290191,-16668.344041,-10413.051893,15102.447880,-8956.947500,4482.642351,13677.501819,21593.506228,25245.758920,7255.197436,7831.023077,0.002000,-0.018000,1.012000,192.000000,0.000000,0.000000,0.000000,0.000000,0.000000,0.000000,0.000000,0.000000,0.000000,1770801998.066496,0.000000
226.000000,22842.320543,19084.321747,-623.747781,-15714.840974,-14001.423299,2612.024857,-16664.343079,-10409.229745,15097.530496,-8944.743448,4490.376054,13692.857467,21595.808458,25252.643258,7252.045840,7829.190234,0.002000,-0.018000,1.012000,192.000000,0.000000,0.000000,127.500000,88.000000,15.500000,80.000000,0.000000,0.000000,0.000000,1770801998.066509,0.000000
228.000000,22840.621810,19078.912625,-624.306574,-15723.111120,-14007.257105,2616.249337,-16677.150628,-10414.683570,15094.892990,-8953.706497,4477.859077,13676.071307,21586.353670,25245.691865,7253.342241,7835.426371,0.002000,-0.018000,1.012000,192.000000,0.000000,0.000000,0.000000,0.000000,0.000000,0.000000,0.000000,0.000000,0.000000,1770801998.066521,0.000000
230.000000,22859.531386,19098.403346,-614.136531,-15706.101442,-13987.788735,2618.037476,-16659.001012,-10396.288085,15112.595572,-8941.502445,4495.114624,13696.098470,21608.392490,25250.542194,7262.662919,7842.288356,0.002000,-0.018000,1.012000,192.000000,0.000000,0.000000,0.000000,0.000000,0.000000,0.000000,0.000000,0.000000,0.000000,1770801998.066535,0.000000
232.000000,22852.892918,19085.506390,-620.037391,-15720.339503,-14002.160907,2592.332970,-16673.395535,-10406.189907,15104.772461,-8934.774570,4494.734644,13693.885648,21607.632531,25251.793891,7258.617253,7839.360278,0.002000,-0.018000,1.012000,192.000000,0.000000,0.000000,0.000000,0.000000,0.000000,0.000000,0.000000,0.000000,0.000000,1770801998.066549,0.000000
234.000000,22856.044514,19089.417945,-616.304650,-15714.639808,-14007.234753,2609.364999,-16668.165227,-10403.105367,15116.574182,-8945.771628,4495.785176,13686.598979,21601.396394,25249.156386,7260.427744,7839.941423,0.002000,-0.018000,1.012000,192.000000,0.000000,0.000000,0.000000,0.000000,0.000000,0.000000,0.000000,0.000000,0.000000,1770801998.066564,0.000000
236.000000,22853.943450,19091.139029,-620.618537,-15711.264695,-14010.565163,2632.320241,-16665.326555,-10403.440643,15109.555734,-8932.204119,4499.674380,13697.037243,21608.370138,25249.938697,7252.068192,7836.208682,0.002000,-0.013000,1.010000,192.000000,0.000000,8.000000,127.500000,96.000000,15.500000,64.000000,0.000000,0.000000,0.000000,1770801998.066576,0.000000
238.000000,22846.947354,19083.964119,-621.847882,-15722.708788,-14022.098663,2613.410665,-16676.725945,-10411.040236,15102.112603,-8944.475227,4488.230287,13676.518342,21602.044595,25255.012543,7252.716393,7829.279641,0.002000,-0.013000,1.010000,192.000000,0.000000,0.000000,0.000000,0.000000,0.000000,0.000000,0.000000,0.000000,0.000000,1770801998.066589,0.000000
240.000000,22854.457540,19094.089460,-615.835263,-15707.263733,-14006.139518,2618.193939,-16660.923262,-10401.786614,15114.942505,-8937.926166,4500.009656,13690.555238,21607.923103,25260.689886,7256.784410,7832.833568,0.002000,-0.013000,1.010000,192.000000,0.000000,0.000000,0.000000,0.000000,0.000000,0.000000,0.000000,0.000000,0.000000,1770801998.066602,0.000000
242.000000,22834.855060,19076.409230,-628.888682,-15721.591201,-14018.477681,2603.665305,-16678.201160,-10419.355085,15095.541191,-8937.210910,4486.531554,13682.799182,21602.715147,25258.186490,7254.437477,7833.101789,0.002000,-0.013000,1.010000,192.000000,0.000000,0.000000,0.000000,0.000000,0.000000,0.000000,0.000000,0.000000,0.000000,1770801998.066614,0.000000
244.000000,22843.125205,19087.629806,-625.602976,-15713.723387,-14008.531154,2608.113302,-16672.121486,-10413.029541,15099.340987,-8945.056372,4483.759938,13675.825438,21599.496496,25256.375999,7258.281977,7838.667373,0.002000,-0.013000,1.010000,192.000000,0.000000,0.000000,0.000000,0.000000,0.000000,0.000000,0.000000,0.000000,0.000000,1770801998.066627,0.000000
246.000000,22849.741322,19095.162343,-624.708906,-15707.151974,-14002.295018,2619.691505,-16665.795942,-10407.329846,15104.884220,-8927.733770,4493.639409,13693.595075,21607.990159,25266.903671,7253.319890,7838.913243,0.002000,-0.013000,1.010000,192.000000,0.000000,0.000000,127.500000,80.000000,15.500000,40.000000,0.000000,0.000000,0.000000,1770801998.066640,0.000000
248.000000,22843.907516,19086.154590,-623.032525,-15720.160689,-14008.598209,2612.918927,-16679.922245,-10414.929439,15103.073728,-8940.653079,4484.765766,13676.227769,21600.859952,25259.214671,7252.850503,7839.337926,0.002000,-0.013000,1.010000,192.000000,0.000000,0.000000,0.000000,0.000000,0.000000,0.000000,0.000000,0.000000,0.000000,1770801998.066652,0.000000
250.000000,22861.185415,19108.193410,-612.840129,-15700.379396,-13982.267854,2639.785724,-16660.900910,-10398.947942,15118.719950,-8928.381971,4502.222479,13693.975054,21622.049406,25267.976554,7259.265454,7838.130932,0.002000,-0.013000,1.010000,192.000000,0.000000,0.000000,0.000000,0.000000,0.000000,0.000000,0.000000,0.000000,0.000000,1770801998.066669,0.000000
252.000000,22846.053284,19089.127372,-622.607842,-15717.277314,-13997.623503,2614.103569,-16676.591835,-10414.840032,15102.313769,-8921.497634,4498.534441,13691.136383,21623.077586,25269.697639,7255.040974,7832.632402,0.002000,-0.013000,1.010000,192.000000,0.000000,0.000000,0.000000,0.000000,0.000000,0.000000,0.000000,0.000000,0.000000,1770801998.066681,0.000000
254.000000,22855.798645,19098.224532,-615.365877,-15713.633980,-13994.650721,2620.831444,-16668.008765,-10404.111195,15110.852136,-8934.394590,4496.031045,13686.710738,21617.623760,25260.667534,7259.757192,7834.107618,0.002000,-0.013000,1.010000,192.000000,0.000000,0.000000,0.000000,0.000000,0.000000,0.000000,0.000000,0.000000,0.000000,1770801998.066693,0.000000
0.000000,22856.200976,19099.006843,-616.639926,-15710.683550,-14001.803279,2620.004430,-16660.766800,-10397.986817,15108.169926,-8920.134177,4505.597592,13707.140232,21622.988179,25266.099008,7255.175084,7830.106655,0.003000,-0.012500,1.011000,192.000000,0.000000,16.000000,127.500000,80.000000,15.500000,80.000000,0.000000,0.000000,0.000000,1770801998.066705,0.000000
2.000000,22842.834633,19087.450992,-623.904243,-15723.446396,-14018.924715,2604.268802,-16675.943634,-10409.565021,15097.485792,-8940.697782,4493.639409,13685.615502,21609.688891,25242.897897,7250.771791,7829.927841,0.003000,-0.012500,1.011000,192.000000,0.000000,0.000000,0.000000,0.000000,0.000000,0.000000,0.000000,0.000000,0.000000,1770801998.066718,0.000000
4.000000,22859.084351,19107.031120,-622.294917,-15702.659273,-13999.948084,2622.999564,-16660.766800,-10396.422195,15106.761766,-8934.483997,4506.223441,13700.434709,21617.422595,25245.580106,7254.012794,7835.605185,0.003000,-0.012500,1.011000,192.000000,0.000000,0.000000,0.000000,0.000000,0.000000,0.000000,0.000000,0.000000,0.000000,1770801998.066731,0.000000
6.000000,22849.942487,19096.928131,-630.498008,-15716.986742,-14014.186146,2623.245433,-16678.067050,-10410.056759,15097.530496,-8925.208023,4499.473214,13699.160659,21617.914333,25265.584918,7249.408334,7836.007516,0.003000,-0.012500,1.011000,192.000000,0.000000,0.000000,0.000000,0.000000,0.000000,0.000000,0.000000,0.000000,0.000000,1770801998.066743,0.000000
8.000000,22853.407008,19097.822201,-624.284223,-15714.595105,-14003.569067,2619.445636,-16673.999032,-10407.665122,15111.075653,-8936.450951,4500.859022,13692.052804,21616.908505,25247.591763,7258.661957,7840.969603,0.003000,-0.012500,1.011000,192.000000,0.000000,0.000000,0.000000,0.000000,0.000000,0.000000,0.000000,0.000000,0.000000,1770801998.066759,0.000000
10.000000,22858.212633,19098.448050,-623.993650,-15713.633980,-14003.725529,2620.943203,-16671.763858,-10406.681646,15107.052339,-8924.336305,4505.083502,13700.859392,21622.563496,25251.726836,7254.415125,7835.828702,0.004500,-0.015250,1.005500,192.000000,0.000000,24.000000,127.500000,56.000000,15.500000,32.000000,0.000000,0.000000,0.000000,1770801998.066777,0.000000
12.000000,22849.473101,19085.998128,-625.491217,-15724.519280,-14011.168660,2614.997639,-16683.342061,-10414.571812,15101.620865,-8943.581157,4490.912496,13674.774906,21617.757871,25242.137938,7254.370422,7835.336964,0.004500,-0.015250,1.005500,192.000000,0.000000,0.000000,0.000000,0.000000,0.000000,0.000000,0.000000,0.000000,0.000000,1770801998.066790,0.000000
14.000000,22862.347706,19102.940750,-621.937289,-15709.387149,-13992.348491,2622.954860,-16667.941710,-10401.361931,15114.003731,-8930.147759,4503.697694,13692.790412,21632.241801,25254.878432,7258.438439,7842.198949,0.004500,-0.015250,1.005500,192.000000,0.000000,0.000000,0.000000,0.000000,0.000000,0.000000,0.000000,0.000000,0.000000,1770801998.066803,0.000000
16.000000,22851.440054,19088.568579,-633.247272,-15723.625210,-14000.171602,2622.194901,-16684.258483,-10413.141300,15101.956141,-8924.895099,4496.500432,13690.890514,21623.703435,25257.739455,7251.352936,7835.471074,0.004500,-0.015250,1.005500,192.000000,0.000000,0.000000,0.000000,0.000000,0.000000,0.000000,0.000000,0.000000,0.000000,1770801998.066816,0.000000
18.000000,22862.973554,19102.337253,-622.250214,-15712.896372,-13997.422337,2628.386334,-16673.328480,-10398.724425,15117.982342,-8935.199253,4498.355627,13689.795278,21628.196136,25254.341990,7258.192570,7837.169807,0.004500,-0.015250,1.005500,192.000000,0.000000,0.000000,0.000000,0.000000,0.000000,0.000000,0.000000,0.000000,0.000000,1770801998.066828,0.000000
20.000000,22864.582880,19103.208971,-622.809008,-15709.700073,-13995.433032,2624.586537,-16669.349869,-10397.360968,15121.692732,-8919.329514,4512.750150,13707.006122,21636.332171,25261.740418,7256.918521,7835.515778,0.005250,-0.016625,1.000750,192.000000,0.000000,24.000000,127.500000,56.000000,15.500000,16.000000,0.000000,0.000000,0.000000,1770801998.066841,0.000000
22.000000,22852.177662,19087.607454,-622.607842,-15723.692265,-14005.692483,2609.119130,-16681.509218,-10410.257925,15111.813261,-8942.105942,4499.652028,13681.681595,21628.933743,25246.228307,7256.046803,7830.553690,0.005250,-0.016625,1.000750,192.000000,0.000000,0.000000,0.000000,0.000000,0.000000,0.000000,0.000000,0.000000,0.000000,1770801998.066854,0.000000
24.000000,22855.284554,19093.418907,-621.579662,-15715.064492,-14001.110375,2613.008334,-16667.047640,-10406.122852,15118.854060,-8944.497579,4507.877470,13691.002272,21627.436176,25247.569412,7260.405393,7831.313650,0.005250,-0.016625,1.000750,192.000000,0.000000,0.000000,0.000000,0.000000,0.000000,0.000000,0.000000,0.000000,0.000000,1770801998.066866,0.000000
26.000000,22831.479947,19071.737715,-630.766229,-15733.504681,-14029.631201,2595.350456,-16684.213779,-10426.529995,15095.004749,-8947.336250,4492.968856,13679.982862,21609.845353,25252.375037,7248.067230,7829.212586,0.005250,-0.016625,1.000750,192.000000,0.000000,0.000000,0.000000,0.000000,0.000000,0.000000,0.000000,0.000000,0.000000,1770801998.066881,0.000000
28.000000,22841.068845,19082.891236,-622.853711,-15727.268544,-14019.349399,2594.881069,-16678.670547,-10420.204451,15102.514935,-8959.093268,4489.481984,13671.153923,21607.163144,25233.867792,7246.636718,7834.308783,0.005250,-0.016625,1.000750,192.000000,0.000000,0.000000,0.000000,0.000000,0.000000,0.000000,0.000000,0.000000,0.000000,1770801998.066894,0.000000
30.000000,22848.221403,19096.011710,-625.155941,-15718.216088,-14013.336779,2614.863529,-16673.082611,-10411.710788,15106.448842,-8930.438331,4502.803624,13689.549409,21623.971656,25252.129168,7248.380154,7834.107618,0.005625,-0.014313,0.999375,192.000000,0.000000,24.000000,127.500000,80.000000,15.500000,24.000000,0.000000,0.000000,0.000000,1770801998.066907,0.000000
32.000000,22843.572240,19086.579274,-627.815798,-15726.955620,-14022.255125,2611.935450,-16683.610282,-10416.605820,15106.515897,-8943.536454,4491.270124,13670.349261,21613.846316,25252.643258,7250.794143,7831.067780,0.005625,-0.014313,0.999375,192.000000,0.000000,0.000000,0.000000,0.000000,0.000000,0.000000,0.000000,0.000000,0.000000,1770801998.066919,0.000000
34.000000,22855.239851,19102.672530,-623.345449,-15708.560134,-14009.112300,2619.602098,-16666.466494,-10401.876021,15120.396330,-8934.774570,4506.290496,13689.147078,21628.598467,25256.979496,7252.358765,7832.431237,0.005625,-0.014313,0.999375,192.000000,0.000000,0.000000,0.000000,0.000000,0.000000,0.000000,0.000000,0.000000,0.000000,1770801998.066931,0.000000
36.000000,22833.156327,19080.007861,-635.147170,-15728.319076,-14022.433939,2601.273668,-16685.174904,-10421.120873,15101.754976,-8931.980602,4495.136976,13681.592188,21618.696644,25256.599516,7245.988518,7827.178577,0.005625,-0.014313,0.999375,192.000000,0.000000,0.000000,0.000000,0.000000,0.000000,0.000000,0.000000,0.000000,0.000000,1770801998.066944,0.000000
38.000000,22838.498394,19085.662852,-626.809970,-15723.982838,-14017.807128,2619.870319,-16678.603492,-10415.555288,15107.365263,-8949.146742,4490.197240,13669.790467,21615.366234,25253.738493,7250.257701,7826.508025,0.005625,-0.014313,0.999375,192.000000,0.000000,0.000000,0.000000,0.000000,0.000000,0.000000,0.000000,0.000000,0.000000,1770801998.066956,0.000000
40.000000,22843.460482,19091.183733,-623.524263,-15720.406559,-14013.157965,2622.440770,-16673.082611,-10411.129643,15103.096080,-8933.746390,4502.311886,13688.856505,21626.631513,25254.207880,7248.626023,7828.027943,0.006812,-0.010156,1.000687,192.000000,0.000000,32.000000,127.500000,104.000000,15.500000,40.000000,0.000000,0.000000,0.000000,1770801998.066969,0.000000
42.000000,22837.514918,19082.310090,-621.981993,-15732.945887,-14011.727454,2607.688619,-16684.683166,-10417.298724,15096.502316,-8952.343041,4494.220554,13669.902226,21624.999836,25241.556792,7254.929215,7825.412789,0.006812,-0.010156,1.000687,192.000000,0.000000,0.000000,0.000000,0.000000,0.000000,0.000000,0.000000,0.000000,0.000000,1770801998.066981,0.000000
44.000000,22861.230118,19104.706538,-615.343525,-15711.868192,-13988.191067,2628.609851,-16667.159398,-10398.679721,15118.608191,-8939.043753,4511.856081,13690.979921,21644.311743,25252.822072,7263.847561,7837.303917,0.006812,-0.010156,1.000687,192.000000,0.000000,0.000000,0.000000,0.000000,0.000000,0.000000,0.000000,0.000000,0.000000,1770801998.066994,0.000000
46.000000,22846.165043,19086.445163,-626.273528,-15725.502756,-14002.876163,2617.813959,-16684.459649,-10414.415349,15102.827859,-8930.192462,4504.055322,13687.113069,21632.174746,25259.549947,7257.969053,7832.766513,0.006812,-0.010156,1.000687,192.000000,0.000000,0.000000,0.000000,0.000000,0.000000,0.000000,0.000000,0.000000,0.000000,1770801998.067006,0.000000
48.000000,22853.317601,19095.810544,-621.199682,-15714.952733,-14000.976265,2619.535043,-16675.608358,-10406.078149,15110.516859,-8941.703611,4501.775444,13680.251083,21629.425481,25258.320601,7262.081774,7838.197987,0.006812,-0.010156,1.000687,192.000000,0.000000,0.000000,0.000000,0.000000,0.000000,0.000000,0.000000,0.000000,0.000000,1770801998.067019,0.000000
50.000000,22851.127130,19095.832896,-628.754572,-15712.538745,-14008.329989,2626.285270,-16673.909625,-10407.754529,15107.409967,-8923.911622,4509.307982,13697.685444,21638.097958,25277.610156,7253.699869,7841.818969,0.006812,-0.010156,1.000687,192.000000,0.000000,0.000000,0.000000,0.000000,0.000000,0.000000,0.000000,0.000000,0.000000,1770801998.067031,0.000000
52.000000,22836.106758,19078.465590,-634.051935,-15730.688361,-14026.859585,2612.181319,-16689.712309,-10424.495986,15094.781231,-8948.185617,4487.738548,13669.790467,21621.557667,25244.306057,7247.463733,7836.454551,0.010000,-0.010000,1.008000,192.000000,0.000000,40.000000,127.500000,88.000000,15.500000,64.000000,0.000000,0.000000,0.000000,1770801998.067046,0.000000
54.000000,22850.210708,19092.368375,-628.173426,-15716.830279,-14008.531154,2620.183244,-16673.417887,-10413.118948,15105.532420,-8947.090381,4497.238040,13680.072269,21627.056197,25250.296325,7250.235349,7836.208682,0.010000,-0.010000,1.008000,192.000000,0.000000,0.000000,0.000000,0.000000,0.000000,0.000000,0.000000,0.000000,0.000000,1770801998.067077,0.000000
56.000000,22838.051359,19078.152666,-632.979051,-15733.236460,-14017.002465,2604.738188,-16689.645253,-10425.904146,15096.122336,-8945.235186,4486.553906,13676.473639,21626.653865,25248.977572,7246.122628,7831.917147,0.010000,-0.010000,1.008000,192.000000,0.000000,0.000000,0.000000,0.000000,0.000000,0.000000,0.000000,0.000000,0.000000,1770801998.067091,0.000000
58.000000,22853.384656,19094.715309,-622.607842,-15723.982838,-14005.603076,2612.985982,-16680.861018,-10413.275410,15112.416758,-8952.857131,4490.845441,13674.730203,21638.410883,25242.160290,7255.085678,7837.393324,0.010000,-0.010000,1.008000,192.000000,0.000000,0.000000,0.000000,0.000000,0.000000,0.000000,0.000000,0.000000,0.000000,1770801998.067106,0.000000
60.000000,22861.945374,19102.560771,-623.814836,-15717.165556,-13997.623503,2608.627392,-16673.037907,-10404.021788,15114.875450,-8927.197328,4508.928002,13696.970188,21648.647982,25257.381828,7252.805800,7835.359315,0.010000,-0.010000,1.008000,192.000000,0.000000,0.000000,0.000000,0.000000,0.000000,0.000000,0.000000,0.000000,0.000000,1770801998.067119,0.000000
62.000000,22855.329258,19091.697823,-626.877025,-15726.754454,-14009.000541,2602.793587,-16685.063146,-10411.330809,15107.767595,-8941.725962,4501.216650,13676.361880,21632.465319,25247.792929,7252.626986,7829.100827,0.008000,-0.010000,1.008000,192.000000,0.000000,32.000000,127.500000,88.000000,15.500000,64.000000,0.000000,0.000000,0.000000,1770801998.067132,0.000000
64.000000,22862.124188,19102.851343,-624.261871,-15706.123794,-13999.478698,2633.482532,-16666.891178,-10399.931419,15123.793796,-8932.718209,4514.113607,13691.449307,21642.657714,25257.828862,7250.816494,7838.823836,0.008000,-0.010000,1.008000,192.000000,0.000000,0.000000,0.000000,0.000000,0.000000,0.000000,0.000000,0.000000,0.000000,1770801998.067145,0.000000
66.000000,22842.164080,19080.834875,-637.672918,-15725.234535,-14021.383407,2614.885880,-16686.091326,-10418.818643,15103.297246,-8932.159416,4497.729778,13681.659243,21632.398264,25259.639354,7242.054610,7832.408885,0.008000,-0.010000,1.008000,192.000000,0.000000,0.000000,0.000000,0.000000,0.000000,0.000000,0.000000,0.000000,0.000000,1770801998.067157,0.000000
68.000000,22849.003714,19088.322710,-629.291013,-15719.959524,-14017.203631,2614.796473,-16679.698727,-10411.442567,15110.986246,-8945.793980,4494.399368,13672.182104,21631.727711,25253.984362,7246.971994,7835.336964,0.008000,-0.010000,1.008000,192.000000,0.000000,0.000000,0.000000,0.000000,0.000000,0.000000,0.000000,0.000000,0.000000,1770801998.067170,0.000000
70.000000,22855.306906,19093.217742,-625.737086,-15716.942038,-14008.575858,2619.557395,-16673.395535,-10405.139375,15106.135917,-8933.433465,4507.162214,13687.090717,21643.574136,25257.247717,7246.256738,7832.587699,0.008000,-0.010000,1.008000,192.000000,0.000000,0.000000,0.000000,0.000000,0.000000,0.000000,0.000000,0.000000,0.000000,1770801998.067182,0.000000
72.000000,22855.977458,19088.233303,-622.160807,-15728.944925,-14017.516555,2615.936412,-16685.376070,-10408.469785,15107.946409,-8945.905739,4506.961048,13670.371612,21640.891926,25249.648124,7247.016698,7828.653792,0.006000,-0.010000,1.008000,192.000000,0.000000,24.000000,127.500000,88.000000,15.500000,64.000000,0.000000,0.000000,0.000000,1770801998.067197,0.000000
74.000000,22868.695601,19105.600608,-612.370743,-15711.711730,-13995.410680,2632.789628,-16668.008765,-10393.941151,15125.626639,-8931.801788,4526.921156,13691.561066,21653.632421,25257.761807,7253.185779,7832.967679,0.006000,-0.010000,1.008000,192.000000,0.000000,0.000000,0.000000,0.000000,0.000000,0.000000,0.000000,0.000000,0.000000,1770801998.546978,0.000000
76.000000,22846.254450,19084.299396,-624.574795,-15730.017809,-14009.805204,2613.455369,-16687.633596,-10415.935268,15105.018330,-8928.560785,4513.353647,13686.375461,21650.413770,25260.823996,7250.347108,7835.180501,0.006000,-0.010000,1.008000,192.000000,0.000000,0.000000,0.000000,0.000000,0.000000,0.000000,0.000000,0.000000,0.000000,1770801998.547036,0.000000
78.000000,22844.175737,19082.354794,-624.485388,-15728.654352,-14012.040378,2607.688619,-16684.973739,-10418.662181,15101.799679,-8951.471323,4501.037836,13667.085906,21633.202926,25252.509147,7251.576454,7835.314612,0.006000,-0.010000,1.008000,192.000000,0.000000,0.000000,0.000000,0.000000,0.000000,0.000000,0.000000,0.000000,0.000000,1770801998.547079,0.000000
80.000000,22845.472139,19085.819314,-630.274490,-15726.128605,-14012.576820,2595.797491,-16680.995128,-10418.483367,15092.769574,-8943.536454,4502.401293,13673.411450,21630.699531,25255.906612,7248.268395,7828.564385,0.006000,-0.010000,1.008000,192.000000,0.000000,0.000000,0.000000,0.000000,0.000000,0.000000,0.000000,0.000000,0.000000,1770801998.547125,0.000000
82.000000,22833.402197,19072.520026,-636.600034,-15736.164538,-14027.530137,2597.943258,-16693.579160,-10428.072265,15087.583970,-8957.461590,4487.559734,13654.792446,21621.021226,25232.526688,7244.669765,7823.915222,0.006000,-0.016000,1.000000,192.000000,0.000000,24.000000,127.500000,64.000000,15.500000,32.000000,0.000000,0.000000,0.000000,1770801998.547170,0.000000
84.000000,22858.413799,19099.587989,-624.686554,-15715.466823,-14002.339721,2609.320296,-16672.300300,-10402.323056,15109.868659,-8948.096210,4505.262316,13678.842924,21633.046464,25243.881374,7243.351012,7824.272850,0.006000,-0.016000,1.000000,192.000000,0.000000,0.000000,0.000000,0.000000,0.000000,0.000000,0.000000,0.000000,0.000000,1770801998.547223,0.000000
86.000000,22853.161139,19092.837762,-630.587415,-15727.715579,-14011.749805,2597.496223,-16684.839628,-10407.754529,15103.654874,-8931.801788,4508.883299,13685.749613,21637.203889,25258.633525,7242.233424,7820.450702,0.006000,-0.016000,1.000000,192.000000,0.000000,0.000000,0.000000,0.000000,0.000000,0.000000,0.000000,0.000000,0.000000,1770801998.547248,0.000000
88.000000,22865.879281,19106.226457,-622.943118,-15716.874983,-14005.290151,2623.334840,-16677.620015,-10397.405672,15118.675246,-8939.311974,4514.918270,13682.441554,21641.897755,25255.683095,7250.123590,7833.325307,0.006000,-0.016000,1.000000,192.000000,0.000000,0.000000,0.000000,0.000000,0.000000,0.000000,0.000000,0.000000,0.000000,1770801998.547266,0.000000
90.000000,22870.751962,19109.512163,-621.266737,-15711.063529,-13995.276570,2636.500017,-16673.820218,-10399.171460,15121.111586,-8919.105997,4526.921156,13700.121784,21647.306877,25270.882281,7246.346145,7834.107618,0.006000,-0.016000,1.000000,192.000000,0.000000,0.000000,0.000000,0.000000,0.000000,0.000000,0.000000,0.000000,0.000000,1770801998.547302,0.000000
92.000000,22852.602345,19090.647291,-623.926595,-15725.323942,-14016.890707,2612.695409,-16687.991224,-10415.734102,15113.221420,-8937.859111,4508.346857,13672.092697,21633.515851,25256.420703,7245.228558,7831.827740,0.006000,-0.014000,1.012000,192.000000,0.000000,24.000000,127.500000,72.000000,15.500000,80.000000,0.000000,0.000000,0.000000,1770801998.547316,0.000000
94.000000,22858.123226,19099.163306,-621.467903,-15710.370625,-14007.547677,2622.865453,-16672.322651,-10407.061625,15116.797700,-8933.187596,4513.331296,13684.699081,21637.047426,25257.940621,7249.698907,7836.007516,0.006000,-0.014000,1.012000,192.000000,0.000000,0.000000,0.000000,0.000000,0.000000,0.000000,0.000000,0.000000,0.000000,1770801998.547330,0.000000
96.000000,22841.649990,19080.566654,-629.849807,-15725.435701,-14023.216250,2613.611831,-16686.560713,-10420.495024,15093.931865,-8932.449988,4498.981476,13677.658281,21624.463394,25254.476101,7239.819436,7829.883138,0.006000,-0.014000,1.012000,192.000000,0.000000,0.000000,0.000000,0.000000,0.000000,0.000000,0.000000,0.000000,0.000000,1770801998.547343,0.000000
98.000000,22848.310810,19086.333404,-622.406676,-15724.228707,-14014.454366,2613.097741,-16680.056355,-10413.230707,15101.017368,-8946.084553,4497.796833,13668.628176,21618.517830,25257.828862,7248.447209,7833.794693,0.006000,-0.014000,1.012000,192.000000,0.000000,0.000000,0.000000,0.000000,0.000000,0.000000,0.000000,0.000000,0.000000,1770801998.547356,0.000000
100.000000,22858.726723,19093.441259,-622.451380,-15718.908992,-14004.150212,2617.679848,-16674.468419,-10406.480480,15106.359435,-8932.852320,4513.621868,13687.962435,21636.063950,25257.605345,7248.782486,7829.681972,0.006000,-0.014000,1.012000,192.000000,0.000000,0.000000,0.000000,0.000000,0.000000,0.000000,0.000000,0.000000,0.000000,1770801998.547369,0.000000
102.000000,22845.136862,19078.957329,-625.871196,-15730.218974,-14014.677884,2615.176453,-16687.767707,-10419.690361,15098.715138,-8952.968890,4496.992170,13666.907092,21625.871554,25243.456691,7247.664898,7831.693629,0.008000,-0.014000,1.010000,192.000000,0.000000,32.000000,127.500000,72.000000,15.500000,72.000000,0.000000,0.000000,0.000000,1770801998.547381,0.000000
104.000000,22854.211671,19091.004919,-619.523301,-15718.126681,-14001.043320,2617.702200,-16673.373183,-10410.593201,15108.728720,-8940.809541,4507.564546,13683.916769,21643.618839,25249.849290,7253.252834,7835.582833,0.008000,-0.014000,1.010000,192.000000,0.000000,0.000000,0.000000,0.000000,0.000000,0.000000,0.000000,0.000000,0.000000,1770801998.547395,0.000000
106.000000,22840.398293,19074.844608,-628.195778,-15733.638791,-14015.594305,2598.703217,-16688.706480,-10426.731160,15094.065975,-8934.998087,4496.902763,13676.540694,21637.092130,25242.406159,7248.402506,7822.037676,0.008000,-0.014000,1.010000,192.000000,0.000000,0.000000,0.000000,0.000000,0.000000,0.000000,0.000000,0.000000,0.000000,1770801998.547407,0.000000
108.000000,22848.266107,19085.081707,-618.696287,-15724.899259,-14005.759538,2603.464139,-16678.827009,-10418.684532,15099.139821,-8949.482018,4493.572354,13663.956662,21630.923048,25232.303170,7251.330584,7823.043504,0.008000,-0.014000,1.010000,192.000000,0.000000,0.000000,0.000000,0.000000,0.000000,0.000000,0.000000,0.000000,0.000000,1770801998.547420,0.000000
110.000000,22853.339953,19089.887332,-620.283260,-15718.640771,-14006.251276,2599.083197,-16673.462590,-10412.046064,15097.083461,-8934.260480,4505.329371,13683.737956,21640.690761,25247.144729,7247.620195,7821.434179,0.008000,-0.014000,1.010000,192.000000,0.000000,0.000000,0.000000,0.000000,0.000000,0.000000,0.000000,0.000000,0.000000,1770801998.547432,0.000000
112.000000,22845.248621,19080.119619,-622.563138,-15725.234535,-14020.534041,2600.983095,-16683.520875,-10417.656352,15091.003786,-8951.806599,4493.482947,13666.817685,21633.895830,25242.696731,7244.446247,7824.496368,0.006000,-0.014000,1.010000,192.000000,0.000000,24.000000,127.500000,72.000000,15.500000,72.000000,0.000000,0.000000,0.000000,1770801998.547446,0.000000
114.000000,22862.079485,19098.604512,-617.221071,-15708.381320,-13998.897552,2625.368848,-16666.242977,-10399.059701,15107.812298,-8942.016535,4507.430435,13688.811802,21644.199985,25242.048531,7249.900073,7831.045429,0.006000,-0.014000,1.010000,192.000000,0.000000,0.000000,0.000000,0.000000,0.000000,0.000000,0.000000,0.000000,0.000000,1770801998.547459,0.000000
116.000000,22848.802549,19085.774611,-627.301708,-15724.340466,-14009.157003,2605.922831,-16682.157419,-10410.146166,15095.876467,-8935.020439,4502.714217,13687.560104,21637.583868,25246.250659,7246.256738,7827.379743,0.006000,-0.014000,1.010000,192.000000,0.000000,0.000000,0.000000,0.000000,0.000000,0.000000,0.000000,0.000000,0.000000,1770801998.547473,0.000000
118.000000,22848.534328,19089.663814,-625.044182,-15716.718521,-14002.026797,2618.417456,-16675.809524,-10408.983875,15104.638351,-8945.972794,4498.780310,13677.859447,21636.309819,25242.182641,7255.197436,7834.912280,0.006000,-0.014000,1.010000,192.000000,0.000000,0.000000,0.000000,0.000000,0.000000,0.000000,0.000000,0.000000,0.000000,1770801998.547486,0.000000
120.000000,22847.439092,19092.033099,-632.241444,-15712.494041,-13998.495221,2636.701183,-16674.021384,-10411.062588,15096.837592,-8932.718209,4500.188470,13689.035319,21641.026037,25248.351723,7251.665861,7836.611013,0.006000,-0.014000,1.010000,192.000000,0.000000,0.000000,0.000000,0.000000,0.000000,0.000000,0.000000,0.000000,0.000000,1770801998.547499,0.000000
122.000000,22835.235040,19076.722154,-636.644737,-15727.223841,-14022.858622,2610.817863,-16687.991224,-10422.953716,15086.041699,-8951.247806,4483.447013,13665.521284,21620.842412,25232.973723,7247.441381,7832.006554,0.007000,-0.013000,1.009000,192.000000,0.000000,32.000000,127.500000,80.000000,15.500000,64.000000,0.000000,0.000000,0.000000,1770801998.547514,0.000000
124.000000,22845.293325,19092.681300,-632.107333,-15713.790442,-14012.867393,2611.778988,-16671.652099,-10409.430910,15094.937693,-8948.632651,4496.098101,13679.513476,21629.961923,25233.107833,7246.435552,7830.777208,0.007000,-0.013000,1.009000,192.000000,0.000000,0.000000,0.000000,0.000000,0.000000,0.000000,0.000000,0.000000,0.000000,1770801998.547528,0.000000
126.000000,22827.166060,19073.794076,-639.841037,-15732.610611,-14031.709913,2597.540927,-16689.108812,-10424.875966,15079.671452,-8944.564634,4490.152537,13677.054784,21621.535316,25234.381882,7237.293689,7819.601335,0.007000,-0.013000,1.009000,192.000000,0.000000,0.000000,0.000000,0.000000,0.000000,0.000000,0.000000,0.000000,0.000000,1770801998.547540,0.000000
128.000000,22832.262258,19078.599701,-629.380420,-15725.413349,-14021.964553,2601.050151,-16681.017480,-10417.924573,15091.495525,-8963.496561,4488.051473,13666.705926,21618.741348,25226.067034,7246.368497,7821.970620,0.007000,-0.013000,1.009000,192.000000,0.000000,0.000000,0.000000,0.000000,0.000000,0.000000,0.000000,0.000000,0.000000,1770801998.547553,0.000000
130.000000,22839.414816,19084.433506,-625.245348,-15719.087806,-14015.996637,2597.920906,-16673.619053,-10411.196698,15093.350720,-8948.900872,4498.534441,13682.754479,21624.016359,25224.301246,7242.568701,7813.253440,0.007000,-0.013000,1.009000,192.000000,0.000000,0.000000,0.000000,0.000000,0.000000,0.000000,0.000000,0.000000,0.000000,1770801998.547565,0.000000
132.000000,22835.525612,19078.890273,-628.195778,-15730.174271,-14025.697294,2588.019084,-16684.526704,-10417.254021,15089.774441,-8960.814352,4489.459633,13667.085906,21616.752042,25219.249751,7241.875797,7809.230126,0.004500,-0.015500,1.009500,192.000000,0.000000,8.000000,127.500000,56.000000,15.500000,72.000000,0.000000,0.000000,0.000000,1770801998.547578,0.000000
134.000000,22846.656781,19094.648253,-624.843016,-15717.165556,-14007.659436,2603.799415,-16669.349869,-10403.798271,15105.688883,-8952.521855,4503.273011,13685.503743,21625.536278,25230.067996,7246.279090,7816.427388,0.004500,-0.015500,1.009500,192.000000,0.000000,0.000000,0.000000,0.000000,0.000000,0.000000,0.000000,0.000000,0.000000,1770801998.547590,0.000000
136.000000,22834.631543,19081.639538,-633.984880,-15733.012942,-14018.790605,2595.931601,-16685.845457,-10417.142262,15090.892028,-8948.409134,4496.880412,13683.179162,21625.290409,25230.671493,7242.948680,7814.751007,0.004500,-0.015500,1.009500,192.000000,0.000000,0.000000,0.000000,0.000000,0.000000,0.000000,0.000000,0.000000,0.000000,1770801998.547602,0.000000
138.000000,22838.766615,19086.556922,-631.816761,-15729.906050,-14019.997599,2605.296982,-16683.766745,-10416.047027,15099.475098,-8959.048564,4493.102967,13674.730203,21628.620819,25230.626789,7243.909805,7822.931745,0.004500,-0.015500,1.009500,192.000000,0.000000,0.000000,0.000000,0.000000,0.000000,0.000000,0.000000,0.000000,0.000000,1770801998.547615,0.000000
140.000000,22840.174775,19089.037965,-634.588377,-15724.631038,-14011.302771,2603.106511,-16678.916416,-10414.281239,15095.317673,-8944.318765,4499.853194,13686.733089,21636.198060,25240.819185,7240.244119,7820.271888,0.004500,-0.015500,1.009500,192.000000,0.000000,0.000000,0.000000,0.000000,0.000000,0.000000,0.000000,0.000000,0.000000,1770801998.547628,0.000000
142.000000,22826.204935,19072.430619,-637.739973,-15738.220899,-14033.319239,2585.135708,-16692.483925,-10426.440588,15084.231208,-8960.143800,4487.246810,13662.682612,21618.897810,25226.938752,7237.248985,7814.572193,0.004250,-0.012750,1.011750,192.000000,0.000000,16.000000,127.500000,88.000000,15.500000,88.000000,0.000000,0.000000,0.000000,1770801998.547640,0.000000
144.000000,22841.180604,19089.462649,-630.408601,-15723.915782,-14015.907230,2608.046247,-16676.435372,-10412.068416,15093.864810,-8958.020384,4501.283705,13672.986766,21627.011493,25227.318731,7244.625061,7824.675181,0.004250,-0.012750,1.011750,192.000000,0.000000,0.000000,0.000000,0.000000,0.000000,0.000000,0.000000,0.000000,0.000000,1770801998.547653,0.000000
146.000000,22832.284609,19077.973852,-638.388173,-15737.617402,-14027.105454,2603.844119,-16691.187524,-10420.740893,15083.292435,-8952.298337,4499.808490,13670.237502,21627.927915,25226.916400,7238.232462,7814.393379,0.004250,-0.012750,1.011750,192.000000,0.000000,0.000000,0.000000,0.000000,0.000000,0.000000,0.000000,0.000000,0.000000,1770801998.547666,0.000000
148.000000,22839.236002,19086.735736,-634.923653,-15732.498852,-14022.188070,2607.442749,-16684.392593,-10413.320114,15094.423603,-8963.004823,4502.133072,13665.454229,21624.306932,25224.077728,7242.926329,7820.830681,0.004250,-0.012750,1.011750,192.000000,0.000000,0.000000,0.000000,0.000000,0.000000,0.000000,0.000000,0.000000,0.000000,1770801998.547680,0.000000
150.000000,22841.985266,19091.049622,-637.896435,-15729.190794,-14012.733282,2604.447616,-16678.648195,-10411.934306,15090.377938,-8944.721096,4510.827900,13682.642720,21631.258325,25237.354664,7238.724201,7815.309801,0.004250,-0.012750,1.011750,192.000000,0.000000,0.000000,0.000000,0.000000,0.000000,0.000000,0.000000,0.000000,0.000000,1770801998.547692,0.000000
152.000000,22828.104833,19076.990375,-641.450362,-15739.763169,-14025.898460,2595.618677,-16692.327463,-10426.664105,15086.891065,-8962.177809,4493.639409,13659.151037,21625.111595,25215.561714,7239.305346,7817.321458,0.005125,-0.011375,1.008875,192.000000,0.000000,24.000000,127.500000,88.000000,15.500000,56.000000,0.000000,0.000000,0.000000,1770801998.547705,0.000000
154.000000,22843.304019,19091.697823,-633.895473,-15723.893431,-14013.582648,2606.280459,-16677.620015,-10415.108253,15097.239923,-8954.019422,4503.429473,13675.065479,21631.280676,25225.217667,7242.926329,7815.175690,0.005125,-0.011375,1.008875,192.000000,0.000000,0.000000,0.000000,0.000000,0.000000,0.000000,0.000000,0.000000,0.000000,1770801998.547720,0.000000
156.000000,22832.530479,19079.896102,-638.455229,-15738.489120,-14020.154061,2588.086139,-16692.662739,-10426.552347,15088.925074,-8944.721096,4497.305095,13676.093659,21639.304953,25232.146708,7237.874834,7809.632457,0.005125,-0.011375,1.008875,192.000000,0.000000,0.000000,0.000000,0.000000,0.000000,0.000000,0.000000,0.000000,0.000000,1770801998.547733,0.000000
158.000000,22840.107720,19091.876637,-625.379458,-15727.402655,-14002.049148,2613.924755,-16682.403288,-10414.370646,15099.720967,-8955.695803,4497.126281,13673.031470,21640.243726,25227.408138,7249.788314,7816.449740,0.005125,-0.011375,1.008875,192.000000,0.000000,0.000000,0.000000,0.000000,0.000000,0.000000,0.000000,0.000000,0.000000,1770801998.547746,0.000000
160.000000,22844.935697,19098.738623,-630.922691,-15721.166518,-13995.857715,2616.718723,-16677.754125,-10409.743835,15099.139821,-8934.640459,4509.285630,13695.226752,21644.468206,25244.306057,7249.698907,7818.640210,0.005125,-0.011375,1.008875,192.000000,0.000000,0.000000,0.000000,0.000000,0.000000,0.000000,0.000000,0.000000,0.000000,1770801998.547759,0.000000
162.000000,22840.599458,19090.155553,-631.280319,-15730.889527,-14011.973323,2598.211479,-16688.170038,-10415.890564,15094.647121,-8945.950442,4501.395464,13677.099487,21639.327304,25234.828917,7247.463733,7817.254402,0.004563,-0.009687,1.005438,192.000000,0.000000,16.000000,127.500000,96.000000,15.500000,40.000000,0.000000,0.000000,0.000000,1770801998.547772,0.000000
164.000000,22849.786025,19100.325596,-632.375554,-15719.981875,-14009.984018,2618.797436,-16675.742468,-10408.067454,15109.063996,-8940.809541,4514.761807,13693.103336,21648.402113,25238.829880,7246.636718,7825.882176,0.004563,-0.009687,1.005438,192.000000,0.000000,0.000000,0.000000,0.000000,0.000000,0.000000,0.000000,0.000000,0.000000,1770801998.547785,0.000000
166.000000,22828.507165,19076.051602,-645.674842,-15739.450245,-14031.262878,2600.647819,-16695.188486,-10428.854576,15090.914379,-8942.731791,4500.501394,13686.598979,21641.607182,25224.636522,7236.220805,7817.902603,0.004563,-0.009687,1.005438,192.000000,0.000000,0.000000,0.000000,0.000000,0.000000,0.000000,0.000000,0.000000,0.000000,1770801998.547798,0.000000
168.000000,22831.345836,19080.477247,-635.884778,-15734.242288,-14023.126843,2595.328104,-16688.102983,-10422.596088,15098.223400,-8961.663718,4493.505298,13674.976072,21631.347732,25218.109813,7239.618270,7813.611068,0.004563,-0.009687,1.005438,192.000000,0.000000,0.000000,0.000000,0.000000,0.000000,0.000000,0.000000,0.000000,0.000000,1770801998.547811,0.000000
170.000000,22835.391502,19087.830971,-637.427048,-15727.737931,-14018.030646,2598.993790,-16682.000957,-10417.745759,15099.631560,-8944.139951,4502.378941,13694.936180,21637.539165,25224.636522,7239.595919,7810.481824,0.004563,-0.009687,1.005438,192.000000,0.000000,0.000000,0.000000,0.000000,0.000000,0.000000,0.000000,0.000000,0.000000,1770801998.547825,0.000000
172.000000,22828.127185,19078.286776,-634.521322,-15738.802044,-14023.417416,2597.362113,-16693.355643,-10425.233594,15091.540228,-8959.964986,4487.760900,13673.858484,21632.845298,25219.339158,7241.428762,7811.241783,0.006281,-0.010844,1.003719,192.000000,0.000000,32.000000,127.500000,80.000000,15.500000,40.000000,0.000000,0.000000,0.000000,1770801998.547837,0.000000
174.000000,22849.182528,19102.247846,-620.260909,-15718.081977,-13990.068613,2608.359171,-16673.239073,-10405.072320,15112.640275,-8948.297375,4507.944525,13696.031415,21649.251479,25230.827955,7250.145942,7814.751007,0.006281,-0.010844,1.003719,192.000000,0.000000,0.000000,0.000000,0.000000,0.000000,0.000000,0.000000,0.000000,0.000000,1770801998.547850,0.000000
176.000000,22835.503261,19086.266349,-631.414429,-15730.375437,-14001.289189,2598.971438,-16689.354681,-10417.410483,15101.754976,-8939.691954,4505.709351,13694.802069,21649.899679,25234.359531,7243.194549,7812.560536,0.006281,-0.010844,1.003719,192.000000,0.000000,0.000000,0.000000,0.000000,0.000000,0.000000,0.000000,0.000000,0.000000,1770801998.547863,0.000000
178.000000,22850.389522,19099.677396,-621.043220,-15718.864288,-13998.495221,2614.572956,-16677.150628,-10403.686512,15111.723854,-8946.241015,4508.324505,13690.264665,21657.633383,25232.102005,7246.480256,7822.261193,0.006281,-0.010844,1.003719,192.000000,0.000000,0.000000,0.000000,0.000000,0.000000,0.000000,0.000000,0.000000,0.000000,1770801998.547876,0.000000
180.000000,22848.780197,19098.470402,-628.508702,-15716.942038,-14002.630294,2622.954860,-16675.563654,-10406.011093,15113.556697,-8927.622012,4519.433322,13705.195630,21657.052238,25241.757958,7242.367535,7819.780149,0.006281,-0.010844,1.003719,192.000000,0.000000,0.000000,0.000000,0.000000,0.000000,0.000000,0.000000,0.000000,0.000000,1770801998.547889,0.000000
182.000000,22837.023179,19082.868884,-632.688479,-15732.476501,-14024.803224,2601.541889,-16690.606378,-10419.064512,15097.865772,-8947.380954,4500.903726,13682.910941,21636.555688,25231.297342,7239.774733,7813.767530,0.006141,-0.012422,1.008859,192.000000,0.000000,24.000000,127.500000,72.000000,15.500000,88.000000,0.000000,0.000000,0.000000,1770801998.547902,0.000000
184.000000,22843.996923,19093.664777,-629.201606,-15719.646599,-14014.856698,2601.430130,-16676.703593,-10409.542669,15105.465365,-8950.487846,4510.134996,13693.080985,21640.936630,25228.458670,7244.937986,7817.120292,0.006141,-0.012422,1.008859,192.000000,0.000000,0.000000,0.000000,0.000000,0.000000,0.000000,0.000000,0.000000,0.000000,1770801998.547915,0.000000
186.000000,22830.295304,19080.566654,-638.388173,-15734.622268,-14024.333838,2581.112394,-16692.886256,-10421.210280,15093.685996,-8944.765800,4504.390598,13689.884685,21641.361313,25225.329426,7240.378230,7808.894850,0.006141,-0.012422,1.008859,192.000000,0.000000,0.000000,0.000000,0.000000,0.000000,0.000000,0.000000,0.000000,0.000000,1770801998.547928,0.000000
188.000000,22833.893935,19086.936901,-632.420258,-15729.347256,-14025.630239,2605.520499,-16685.778402,-10412.113120,15099.989188,-8955.829913,4504.390598,13683.022700,21636.063950,25236.594705,7245.206206,7815.198042,0.006141,-0.012422,1.008859,192.000000,0.000000,0.000000,0.000000,0.000000,0.000000,0.000000,0.000000,0.000000,0.000000,1770801998.547941,0.000000
190.000000,22833.893935,19093.173038,-633.180217,-15724.407521,-14009.604038,2613.969459,-16680.525742,-10407.352198,15092.300188,-8940.764837,4511.923136,13699.451232,21647.329229,25230.470327,7243.306308,7815.622725,0.006141,-0.012422,1.008859,192.000000,0.000000,0.000000,0.000000,0.000000,0.000000,0.000000,0.000000,0.000000,0.000000,1770801998.547954,0.000000
192.000000,22823.925057,19080.164323,-632.911996,-15736.902146,-14011.593343,2599.329066,-16693.869733,-10418.483367,15086.891065,-8954.511160,4498.757958,13678.932330,21637.673275,25223.474231,7245.943814,7817.187347,0.006141,-0.012422,1.008859,192.000000,0.000000,0.000000,0.000000,0.000000,0.000000,0.000000,0.000000,0.000000,0.000000,1770801998.547967,0.000000
194.000000,22847.349685,19103.208971,-623.680726,-15717.947867,-13995.544791,2637.371735,-16675.541303,-10402.479518,15104.459537,-8946.129256,4512.906613,13692.477488,21648.938554,25234.203069,7244.759172,7821.970620,0.008000,-0.018000,1.006000,192.000000,0.000000,32.000000,127.500000,56.000000,15.500000,56.000000,0.000000,0.000000,0.000000,1770801999.028958,0.000000
196.000000,22830.764691,19081.796000,-632.643775,-15733.281163,-14021.875146,2599.373770,-16688.214742,-10414.616515,15097.418737,-8936.026268,4513.375999,13692.343377,21653.855938,25239.679246,7235.572605,7813.901641,0.008000,-0.018000,1.006000,192.000000,0.000000,0.000000,0.000000,0.000000,0.000000,0.000000,0.000000,0.000000,0.000000,1770801999.029027,0.000000
198.000000,22843.907516,19095.296454,-622.071400,-15724.027541,-14020.176413,2595.439863,-16677.865884,-10400.669026,15107.141746,-8953.125352,4515.208842,13683.201514,21646.010476,25231.073824,7238.701849,7813.476957,0.008000,-0.018000,1.006000,192.000000,0.000000,0.000000,0.000000,0.000000,0.000000,0.000000,0.000000,0.000000,0.000000,1770801999.029085,0.000000
200.000000,22842.745226,19097.308111,-628.285185,-15720.004227,-14015.773119,2593.405854,-16675.049564,-10401.004303,15107.678188,-8933.679334,4527.077618,13702.647531,21653.922993,25237.265258,7237.360744,7805.877364,0.008000,-0.018000,1.006000,192.000000,0.000000,0.000000,0.000000,0.000000,0.000000,0.000000,0.000000,0.000000,0.000000,1770801999.029132,0.000000
202.000000,22828.037778,19075.626919,-631.637947,-15732.297687,-14028.781835,2580.419490,-16687.253617,-10413.342466,15094.267141,-8956.075782,4506.826938,13679.155848,21637.807386,25222.937789,7238.970070,7801.965809,0.008000,-0.018000,1.006000,192.000000,0.000000,0.000000,0.000000,0.000000,0.000000,0.000000,0.000000,0.000000,0.000000,1770801999.029181,0.000000
204.000000,22838.699560,19085.126410,-628.508702,-15718.238439,-14010.833384,2611.466063,-16672.814390,-10405.117024,15100.771499,-8951.024288,4515.879395,13693.617427,21642.613011,25228.637484,7245.742648,7806.682027,0.006000,-0.014000,1.004000,192.000000,0.000000,24.000000,127.500000,72.000000,15.500000,48.000000,0.000000,0.000000,0.000000,1770801999.029211,0.000000
206.000000,22814.157345,19058.885462,-643.462019,-15737.505643,-14035.487358,2596.266877,-16694.316768,-10429.391018,15079.470286,-8951.560730,4499.450862,13681.145153,21632.957057,25228.033987,7237.986593,7811.197080,0.006000,-0.014000,1.004000,192.000000,0.000000,0.000000,0.000000,0.000000,0.000000,0.000000,0.000000,0.000000,0.000000,1770801999.029225,0.000000
208.000000,22814.246752,19061.075933,-638.902264,-15734.376399,-14022.635105,2599.552584,-16690.718137,-10429.547480,15082.867751,-8972.414908,4493.080615,13664.649566,21624.843374,25223.206010,7246.502608,7820.160129,0.006000,-0.014000,1.004000,192.000000,0.000000,0.000000,0.000000,0.000000,0.000000,0.000000,0.000000,0.000000,0.000000,1770801999.029245,0.000000
210.000000,22814.872600,19062.238224,-642.165618,-15728.989628,-14011.213364,2601.899517,-16687.700652,-10430.463902,15079.179714,-8957.707460,4498.802662,13675.288996,21638.477938,25240.550964,7247.016698,7822.507062,0.006000,-0.014000,1.004000,192.000000,0.000000,0.000000,0.000000,0.000000,0.000000,0.000000,0.000000,0.000000,0.000000,1770801999.029259,0.000000
212.000000,22807.965911,19052.314049,-642.813819,-15737.259774,-14018.343570,2616.875186,-16699.569428,-10438.689344,15072.943577,-8971.342024,4482.307074,13651.886720,21623.479917,25220.166173,7244.155674,7826.463321,0.006000,-0.014000,1.004000,192.000000,0.000000,0.000000,0.000000,0.000000,0.000000,0.000000,0.000000,0.000000,0.000000,1770801999.029271,0.000000
214.000000,22830.384711,19074.956366,-630.185083,-15718.149032,-13997.355282,2622.798398,-16678.312919,-10418.013980,15092.277836,-8959.093268,4501.864851,13671.600958,21626.832679,25226.826993,7247.486084,7827.558557,0.006000,-0.012000,1.006000,192.000000,0.000000,24.000000,127.500000,80.000000,15.500000,56.000000,0.000000,0.000000,0.000000,1770801999.029284,0.000000
216.000000,22822.762766,19062.908776,-637.382345,-15734.108178,-14011.682750,2599.887860,-16691.925131,-10425.434759,15084.454725,-8946.442180,4505.396426,13676.965377,21634.968714,25235.432414,7242.211073,7814.773359,0.006000,-0.012000,1.006000,192.000000,0.000000,0.000000,0.000000,0.000000,0.000000,0.000000,0.000000,0.000000,0.000000,1770801999.029297,0.000000
218.000000,22828.507165,19070.418962,-629.693345,-15728.788463,-14012.777986,2607.018066,-16684.146724,-10418.192794,15097.932827,-8960.568483,4506.111682,13669.656357,21635.058121,25228.570429,7243.395715,7812.404074,0.006000,-0.012000,1.006000,192.000000,0.000000,0.000000,0.000000,0.000000,0.000000,0.000000,0.000000,0.000000,0.000000,1770801999.029320,0.000000
220.000000,22825.333217,19069.457837,-636.555330,-15726.083902,-14009.916962,2604.067636,-16682.582102,-10420.137396,15093.864810,-8946.799808,4514.068903,13683.357976,21634.789900,25235.700635,7239.707677,7807.933725,0.006000,-0.012000,1.006000,192.000000,0.000000,0.000000,0.000000,0.000000,0.000000,0.000000,0.000000,0.000000,0.000000,1770801999.029332,0.000000
222.000000,22815.297284,19056.046791,-638.701098,-15739.584355,-14023.082140,2598.680866,-16696.551942,-10431.425027,15087.248693,-8963.608320,4494.198202,13659.598072,21625.044540,25225.910571,7238.858311,7805.832661,0.006000,-0.012000,1.006000,192.000000,0.000000,0.000000,0.000000,0.000000,0.000000,0.000000,0.000000,0.000000,0.000000,1770801999.029347,0.000000
224.000000,22827.814260,19070.396611,-631.302670,-15720.183041,-14009.291114,2607.621563,-16679.363451,-10418.304553,15099.542153,-8954.354698,4506.759883,13677.747688,21630.945400,25229.933885,7245.452076,7805.475033,0.004000,-0.014000,1.002000,192.000000,0.000000,16.000000,127.500000,72.000000,15.500000,40.000000,0.000000,0.000000,0.000000,1770801999.029360,0.000000
226.000000,22812.123336,19054.191596,-642.366784,-15736.365704,-14022.992733,2585.515688,-16696.216666,-10432.207338,15083.113621,-8951.404268,4496.276915,13671.355089,21627.413824,25229.129223,7240.311174,7805.363274,0.004000,-0.014000,1.002000,192.000000,0.000000,0.000000,0.000000,0.000000,0.000000,0.000000,0.000000,0.000000,0.000000,1770801999.029373,0.000000
228.000000,22821.444013,19062.841721,-634.946005,-15728.676704,-14011.548640,2609.208537,-16689.242922,-10422.417274,15093.060147,-8963.965948,4495.852231,13663.330813,21623.703435,25228.771595,7249.676555,7811.465300,0.004000,-0.014000,1.002000,192.000000,0.000000,0.000000,0.000000,0.000000,0.000000,0.000000,0.000000,0.000000,0.000000,1770801999.029385,0.000000
230.000000,22822.159269,19067.669698,-637.807028,-15722.217050,-14006.966532,2620.742037,-16683.073841,-10419.891527,15090.892028,-8944.788151,4504.323543,13681.122801,21637.650923,25242.026179,7247.240215,7815.645077,0.004000,-0.014000,1.002000,192.000000,0.000000,0.000000,0.000000,0.000000,0.000000,0.000000,0.000000,0.000000,0.000000,1770801999.029397,0.000000
232.000000,22813.240923,19056.270308,-639.125781,-15735.404579,-14019.729378,2612.427188,-16695.948445,-10427.357009,15082.688938,-8962.267216,4489.683150,13660.849769,21622.518792,25225.709406,7247.709602,7814.728655,0.004000,-0.014000,1.002000,192.000000,0.000000,0.000000,0.000000,0.000000,0.000000,0.000000,0.000000,0.000000,0.000000,1770801999.029412,0.000000
234.000000,22831.837574,19076.409230,-633.023755,-15718.953695,-14002.630294,2615.087046,-16678.938768,-10410.570849,15098.938656,-8954.019422,4507.251621,13678.150019,21633.895830,25229.218630,7250.637680,7817.030885,0.004000,-0.010000,1.006000,192.000000,0.000000,16.000000,127.500000,88.000000,15.500000,56.000000,0.000000,0.000000,0.000000,1770801999.029427,0.000000
236.000000,22813.978531,19056.583232,-646.837133,-15736.119835,-14019.148233,2603.665305,-16696.239018,-10426.865271,15082.532475,-8947.895044,4500.300229,13676.227769,21631.526545,25236.214726,7242.389887,7810.057141,0.004000,-0.010000,1.006000,192.000000,0.000000,0.000000,0.000000,0.000000,0.000000,0.000000,0.000000,0.000000,0.000000,1770801999.029444,0.000000
238.000000,22818.158307,19062.059410,-642.992633,-15729.459015,-14018.142404,2602.972401,-16690.002881,-10420.047989,15085.974644,-8964.636500,4493.304133,13666.571816,21635.862784,25222.311940,7244.043916,7809.274830,0.004000,-0.010000,1.006000,192.000000,0.000000,0.000000,0.000000,0.000000,0.000000,0.000000,0.000000,0.000000,0.000000,1770801999.029458,0.000000
240.000000,22825.735548,19068.876692,-643.663185,-15722.418216,-14010.431052,2597.362113,-16683.990262,-10415.510585,15088.299225,-8944.564634,4504.524708,13687.269531,21643.283563,25226.402310,7239.931195,7803.128100,0.004000,-0.010000,1.006000,192.000000,0.000000,0.000000,0.000000,0.000000,0.000000,0.000000,0.000000,0.000000,0.000000,1770801999.029470,0.000000
242.000000,22813.151516,19056.963212,-646.457153,-15736.209242,-14027.239564,2592.243563,-16697.937751,-10427.200547,15079.805562,-8961.350794,4492.030083,13665.476580,21628.598467,25214.108850,7237.763076,7803.150452,0.004000,-0.010000,1.006000,192.000000,0.000000,0.000000,0.000000,0.000000,0.000000,0.000000,0.000000,0.000000,0.000000,1770801999.029483,0.000000
244.000000,22830.004731,19076.856265,-640.176313,-15722.574678,-14013.828518,2602.324200,-16682.380936,-10410.883774,15094.133031,-8955.382878,4507.139862,13679.178200,21635.058121,25224.636522,7241.026430,7805.698550,0.004000,-0.010000,1.006000,192.000000,0.000000,0.000000,127.500000,80.000000,15.500000,48.000000,0.000000,0.000000,0.000000,1770801999.029497,0.000000
246.000000,22819.186487,19068.966099,-648.155886,-15733.504681,-14026.256088,2596.825671,-16695.747280,-10419.533899,15083.583007,-8942.955308,4506.268144,13682.419203,21634.611086,25225.083557,7235.594956,7799.507117,0.004000,-0.010000,1.006000,192.000000,0.000000,0.000000,0.000000,0.000000,0.000000,0.000000,0.000000,0.000000,0.000000,1770801999.029509,0.000000
248.000000,22829.222420,19076.543340,-640.444534,-15730.509547,-14015.259029,2596.155118,-16689.511143,-10413.744797,15096.815240,-8953.840608,4506.111682,13676.160714,21632.442967,25220.590856,7244.267433,7805.586792,0.004000,-0.010000,1.006000,192.000000,0.000000,0.000000,0.000000,0.000000,0.000000,0.000000,0.000000,0.000000,0.000000,1770801999.029522,0.000000
250.000000,22834.497432,19078.890273,-642.344432,-15724.608687,-14013.269724,2599.999619,-16683.409117,-10410.794367,15102.805508,-8939.513140,4517.220499,13688.610636,21647.753912,25228.436318,7241.451113,7800.065911,0.004000,-0.010000,1.006000,192.000000,0.000000,0.000000,0.000000,0.000000,0.000000,0.000000,0.000000,0.000000,0.000000,1770801999.029536,0.000000
252.000000,22821.354606,19063.065238,-645.652490,-15738.198547,-14025.473777,2595.909249,-16698.764765,-10423.087826,15096.636426,-8957.618053,4500.367284,13665.275415,21628.374949,25215.829935,7240.892320,7800.736463,0.004000,-0.010000,1.006000,192.000000,0.000000,0.000000,0.000000,0.000000,0.000000,0.000000,0.000000,0.000000,0.000000,1770801999.029550,0.000000
254.000000,22825.154403,19069.815465,-642.992633,-15726.106253,-14017.315390,2587.125014,-16684.973739,-10415.421178,15104.146612,-8954.511160,4509.151519,13676.495990,21632.420615,25213.706519,7244.401544,7801.250553,0.002000,-0.010000,1.006000,192.000000,0.000000,8.000000,127.500000,88.000000,15.500000,56.000000,0.000000,0.000000,0.000000,1770801999.029563,0.000000
0.000000,22810.849286,19053.409285,-655.263740,-15741.774826,-14034.258012,2588.399063,-16700.552905,-10429.882756,15081.370185,-8954.064125,4499.517918,13668.181141,21624.306932,25212.052490,7233.248023,7796.646094,0.002000,-0.010000,1.006000,192.000000,0.000000,0.000000,0.000000,0.000000,0.000000,0.000000,0.000000,0.000000,0.000000,1770801999.029575,0.000000
2.000000,22816.012539,19061.142988,-649.362880,-15737.192719,-14027.552489,2597.362113,-16695.344948,-10425.457111,15088.410984,-8969.911512,4497.036874,13656.781752,21616.372063,25207.537437,7238.277166,7802.412844,0.002000,-0.010000,1.006000,192.000000,0.000000,0.000000,0.000000,0.000000,0.000000,0.000000,0.000000,0.000000,0.000000,1770801999.029590,0.000000
4.000000,22821.868696,19067.759105,-650.547522,-15732.208280,-14023.819747,2593.674075,-16690.025233,-10421.880832,15083.270083,-8954.242939,4505.597592,13672.360918,21620.417728,25223.183659,7236.489026,7801.116443,0.002000,-0.010000,1.006000,192.000000,0.000000,0.000000,0.000000,0.000000,0.000000,0.000000,0.000000,0.000000,0.000000,1770801999.029602,0.000000
6.000000,22817.666568,19061.031230,-650.346357,-15742.803007,-14033.900384,2574.205705,-16701.201105,-10428.899280,15079.492638,-8963.362451,4493.438243,13658.033449,21613.645150,25204.229379,7237.316041,7801.004684,0.002000,-0.010000,1.006000,192.000000,0.000000,0.000000,0.000000,0.000000,0.000000,0.000000,0.000000,0.000000,0.000000,1770801999.029615,0.000000
8.000000,22835.950295,19078.934977,-643.707889,-15721.390035,-14021.092835,2610.169662,-16682.023309,-10412.806024,15098.893952,-8952.231282,4508.883299,13676.518342,21619.389548,25218.176868,7239.931195,7805.944420,0.004000,-0.010000,1.007000,192.000000,0.000000,24.000000,127.500000,88.000000,15.500000,64.000000,0.000000,0.000000,0.000000,1770801999.029629,0.000000
10.000000,22817.487755,19059.533663,-652.916807,-15734.711675,-14036.292021,2600.625467,-16696.417832,-10427.446416,15079.537342,-8945.034021,4503.362418,13674.797258,21615.612103,25223.831859,7230.632869,7802.412844,0.004000,-0.010000,1.007000,192.000000,0.000000,0.000000,0.000000,0.000000,0.000000,0.000000,0.000000,0.000000,0.000000,1770801999.029642,0.000000
12.000000,22824.327388,19068.161436,-641.897397,-15730.353085,-14031.911079,2600.848985,-16689.309977,-10421.053817,15088.008653,-8962.826009,4500.747264,13664.806028,21605.218542,25216.433432,7232.957451,7799.015379,0.004000,-0.010000,1.007000,192.000000,0.000000,0.000000,0.000000,0.000000,0.000000,0.000000,0.000000,0.000000,0.000000,1770801999.029655,0.000000
14.000000,22826.204935,19072.855302,-643.082040,-15724.027541,-14020.265820,2594.501089,-16684.414945,-10417.186966,15090.847324,-8943.737619,4513.979496,13683.045051,21623.748138,25220.948484,7233.292727,7798.702454,0.004000,-0.010000,1.007000,192.000000,0.000000,0.000000,0.000000,0.000000,0.000000,0.000000,0.000000,0.000000,0.000000,1770801999.029668,0.000000
16.000000,22811.765708,19057.365544,-649.005252,-15740.031390,-14036.180262,2588.823746,-16700.731719,-10430.933288,15075.826952,-8966.558750,4493.840574,13656.647641,21612.393452,25207.626844,7231.303421,7798.166013,0.004000,-0.010000,1.007000,192.000000,0.000000,0.000000,0.000000,0.000000,0.000000,0.000000,0.000000,0.000000,0.000000,1770801999.029681,0.000000
18.000000,22833.111624,19080.141971,-639.036374,-15723.602858,-14011.548640,2590.366017,-16682.291529,-10411.375512,15091.026138,-8957.908625,4508.480967,13675.557217,21622.295275,25216.344025,7237.785427,7803.239859,0.005000,-0.009000,1.009500,192.000000,0.000000,24.000000,127.500000,96.000000,15.500000,80.000000,0.000000,0.000000,0.000000,1770801999.029694,0.000000
20.000000,22818.918266,19063.936956,-646.680671,-15739.807873,-14021.830442,2581.157098,-16697.982454,-10424.250117,15081.772516,-8948.364430,4507.832767,13677.054784,21625.491574,25219.607379,7238.880663,7797.428405,0.005000,-0.009000,1.009500,192.000000,0.000000,0.000000,0.000000,0.000000,0.000000,0.000000,0.000000,0.000000,0.000000,1770801999.029706,0.000000
22.000000,22816.213705,19061.321802,-641.070383,-15736.477463,-14017.717721,2578.519592,-16694.875562,-10425.166538,15081.638406,-8969.263312,4500.836670,13662.995537,21615.500345,25210.867847,7244.870930,7801.831699,0.005000,-0.009000,1.009500,192.000000,0.000000,0.000000,0.000000,0.000000,0.000000,0.000000,0.000000,0.000000,0.000000,1770801999.029720,0.000000
24.000000,22814.917304,19060.472436,-646.233636,-15729.928402,-14014.610829,2599.932563,-16692.148649,-10427.401713,15074.284682,-8956.299300,4504.457653,13677.613578,21623.122290,25223.898914,7240.221767,7799.842393,0.005000,-0.009000,1.009500,192.000000,0.000000,0.000000,0.000000,0.000000,0.000000,0.000000,0.000000,0.000000,0.000000,1770801999.029733,0.000000
26.000000,22807.340063,19051.308221,-647.552389,-15737.773864,-14035.979096,2591.237735,-16704.084480,-10435.135416,15065.276929,-8970.649120,4486.710368,13657.072324,21607.252551,25220.523801,7234.387962,7799.596524,0.005000,-0.009000,1.009500,192.000000,0.000000,0.000000,0.000000,0.000000,0.000000,0.000000,0.000000,0.000000,0.000000,1770801999.029747,0.000000
28.000000,22824.372092,19078.040907,-638.701098,-15714.729215,-14019.684675,2617.210462,-16685.465477,-10417.164614,15084.007690,-8952.588910,4503.362418,13678.731165,21622.205868,25241.266220,7237.941890,7805.676199,0.007500,-0.006500,1.009750,192.000000,0.000000,40.000000,127.500000,112.000000,15.500000,72.000000,0.000000,0.000000,0.000000,1770801999.029761,0.000000
30.000000,22816.548981,19071.022459,-650.636929,-15723.982838,-14029.430035,2601.296020,-16698.854172,-10424.272469,15071.870693,-8939.110808,4499.093234,13680.765174,21612.840487,25257.717104,7231.526939,7803.038693,0.007500,-0.006500,1.009750,192.000000,0.000000,0.000000,0.000000,0.000000,0.000000,0.000000,0.000000,0.000000,0.000000,1770801999.029774,0.000000
32.000000,22826.249638,19082.444201,-645.272511,-15714.438643,-14025.227907,2602.659476,-16690.516971,-10410.302628,15087.226342,-8943.737619,4502.803624,13681.279264,21622.608199,25257.515938,7234.522073,7803.351617,0.007500,-0.006500,1.009750,192.000000,0.000000,0.000000,0.000000,0.000000,0.000000,0.000000,0.000000,0.000000,0.000000,1770801999.029786,0.000000
34.000000,22826.473156,19085.640500,-645.898360,-15713.812794,-14025.071445,2596.982133,-16685.107849,-10409.162689,15083.918283,-8927.890233,4515.365304,13701.172316,21616.372063,25257.784159,7230.029372,7796.556687,0.007500,-0.006500,1.009750,192.000000,0.000000,0.000000,0.000000,0.000000,0.000000,0.000000,0.000000,0.000000,0.000000,1770801999.029799,0.000000
36.000000,22809.821106,19068.831988,-649.787563,-15733.258812,-14035.397951,2589.181374,-16700.508201,-10426.462940,15074.552903,-8948.632651,4496.321618,13674.484333,21605.084432,25242.048531,7230.744628,7795.707321,0.007500,-0.006500,1.009750,192.000000,0.000000,0.000000,0.000000,0.000000,0.000000,0.000000,0.000000,0.000000,0.000000,1770801999.029812,0.000000
38.000000,22820.169964,19078.063259,-643.998461,-15723.848727,-14019.550564,2598.122072,-16687.901817,-10420.852652,15088.232170,-8947.872692,4506.916345,13681.860409,21613.578095,25231.811432,7238.053648,7796.422576,0.009750,-0.007250,1.008875,192.000000,0.000000,48.000000,127.500000,96.000000,15.500000,64.000000,0.000000,0.000000,0.000000,1770801999.029825,0.000000
40.000000,22803.942597,19055.264480,-655.062575,-15740.165501,-14035.844986,2591.125976,-16704.710329,-10436.431818,15069.277891,-8948.990279,4497.170984,13670.617482,21607.699586,25231.163231,7233.091561,7800.378835,0.009750,-0.007250,1.008875,192.000000,0.000000,0.000000,0.000000,0.000000,0.000000,0.000000,0.000000,0.000000,0.000000,1770801999.029838,0.000000
42.000000,22808.636464,19061.075933,-652.045089,-15734.778730,-14027.798358,2586.879145,-16699.569428,-10431.827358,15072.988280,-8966.916378,4494.399368,13659.419258,21603.430403,25229.799775,7238.612442,7805.072702,0.009750,-0.007250,1.008875,192.000000,0.000000,0.000000,0.000000,0.000000,0.000000,0.000000,0.000000,0.000000,0.000000,1770801999.029862,0.000000
44.000000,22813.732661,19068.116733,-653.877932,-15725.838032,-14025.451425,2603.844119,-16692.841553,-10428.318134,15074.910530,-8949.660832,4503.764749,13678.351185,21614.047481,25240.394502,7234.253852,7803.642190,0.009750,-0.007250,1.008875,192.000000,0.000000,0.000000,0.000000,0.000000,0.000000,0.000000,0.000000,0.000000,0.000000,1770801999.029875,0.000000
46.000000,22800.589836,19054.325706,-657.118935,-15739.562004,-14037.454312,2603.486491,-16708.934809,-10441.907995,15068.093248,-8968.078669,4487.112699,13656.424124,21606.894923,25236.214726,7232.264546,7804.782129,0.009750,-0.007250,1.008875,192.000000,0.000000,0.000000,0.000000,0.000000,0.000000,0.000000,0.000000,0.000000,0.000000,1770801999.029888,0.000000
48.000000,22817.778327,19072.967061,-648.289996,-15722.105291,-14011.280419,2608.426226,-16692.506277,-10430.195681,15080.587874,-8960.143800,4497.841537,13668.583473,21621.535316,25243.881374,7237.539558,7806.257344,0.005875,-0.009625,1.006438,192.000000,0.000000,8.000000,127.500000,80.000000,15.500000,48.000000,0.000000,0.000000,0.000000,1770801999.029902,0.000000
50.000000,22804.859019,19057.745523,-658.147115,-15733.415274,-14026.412550,2607.733322,-16707.727815,-10442.265623,15068.272062,-8948.699707,4490.174888,13670.259854,21614.539220,25251.726836,7236.153750,7801.116443,0.005875,-0.009625,1.006438,192.000000,0.000000,0.000000,0.000000,0.000000,0.000000,0.000000,0.000000,0.000000,0.000000,1770801999.029915,0.000000
52.000000,22813.509144,19064.652212,-647.530037,-15726.419178,-14032.849852,2616.338744,-16699.480021,-10432.117931,15078.620920,-8960.747297,4487.760900,13665.208359,21608.750118,25254.677266,7239.327698,7807.553745,0.005875,-0.009625,1.006438,192.000000,0.000000,0.000000,0.000000,0.000000,0.000000,0.000000,0.000000,0.000000,0.000000,1770801999.029927,0.000000
54.000000,22819.342949,19071.245977,-645.965415,-15721.434739,-14024.177375,2610.504938,-16692.394518,-10427.155844,15079.917321,-8943.827026,4502.066016,13684.050880,21625.424519,25265.115531,7238.053648,7805.922068,0.005875,-0.009625,1.006438,192.000000,0.000000,0.000000,0.000000,0.000000,0.000000,0.000000,0.000000,0.000000,0.000000,1770801999.029941,0.000000
56.000000,22815.185525,19065.903910,-646.680671,-15732.878832,-14035.330896,2599.776101,-16703.771556,-10432.296745,15071.803638,-8957.282777,4490.443109,13665.387173,21619.054272,25249.424606,7236.421971,7803.485728,0.005875,-0.009625,1.006438,192.000000,0.000000,0.000000,0.000000,0.000000,0.000000,0.000000,0.000000,0.000000,0.000000,1770801999.029954,0.000000
58.000000,22837.112586,19090.669643,-638.634043,-15716.450300,-14010.542811,2610.773159,-16685.063146,-10413.230707,15094.133031,-8940.183692,4509.486796,13688.744746,21629.514888,25265.361400,7239.305346,7802.390492,0.006938,-0.009813,1.005219,192.000000,0.000000,32.000000,127.500000,88.000000,15.500000,48.000000,0.000000,0.000000,0.000000,1770801999.509136,0.000000
60.000000,22823.366263,19076.498637,-648.044127,-15731.515376,-14020.288172,2590.343665,-16698.675358,-10423.512509,15082.711289,-8927.800826,4506.156386,13688.431822,21617.735519,25270.368191,7233.359782,7794.969713,0.006938,-0.009813,1.005219,192.000000,0.000000,0.000000,0.000000,0.000000,0.000000,0.000000,0.000000,0.000000,0.000000,1770801999.509197,0.000000
62.000000,22825.981417,19078.957329,-643.976110,-15728.654352,-14019.528212,2593.003523,-16694.205009,-10419.019809,15091.204952,-8939.490788,4506.178737,13680.273435,21617.243781,25237.913458,7242.099314,7795.483803,0.006938,-0.009813,1.005219,192.000000,0.000000,0.000000,0.000000,0.000000,0.000000,0.000000,0.000000,0.000000,0.000000,1770801999.509239,0.000000
64.000000,22817.979493,19072.676488,-648.491162,-15728.229669,-14013.023855,2608.761502,-16690.941655,-10421.031466,15077.592740,-8932.181767,4509.352685,13689.616464,21618.562534,25240.238040,7239.417105,7800.624704,0.006938,-0.009813,1.005219,192.000000,0.000000,0.000000,0.000000,0.000000,0.000000,0.000000,0.000000,0.000000,0.000000,1770801999.509280,0.000000
66.000000,22798.779344,19048.782474,-653.229732,-15747.720390,-14032.872204,2587.683807,-16707.459594,-10436.856501,15060.605414,-8957.260425,4488.431452,13662.257929,21610.113574,25225.418833,7236.980765,7797.450757,0.006938,-0.009813,1.005219,192.000000,0.000000,0.000000,0.000000,0.000000,0.000000,0.000000,0.000000,0.000000,0.000000,1770801999.509321,0.000000
68.000000,22812.279798,19061.232395,-650.413412,-15735.158710,-14023.618582,2594.165813,-16692.171001,-10424.719503,15065.411039,-8962.960120,4496.768653,13671.153923,21604.123307,25225.552943,7238.388924,7799.529469,0.008469,-0.009906,1.007609,192.000000,0.000000,40.000000,127.500000,88.000000,15.500000,72.000000,0.000000,0.000000,0.000000,1770801999.509367,0.000000
70.000000,22800.209856,19044.625049,-659.555275,-15751.475483,-14043.913966,2574.853906,-16707.325483,-10436.901204,15054.369277,-8966.201123,4494.779348,13664.515455,21601.575208,25222.848382,7233.963279,7794.813251,0.008469,-0.009906,1.007609,192.000000,0.000000,0.000000,0.000000,0.000000,0.000000,0.000000,0.000000,0.000000,0.000000,1770801999.509410,0.000000
72.000000,22809.508182,19052.068180,-651.866275,-15746.781617,-14034.816806,2589.807223,-16702.631617,-10432.162634,15068.897911,-8983.814297,4492.499470,13650.322098,21601.999891,25217.796888,7239.104180,7795.237934,0.008469,-0.009906,1.007609,192.000000,0.000000,0.000000,0.000000,0.000000,0.000000,0.000000,0.000000,0.000000,0.000000,1770801999.509422,0.000000
74.000000,22817.599513,19062.551148,-646.814781,-15736.656277,-14014.364960,2599.686694,-16694.830858,-10427.357009,15071.937748,-8964.524742,4503.273011,13665.342470,21620.171859,25235.946505,7236.220805,7791.572248,0.008469,-0.009906,1.007609,192.000000,0.000000,0.000000,0.000000,0.000000,0.000000,0.000000,0.000000,0.000000,0.000000,1770801999.509435,0.000000
76.000000,22814.962007,19056.985564,-643.462019,-15741.953640,-14023.439768,2590.455424,-16706.789041,-10432.967297,15073.502371,-8968.972739,4494.645237,13651.216167,21626.631513,25245.244830,7237.606613,7792.175745,0.008469,-0.009906,1.007609,192.000000,0.000000,0.000000,0.000000,0.000000,0.000000,0.000000,0.000000,0.000000,0.000000,1770801999.509447,0.000000
78.000000,22839.370112,19085.953425,-636.845903,-15715.802099,-14006.631256,2608.202709,-16688.102983,-10413.767149,15094.378900,-8947.939747,4510.045589,13676.406583,21638.522641,25265.651973,7242.523997,7799.037731,0.008469,-0.009906,1.007609,192.000000,0.000000,0.000000,0.000000,0.000000,0.000000,0.000000,0.000000,0.000000,0.000000,1770801999.509459,0.000000
80.000000,22827.702502,19074.509332,-649.787563,-15722.708788,-14021.428111,2608.403874,-16703.324521,-10425.702980,15090.422641,-8923.553994,4505.999923,13682.955644,21641.808348,25283.220444,7236.421971,7800.490594,0.010000,-0.012000,1.008000,192.000000,0.000000,40.000000,127.500000,80.000000,15.500000,64.000000,0.000000,0.000000,0.000000,1770801999.509471,0.000000
82.000000,22829.669455,19081.326614,-648.915845,-15713.723387,-14020.958724,2610.259069,-16697.557771,-10419.019809,15096.144688,-8929.678372,4502.088368,13674.819610,21637.226240,25280.068848,7238.701849,7812.135853,0.010000,-0.012000,1.008000,192.000000,0.000000,0.000000,0.000000,0.000000,0.000000,0.000000,0.000000,0.000000,0.000000,1770801999.509483,0.000000
84.000000,22835.838537,19090.557884,-649.474639,-15709.521259,-14020.891669,2592.288267,-16689.488791,-10410.749663,15092.948388,-8908.220697,4513.286592,13694.176220,21633.046464,25297.637319,7232.130436,7805.564440,0.010000,-0.012000,1.008000,192.000000,0.000000,0.000000,0.000000,0.000000,0.000000,0.000000,0.000000,0.000000,0.000000,1770801999.509495,0.000000
86.000000,22825.601438,19080.745468,-652.670938,-15721.635905,-14039.644783,2586.208592,-16701.961065,-10419.288030,15084.968815,-8919.284811,4501.395464,13676.004252,21614.472164,25265.629621,7228.442398,7798.501289,0.010000,-0.012000,1.008000,192.000000,0.000000,0.000000,0.000000,0.000000,0.000000,0.000000,0.000000,0.000000,0.000000,1770801999.509507,0.000000
88.000000,22831.681112,19092.457782,-644.579607,-15706.079090,-14036.716704,2615.601136,-16685.063146,-10407.195736,15090.087365,-8913.249840,4512.101950,13692.611598,21606.157316,25272.312793,7227.347163,7802.681065,0.010000,-0.012000,1.008000,192.000000,0.000000,0.000000,0.000000,0.000000,0.000000,0.000000,0.000000,0.000000,0.000000,1770801999.509519,0.000000
90.000000,22814.425566,19074.777552,-651.463944,-15723.602858,-14057.190902,2583.615790,-16701.223457,-10419.399788,15070.104905,-8904.934991,4502.334237,13689.862334,21594.288539,25266.054304,7223.770884,7794.299161,0.006000,-0.008000,1.002000,192.000000,0.000000,24.000000,127.500000,96.000000,15.500000,40.000000,0.000000,0.000000,0.000000,1770801999.509540,0.000000
92.000000,22823.768595,19079.516122,-638.812857,-15722.619381,-14043.712800,2580.128918,-16692.640387,-10410.772015,15079.827914,-8920.044770,4503.250659,13684.430860,21591.762792,25253.962011,7234.946756,7790.834640,0.006000,-0.008000,1.002000,192.000000,0.000000,0.000000,0.000000,0.000000,0.000000,0.000000,0.000000,0.000000,0.000000,1770801999.509552,0.000000
94.000000,22826.137880,19078.510294,-635.549502,-15723.692265,-14032.983963,2582.140575,-16687.611245,-10408.872117,15079.760859,-8917.787244,4512.347819,13696.009063,21603.788031,25251.279801,7240.557044,7783.525620,0.006000,-0.008000,1.002000,192.000000,0.000000,0.000000,0.000000,0.000000,0.000000,0.000000,0.000000,0.000000,0.000000,1770801999.509564,0.000000
96.000000,22818.381824,19067.222663,-633.940176,-15737.416236,-14038.728361,2568.103679,-16699.904704,-10417.857518,15078.598568,-8942.083590,4503.585935,13673.836133,21608.660711,25236.348836,7241.696983,7783.011530,0.006000,-0.008000,1.002000,192.000000,0.000000,0.000000,0.000000,0.000000,0.000000,0.000000,0.000000,0.000000,0.000000,1770801999.509578,0.000000
98.000000,22834.251563,19085.327576,-624.641851,-15720.563021,-14012.733282,2585.493336,-16682.805620,-10404.290009,15096.502316,-8942.061239,4517.131092,13684.430860,21626.855031,25237.332313,7243.753343,7786.587809,0.006000,-0.008000,1.002000,192.000000,0.000000,0.000000,0.000000,0.000000,0.000000,0.000000,0.000000,0.000000,0.000000,1770801999.509591,0.000000
100.000000,22818.292417,19068.407305,-634.498970,-15732.901184,-14029.385332,2590.768348,-16697.446012,-10418.505719,15088.031004,-8933.366410,4514.694752,13684.676729,21633.135871,25239.969819,7239.014773,7784.754966,0.004000,-0.010000,1.004000,192.000000,0.000000,16.000000,127.500000,88.000000,15.500000,48.000000,0.000000,0.000000,0.000000,1770801999.509603,0.000000
102.000000,22820.594647,19074.509332,-634.789543,-15727.559117,-14027.753654,2594.769310,-16693.087422,-10412.671913,15092.926036,-8949.459666,4511.029066,13674.059650,21632.822947,25234.739510,7240.691154,7794.343864,0.004000,-0.010000,1.004000,192.000000,0.000000,0.000000,0.000000,0.000000,0.000000,0.000000,0.000000,0.000000,0.000000,1770801999.509615,0.000000
104.000000,22834.408025,19088.076840,-635.124819,-15716.763224,-14020.131710,2589.673113,-16685.241960,-10399.484384,15097.061109,-8926.549128,4527.167025,13697.059595,21643.976467,25247.815281,7235.393791,7790.745233,0.004000,-0.010000,1.004000,192.000000,0.000000,0.000000,0.000000,0.000000,0.000000,0.000000,0.000000,0.000000,0.000000,1770801999.509627,0.000000
106.000000,22833.312790,19084.209989,-635.862426,-15722.708788,-14030.368809,2594.456386,-16696.149611,-10401.071358,15102.336121,-8935.333363,4523.210767,13685.839020,21633.739368,25245.401292,7235.952584,7788.800632,0.004000,-0.010000,1.004000,192.000000,0.000000,0.000000,0.000000,0.000000,0.000000,0.000000,0.000000,0.000000,0.000000,1770801999.509639,0.000000
108.000000,22857.765598,19107.299341,-629.693345,-15707.397843,-14023.216250,2603.061808,-16680.682204,-10388.152050,15123.905554,-8925.185671,4540.332203,13702.066386,21646.055179,25259.281726,7238.724201,7795.662617,0.004000,-0.010000,1.004000,192.000000,0.000000,0.000000,0.000000,0.000000,0.000000,0.000000,0.000000,0.000000,0.000000,1770801999.509651,0.000000
110.000000,22850.389522,19094.469439,-638.343470,-15723.736968,-14036.984925,2600.044322,-16696.641349,-10403.284181,15121.268048,-8918.524852,4537.158255,13694.891476,21643.149453,25262.321563,7234.767942,7795.416748,0.006000,-0.012000,1.004000,192.000000,0.000000,24.000000,127.500000,80.000000,15.500000,48.000000,0.000000,0.000000,0.000000,1770801999.509663,0.000000
112.000000,22853.071732,19102.158439,-632.867293,-15726.530937,-14027.440730,2603.128863,-16694.026195,-10406.122852,15132.935659,-8936.406247,4531.033877,13679.379365,21628.397301,25256.912441,7239.953547,7800.222373,0.006000,-0.012000,1.004000,192.000000,0.000000,0.000000,0.000000,0.000000,0.000000,0.000000,0.000000,0.000000,0.000000,1770801999.509674,0.000000
114.000000,22843.885165,19096.883428,-638.924615,-15727.715579,-14020.198765,2597.518575,-16691.835724,-10414.348294,15119.055226,-8929.544262,4529.089275,13685.481392,21630.207793,25245.580106,7240.959375,7791.460489,0.006000,-0.012000,1.004000,192.000000,0.000000,0.000000,0.000000,0.000000,0.000000,0.000000,0.000000,0.000000,0.000000,1770801999.509686,0.000000
116.000000,22824.170926,19075.492808,-641.718583,-15742.758303,-14027.239564,2605.162871,-16706.789041,-10428.653411,15089.997958,-8955.226416,4502.714217,13653.540749,21615.746214,25225.374129,7243.641584,7789.873515,0.006000,-0.012000,1.004000,192.000000,0.000000,0.000000,0.000000,0.000000,0.000000,0.000000,0.000000,0.000000,0.000000,1770801999.509698,0.000000
118.000000,22826.741377,19086.176942,-637.225883,-15729.280201,-14006.340683,2610.236717,-16693.735623,-10417.946925,15099.519801,-8949.906701,4514.851214,13667.376479,21622.831717,25239.478080,7255.376250,7798.076606,0.006000,-0.012000,1.004000,192.000000,0.000000,0.000000,0.000000,0.000000,0.000000,0.000000,0.000000,0.000000,0.000000,1770801999.509710,0.000000
120.000000,22809.128202,19068.295547,-648.513514,-15741.059570,-14012.979151,2614.908232,-16708.040739,-10430.307440,15081.794868,-8941.591852,4504.658819,13666.661223,21624.888077,25225.530592,7251.688212,7796.511983,0.010000,-0.016000,1.004000,192.000000,0.000000,40.000000,127.500000,64.000000,15.500000,48.000000,0.000000,0.000000,0.000000,1770801999.509722,0.000000
122.000000,22814.403214,19073.168227,-644.646662,-15739.047913,-14010.878087,2609.096779,-16703.078652,-10425.680629,15087.628673,-8954.824085,4501.663685,13657.429952,21620.440080,25224.949446,7254.325718,7800.580001,0.010000,-0.016000,1.004000,192.000000,0.000000,0.000000,0.000000,0.000000,0.000000,0.000000,0.000000,0.000000,0.000000,1770801999.509735,0.000000
124.000000,22813.911475,19074.285814,-645.361918,-15736.321001,-14006.921829,2598.703217,-16696.529591,-10422.551384,15083.046565,-8946.375125,4509.732665,13667.465886,21624.485746,25224.703577,7248.357802,7801.652885,0.010000,-0.016000,1.004000,192.000000,0.000000,0.000000,0.000000,0.000000,0.000000,0.000000,0.000000,0.000000,0.000000,1770801999.509747,0.000000
126.000000,22809.061147,19067.580291,-644.892531,-15746.267527,-14022.948029,2600.759578,-16707.526649,-10426.351181,15073.524722,-8963.362451,4496.075749,13647.952813,21617.981388,25215.628769,7243.015736,7796.623742,0.010000,-0.016000,1.004000,192.000000,0.000000,0.000000,0.000000,0.000000,0.000000,0.000000,0.000000,0.000000,0.000000,1770801999.509759,0.000000
128.000000,22828.931848,19085.685204,-635.057763,-15730.755416,-14013.940276,2602.324200,-16689.757012,-10410.146166,15085.237036,-8959.897931,4515.231194,13665.320118,21624.373987,25225.776461,7244.446247,7797.830736,0.010000,-0.016000,1.004000,192.000000,0.000000,0.000000,0.000000,0.000000,0.000000,0.000000,0.000000,0.000000,0.000000,1770801999.509771,0.000000
130.000000,22828.596572,19079.694936,-639.438705,-15741.037219,-14033.475701,2592.981171,-16701.245809,-10417.075207,15081.660757,-8955.874617,4515.208842,13668.337604,21626.855031,25229.486850,7236.533730,7788.845335,0.014000,-0.016000,1.002000,192.000000,0.000000,56.000000,127.500000,64.000000,15.500000,40.000000,0.000000,0.000000,0.000000,1770801999.509783,0.000000
132.000000,22838.341932,19092.837762,-633.023755,-15731.470672,-14027.597192,2598.747921,-16693.914437,-10406.726349,15102.067900,-8966.111716,4518.338086,13665.856560,21631.973580,25227.475193,7243.619233,7791.304027,0.014000,-0.016000,1.002000,192.000000,0.000000,0.000000,0.000000,0.000000,0.000000,0.000000,0.000000,0.000000,0.000000,1770801999.509795,0.000000
134.000000,22844.511014,19105.801774,-632.263795,-15720.317152,-14018.544736,2605.967534,-16686.426602,-10399.372625,15105.822993,-8940.295451,4532.129113,13688.610636,21637.360351,25245.714217,7245.072096,7789.895867,0.014000,-0.016000,1.002000,192.000000,0.000000,0.000000,0.000000,0.000000,0.000000,0.000000,0.000000,0.000000,0.000000,1770801999.509807,0.000000
136.000000,22834.206859,19096.771669,-636.600034,-15733.571736,-14026.881936,2592.020046,-16700.105870,-10407.933343,15102.313769,-8947.850340,4522.294345,13673.009118,21625.379816,25237.242906,7245.541483,7790.275847,0.014000,-0.016000,1.002000,192.000000,0.000000,0.000000,0.000000,0.000000,0.000000,0.000000,0.000000,0.000000,0.000000,1770801999.509819,0.000000
138.000000,22844.689828,19111.099137,-631.861464,-15718.506660,-14012.085082,2600.469005,-16684.482000,-10396.131622,15117.445900,-8940.317802,4533.939604,13685.928426,21636.488633,25239.187508,7250.011832,7793.181574,0.014000,-0.016000,1.002000,192.000000,0.000000,0.000000,0.000000,0.000000,0.000000,0.000000,0.000000,0.000000,0.000000,1770801999.509831,0.000000
140.000000,22827.434281,19091.854285,-643.193798,-15735.896317,-14021.606925,2597.965610,-16701.491678,-10411.889602,15102.224362,-8938.797884,4526.787046,13676.920673,21634.164051,25236.550002,7242.233424,7790.588771,0.010000,-0.014000,1.006000,192.000000,0.000000,40.000000,127.500000,72.000000,15.500000,56.000000,0.000000,0.000000,0.000000,1770801999.509851,0.000000
142.000000,22836.643200,19097.665739,-634.923653,-15733.102349,-14012.241544,2604.872299,-16694.495582,-10404.021788,15114.361359,-8956.656928,4525.311831,13663.420220,21630.878345,25230.291513,7247.754305,7795.282638,0.010000,-0.014000,1.006000,192.000000,0.000000,0.000000,0.000000,0.000000,0.000000,0.000000,0.000000,0.000000,0.000000,1770801999.509864,0.000000
144.000000,22845.583897,19105.242980,-634.431915,-15728.520242,-14006.541849,2610.460235,-16687.655948,-10395.773994,15115.769519,-8942.642384,4539.460485,13681.055746,21638.701455,25231.520859,7243.328660,7794.567382,0.010000,-0.014000,1.006000,192.000000,0.000000,0.000000,0.000000,0.000000,0.000000,0.000000,0.000000,0.000000,0.000000,1770801999.509875,0.000000
146.000000,22839.839499,19097.375166,-634.186045,-15739.427893,-14018.365922,2598.636162,-16697.781288,-10401.049006,15106.515897,-8958.288605,4527.167025,13664.157827,21633.359389,25221.037891,7240.422933,7792.153393,0.010000,-0.014000,1.006000,192.000000,0.000000,0.000000,0.000000,0.000000,0.000000,0.000000,0.000000,0.000000,0.000000,1770801999.509887,0.000000
148.000000,22850.836557,19111.255599,-632.889644,-15724.653390,-14003.390253,2609.320296,-16683.096192,-10391.460108,15110.472156,-8952.231282,4535.526578,13679.155848,21643.708246,25232.906667,7245.787352,7797.629571,0.010000,-0.014000,1.006000,192.000000,0.000000,0.000000,0.000000,0.000000,0.000000,0.000000,0.000000,0.000000,0.000000,1770801999.509899,0.000000
150.000000,22837.112586,19099.163306,-643.640833,-15738.980858,-14021.942201,2598.367941,-16699.256503,-10407.173384,15089.126240,-8948.431486,4524.395409,13674.394926,21631.034807,25237.444071,7238.679497,7791.236972,0.009000,-0.009000,1.005000,192.000000,0.000000,32.000000,127.500000,112.000000,15.500000,48.000000,0.000000,0.000000,0.000000,1770801999.509911,0.000000
152.000000,22842.521708,19106.159402,-636.555330,-15733.348219,-14019.595268,2598.345589,-16693.623864,-10403.105367,15096.926999,-8961.261387,4519.366267,13667.130609,21632.420615,25239.388673,7245.675593,7792.846297,0.009000,-0.009000,1.005000,192.000000,0.000000,0.000000,0.000000,0.000000,0.000000,0.000000,0.000000,0.000000,0.000000,1770801999.509923,0.000000
154.000000,22842.856984,19110.383881,-640.556293,-15727.983800,-14019.058826,2596.557450,-16687.208913,-10400.803137,15096.167039,-8945.749276,4527.837578,13682.709775,21627.257362,25229.509202,7241.942852,7790.409957,0.009000,-0.009000,1.005000,192.000000,0.000000,0.000000,0.000000,0.000000,0.000000,0.000000,0.000000,0.000000,0.000000,1770801999.509938,0.000000
156.000000,22832.664589,19099.766803,-642.009156,-15740.120797,-14027.597192,2589.784871,-16698.407137,-10409.229745,15088.008653,-8956.612224,4513.711275,13664.850731,21617.087319,25228.883353,7242.255776,7783.302102,0.009000,-0.009000,1.005000,192.000000,0.000000,0.000000,0.000000,0.000000,0.000000,0.000000,0.000000,0.000000,0.000000,1770801999.509950,0.000000
158.000000,22839.995961,19108.238114,-635.683612,-15727.804986,-14016.868355,2602.055979,-16684.146724,-10399.439681,15096.323502,-8954.824085,4523.255470,13674.685499,21620.931819,25237.801699,7250.011832,7780.374024,0.009000,-0.009000,1.005000,192.000000,0.000000,0.000000,0.000000,0.000000,0.000000,0.000000,0.000000,0.000000,0.000000,1770801999.509963,0.000000
160.000000,22824.863830,19089.507352,-646.211284,-15741.014867,-14026.121977,2591.461252,-16700.575256,-10413.007189,15083.515952,-8948.096210,4518.449845,13673.433801,21622.719958,25247.591763,7244.870930,7780.843411,0.008500,-0.006500,1.006500,192.000000,0.000000,32.000000,127.500000,112.000000,15.500000,64.000000,0.000000,0.000000,0.000000,1770801999.509975,0.000000
162.000000,22829.512993,19095.363509,-642.255025,-15734.219937,-14018.365922,2595.953953,-16695.970797,-10407.665122,15090.020310,-8963.474210,4515.074732,13664.962490,21624.508098,25245.758920,7247.799009,7786.744271,0.008500,-0.006500,1.006500,192.000000,0.000000,0.000000,0.000000,0.000000,0.000000,0.000000,0.000000,0.000000,0.000000,1770801999.509987,0.000000
164.000000,22828.171888,19097.866904,-650.078136,-15726.799157,-14014.901401,2615.422322,-16692.618035,-10408.827413,15089.953254,-8948.655003,4522.316697,13680.519304,21625.916258,25252.777368,7241.831093,7793.829774,0.008500,-0.006500,1.006500,192.000000,0.000000,0.000000,0.000000,0.000000,0.000000,0.000000,0.000000,0.000000,0.000000,1770801999.509999,0.000000
166.000000,22819.521763,19087.965082,-650.525171,-15738.667934,-14024.110320,2611.175491,-16704.889143,-10421.009114,15077.771554,-8961.641367,4506.268144,13657.117028,21616.305007,25253.157348,7238.277166,7803.038693,0.008500,-0.006500,1.006500,192.000000,0.000000,0.000000,0.000000,0.000000,0.000000,0.000000,0.000000,0.000000,0.000000,1770801999.510011,0.000000
168.000000,22832.172851,19105.600608,-645.764249,-15723.938134,-14005.491317,2619.490340,-16689.242922,-10409.095634,15085.818182,-8956.545169,4517.265203,13667.287072,21627.570287,25244.551926,7244.021564,7811.867632,0.008500,-0.006500,1.006500,192.000000,0.000000,0.000000,0.000000,0.000000,0.000000,0.000000,0.000000,0.000000,0.000000,1770801999.510023,0.000000
170.000000,22825.176755,19098.671567,-650.949854,-15732.677666,-14015.750768,2613.880052,-16702.072823,-10416.829338,15076.721022,-8945.101076,4515.767636,13666.996499,21630.855993,25243.032008,7237.718372,7806.391455,0.008250,-0.007250,1.008250,192.000000,0.000000,32.000000,127.500000,96.000000,15.500000,72.000000,0.000000,0.000000,0.000000,1770801999.510035,0.000000
172.000000,22834.743301,19105.980588,-642.903226,-15728.162614,-14009.201707,2611.153139,-16696.663701,-10409.453262,15089.014481,-8954.086477,4517.309906,13662.816723,21626.184479,25234.292475,7241.384058,7800.356484,0.008250,-0.007250,1.008250,192.000000,0.000000,0.000000,0.000000,0.000000,0.000000,0.000000,0.000000,0.000000,0.000000,1770801999.510047,0.000000
174.000000,22831.122319,19107.008768,-646.077173,-15721.948829,-14017.047169,2589.293133,-16690.651082,-10406.301666,15083.292435,-8939.982526,4524.842444,13677.390060,21629.224316,25237.019388,7239.819436,7792.399262,0.008250,-0.007250,1.008250,192.000000,0.000000,0.000000,0.000000,0.000000,0.000000,0.000000,0.000000,0.000000,0.000000,1770801999.510059,0.000000
176.000000,22819.186487,19094.692957,-649.295825,-15735.337524,-14034.302716,2581.917057,-16704.106832,-10416.359951,15073.658833,-8958.378012,4508.905650,13655.127723,21620.775356,25218.869772,7237.628965,7782.989178,0.008250,-0.007250,1.008250,192.000000,0.000000,0.000000,0.000000,0.000000,0.000000,0.000000,0.000000,0.000000,0.000000,1770801999.510071,0.000000
178.000000,22832.821051,19106.628788,-642.836171,-15723.736968,-14019.595268,2601.474834,-16687.812410,-10405.742872,15091.495525,-8952.812428,4522.897842,13669.678708,21628.799633,25229.017464,7241.808741,7781.402204,0.008250,-0.007250,1.008250,192.000000,0.000000,0.000000,0.000000,0.000000,0.000000,0.000000,0.000000,0.000000,0.000000,1770801999.989919,0.000000
180.000000,22810.156382,19080.365489,-655.777831,-15746.669858,-14037.499015,2583.794604,-16707.370187,-10425.926498,15072.988280,-8955.561692,4513.711275,13660.134513,21618.115499,25225.061205,7234.387962,7772.930893,0.007125,-0.009625,1.007125,192.000000,0.000000,24.000000,127.500000,80.000000,15.500000,56.000000,0.000000,0.000000,0.000000,1770801999.989983,0.000000
182.000000,22817.666568,19087.987433,-648.289996,-15741.104274,-14028.960649,2587.773214,-16699.882352,-10420.740893,15077.257464,-8973.398384,4508.212746,13648.712772,21615.075662,25214.086499,7240.981727,7778.585884,0.007125,-0.009625,1.007125,192.000000,0.000000,0.000000,0.000000,0.000000,0.000000,0.000000,0.000000,0.000000,0.000000,1770801999.990028,0.000000
184.000000,22824.081519,19096.659910,-649.631101,-15732.968239,-14014.275553,2599.485528,-16693.713271,-10414.370646,15075.871655,-8951.359564,4515.722932,13668.136438,21624.999836,25225.664702,7236.891358,7786.431347,0.007125,-0.009625,1.007125,192.000000,0.000000,0.000000,0.000000,0.000000,0.000000,0.000000,0.000000,0.000000,0.000000,1770801999.990074,0.000000
186.000000,22814.604379,19084.478210,-650.122839,-15745.373457,-14025.406721,2593.383502,-16707.370187,-10423.646620,15066.841551,-8963.943596,4500.121415,13646.589356,21619.076624,25217.327501,7236.846654,7791.840469,0.007125,-0.009625,1.007125,192.000000,0.000000,0.000000,0.000000,0.000000,0.000000,0.000000,0.000000,0.000000,0.000000,1770801999.990130,0.000000
188.000000,22829.803566,19098.738623,-641.606825,-15729.302553,-14002.205611,2619.110360,-16691.098117,-10410.794367,15082.755993,-8955.964024,4514.627697,13661.162694,21632.130043,25233.577220,7244.200378,7804.357446,0.007125,-0.009625,1.007125,192.000000,0.000000,0.000000,0.000000,0.000000,0.000000,0.000000,0.000000,0.000000,0.000000,1770801999.990172,0.000000
190.000000,22812.592722,19078.175018,-650.748688,-15743.764132,-14019.774082,2603.486491,-16706.274951,-10425.412408,15068.920263,-8949.683183,4507.452787,13658.771057,21630.207793,25228.212801,7239.685326,7803.642190,0.006563,-0.011813,1.005562,192.000000,0.000000,24.000000,127.500000,72.000000,15.500000,48.000000,0.000000,0.000000,0.000000,1770801999.990218,0.000000
192.000000,22817.755975,19078.934977,-647.418278,-15743.250041,-14014.677884,2585.113357,-16701.804602,-10423.624268,15074.865827,-8969.106849,4502.401293,13646.812874,21624.932781,25214.064147,7244.870930,7801.250553,0.006563,-0.011813,1.005562,192.000000,0.000000,0.000000,0.000000,0.000000,0.000000,0.000000,0.000000,0.000000,0.000000,1770801999.990230,0.000000
194.000000,22820.840516,19082.041869,-652.514476,-15738.422065,-14017.851832,2587.035607,-16696.216666,-10419.578602,15070.976623,-8962.401326,4507.653953,13658.994574,21629.939572,25216.589894,7242.948680,7789.068853,0.006563,-0.011813,1.005562,192.000000,0.000000,0.000000,0.000000,0.000000,0.000000,0.000000,0.000000,0.000000,0.000000,1770801999.990242,0.000000
196.000000,22809.619940,19071.558901,-657.856543,-15750.939041,-14036.537890,2596.803319,-16708.644236,-10428.876928,15061.343022,-8975.030062,4494.868755,13640.688496,21614.874496,25217.282798,7239.014773,7785.984312,0.006563,-0.011813,1.005562,192.000000,0.000000,0.000000,0.000000,0.000000,0.000000,0.000000,0.000000,0.000000,0.000000,1770801999.990253,0.000000
198.000000,22823.992112,19088.143896,-652.715642,-15736.477463,-14020.243468,2594.545793,-16692.349814,-10415.510585,15071.334251,-8969.956216,4505.798758,13651.573795,21622.675255,25217.483964,7243.060439,7786.118422,0.006563,-0.011813,1.005562,192.000000,0.000000,0.000000,0.000000,0.000000,0.000000,0.000000,0.000000,0.000000,0.000000,1770801999.990265,0.000000
200.000000,22811.788060,19075.381050,-660.359938,-15748.212129,-14034.123902,2576.999673,-16706.833745,-10427.155844,15058.459647,-8960.233207,4495.941638,13649.450380,21618.003740,25219.249751,7235.974936,7779.815230,0.007281,-0.010906,1.005781,192.000000,0.000000,32.000000,127.500000,88.000000,15.500000,56.000000,0.000000,0.000000,0.000000,1770801999.990277,0.000000
202.000000,22813.777365,19083.025346,-654.548485,-15740.433722,-14024.333838,2592.668246,-16700.351739,-10421.322038,15067.735620,-8968.033966,4491.404234,13642.767208,21611.879362,25219.763842,7240.914672,7784.017358,0.007281,-0.010906,1.005781,192.000000,0.000000,0.000000,0.000000,0.000000,0.000000,0.000000,0.000000,0.000000,0.000000,1770801999.990290,0.000000
204.000000,22815.565504,19084.746430,-655.308444,-15735.337524,-14009.380521,2599.954915,-16692.908608,-10416.225841,15064.226397,-8949.929053,4501.082540,13663.084944,21618.249609,25232.794909,7237.405448,7786.051367,0.007281,-0.010906,1.005781,192.000000,0.000000,0.000000,0.000000,0.000000,0.000000,0.000000,0.000000,0.000000,0.000000,1770801999.990304,0.000000
206.000000,22810.178734,19072.520026,-658.594150,-15749.866158,-14022.188070,2591.081272,-16707.213725,-10426.909974,15053.184635,-8966.804620,4487.917362,13644.890624,21609.510077,25218.847420,7236.109046,7788.197135,0.007281,-0.010906,1.005781,192.000000,0.000000,0.000000,0.000000,0.000000,0.000000,0.000000,0.000000,0.000000,0.000000,1770801999.990316,0.000000
208.000000,22822.919228,19088.926207,-653.207380,-15737.058608,-14002.831459,2606.436921,-16693.199181,-10416.203489,15068.450876,-8962.803657,4499.897897,13657.675822,21620.015397,25223.764804,7241.473465,7795.126175,0.007281,-0.010906,1.005781,192.000000,0.000000,0.000000,0.000000,0.000000,0.000000,0.000000,0.000000,0.000000,0.000000,1770801999.990327,0.000000
210.000000,22814.090289,19079.024384,-658.772964,-15748.748571,-14003.479660,2602.435959,-16705.917323,-10424.965373,15055.710382,-8956.679279,4496.232211,13656.401772,21622.407034,25231.520859,7240.087657,7793.919181,0.007641,-0.010453,1.004891,192.000000,0.000000,32.000000,127.500000,88.000000,15.500000,48.000000,0.000000,0.000000,0.000000,1770801999.990339,0.000000
212.000000,22816.146650,19081.393669,-653.252083,-15743.406504,-14010.833384,2606.839252,-16702.363396,-10421.098521,15060.024269,-8969.106849,4493.237077,13646.835225,21619.367196,25216.299321,7247.977823,7798.121309,0.007641,-0.010453,1.004891,192.000000,0.000000,0.000000,0.000000,0.000000,0.000000,0.000000,0.000000,0.000000,0.000000,1770801999.990352,0.000000
214.000000,22819.074728,19087.585102,-655.509610,-15732.923535,-14006.094814,2611.354305,-16692.618035,-10416.427006,15055.866844,-8949.370259,4500.501394,13663.844903,21632.733540,25229.442147,7246.144980,7796.891963,0.007641,-0.010453,1.004891,192.000000,0.000000,0.000000,0.000000,0.000000,0.000000,0.000000,0.000000,0.000000,0.000000,1770801999.990364,0.000000
216.000000,22803.450859,19073.347041,-659.041185,-15748.703867,-14024.982038,2584.398101,-16707.370187,-10428.318134,15047.440237,-8962.870713,4482.307074,13644.175368,21617.601409,25214.824106,7240.981727,7786.096071,0.007641,-0.010453,1.004891,192.000000,0.000000,0.000000,0.000000,0.000000,0.000000,0.000000,0.000000,0.000000,0.000000,1770801999.990376,0.000000
218.000000,22817.308941,19088.546227,-651.396889,-15733.459977,-14014.811994,2581.112394,-16688.684128,-10414.281239,15062.170036,-8961.060221,4496.478080,13659.173388,21623.636380,25219.920304,7242.099314,7785.894905,0.007641,-0.010453,1.004891,192.000000,0.000000,0.000000,0.000000,0.000000,0.000000,0.000000,0.000000,0.000000,0.000000,1770801999.990389,0.000000
220.000000,22802.646196,19069.435486,-661.835153,-15753.017754,-14034.190957,2566.360243,-16706.274951,-10427.468768,15051.105923,-8962.848361,4493.885278,13652.467865,21620.842412,25212.879504,7234.991459,7775.926027,0.007641,-0.010453,1.004891,192.000000,0.000000,0.000000,0.000000,0.000000,0.000000,0.000000,0.000000,0.000000,0.000000,1770801999.990400,0.000000
222.000000,22818.471231,19084.232340,-650.145191,-15745.507568,-14029.228870,2582.475851,-16696.753108,-10415.197660,15067.087420,-8978.494582,4495.807528,13644.354182,21614.963903,25204.810525,7235.751419,7773.869666,0.004000,-0.014000,1.004000,192.000000,0.000000,16.000000,127.500000,72.000000,15.500000,48.000000,0.000000,0.000000,0.000000,1770801999.990412,0.000000
224.000000,22820.393481,19086.668681,-653.877932,-15740.925460,-14022.992733,2586.543868,-16692.059242,-10414.415349,15070.998975,-8959.428544,4511.654915,13663.755496,21626.229182,25209.213818,7235.349087,7774.294349,0.004000,-0.014000,1.004000,192.000000,0.000000,0.000000,0.000000,0.000000,0.000000,0.000000,0.000000,0.000000,0.000000,1770801999.990423,0.000000
226.000000,22811.989225,19078.353832,-659.287054,-15749.620289,-14039.309506,2585.180412,-16706.118489,-10422.193756,15053.072876,-8975.566503,4494.242906,13645.225900,21612.549914,25200.094306,7231.102256,7775.076661,0.004000,-0.014000,1.004000,192.000000,0.000000,0.000000,0.000000,0.000000,0.000000,0.000000,0.000000,0.000000,0.000000,1770801999.990434,0.000000
228.000000,22828.641275,19098.671567,-651.978034,-15732.700018,-14017.829480,2594.970476,-16689.958178,-10407.575715,15062.281795,-8962.289567,4508.212746,13662.749667,21620.663598,25216.433432,7235.349087,7785.134946,0.004000,-0.014000,1.004000,192.000000,0.000000,0.000000,0.000000,0.000000,0.000000,0.000000,0.000000,0.000000,0.000000,1770801999.990446,0.000000
