Sample_index,EXG Channel 0,EXG Channel 1,EXG Channel 2,EXG Channel 3,EXG Channel 4,EXG Channel 5,EXG Channel 6,EXG Channel 7,EXG Channel 8,EXG Channel 9,EXG Channel 10,EXG Channel 11,EXG Channel 12,EXG Channel 13,EXG Channel 14,EXG Channel 15,Accel Channel 0,Accel Channel 1,Accel Channel 2,Not Used,Digital Channel 0 (D11),Digital Channel 1 (D12),Digital Channel 2 (D13),Digital Channel 3 (D17),Not Used,Digital Channel 4 (D18),Analog Channel 0,Analog Channel 1,Analog Channel 2,Timestamp,Marker Channel
210.000000,-16478.421268,-10800.877011,-940.315537,-22903.586674,3837.727468,4553.631491,-6576.687882,627.167598,5952.671880,-9398.528564,-6244.608014,2686.076186,49.263245,2980.426309,-26283.371602,-10359.161837,0.004000,-0.014000,1.004000,192.000000,0.000000,0.000000,0.000000,0.000000,0.000000,0.000000,0.000000,0.000000,0.000000,1770887630.020210,101.000000
212.000000,-16326.116482,-10648.371059,-821.024277,-22759.932013,3944.568806,4629.739181,-6453.529770,744.000166,5961.187894,-9403.177727,-6254.889817,2680.845878,39.540236,2978.839335,-26288.624261,-10363.386317,0.004000,-0.014000,1.004000,192.000000,0.000000,0.000000,0.000000,0.000000,0.000000,0.000000,0.000000,0.000000,0.000000,1770887630.020280,0.000000
214.000000,-16415.523459,-10734.045295,-892.661618,-22840.107720,3866.695329,4584.745119,-6524.921241,680.945895,5987.384139,-9290.860211,-6161.325414,2773.695025,126.712039,3066.324063,-26188.913129,-10275.231037,0.004000,-0.014000,1.004000,192.000000,0.000000,0.000000,0.000000,0.000000,0.000000,0.000000,0.000000,0.000000,0.000000,1770887630.020339,0.000000
216.000000,-16426.744035,-10748.551577,-901.155281,-22857.787950,3860.459192,4575.491497,-6533.727829,664.226790,5930.856577,-9455.525512,-6305.181242,2645.865398,-4.135073,2945.915216,-26351.991457,-10411.308457,0.004000,-0.014000,1.004000,192.000000,0.000000,0.000000,127.500000,72.000000,15.500000,24.000000,0.000000,0.000000,0.000000,1770887630.020388,0.000000
218.000000,-16330.229203,-10651.992041,-812.217690,-22761.027248,3944.680565,4616.328134,-6449.059421,743.687242,5986.892401,-9303.511298,-6175.854048,2759.412260,121.995821,3055.751688,-26196.065688,-10290.474926,0.004000,-0.014000,1.004000,192.000000,0.000000,0.000000,0.000000,0.000000,0.000000,0.000000,0.000000,0.000000,0.000000,1770887630.020407,0.000000
220.000000,-16487.205504,-10809.258915,-940.807276,-22913.332035,3827.915052,4536.130075,-6580.308864,613.153054,5949.788505,-9411.425520,-6257.169695,2680.085919,56.393451,2983.488498,-26285.047982,-10365.956767,0.004000,-0.014000,1.004000,192.000000,0.000000,0.000000,0.000000,0.000000,0.000000,0.000000,0.000000,0.000000,0.000000,1770887630.020427,0.000000
222.000000,-16342.008572,-10669.515809,-824.220577,-22774.147722,3949.441487,4620.239689,-6460.570569,722.430733,5954.169447,-9421.461454,-6272.704157,2664.484401,46.737498,2965.830620,-26292.960500,-10377.244398,0.004000,-0.014000,1.004000,192.000000,0.000000,0.000000,0.000000,0.000000,0.000000,0.000000,0.000000,0.000000,0.000000,1770887630.020446,0.000000
224.000000,-16418.071558,-10748.037487,-887.878345,-22848.333162,3891.192840,4570.887038,-6528.989259,667.557200,5987.741767,-9313.793101,-6173.551819,2749.711603,131.785885,3048.487371,-26185.158036,-10283.814106,0.004000,-0.014000,1.004000,192.000000,0.000000,0.000000,0.000000,0.000000,0.000000,0.000000,0.000000,0.000000,0.000000,1770887630.020465,0.000000
226.000000,-16425.358227,-10754.586548,-901.155281,-22867.667421,3885.157869,4577.749023,-6539.405172,658.102412,5942.904168,-9463.661547,-6307.751692,2632.811979,12.159349,2942.204826,-26346.448224,-10415.644695,-0.002000,-0.014000,1.004000,192.000000,127.500000,120.000000,127.500000,72.000000,15.500000,48.000000,0.000000,0.000000,0.000000,1770887630.020484,0.000000
228.000000,-16315.342941,-10644.928890,-811.569489,-22764.223547,3956.415231,4628.733352,-6453.082735,746.816486,6000.303447,-9316.408255,-6171.540162,2747.364670,126.577929,3040.798371,-26189.047240,-10290.273761,-0.002000,-0.014000,1.004000,192.000000,0.000000,0.000000,0.000000,0.000000,0.000000,0.000000,0.000000,0.000000,0.000000,1770887630.020503,0.000000
230.000000,-16477.594254,-10801.659322,-939.443819,-22910.694529,3823.958793,4539.728706,-6583.907495,620.774999,5961.612578,-9400.383759,-6243.244558,2680.979989,64.618893,2999.335885,-26282.276366,-10359.899445,-0.002000,-0.014000,1.004000,192.000000,0.000000,0.000000,0.000000,0.000000,0.000000,0.000000,0.000000,0.000000,0.000000,1770887630.020522,0.000000
232.000000,-16332.978467,-10656.350631,-825.382868,-22777.053449,3941.238396,4622.564271,-6463.364537,730.611471,5958.997424,-9413.481881,-6259.606035,2672.307512,49.777335,2979.666350,-26294.569825,-10374.383375,-0.002000,-0.014000,1.004000,192.000000,0.000000,0.000000,0.000000,0.000000,0.000000,0.000000,0.000000,0.000000,0.000000,1770887630.020542,0.000000
234.000000,-16421.133747,-10742.494254,-891.633438,-22855.999810,3881.291018,4580.297122,-6534.756009,663.310368,5986.892401,-9312.094368,-6165.974577,2750.873894,127.203778,3060.087926,-26184.733353,-10279.500220,-0.002000,-0.014000,1.004000,192.000000,0.000000,0.000000,0.000000,0.000000,0.000000,0.000000,0.000000,0.000000,0.000000,1770887630.020560,0.000000
236.000000,-16436.332933,-10764.711888,-906.027961,-22865.499302,3870.271608,4575.111517,-6545.708364,647.239464,5932.443551,-9462.029870,-6313.138463,2624.765351,3.330410,2935.633413,-26348.236364,-10416.114082,0.002000,-0.012000,1.006000,192.000000,0.000000,8.000000,127.500000,80.000000,15.500000,56.000000,0.000000,0.000000,0.000000,1770887630.020579,0.000000
238.000000,-16326.407054,-10655.769486,-812.441207,-22760.267289,3959.030385,4619.144454,-6456.390793,736.646442,5982.734976,-9324.365476,-6183.811269,2745.397716,120.185330,3061.004348,-26194.746935,-10290.050243,0.002000,-0.012000,1.006000,192.000000,0.000000,0.000000,0.000000,0.000000,0.000000,0.000000,0.000000,0.000000,0.000000,1770887630.020599,0.000000
240.000000,-16484.724460,-10813.997485,-939.868503,-22912.616779,3831.960718,4544.780200,-6585.338007,614.695324,5952.627176,-9404.988218,-6252.520532,2682.723425,67.189344,3002.867461,-26279.929433,-10358.133657,0.002000,-0.012000,1.006000,192.000000,0.000000,0.000000,0.000000,0.000000,0.000000,0.000000,0.000000,0.000000,0.000000,1770887630.020629,0.000000
242.000000,-16341.181557,-10670.119306,-820.599594,-22776.628766,3944.613510,4620.396152,-6462.246950,728.935090,5957.075174,-9418.421616,-6266.289206,2670.765241,50.358480,2979.308722,-26292.111134,-10372.729346,0.002000,-0.012000,1.006000,192.000000,0.000000,0.000000,0.000000,0.000000,0.000000,0.000000,0.000000,0.000000,0.000000,1770887630.020648,0.000000
244.000000,-16426.922849,-10755.570025,-890.784072,-22857.363267,3878.899381,4573.591599,-6533.794884,665.880819,5984.679578,-9313.636638,-6167.516848,2753.109068,129.841284,3063.664206,-26188.622557,-10278.852019,0.002000,-0.012000,1.006000,192.000000,0.000000,0.000000,0.000000,0.000000,0.000000,0.000000,0.000000,0.000000,0.000000,1770887630.020667,0.000000
246.000000,-16431.482605,-10762.543769,-900.976467,-22874.417648,3864.013119,4567.601331,-6543.428486,654.526133,5931.616537,-9471.149382,-6306.477643,2624.295965,-0.715256,2946.675175,-26348.884565,-10417.857518,0.002000,-0.012000,1.006000,192.000000,0.000000,0.000000,127.500000,72.000000,15.500000,48.000000,0.000000,0.000000,0.000000,1770887630.020686,0.000000
248.000000,-16326.585868,-10656.775314,-813.335277,-22772.158417,3945.619338,4609.577907,-6455.072040,743.687242,5990.982770,-9324.119607,-6172.344824,2742.179065,127.628461,3045.805162,-26195.752763,-10299.460328,0.002000,-0.012000,1.006000,192.000000,0.000000,0.000000,0.000000,0.000000,0.000000,0.000000,0.000000,0.000000,0.000000,1770887630.020705,0.000000
250.000000,-16483.763335,-10814.109244,-943.087154,-22924.709073,3819.913127,4537.873511,-6586.187373,618.226900,5951.911921,-9412.543108,-6246.127933,2676.397881,54.113573,2988.919972,-26287.193750,-10371.812924,0.002000,-0.012000,1.006000,192.000000,0.000000,0.000000,0.000000,0.000000,0.000000,0.000000,0.000000,0.000000,0.000000,1770887630.020725,0.000000
252.000000,-16333.045522,-10663.950224,-824.131170,-22776.494655,3941.640728,4617.602184,-6460.861142,734.277157,5957.544560,-9419.874480,-6262.087078,2667.278369,50.581998,2982.326207,-26299.308395,-10383.994625,0.002000,-0.012000,1.006000,192.000000,0.000000,0.000000,0.000000,0.000000,0.000000,0.000000,0.000000,0.000000,0.000000,1770887630.020744,0.000000
254.000000,-16416.194012,-10747.366935,-892.751025,-22850.389522,3875.434861,4577.681968,-6531.872634,671.468755,5988.144098,-9303.779519,-6164.387603,2761.334510,131.361202,3072.113165,-26194.769286,-10282.450650,0.002000,-0.012000,1.006000,192.000000,0.000000,0.000000,0.000000,0.000000,0.000000,0.000000,0.000000,0.000000,0.000000,1770887630.020764,0.000000
0.000000,-16429.560355,-10759.123952,-905.469168,-22868.337973,3867.567047,4581.548820,-6540.612166,655.040223,5935.438685,-9462.566312,-6304.622448,2638.824599,2.615154,2958.499248,-26355.992419,-10412.560155,0.003000,-0.012000,1.003000,192.000000,0.000000,16.000000,127.500000,80.000000,15.500000,32.000000,0.000000,0.000000,0.000000,1770887630.020783,0.000000
2.000000,-16328.597525,-10657.110591,-815.190472,-22770.370277,3956.102306,4627.258137,-6453.909749,737.048773,5986.311255,-9318.531670,-6179.273865,2748.750478,126.935557,3050.253159,-26197.898531,-10290.184354,0.003000,-0.012000,1.003000,192.000000,0.000000,0.000000,0.000000,0.000000,0.000000,0.000000,0.000000,0.000000,0.000000,1770887630.020803,0.000000
4.000000,-16489.015995,-10816.389122,-948.451572,-22915.455450,3823.623517,4541.606252,-6584.868620,613.667144,5948.134476,-9405.770529,-6253.682822,2685.606800,55.074698,2997.033655,-26284.176264,-10359.810038,0.003000,-0.012000,1.003000,192.000000,0.000000,0.000000,0.000000,0.000000,0.000000,0.000000,0.000000,0.000000,0.000000,1770887630.020823,0.000000
6.000000,-16345.942479,-10668.465277,-826.925138,-22776.673469,3947.005146,4612.617745,-6462.291653,727.661041,5947.486275,-9414.711227,-6272.055956,2670.698186,40.970748,2990.574001,-26299.375451,-10379.233704,0.003000,-0.012000,1.003000,192.000000,0.000000,0.000000,0.000000,0.000000,0.000000,0.000000,0.000000,0.000000,0.000000,1770887630.020843,0.000000
8.000000,-16422.653666,-10749.155074,-892.482804,-22854.368133,3879.949913,4573.122212,-6533.012573,665.634950,5985.707758,-9304.248906,-6171.674272,2758.272321,133.954005,3076.963493,-26184.822760,-10287.010406,0.003000,-0.012000,1.003000,192.000000,0.000000,0.000000,0.000000,0.000000,0.000000,0.000000,0.000000,0.000000,0.000000,1770887630.020863,0.000000
10.000000,-16437.338762,-10770.366880,-908.598412,-22873.992965,3871.143326,4565.947302,-6546.758896,647.418278,5930.923632,-9476.826725,-6309.986867,2626.262918,0.290573,2943.121248,-26346.224707,-10416.628172,0.002500,-0.015000,1.002500,192.000000,0.000000,8.000000,127.500000,56.000000,15.500000,40.000000,0.000000,0.000000,0.000000,1770887630.020883,0.000000
12.000000,-16335.146586,-10665.984233,-812.731780,-22764.469417,3949.396783,4610.315515,-6458.089525,734.187750,5985.350130,-9324.052551,-6183.118365,2741.910844,126.086190,3048.979109,-26195.842170,-10299.616790,0.002500,-0.015000,1.002500,192.000000,0.000000,0.000000,0.000000,0.000000,0.000000,0.000000,0.000000,0.000000,0.000000,1770887630.020903,0.000000
14.000000,-16486.222027,-10814.399816,-939.108543,-22919.903448,3824.763456,4537.359421,-6587.550829,611.655487,5951.263720,-9405.122328,-6253.325195,2677.671931,57.198114,2997.659504,-26283.997450,-10369.734212,0.002500,-0.015000,1.002500,192.000000,0.000000,0.000000,0.000000,0.000000,0.000000,0.000000,0.000000,0.000000,0.000000,1770887630.020922,0.000000
16.000000,-16340.488653,-10669.113477,-820.621946,-22782.551978,3941.126638,4616.082265,-6465.063270,726.878730,5956.874008,-9415.851166,-6267.004462,2665.959616,53.688890,2992.272734,-26294.592177,-10385.313378,0.002500,-0.015000,1.002500,192.000000,0.000000,0.000000,0.000000,0.000000,0.000000,0.000000,0.000000,0.000000,0.000000,1770887630.020942,0.000000
18.000000,-16419.904401,-10749.825627,-885.956095,-22850.747150,3878.608808,4571.177610,-6529.548052,671.491107,5989.284037,-9300.717330,-6164.611121,2755.701870,133.462266,3091.447424,-26188.443743,-10286.853944,0.002500,-0.015000,1.002500,192.000000,0.000000,0.000000,0.000000,0.000000,0.000000,0.000000,0.000000,0.000000,0.000000,1770887630.020960,0.000000
20.000000,-16426.319352,-10761.493237,-904.932726,-22871.646031,3867.812916,4575.290331,-6541.953271,658.437688,5937.830322,-9464.175637,-6299.302733,2631.604985,1.654029,2970.546838,-26351.566774,-10420.383265,0.003250,-0.015500,1.003250,192.000000,0.000000,16.000000,127.500000,64.000000,15.500000,48.000000,0.000000,0.000000,0.000000,1770887630.020977,0.000000
22.000000,-16316.348769,-10651.321489,-815.503396,-22761.586042,3953.688318,4631.773190,-6449.953490,749.923378,5994.715511,-9316.251792,-6168.410917,2750.918597,129.349545,3066.502877,-26203.955853,-10294.274723,0.003250,-0.015500,1.003250,192.000000,0.000000,0.000000,0.000000,0.000000,0.000000,0.000000,0.000000,0.000000,0.000000,1770887630.020997,0.000000
24.000000,-16484.031556,-10814.288058,-949.055070,-22911.968578,3828.876177,4544.668441,-6584.779213,618.606880,5957.812781,-9395.466375,-6244.675069,2687.417291,62.584884,3019.027772,-26284.980927,-10353.663308,0.003250,-0.015500,1.003250,192.000000,0.000000,0.000000,0.000000,0.000000,0.000000,0.000000,0.000000,0.000000,0.000000,1770887630.021017,0.000000
26.000000,-16341.159206,-10669.247588,-834.792952,-22780.205045,3953.688318,4624.195948,-6466.292616,727.996317,5952.157790,-9413.995971,-6275.453422,2666.496058,42.021280,2994.373798,-26301.409459,-10376.596198,0.003250,-0.015500,1.003250,192.000000,0.000000,0.000000,0.000000,0.000000,0.000000,0.000000,0.000000,0.000000,0.000000,1770887630.021036,0.000000
28.000000,-16416.261067,-10744.215339,-893.600392,-22850.166005,3892.891573,4585.192154,-6530.106846,670.842906,5983.897267,-9304.561830,-6171.920141,2756.439478,128.924862,3086.306523,-26183.124028,-10275.208685,0.003250,-0.015500,1.003250,192.000000,0.000000,0.000000,0.000000,0.000000,0.000000,0.000000,0.000000,0.000000,0.000000,1770887630.021057,0.000000
30.000000,-16444.625431,-10773.160848,-912.286450,-22871.534273,3877.133593,4571.959921,-6548.971718,645.093697,5931.236557,-9458.610053,-6316.558280,2630.442694,5.900861,2966.635283,-26346.023541,-10411.822547,0.003625,-0.013750,1.002625,192.000000,0.000000,16.000000,127.500000,80.000000,15.500000,40.000000,0.000000,0.000000,0.000000,1770887630.021075,0.000000
32.000000,-16327.435234,-10660.798628,-816.598632,-22764.044734,3959.432716,4620.664373,-6455.854351,738.814561,5983.472584,-9327.137092,-6187.141679,2738.647489,116.698458,3072.046110,-26192.422353,-10287.591551,0.003625,-0.013750,1.002625,192.000000,0.000000,0.000000,0.000000,0.000000,0.000000,0.000000,0.000000,0.000000,0.000000,1770887630.021095,0.000000
34.000000,-16478.622434,-10811.985828,-942.394250,-22916.662445,3833.279471,4546.255415,-6584.555696,616.818740,5958.483333,-9397.053349,-6242.797523,2682.879887,62.853105,3014.736237,-26274.497959,-10353.596253,0.003625,-0.013750,1.002625,192.000000,0.000000,0.000000,0.000000,0.000000,0.000000,0.000000,0.000000,0.000000,0.000000,1770887630.021113,0.000000
36.000000,-16336.957078,-10670.365175,-828.333298,-22784.004841,3947.094553,4606.180442,-6465.309139,728.599814,5961.143191,-9421.081474,-6262.310596,2662.740965,41.194265,2997.257173,-26292.804038,-10380.261884,0.003625,-0.013750,1.002625,192.000000,0.000000,0.000000,0.000000,0.000000,0.000000,0.000000,0.000000,0.000000,0.000000,1770887630.021132,0.000000
38.000000,-16411.544849,-10741.466074,-885.553764,-22847.081464,3889.136480,4571.892866,-6525.547090,677.660188,5993.374407,-9306.908763,-6162.532409,2756.975920,132.881121,3081.232677,-26181.224129,-10277.756784,0.003625,-0.013750,1.002625,192.000000,0.000000,0.000000,0.000000,0.000000,0.000000,0.000000,0.000000,0.000000,0.000000,1770887630.021152,0.000000
40.000000,-16429.761521,-10758.833380,-906.072665,-22869.969651,3879.435823,4570.462354,-6542.847340,657.476563,5939.305537,-9458.252425,-6307.617582,2637.215273,13.947489,2966.612931,-26344.414216,-10415.130605,0.004812,-0.011875,1.003313,192.000000,0.000000,24.000000,127.500000,88.000000,15.500000,48.000000,0.000000,0.000000,0.000000,1770887630.021171,0.000000
42.000000,-16317.555763,-10647.365230,-813.625850,-22759.127350,3976.442394,4624.486521,-6451.965147,749.789268,5995.050787,-9315.201260,-6180.302045,2751.142115,129.908339,3071.755537,-26192.020022,-10289.491450,0.004812,-0.011875,1.003313,192.000000,0.000000,0.000000,0.000000,0.000000,0.000000,0.000000,0.000000,0.000000,0.000000,1770887630.021191,0.000000
44.000000,-16470.017012,-10797.859525,-943.511837,-22908.526410,3849.909168,4551.753944,-6583.594571,625.245348,5963.154848,-9387.531506,-6244.071572,2694.748663,67.345806,3032.081191,-26277.962479,-10350.779933,0.004812,-0.011875,1.003313,192.000000,0.000000,0.000000,0.000000,0.000000,0.000000,0.000000,0.000000,0.000000,0.000000,1770887630.021229,0.000000
46.000000,-16327.770511,-10656.998832,-828.310946,-22771.890196,3958.471591,4622.608974,-6464.727994,734.970061,5968.519267,-9404.205907,-6260.813029,2675.526163,47.720974,3004.119158,-26294.391012,-10371.656462,0.004812,-0.011875,1.003313,192.000000,0.000000,0.000000,0.000000,0.000000,0.000000,0.000000,0.000000,0.000000,0.000000,1770887630.021255,0.000000
48.000000,-16404.235828,-10738.023906,-886.738406,-22847.059112,3894.366788,4581.548820,-6528.475169,676.833174,5998.694122,-9296.694016,-6156.430382,2766.341301,142.894702,3100.343418,-26184.219263,-10270.045432,0.004812,-0.011875,1.003313,192.000000,0.000000,0.000000,0.000000,0.000000,0.000000,0.000000,0.000000,0.000000,0.000000,1770887630.021275,0.000000
50.000000,-16430.297962,-10763.482542,-909.403075,-22871.668383,3877.759442,4564.673253,-6547.384745,651.419240,5943.530016,-9462.879236,-6298.810994,2632.029668,15.556814,2970.703300,-26344.034236,-10410.324980,0.004406,-0.010937,1.005656,192.000000,0.000000,16.000000,127.500000,88.000000,15.500000,64.000000,0.000000,0.000000,0.000000,1770887630.021294,0.000000
52.000000,-16328.776339,-10662.318547,-817.962088,-22762.100132,3968.775745,4621.916070,-6457.083697,738.591044,5994.000255,-9317.794063,-6175.161144,2743.296652,120.632365,3079.668055,-26195.216321,-10289.334987,0.004406,-0.010937,1.005656,192.000000,0.000000,0.000000,0.000000,0.000000,0.000000,0.000000,0.000000,0.000000,0.000000,1770887630.021313,0.000000
54.000000,-16484.724460,-10814.824499,-944.405907,-22914.561381,3844.343584,4542.343860,-6586.165021,611.946060,5953.834171,-9399.556744,-6247.245520,2684.131585,58.606274,3022.805217,-26273.380372,-10350.265843,0.004406,-0.010937,1.005656,192.000000,0.000000,0.000000,0.000000,0.000000,0.000000,0.000000,0.000000,0.000000,0.000000,1770887630.021332,0.000000
56.000000,-16346.523624,-10676.958940,-832.691888,-22782.797847,3951.386088,4611.902489,-6468.304273,719.323840,5946.368688,-9422.176709,-6278.984997,2658.404727,41.015451,2996.698379,-26291.150009,-10373.198733,0.004406,-0.010937,1.005656,192.000000,0.000000,0.000000,0.000000,0.000000,0.000000,0.000000,0.000000,0.000000,0.000000,1770887630.021350,0.000000
58.000000,-16422.608962,-10748.596281,-893.287467,-22853.921098,3888.756500,4571.199962,-6532.856111,665.702005,5974.442479,-9310.194470,-6177.016339,2749.577492,119.805350,3088.184069,-26186.052106,-10276.438031,0.004406,-0.010937,1.005656,192.000000,0.000000,0.000000,0.000000,0.000000,0.000000,0.000000,0.000000,0.000000,0.000000,1770887630.021367,0.000000
60.000000,-16437.606983,-10767.103525,-911.101807,-22881.011412,3872.193858,4558.481819,-6549.418753,644.825476,5928.152016,-9469.160076,-6316.871204,2624.899462,3.106892,2967.685815,-26346.694094,-10415.309419,0.004406,-0.010937,1.005656,192.000000,0.000000,0.000000,0.000000,0.000000,0.000000,0.000000,0.000000,0.000000,0.000000,1770887630.021387,0.000000
62.000000,-16320.729711,-10651.880282,-818.677344,-22765.899928,3953.643614,4603.431178,-6454.490895,743.709593,5987.518249,-9324.030200,-6184.034787,2741.508513,123.068705,3067.419299,-26200.200760,-10298.834479,0.004000,-0.008000,1.004000,192.000000,0.000000,16.000000,127.500000,96.000000,15.500000,48.000000,0.000000,0.000000,0.000000,1770887630.021406,0.000000
64.000000,-16469.681736,-10801.748729,-947.065764,-22910.783936,3831.156055,4536.197130,-6582.320521,625.915900,5956.941063,-9393.521773,-6241.568177,2689.026617,58.226294,3024.302784,-26284.176264,-10358.804209,0.004000,-0.008000,1.004000,192.000000,0.000000,0.000000,0.000000,0.000000,0.000000,0.000000,0.000000,0.000000,0.000000,1770887630.021425,0.000000
66.000000,-16322.361388,-10653.981346,-828.243891,-22777.321670,3953.978891,4611.053122,-6464.571531,737.942843,5966.842886,-9414.130081,-6258.242578,2670.474669,42.334204,2999.022961,-26301.588273,-10377.467916,0.004000,-0.008000,1.004000,192.000000,0.000000,0.000000,0.000000,0.000000,0.000000,0.000000,0.000000,0.000000,0.000000,1770887630.021445,0.000000
68.000000,-16392.299997,-10726.155129,-884.950266,-22848.869604,3900.938201,4570.954093,-6528.877500,682.555220,6004.751444,-9296.112871,-6150.618929,2760.976882,128.857807,3104.366732,-26183.034621,-10275.611016,0.004000,-0.008000,1.004000,192.000000,0.000000,0.000000,0.000000,0.000000,0.000000,0.000000,0.000000,0.000000,0.000000,1770887630.021463,0.000000
70.000000,-16425.402930,-10749.847978,-907.994915,-22869.477912,3873.132631,4561.879285,-6550.335175,652.358014,5953.387136,-9454.050297,-6295.458233,2634.354250,23.178759,2968.579885,-26345.621210,-10414.862384,0.004000,-0.008000,1.004000,192.000000,0.000000,0.000000,0.000000,0.000000,0.000000,0.000000,0.000000,0.000000,0.000000,1770887630.021482,0.000000
72.000000,-16317.354598,-10642.961936,-813.759960,-22760.982545,3969.423946,4623.883024,-6455.653185,742.055564,6004.080892,-9308.138109,-6181.263170,2744.704812,136.010365,3087.915848,-26195.618653,-10290.094947,0.006000,-0.010000,1.002000,192.000000,0.000000,24.000000,127.500000,88.000000,15.500000,40.000000,0.000000,0.000000,0.000000,1770887630.021502,0.000000
74.000000,-16482.221065,-10808.856584,-955.917055,-22913.667311,3847.718698,4539.974575,-6592.490565,607.788635,5958.148057,-9392.873572,-6253.369898,2678.320131,65.155335,3029.734257,-26273.268613,-10343.895596,0.006000,-0.010000,1.002000,192.000000,0.000000,0.000000,0.000000,0.000000,0.000000,0.000000,0.000000,0.000000,0.000000,1770887630.501034,0.000000
76.000000,-16335.794787,-10663.637300,-836.446981,-22781.143818,3948.502713,4617.423370,-6471.500572,723.458913,5954.907054,-9413.839509,-6280.795488,2662.718613,43.854123,3013.819815,-26299.755430,-10370.181247,0.006000,-0.010000,1.002000,192.000000,0.000000,0.000000,0.000000,0.000000,0.000000,0.000000,0.000000,0.000000,0.000000,1770887630.501106,0.000000
78.000000,-16405.711044,-10735.833435,-896.662581,-22850.836557,3883.459137,4571.445831,-6533.481960,672.809860,5992.636799,-9301.857269,-6166.958054,2751.700908,134.557502,3095.426034,-26184.643946,-10279.410813,0.006000,-0.010000,1.002000,192.000000,0.000000,0.000000,0.000000,0.000000,0.000000,0.000000,0.000000,0.000000,0.000000,1770887630.501162,0.000000
80.000000,-16426.453462,-10759.436877,-913.225223,-22875.065848,3861.219151,4559.577055,-6550.759858,652.268607,5939.596109,-9461.068745,-6303.974247,2625.905290,0.782311,2969.026919,-26354.405445,-10415.510585,0.006000,-0.010000,1.002000,192.000000,0.000000,0.000000,0.000000,0.000000,0.000000,0.000000,0.000000,0.000000,0.000000,1770887630.501215,0.000000
82.000000,-16303.809441,-10633.596555,-810.898937,-22757.808597,3952.838952,4616.998686,-6453.261549,751.912683,6002.136290,-9314.284839,-6169.148525,2739.474504,122.286394,3081.344435,-26207.375670,-10296.264028,0.002000,-0.008000,1.006000,192.000000,0.000000,8.000000,127.500000,96.000000,15.500000,56.000000,0.000000,0.000000,0.000000,1770887630.501278,0.000000
84.000000,-16460.338707,-10789.209400,-939.823799,-22905.575979,3832.117180,4540.667479,-6584.399233,627.592281,5974.040148,-9383.619950,-6227.598337,2688.646637,72.911390,3040.530150,-26282.030497,-10352.702183,0.002000,-0.008000,1.006000,192.000000,0.000000,0.000000,0.000000,0.000000,0.000000,0.000000,0.000000,0.000000,0.000000,1770887630.501320,0.000000
86.000000,-16314.672388,-10646.851140,-824.935833,-22775.064144,3949.396783,4619.815006,-6468.371328,738.456933,5976.320025,-9400.517869,-6257.393212,2666.093727,57.443983,3037.333851,-26300.805962,-10372.729346,0.002000,-0.008000,1.006000,192.000000,0.000000,0.000000,0.000000,0.000000,0.000000,0.000000,0.000000,0.000000,0.000000,1770887630.501340,0.000000
88.000000,-16386.354433,-10720.231917,-882.446871,-22845.829766,3891.304599,4571.736404,-6528.899852,687.651418,6015.346171,-9290.010844,-6148.719030,2764.374347,157.602150,3123.566881,-26183.079324,-10276.594493,0.002000,-0.008000,1.006000,192.000000,0.000000,0.000000,0.000000,0.000000,0.000000,0.000000,0.000000,0.000000,0.000000,1770887630.501359,0.000000
90.000000,-16412.416567,-10743.164807,-907.771398,-22872.651860,3874.384329,4559.867628,-6550.424582,659.085889,5965.613540,-9453.066820,-6290.764366,2634.734229,24.832788,2996.899545,-26343.676608,-10412.291934,0.002000,-0.008000,1.006000,192.000000,0.000000,0.000000,0.000000,0.000000,0.000000,0.000000,0.000000,0.000000,0.000000,1770887630.501378,0.000000
92.000000,-16308.190383,-10645.912367,-815.615155,-22760.624917,3960.974987,4613.936497,-6456.703717,743.843704,6016.620221,-9314.731874,-6169.148525,2740.793257,137.396173,3100.231659,-26195.752763,-10293.626522,0.006000,-0.012000,1.010000,192.000000,0.000000,24.000000,127.500000,80.000000,15.500000,72.000000,0.000000,0.000000,0.000000,1770887630.501397,0.000000
94.000000,-16471.916911,-10805.526174,-947.043413,-22917.601218,3835.536997,4538.119380,-6589.383672,614.181234,5974.397775,-9391.845392,-6238.193064,2674.676797,74.431309,3042.519455,-26273.782703,-10348.678869,0.006000,-0.012000,1.010000,192.000000,0.000000,0.000000,0.000000,0.000000,0.000000,0.000000,0.000000,0.000000,0.000000,1770887630.501415,0.000000
96.000000,-16330.072740,-10660.038669,-833.675365,-22783.043716,3937.639765,4613.489463,-6471.411165,726.342288,5967.826363,-9423.249593,-6269.194933,2652.705032,40.747230,3033.310537,-26301.677680,-10373.913988,0.006000,-0.012000,1.010000,192.000000,0.000000,0.000000,0.000000,0.000000,0.000000,0.000000,0.000000,0.000000,0.000000,1770887630.501433,0.000000
98.000000,-16406.359244,-10740.035563,-891.476976,-22848.109644,3888.063596,4574.686834,-6530.687991,675.045034,5999.297619,-9303.287781,-6162.979443,2755.031318,134.535150,3119.700029,-26185.940347,-10272.682938,0.006000,-0.012000,1.010000,192.000000,0.000000,0.000000,0.000000,0.000000,0.000000,0.000000,0.000000,0.000000,0.000000,1770887630.501448,0.000000
100.000000,-16427.593401,-10754.295975,-914.767494,-22875.959918,3866.315349,4568.026014,-6551.609224,648.424107,5942.010098,-9460.085268,-6311.484434,2620.585575,-2.034009,2993.032693,-26349.823338,-10412.247230,0.006000,-0.012000,1.010000,192.000000,0.000000,0.000000,0.000000,0.000000,0.000000,0.000000,0.000000,0.000000,0.000000,1770887630.501462,0.000000
102.000000,-16311.185516,-10642.023163,-815.011658,-22759.172053,3959.991510,4622.743085,-6453.797991,747.732907,5997.241258,-9316.810586,-6183.923028,2739.027469,121.392324,3105.685485,-26203.486467,-10291.123127,0.004000,-0.016000,1.008000,192.000000,0.000000,16.000000,127.500000,64.000000,15.500000,64.000000,0.000000,0.000000,0.000000,1770887630.501476,0.000000
104.000000,-16460.830445,-10790.841078,-941.433125,-22912.639131,3834.799389,4549.541122,-6585.494469,623.032525,5973.324892,-9387.978540,-6238.997726,2684.735082,74.364254,3059.864409,-26276.263747,-10349.528235,0.004000,-0.016000,1.008000,192.000000,0.000000,0.000000,0.000000,0.000000,0.000000,0.000000,0.000000,0.000000,0.000000,1770887630.501489,0.000000
106.000000,-16320.014455,-10650.561529,-825.494626,-22782.551978,3945.485228,4616.283431,-6469.287749,730.052677,5975.671825,-9414.599468,-6261.505933,2661.802192,51.498419,3046.721583,-26301.230645,-10378.496096,0.004000,-0.016000,1.008000,192.000000,0.000000,0.000000,0.000000,0.000000,0.000000,0.000000,0.000000,0.000000,0.000000,1770887630.501502,0.000000
108.000000,-16384.678052,-10716.342713,-880.435214,-22845.382732,3884.554372,4568.875381,-6525.055352,683.359883,6016.106131,-9294.414138,-6149.613100,2758.764059,152.662415,3136.307375,-26180.620632,-10276.996824,0.004000,-0.016000,1.008000,192.000000,0.000000,0.000000,0.000000,0.000000,0.000000,0.000000,0.000000,0.000000,0.000000,1770887630.501515,0.000000
110.000000,-16429.247430,-10756.173522,-916.645040,-22873.568281,3858.581645,4551.038689,-6549.396402,650.636929,5955.577607,-9459.995861,-6301.001465,2626.419380,8.694829,3004.901469,-26349.711579,-10417.298724,0.004000,-0.016000,1.008000,192.000000,0.000000,0.000000,0.000000,0.000000,0.000000,0.000000,0.000000,0.000000,0.000000,1770887630.501529,0.000000
112.000000,-16311.341978,-10642.559605,-820.241966,-22764.111789,3949.866170,4605.353428,-6451.294595,748.649329,5991.228639,-9320.118644,-6187.298141,2734.892396,106.729580,3111.876918,-26208.895589,-10302.097833,-0.004000,-0.016000,1.000000,192.000000,127.500000,112.000000,127.500000,64.000000,15.500000,32.000000,0.000000,0.000000,0.000000,1770887630.501542,0.000000
114.000000,-16470.754620,-10796.630179,-947.088116,-22910.582770,3829.300860,4537.717049,-6579.995940,624.351278,5963.713642,-9388.962017,-6243.713944,2684.422157,66.474088,3060.669072,-26277.537796,-10353.015107,-0.004000,-0.016000,1.000000,192.000000,0.000000,0.000000,0.000000,0.000000,0.000000,0.000000,0.000000,0.000000,0.000000,1770887630.501559,0.000000
116.000000,-16336.308877,-10662.810285,-839.218597,-22785.278891,3940.344327,4611.477806,-6471.165296,722.475436,5961.478467,-9416.879346,-6276.705119,2658.270616,36.142771,3044.642871,-26305.164552,-10381.066547,-0.004000,-0.016000,1.000000,192.000000,0.000000,0.000000,0.000000,0.000000,0.000000,0.000000,0.000000,0.000000,0.000000,1770887630.501573,0.000000
118.000000,-16409.264971,-10738.314478,-889.890002,-22849.182528,3889.024721,4569.456526,-6532.587890,667.825421,5996.034264,-9304.830051,-6168.679138,2747.923463,129.729525,3137.514369,-26184.420429,-10272.906455,-0.004000,-0.016000,1.000000,192.000000,0.000000,0.000000,0.000000,0.000000,0.000000,0.000000,0.000000,0.000000,0.000000,1770887630.501586,0.000000
120.000000,-16434.455387,-10765.158923,-914.655735,-22879.089162,3861.979110,4560.985215,-6555.029041,641.316252,5946.413391,-9465.069707,-6307.684637,2620.227947,10.348858,3016.926708,-26345.241230,-10408.626247,-0.004000,-0.016000,1.000000,192.000000,0.000000,0.000000,0.000000,0.000000,0.000000,0.000000,0.000000,0.000000,0.000000,1770887630.501600,0.000000
122.000000,-16313.487746,-10644.370096,-819.191434,-22764.290603,3963.143106,4618.540957,-6456.860180,741.183846,6002.113939,-9323.426702,-6183.923028,2731.986670,123.292222,3114.022686,-26201.966548,-10292.196011,-0.006000,-0.014000,1.004000,192.000000,127.500000,104.000000,127.500000,72.000000,15.500000,48.000000,0.000000,0.000000,0.000000,1770887630.501613,0.000000
124.000000,-16462.059791,-10792.986845,-951.536113,-22915.187230,3830.731372,4543.930834,-6588.780175,622.809008,5975.113031,-9387.442099,-6240.741162,2681.427024,64.417728,3069.810935,-26275.973174,-10349.818808,-0.006000,-0.014000,1.004000,192.000000,0.000000,0.000000,0.000000,0.000000,0.000000,0.000000,0.000000,0.000000,0.000000,1770887630.501627,0.000000
126.000000,-16320.595601,-10651.477951,-836.022298,-22779.221568,3938.913815,4611.410750,-6469.913598,736.937015,5977.594075,-9414.577116,-6266.177448,2660.259922,47.184533,3064.334758,-26305.589235,-10376.976177,-0.006000,-0.014000,1.004000,192.000000,0.000000,0.000000,0.000000,0.000000,0.000000,0.000000,0.000000,0.000000,0.000000,1770887630.501640,0.000000
128.000000,-16385.013328,-10722.690609,-884.235011,-22845.136862,3886.364864,4575.893828,-6525.569442,688.009046,6014.474453,-9293.520068,-6149.613100,2755.835981,142.134743,3155.351061,-26183.034621,-10275.566313,-0.006000,-0.014000,1.004000,192.000000,0.000000,0.000000,0.000000,0.000000,0.000000,0.000000,0.000000,0.000000,0.000000,1770887630.501654,0.000000
130.000000,-16417.557468,-10753.848941,-909.604241,-22878.396258,3865.018948,4567.199000,-6549.284643,657.789488,5962.439592,-9457.760687,-6291.524326,2624.474779,17.210843,3029.331926,-26347.543460,-10411.643733,-0.006000,-0.014000,1.004000,192.000000,0.000000,0.000000,0.000000,0.000000,0.000000,0.000000,0.000000,0.000000,0.000000,1770887630.501668,0.000000
132.000000,-16298.512077,-10632.143692,-808.887280,-22762.234242,3960.974987,4616.864576,-6452.814514,754.103154,6018.408360,-9311.602630,-6166.980406,2739.027469,126.823798,3119.454160,-26204.916978,-10300.309694,-0.004000,-0.012000,1.006000,192.000000,127.500000,120.000000,127.500000,88.000000,15.500000,64.000000,0.000000,0.000000,0.000000,1770887630.501682,0.000000
134.000000,-16462.640937,-10797.390139,-937.722735,-22914.784898,3827.468017,4525.624755,-6585.539172,621.378496,5985.059558,-9383.575247,-6225.050238,2684.153936,75.258324,3083.132575,-26271.368715,-10347.494226,-0.004000,-0.012000,1.006000,192.000000,0.000000,0.000000,0.000000,0.000000,0.000000,0.000000,0.000000,0.000000,0.000000,1770887630.501695,0.000000
136.000000,-16325.088301,-10662.631471,-830.814341,-22791.000937,3939.629071,4599.117291,-6471.545276,725.537625,5978.219924,-9427.295259,-6261.572988,2648.458201,48.168009,3052.130705,-26305.700994,-10388.755547,-0.004000,-0.012000,1.006000,192.000000,0.000000,0.000000,0.000000,0.000000,0.000000,0.000000,0.000000,0.000000,0.000000,1770887630.501709,0.000000
138.000000,-16386.712061,-10723.584679,-886.134909,-22849.160176,3876.239523,4574.329206,-6528.005782,680.498860,6013.692142,-9297.342217,-6152.764696,2750.493914,134.892778,3152.065355,-26182.297013,-10277.622673,-0.004000,-0.012000,1.006000,192.000000,0.000000,0.000000,0.000000,0.000000,0.000000,0.000000,0.000000,0.000000,0.000000,1770887630.501723,0.000000
140.000000,-16416.775157,-10747.165769,-915.594508,-22873.635337,3849.417430,4565.522619,-6554.559655,653.721470,5959.086831,-9451.144570,-6301.157928,2626.933471,11.444093,3045.358127,-26351.790291,-10411.956657,-0.004000,-0.012000,1.006000,192.000000,0.000000,0.000000,0.000000,0.000000,0.000000,0.000000,0.000000,0.000000,0.000000,1770887630.501736,0.000000
142.000000,-16291.940664,-10623.471215,-812.798835,-22757.898004,3951.542551,4622.050181,-6452.143961,756.003053,6017.715456,-9303.757167,-6177.776298,2742.603748,133.596377,3148.399669,-26202.659452,-10297.135746,-0.003000,-0.009000,1.010000,192.000000,127.500000,120.000000,127.500000,104.000000,15.500000,88.000000,0.000000,0.000000,0.000000,1770887630.501748,0.000000
144.000000,-16459.757562,-10792.830383,-944.249445,-22911.678006,3835.022907,4535.727744,-6585.159193,626.295880,5979.829249,-9372.935816,-6234.952061,2687.082015,70.117422,3105.126691,-26273.179206,-10351.361078,-0.003000,-0.009000,1.010000,192.000000,0.000000,0.000000,0.000000,0.000000,0.000000,0.000000,0.000000,0.000000,0.000000,1770887630.501762,0.000000
146.000000,-16321.757891,-10651.075620,-833.138923,-22780.719135,3947.407478,4610.360218,-6470.517095,730.298547,5983.964322,-9416.477015,-6264.411660,2658.292968,55.745251,3073.856601,-26300.046003,-10386.006282,-0.003000,-0.009000,1.010000,192.000000,0.000000,0.000000,0.000000,0.000000,0.000000,0.000000,0.000000,0.000000,0.000000,1770887630.501776,0.000000
148.000000,-16388.164924,-10721.796539,-892.907488,-22839.526575,3898.658323,4578.553686,-6528.698686,678.151927,6012.082817,-9287.105118,-6158.062060,2757.646472,134.848074,3171.578428,-26181.782923,-10272.392365,-0.003000,-0.009000,1.010000,192.000000,0.000000,0.000000,0.000000,0.000000,0.000000,0.000000,0.000000,0.000000,0.000000,1770887630.501790,0.000000
150.000000,-16423.547736,-10757.805199,-919.461360,-22873.098895,3865.868314,4570.283541,-6554.380841,651.173371,5955.957586,-9457.693631,-6304.086006,2625.190035,10.371209,3055.237598,-26350.113910,-10405.742872,-0.003000,-0.009000,1.010000,192.000000,0.000000,0.000000,0.000000,0.000000,0.000000,0.000000,0.000000,0.000000,0.000000,1770887630.501803,0.000000
152.000000,-16301.507211,-10634.378866,-814.721085,-22759.596736,3960.952635,4628.800408,-6451.048726,753.499657,6007.701875,-9313.524880,-6175.965807,2738.468675,122.286394,3171.310207,-26202.391231,-10288.597380,-0.003000,-0.009000,1.010000,192.000000,0.000000,0.000000,127.500000,104.000000,15.500000,72.000000,0.000000,0.000000,0.000000,1770887630.501816,0.000000
154.000000,-16461.143370,-10793.791508,-946.037584,-22910.180439,3826.372782,4534.029011,-6586.410890,625.021830,5973.257836,-9383.731709,-6231.264023,2685.271524,68.955132,3120.459988,-26274.453255,-10342.934471,-0.003000,-0.009000,1.010000,192.000000,0.000000,0.000000,0.000000,0.000000,0.000000,0.000000,0.000000,0.000000,0.000000,1770887630.501830,0.000000
156.000000,-16317.019322,-10648.125189,-834.032993,-22784.295414,3941.752486,4607.610954,-6471.746441,736.065297,5972.699043,-9412.341942,-6263.271721,2658.650596,39.987271,3096.208345,-26308.696128,-10383.234666,-0.003000,-0.009000,1.010000,192.000000,0.000000,0.000000,0.000000,0.000000,0.000000,0.000000,0.000000,0.000000,0.000000,1770887630.501856,0.000000
158.000000,-16379.939482,-10709.413673,-884.123252,-22839.817147,3886.610733,4573.345730,-6527.089361,691.808843,6015.212061,-9290.815507,-6152.161199,2754.383117,136.949138,3178.485117,-26185.269795,-10277.466211,-0.003000,-0.009000,1.010000,192.000000,0.000000,0.000000,0.000000,0.000000,0.000000,0.000000,0.000000,0.000000,0.000000,1770887630.501869,0.000000
160.000000,-16417.423358,-10748.909205,-917.852034,-22874.752924,3862.247331,4553.787953,-6556.481905,655.531961,5960.919674,-9447.121256,-6298.006332,2633.840160,12.852253,3078.617523,-26349.085730,-10412.470748,-0.003000,-0.009000,1.010000,192.000000,0.000000,0.000000,0.000000,0.000000,0.000000,0.000000,0.000000,0.000000,0.000000,1770887630.501882,0.000000
162.000000,-16298.087394,-10632.255451,-815.101065,-22758.903832,3965.154763,4617.557480,-6454.423839,748.626977,6007.858337,-9308.383978,-6179.251513,2738.446324,123.985126,3176.562867,-26203.374708,-10296.644008,-0.000500,-0.007500,1.008000,192.000000,0.000000,8.000000,127.500000,104.000000,15.500000,56.000000,0.000000,0.000000,0.000000,1770887630.501896,0.000000
164.000000,-16459.422285,-10795.199668,-945.054107,-22915.164878,3835.805218,4542.254453,-6587.640236,621.713772,5973.146078,-9381.563590,-6236.136703,2684.891544,73.045501,3123.723343,-26269.714686,-10343.582671,-0.000500,-0.007500,1.008000,192.000000,0.000000,0.000000,0.000000,0.000000,0.000000,0.000000,0.000000,0.000000,0.000000,1770887630.501909,0.000000
166.000000,-16317.779281,-10653.780181,-832.982461,-22779.892120,3941.864245,4608.169747,-6471.254703,735.148875,5977.705834,-9414.308895,-6265.395137,2657.644767,53.510076,3098.801148,-26306.259788,-10377.691433,-0.000500,-0.007500,1.008000,192.000000,0.000000,0.000000,0.000000,0.000000,0.000000,0.000000,0.000000,0.000000,0.000000,1770887630.501923,0.000000
168.000000,-16384.722756,-10720.947173,-885.576115,-22846.165043,3894.523250,4571.289369,-6529.011611,686.153851,6019.950631,-9288.379167,-6147.176760,2756.394774,151.209551,3193.863117,-26182.498179,-10273.666414,-0.000500,-0.007500,1.008000,192.000000,0.000000,0.000000,0.000000,0.000000,0.000000,0.000000,0.000000,0.000000,0.000000,1770887630.501936,0.000000
170.000000,-16430.029742,-10764.130743,-922.948232,-22884.520636,3862.224980,4560.582883,-6560.505219,646.390098,5952.381307,-9461.985166,-6301.381445,2618.708029,6.146730,3060.222037,-26349.085730,-10410.749663,-0.000500,-0.007500,1.008000,192.000000,0.000000,0.000000,0.000000,0.000000,0.000000,0.000000,0.000000,0.000000,0.000000,1770887630.501950,0.000000
172.000000,-16308.123327,-10645.085352,-821.024277,-22763.530643,3958.315129,4616.641059,-6458.178932,745.497733,6001.443386,-9320.722141,-6184.615932,2728.164521,110.417618,3172.763070,-26209.722604,-10293.201839,-0.000500,-0.007500,1.008000,192.000000,0.000000,0.000000,127.500000,96.000000,15.500000,48.000000,0.000000,0.000000,0.000000,1770887630.501963,0.000000
174.000000,-16461.098666,-10797.770118,-946.730488,-22910.985102,3832.675973,4547.752982,-6587.997864,626.653508,5978.421089,-9384.290503,-6233.722715,2682.432852,77.180574,3124.528006,-26272.799226,-10339.380543,-0.000500,-0.007500,1.008000,192.000000,0.000000,0.000000,0.000000,0.000000,0.000000,0.000000,0.000000,0.000000,0.000000,1770887630.501976,0.000000
176.000000,-16322.964886,-10656.104762,-836.379926,-22780.629728,3952.727193,4621.267870,-6473.020491,733.047811,5974.084851,-9413.548936,-6268.636139,2659.835238,44.502323,3103.092683,-26306.058622,-10372.416421,-0.000500,-0.007500,1.008000,192.000000,0.000000,0.000000,0.000000,0.000000,0.000000,0.000000,0.000000,0.000000,0.000000,1770887630.501990,0.000000
178.000000,-16385.370956,-10719.874289,-886.224316,-22841.337066,3893.919753,4573.569247,-6526.508215,685.840927,6014.966192,-9287.373339,-6152.384717,2759.076984,145.666319,3210.537518,-26179.570100,-10268.033775,-0.000500,-0.007500,1.008000,192.000000,0.000000,0.000000,0.000000,0.000000,0.000000,0.000000,0.000000,0.000000,0.000000,1770887630.502005,0.000000
180.000000,-16424.777082,-10755.212397,-919.483712,-22879.223273,3859.587474,4567.802497,-6555.096096,648.692328,5956.762249,-9452.351564,-6300.755596,2627.156988,14.014544,3077.790508,-26352.438492,-10409.945000,-0.000500,-0.007500,1.008000,192.000000,0.000000,0.000000,0.000000,0.000000,0.000000,0.000000,0.000000,0.000000,0.000000,1770887630.502020,0.000000
182.000000,-16304.278827,-10631.786064,-817.895033,-22762.234242,3958.538647,4623.257175,-6454.692060,746.145933,6006.181956,-9311.155595,-6182.179592,2734.512417,120.028868,3176.294646,-26206.995691,-10291.905438,0.000750,-0.012750,1.007000,192.000000,0.000000,8.000000,127.500000,56.000000,15.500000,56.000000,0.000000,0.000000,0.000000,1770887630.502040,0.000000
184.000000,-16458.908195,-10785.163735,-945.791715,-22912.214448,3832.161883,4541.002755,-6586.679111,624.731258,5982.131479,-9371.259436,-6233.767418,2684.668027,70.475050,3137.357907,-26273.670944,-10343.448561,0.000750,-0.012750,1.007000,192.000000,0.000000,0.000000,0.000000,0.000000,0.000000,0.000000,0.000000,0.000000,0.000000,1770887630.502056,0.000000
186.000000,-16323.546031,-10658.183474,-838.816266,-22784.787152,3936.186902,4603.162957,-6474.138078,727.146951,5983.919619,-9408.430387,-6268.792602,2658.650596,47.318643,3112.078084,-26308.897294,-10383.368776,0.000750,-0.012750,1.007000,192.000000,0.000000,0.000000,0.000000,0.000000,0.000000,0.000000,0.000000,0.000000,0.000000,1770887630.502069,0.000000
188.000000,-16385.303901,-10720.768359,-886.224316,-22846.679133,3886.856602,4563.801535,-6527.268175,682.130537,6017.849567,-9293.676531,-6157.480914,2753.511399,146.761554,3202.177966,-26184.219263,-10278.874371,0.000750,-0.012750,1.007000,192.000000,0.000000,0.000000,0.000000,0.000000,0.000000,0.000000,0.000000,0.000000,0.000000,1770887630.502083,0.000000
190.000000,-16423.815957,-10758.811028,-921.495369,-22889.125096,3854.334814,4552.580959,-6559.365280,646.524208,5959.220941,-9454.385573,-6299.883878,2624.988869,8.381904,3080.562124,-26349.912745,-10416.941096,0.000750,-0.012750,1.007000,192.000000,0.000000,0.000000,0.000000,0.000000,0.000000,0.000000,0.000000,0.000000,0.000000,1770887630.502096,0.000000
192.000000,-16305.843449,-10639.564471,-818.520882,-22769.610318,3946.088725,4611.544861,-6456.413145,746.503561,6002.538622,-9318.352856,-6185.621761,2729.259757,116.162016,3170.505544,-26208.895589,-10300.510860,0.000750,-0.012750,1.007000,192.000000,0.000000,0.000000,127.500000,80.000000,15.500000,56.000000,0.000000,0.000000,0.000000,1770887630.502110,0.000000
194.000000,-16465.233739,-10796.898400,-954.263026,-22918.204715,3818.840244,4530.542139,-6589.026044,620.752647,5966.619368,-9383.754061,-6239.645927,2682.142279,63.031919,3135.234491,-26279.482398,-10349.617642,0.000750,-0.012750,1.007000,192.000000,0.000000,0.000000,0.000000,0.000000,0.000000,0.000000,0.000000,0.000000,0.000000,1770887630.981437,0.000000
196.000000,-16324.261287,-10651.969689,-848.606330,-22784.049545,3936.700992,4607.789768,-6477.982578,723.570672,5966.149982,-9412.140776,-6279.588494,2654.806096,31.828884,3117.196633,-26318.173268,-10380.395994,0.000750,-0.012750,1.007000,192.000000,0.000000,0.000000,0.000000,0.000000,0.000000,0.000000,0.000000,0.000000,0.000000,1770887630.981511,0.000000
198.000000,-16387.337910,-10723.495272,-892.840432,-22845.069807,3894.433843,4579.537163,-6531.157378,677.839002,6003.656209,-9292.804813,-6168.232103,2752.729088,127.047315,3213.912632,-26184.040449,-10268.145534,0.000750,-0.012750,1.007000,192.000000,0.000000,0.000000,0.000000,0.000000,0.000000,0.000000,0.000000,0.000000,0.000000,1770887630.981566,0.000000
200.000000,-16423.994771,-10758.900435,-924.311688,-22884.118305,3864.527209,4570.909389,-6564.059146,645.741897,5955.018813,-9454.296166,-6307.327009,2625.190035,17.412009,3091.849755,-26343.453091,-10407.151032,0.000750,-0.012750,1.007000,192.000000,0.000000,0.000000,0.000000,0.000000,0.000000,0.000000,0.000000,0.000000,0.000000,1770887630.981621,0.000000
202.000000,-16301.484859,-10631.987230,-823.572376,-22761.474283,3966.674682,4629.694477,-6460.995252,749.029308,6002.560973,-9314.888336,-6188.974522,2732.277242,119.470074,3192.656123,-26206.526304,-10294.386482,0.000750,-0.012750,1.007000,192.000000,0.000000,0.000000,0.000000,0.000000,0.000000,0.000000,0.000000,0.000000,0.000000,1770887630.981675,0.000000
204.000000,-16456.248338,-10790.438746,-950.083250,-22912.125041,3838.353317,4541.449790,-6590.925943,623.300746,5980.566857,-9375.662729,-6235.488502,2687.193774,61.422594,3143.147009,-26266.451331,-10339.894633,-0.002000,-0.014000,1.006000,192.000000,127.500000,120.000000,127.500000,72.000000,15.500000,56.000000,0.000000,0.000000,0.000000,1770887630.981730,0.000000
206.000000,-16324.775377,-10667.593559,-839.866798,-22788.877522,3932.767085,4606.515718,-6478.474316,721.469608,5977.415261,-9417.751064,-6272.614750,2653.554398,45.843428,3109.239412,-26309.903122,-10380.038366,-0.002000,-0.014000,1.006000,192.000000,0.000000,0.000000,0.000000,0.000000,0.000000,0.000000,0.000000,0.000000,0.000000,1770887630.981768,0.000000
208.000000,-16386.846171,-10726.490405,-889.264153,-22849.070769,3880.642817,4568.048366,-6532.006744,675.559124,6010.652305,-9298.906839,-6162.554760,2744.995385,141.352432,3212.303306,-26184.934519,-10269.330176,-0.002000,-0.014000,1.006000,192.000000,0.000000,0.000000,0.000000,0.000000,0.000000,0.000000,0.000000,0.000000,0.000000,1770887630.981787,0.000000
210.000000,-16423.435977,-10761.403830,-927.619747,-22890.041517,3842.242520,4549.518770,-6566.428431,642.165618,5956.002290,-9460.979338,-6308.466948,2616.115226,6.929041,3075.935313,-26354.696018,-10409.542669,-0.002000,-0.014000,1.006000,192.000000,0.000000,0.000000,0.000000,0.000000,0.000000,0.000000,0.000000,0.000000,0.000000,1770887630.981815,0.000000
212.000000,-16293.035900,-10628.612116,-818.945565,-22763.977678,3945.753449,4602.894736,-6458.268339,750.996262,6007.299543,-9320.900955,-6188.974522,2729.282108,107.780112,3181.837878,-26212.673034,-10300.332046,-0.002000,-0.014000,1.006000,192.000000,0.000000,0.000000,0.000000,0.000000,0.000000,0.000000,0.000000,0.000000,0.000000,1770887630.981834,0.000000
214.000000,-16463.445599,-10796.518421,-950.798506,-22920.171669,3819.108465,4524.507168,-6589.562486,624.664202,5976.789412,-9377.920255,-6236.226110,2692.088806,71.659693,3146.723288,-26270.318183,-10346.443694,0.002000,-0.012000,1.006000,192.000000,0.000000,8.000000,127.500000,80.000000,15.500000,56.000000,0.000000,0.000000,0.000000,1770887630.981853,0.000000
216.000000,-16335.951249,-10668.957015,-847.801667,-22799.226379,3924.407533,4593.976390,-6480.508325,723.727134,5960.115011,-9425.596526,-6282.985959,2647.407669,26.308003,3089.972209,-26317.323901,-10393.069433,0.002000,-0.012000,1.006000,192.000000,0.000000,0.000000,0.000000,0.000000,0.000000,0.000000,0.000000,0.000000,0.000000,1770887630.981873,0.000000
218.000000,-16393.372881,-10727.250365,-889.085339,-22850.993019,3881.670997,4562.594540,-6530.151550,679.135404,5997.978866,-9302.460766,-6163.381775,2744.771867,128.455475,3206.424797,-26184.196911,-10278.382633,0.002000,-0.012000,1.006000,192.000000,0.000000,0.000000,0.000000,0.000000,0.000000,0.000000,0.000000,0.000000,0.000000,1770887630.981891,0.000000
220.000000,-16430.342666,-10763.840170,-926.211587,-22885.995851,3854.915959,4549.474066,-6562.986262,640.243368,5947.776848,-9460.085268,-6309.070445,2617.523386,5.207956,3083.087871,-26349.868041,-10410.883774,0.002000,-0.012000,1.006000,192.000000,0.000000,0.000000,0.000000,0.000000,0.000000,0.000000,0.000000,0.000000,0.000000,1770887630.981910,0.000000
222.000000,-16310.917295,-10642.246681,-827.081600,-22761.518986,3961.690242,4613.131835,-6459.743555,740.312128,6000.683427,-9318.106987,-6197.065854,2726.175216,119.112446,3195.181870,-26207.174505,-10294.341778,0.002000,-0.012000,1.006000,192.000000,0.000000,0.000000,0.000000,0.000000,0.000000,0.000000,0.000000,0.000000,0.000000,1770887630.981929,0.000000
224.000000,-16464.384373,-10797.233677,-957.302863,-22913.689663,3832.139532,4539.572244,-6591.283571,620.797351,5971.626159,-9374.299273,-6244.228035,2688.736044,73.157260,3156.915683,-26271.994564,-10335.759561,0.002000,-0.014000,1.006000,192.000000,0.000000,8.000000,127.500000,72.000000,15.500000,56.000000,0.000000,0.000000,0.000000,1770887630.981948,0.000000
226.000000,-16339.572232,-10680.065832,-851.154429,-22794.688975,3943.428867,4608.616782,-6485.224543,716.216948,5963.020738,-9424.233070,-6285.310541,2644.434887,38.422649,3104.210270,-26309.701956,-10380.284236,0.002000,-0.014000,1.006000,192.000000,0.000000,0.000000,0.000000,0.000000,0.000000,0.000000,0.000000,0.000000,0.000000,1770887630.981966,0.000000
228.000000,-16397.262084,-10734.693496,-895.612049,-22843.996923,3905.028570,4575.893828,-6530.687991,675.447366,6002.538622,-9300.516164,-6172.635397,2742.961376,127.539054,3210.626925,-26178.541920,-10264.993938,0.002000,-0.014000,1.006000,192.000000,0.000000,0.000000,0.000000,0.000000,0.000000,0.000000,0.000000,0.000000,0.000000,1770887630.981985,0.000000
230.000000,-16440.646820,-10774.501952,-930.234901,-22889.549779,3868.461116,4556.313700,-6566.070803,634.051935,5943.418258,-9460.420544,-6321.028628,2615.958764,-2.592802,3090.039264,-26343.453091,-10408.514489,0.002000,-0.014000,1.006000,192.000000,0.000000,0.000000,0.000000,0.000000,0.000000,0.000000,0.000000,0.000000,0.000000,1770887630.982003,0.000000
232.000000,-16311.856069,-10648.192245,-824.555853,-22766.816350,3957.711632,4611.209585,-6460.637624,734.254805,5993.150889,-9326.801816,-6204.844261,2721.950736,111.758722,3185.391806,-26208.493258,-10299.013293,0.002000,-0.014000,1.006000,192.000000,0.000000,0.000000,0.000000,0.000000,0.000000,0.000000,0.000000,0.000000,0.000000,1770887630.982022,0.000000
234.000000,-16470.329937,-10808.968342,-950.887913,-22924.150279,3831.692497,4527.614060,-6594.368111,607.609821,5967.535790,-9382.032976,-6250.151247,2679.124794,70.296236,3149.181980,-26270.362886,-10342.018049,-0.002000,-0.016000,0.998000,192.000000,127.500000,120.000000,127.500000,64.000000,15.500000,24.000000,0.000000,0.000000,0.000000,1770887630.982041,0.000000
236.000000,-16337.560575,-10676.802477,-848.427516,-22800.388670,3938.377373,4604.928744,-6487.683235,706.784511,5964.585360,-9428.077570,-6295.212364,2638.243453,39.719050,3111.273421,-26308.718480,-10381.334768,-0.002000,-0.016000,0.998000,192.000000,0.000000,0.000000,0.000000,0.000000,0.000000,0.000000,0.000000,0.000000,0.000000,1770887630.982059,0.000000
238.000000,-16388.924883,-10725.328115,-891.991066,-22845.963877,3890.343474,4573.815116,-6531.894986,674.083909,6004.013837,-9299.800909,-6180.525563,2739.943891,139.541941,3208.458806,-26181.291185,-10266.603263,-0.002000,-0.016000,0.998000,192.000000,0.000000,0.000000,0.000000,0.000000,0.000000,0.000000,0.000000,0.000000,0.000000,1770887630.982078,0.000000
240.000000,-16427.235773,-10765.807124,-931.732468,-22888.409840,3852.904302,4557.900674,-6565.064974,640.735107,5954.817647,-9451.546902,-6314.367809,2622.686639,8.650125,3095.023703,-26347.275239,-10404.446471,-0.002000,-0.016000,0.998000,192.000000,0.000000,0.000000,0.000000,0.000000,0.000000,0.000000,0.000000,0.000000,0.000000,1770887630.982097,0.000000
242.000000,-16295.293426,-10635.250585,-825.248757,-22769.744428,3956.482286,4616.730465,-6459.117706,747.934073,6005.600811,-9321.772673,-6194.763624,2723.761228,109.724714,3182.687245,-26211.890723,-10296.800470,-0.002000,-0.016000,0.998000,192.000000,0.000000,0.000000,0.000000,0.000000,0.000000,0.000000,0.000000,0.000000,0.000000,1770887630.982119,0.000000
244.000000,-16457.254166,-10792.696272,-953.704232,-22913.935532,3827.557424,4529.581014,-6590.054225,625.804141,5980.633912,-9372.578188,-6232.716886,2688.803099,71.078547,3148.734945,-26270.966383,-10345.504921,-0.002000,-0.016000,0.998000,192.000000,0.000000,0.000000,127.500000,72.000000,15.500000,24.000000,0.000000,0.000000,0.000000,1770887630.982138,0.000000
246.000000,-16333.246688,-10667.124172,-852.830810,-22792.789077,3929.816655,4601.754797,-6483.235238,725.023535,5964.227732,-9417.996933,-6279.297922,2656.527180,26.017431,3112.145139,-26316.988625,-10380.731270,-0.002000,-0.016000,0.998000,192.000000,0.000000,0.000000,0.000000,0.000000,0.000000,0.000000,0.000000,0.000000,0.000000,1770887630.982157,0.000000
248.000000,-16394.132840,-10728.390304,-893.153357,-22843.751054,3879.972265,4568.361290,-6530.330364,684.119843,5999.901116,-9293.944751,-6166.019281,2752.349109,133.618728,3211.386885,-26184.040449,-10266.446801,-0.002000,-0.016000,0.998000,192.000000,0.000000,0.000000,0.000000,0.000000,0.000000,0.000000,0.000000,0.000000,0.000000,1770887630.982176,0.000000
250.000000,-16441.406779,-10781.453345,-932.157151,-22891.360270,3845.952910,4552.156276,-6568.015405,640.600996,5938.143246,-9460.956986,-6313.429035,2621.278479,-8.046628,3083.713720,-26351.656181,-10404.535878,-0.002000,-0.016000,0.998000,192.000000,0.000000,0.000000,0.000000,0.000000,0.000000,0.000000,0.000000,0.000000,0.000000,1770887630.982195,0.000000
252.000000,-16315.074720,-10653.713125,-822.834769,-22766.592832,3948.033327,4611.522509,-6461.531694,742.480247,5993.061482,-9330.579261,-6197.289371,2719.268527,102.102769,3180.116794,-26210.907246,-10295.928752,-0.002000,-0.016000,0.998000,192.000000,0.000000,0.000000,0.000000,0.000000,0.000000,0.000000,0.000000,0.000000,0.000000,1770887630.982213,0.000000
254.000000,-16466.865416,-10803.581572,-949.144477,-22919.277599,3826.082209,4532.598499,-6592.781138,618.830397,5973.079023,-9376.154468,-6239.109485,2686.299704,67.770489,3146.388012,-26267.971250,-10338.598232,-0.002000,-0.014000,0.996000,192.000000,127.500000,120.000000,127.500000,72.000000,15.500000,16.000000,0.000000,0.000000,0.000000,1770887630.982233,0.000000
0.000000,-16340.131025,-10674.410841,-849.209827,-22796.722984,3919.668963,4599.206698,-6487.169145,715.367581,5965.144153,-9423.249593,-6286.629294,2645.999509,35.829846,3110.692276,-26314.999320,-10382.742927,-0.002000,-0.014000,0.996000,192.000000,0.000000,0.000000,0.000000,0.000000,0.000000,0.000000,0.000000,0.000000,0.000000,1770887630.982252,0.000000
2.000000,-16387.628482,-10726.490405,-885.598467,-22843.952220,3887.884782,4572.138735,-6528.117541,688.389026,6002.851546,-9292.983626,-6164.633473,2753.913731,133.842246,3222.741571,-26182.945214,-10271.185371,-0.002000,-0.014000,0.996000,192.000000,0.000000,0.000000,0.000000,0.000000,0.000000,0.000000,0.000000,0.000000,0.000000,1770887630.982272,0.000000
4.000000,-16431.035570,-10771.775040,-928.178540,-22889.415668,3851.138514,4553.363270,-6565.623768,652.201551,5953.096563,-9452.418620,-6299.369788,2629.123942,10.550023,3095.224869,-26347.945791,-10411.308457,-0.002000,-0.014000,0.996000,192.000000,0.000000,0.000000,0.000000,0.000000,0.000000,0.000000,0.000000,0.000000,0.000000,1770887630.982290,0.000000
6.000000,-16298.422670,-10640.927928,-823.505321,-22764.715286,3953.040117,4612.260117,-6460.391755,753.320843,6006.271363,-9324.343124,-6186.292313,2730.153826,105.053199,3182.508431,-26214.103545,-10300.957894,-0.002000,-0.014000,0.996000,192.000000,0.000000,0.000000,0.000000,0.000000,0.000000,0.000000,0.000000,0.000000,0.000000,1770887630.982309,0.000000
8.000000,-16458.192940,-10800.854659,-951.893741,-22914.673139,3833.145360,4539.259319,-6592.982303,622.183159,5979.203401,-9376.065061,-6234.482674,2689.317189,65.736480,3142.074125,-26268.060657,-10337.994735,-0.002000,-0.016000,0.994000,192.000000,127.500000,120.000000,127.500000,64.000000,15.500000,8.000000,0.000000,0.000000,0.000000,1770887630.982327,0.000000
10.000000,-16330.609182,-10673.293254,-848.472220,-22788.519894,3927.916757,4597.396207,-6484.174011,723.749485,5975.090680,-9415.895869,-6282.762442,2651.788610,34.086410,3122.315183,-26314.485230,-10381.155954,-0.002000,-0.016000,0.994000,192.000000,0.000000,0.000000,0.000000,0.000000,0.000000,0.000000,0.000000,0.000000,0.000000,1770887630.982346,0.000000
12.000000,-16381.124125,-10719.516661,-890.046464,-22840.040665,3893.919753,4576.027939,-6526.798788,688.657247,6010.540546,-9291.128432,-6164.052327,2756.171257,140.145438,3209.911669,-26184.174560,-10269.799563,-0.002000,-0.016000,0.994000,192.000000,0.000000,0.000000,0.000000,0.000000,0.000000,0.000000,0.000000,0.000000,0.000000,1770887630.982365,0.000000
14.000000,-16428.621582,-10768.489333,-935.532264,-22887.873398,3851.317328,4550.144619,-6569.155344,641.070383,5952.358955,-9446.271890,-6310.411550,2631.560282,6.236137,3091.983866,-26349.711579,-10406.502832,-0.002000,-0.016000,0.994000,192.000000,0.000000,0.000000,0.000000,0.000000,0.000000,0.000000,0.000000,0.000000,0.000000,1770887630.982383,0.000000
16.000000,-16304.479993,-10646.337050,-829.875568,-22762.882443,3952.861303,4606.426311,-6461.419935,743.173151,6004.326761,-9317.123510,-6199.524546,2729.192701,104.762626,3183.447204,-26215.176429,-10300.019121,-0.002000,-0.016000,0.994000,192.000000,0.000000,0.000000,0.000000,0.000000,0.000000,0.000000,0.000000,0.000000,0.000000,1770887630.982402,0.000000
18.000000,-16466.217216,-10808.387197,-958.755727,-22919.501116,3821.813026,4523.099008,-6593.786966,617.645755,5974.017796,-9376.445040,-6244.630366,2687.417291,57.645149,3147.438544,-26270.832273,-10338.173549,-0.002000,-0.016000,0.994000,192.000000,0.000000,0.000000,127.500000,72.000000,15.500000,56.000000,0.000000,0.000000,0.000000,1770887630.982438,0.000000
20.000000,-16334.498386,-10679.954073,-851.601464,-22798.533475,3926.799169,4598.737311,-6483.592866,723.548320,5970.597979,-9425.820044,-6282.538925,2646.133619,29.146675,3107.987715,-26316.832163,-10388.397919,-0.002000,-0.016000,0.994000,192.000000,0.000000,0.000000,0.000000,0.000000,0.000000,0.000000,0.000000,0.000000,0.000000,1770887630.982458,0.000000
22.000000,-16385.236846,-10725.864557,-891.253458,-22847.081464,3893.472718,4571.356424,-6529.123369,685.505651,6011.881651,-9294.548249,-6163.538237,2751.209170,130.064801,3207.363571,-26182.408772,-10271.386537,-0.002000,-0.016000,0.994000,192.000000,0.000000,0.000000,0.000000,0.000000,0.000000,0.000000,0.000000,0.000000,0.000000,1770887630.982476,0.000000
24.000000,-16429.962686,-10769.539865,-930.637232,-22895.182418,3853.328985,4552.737421,-6567.747184,641.293900,5958.371575,-9451.301032,-6306.477643,2628.676907,0.827015,3097.080063,-26348.214012,-10410.414387,-0.002000,-0.016000,0.994000,192.000000,0.000000,0.000000,0.000000,0.000000,0.000000,0.000000,0.000000,0.000000,0.000000,1770887630.982495,0.000000
26.000000,-16299.741423,-10638.201015,-824.444094,-22764.245899,3953.643614,4610.784901,-6462.917502,745.095401,6004.192651,-9318.576374,-6198.518717,2730.265585,105.924917,3190.488004,-26213.634159,-10303.081310,-0.002000,-0.016000,0.994000,192.000000,0.000000,0.000000,0.000000,0.000000,0.000000,0.000000,0.000000,0.000000,0.000000,1770887630.982514,0.000000
28.000000,-16457.678849,-10793.836211,-951.603168,-22914.919009,3821.544805,4528.284613,-6594.971609,625.379458,5980.611560,-9368.577226,-6235.577909,2694.502794,73.537239,3164.045890,-26271.391066,-10338.218252,-0.002000,-0.013000,0.999000,192.000000,127.500000,120.000000,127.500000,88.000000,15.500000,48.000000,0.000000,0.000000,0.000000,1770887630.982533,0.000000
30.000000,-16334.230165,-10674.544951,-849.209827,-22796.946501,3923.647573,4590.288352,-6485.649226,722.408381,5969.949778,-9416.387608,-6280.728433,2654.314358,23.826960,3112.078084,-26319.380262,-10385.939227,-0.002000,-0.013000,0.999000,192.000000,0.000000,0.000000,0.000000,0.000000,0.000000,0.000000,0.000000,0.000000,0.000000,1770887630.982552,0.000000
32.000000,-16392.568218,-10732.860653,-891.096996,-22846.343857,3881.536887,4555.352575,-6530.464474,678.330741,6009.512366,-9292.983626,-6163.493534,2753.489048,131.785885,3212.191547,-26183.325193,-10272.392365,-0.002000,-0.013000,0.999000,192.000000,0.000000,0.000000,0.000000,0.000000,0.000000,0.000000,0.000000,0.000000,0.000000,1770887630.982571,0.000000
34.000000,-16439.596288,-10778.815839,-939.890854,-22896.657633,3841.706078,4538.074677,-6573.111602,631.526188,5943.664127,-9464.019175,-6320.179262,2620.362058,-4.224480,3087.781738,-26353.645486,-10409.699131,-0.002000,-0.013000,0.999000,192.000000,0.000000,0.000000,0.000000,0.000000,0.000000,0.000000,0.000000,0.000000,0.000000,1770887630.982590,0.000000
36.000000,-16312.012531,-10649.712163,-831.037859,-22772.761914,3953.844780,4603.207660,-6466.180857,734.835951,5991.228639,-9328.589955,-6208.241726,2722.241309,96.157205,3183.983646,-26215.042319,-10303.193069,-0.002000,-0.013000,0.999000,192.000000,0.000000,0.000000,0.000000,0.000000,0.000000,0.000000,0.000000,0.000000,0.000000,1770887630.982609,0.000000
38.000000,-16469.704088,-10810.175337,-961.080308,-22926.988951,3828.384439,4519.858005,-6598.793757,610.962583,5964.294787,-9382.100032,-6245.412677,2679.750643,61.333187,3159.039099,-26266.272517,-10342.755657,0.000000,-0.012500,0.998500,192.000000,0.000000,8.000000,127.500000,80.000000,15.500000,24.000000,0.000000,0.000000,0.000000,1770887630.982627,0.000000
40.000000,-16340.756874,-10679.149411,-857.904656,-22803.003824,3928.453198,4590.534221,-6492.444157,710.226680,5954.839999,-9431.877367,-6296.620524,2638.131695,14.573337,3106.646610,-26319.067337,-10390.230762,0.000000,-0.012500,0.998500,192.000000,0.000000,0.000000,0.000000,0.000000,0.000000,0.000000,0.000000,0.000000,0.000000,1770887630.982646,0.000000
42.000000,-16380.274758,-10716.141548,-891.812252,-22843.169909,3884.912000,4559.085317,-6529.302183,686.913811,6001.890421,-9288.692092,-6171.338996,2753.913731,130.981223,3211.006905,-26183.146379,-10267.922016,0.000000,-0.012500,0.998500,192.000000,0.000000,0.000000,0.000000,0.000000,0.000000,0.000000,0.000000,0.000000,0.000000,1770887630.982664,0.000000
44.000000,-16429.314486,-10765.382441,-938.035660,-22893.707203,3841.460209,4540.399258,-6571.546980,645.071345,5950.213188,-9450.183445,-6313.339628,2629.682735,-1.475215,3094.688427,-26354.651315,-10410.168518,0.000000,-0.012500,0.998500,192.000000,0.000000,0.000000,0.000000,0.000000,0.000000,0.000000,0.000000,0.000000,0.000000,1770887630.982683,0.000000
46.000000,-16296.567475,-10637.351648,-827.372173,-22767.732771,3941.841893,4604.615820,-6459.564741,755.757184,6005.287886,-9320.476272,-6193.578982,2731.852559,104.784978,3186.554097,-26225.659397,-10301.941371,0.000000,-0.012500,0.998500,192.000000,0.000000,0.000000,0.000000,0.000000,0.000000,0.000000,0.000000,0.000000,0.000000,1770887630.982701,0.000000
48.000000,-16454.817826,-10800.094700,-955.000634,-22913.779070,3820.449569,4524.909499,-6589.629542,629.089848,5976.945874,-9373.136982,-6229.028848,2688.758396,54.135925,3156.200428,-26275.146160,-10337.257127,0.000000,-0.012500,0.998500,192.000000,0.000000,0.000000,127.500000,80.000000,15.500000,32.000000,0.000000,0.000000,0.000000,1770887630.982720,0.000000
50.000000,-16329.737464,-10675.930759,-851.065022,-22796.343004,3919.758370,4587.404977,-6485.760985,720.732000,5968.519267,-9423.786035,-6276.436898,2646.468895,26.397410,3118.291869,-26324.677625,-10387.973236,0.000000,-0.012500,0.998500,192.000000,0.000000,0.000000,0.000000,0.000000,0.000000,0.000000,0.000000,0.000000,0.000000,1770887630.982743,0.000000
52.000000,-16379.626558,-10723.405865,-883.765624,-22841.649990,3888.398872,4557.855971,-6525.927070,685.125671,6011.725189,-9289.429699,-6157.190342,2753.421992,131.294147,3220.260527,-26184.375725,-10274.046394,0.000000,-0.012500,0.998500,192.000000,0.000000,0.000000,0.000000,0.000000,0.000000,0.000000,0.000000,0.000000,0.000000,1770887630.982762,0.000000
54.000000,-16433.918945,-10774.747822,-932.850055,-22890.130924,3853.932482,4541.360383,-6571.301111,636.063592,5954.549426,-9456.754858,-6307.796396,2622.329011,8.851291,3093.839061,-26347.543460,-10407.978047,0.000000,-0.012500,0.998500,192.000000,0.000000,0.000000,0.000000,0.000000,0.000000,0.000000,0.000000,0.000000,0.000000,1770887630.982781,0.000000
56.000000,-16300.054348,-10641.352611,-825.941661,-22767.106923,3961.399670,4605.867518,-6463.811572,741.049736,5997.688293,-9324.611345,-6200.843299,2721.436646,98.302972,3191.627943,-26217.858639,-10301.181412,0.000000,-0.012500,0.998500,192.000000,0.000000,0.000000,0.000000,0.000000,0.000000,0.000000,0.000000,0.000000,0.000000,1770887630.982799,0.000000
58.000000,-16461.143370,-10799.155927,-958.331044,-22921.915105,3833.301822,4527.614060,-6598.011446,614.114179,5977.392909,-9374.276921,-6237.678973,2685.182117,63.903637,3162.883599,-26261.109264,-10329.188148,0.000000,-0.012500,0.998500,192.000000,0.000000,0.000000,127.500000,64.000000,15.500000,64.000000,0.000000,0.000000,0.000000,1770887631.462313,0.000000
60.000000,-16330.206851,-10674.388489,-855.736536,-22797.549998,3929.749600,4587.941419,-6492.108881,712.975945,5966.373499,-9428.502253,-6289.803241,2641.707974,18.395486,3116.637840,-26317.592122,-10382.787631,0.000000,-0.012500,0.998500,192.000000,0.000000,0.000000,0.000000,0.000000,0.000000,0.000000,0.000000,0.000000,0.000000,1770887631.462387,0.000000
62.000000,-16380.967662,-10724.746969,-890.806424,-22841.627639,3888.890611,4555.017299,-6529.816273,684.119843,6008.081854,-9293.877696,-6165.259321,2750.449210,128.746048,3210.738684,-26180.687687,-10272.526475,0.000000,-0.012500,0.998500,192.000000,0.000000,0.000000,0.000000,0.000000,0.000000,0.000000,0.000000,0.000000,0.000000,1770887631.462440,0.000000
64.000000,-16435.461215,-10778.637025,-932.626537,-22896.277654,3841.974299,4536.577110,-6567.411908,648.267644,5948.045069,-9458.699460,-6300.979114,2622.127846,-5.252660,3080.495069,-26348.459881,-10409.676779,0.000000,-0.012500,0.998500,192.000000,0.000000,0.000000,0.000000,0.000000,0.000000,0.000000,0.000000,0.000000,0.000000,1770887631.462498,0.000000
66.000000,-16298.981464,-10640.212672,-823.728838,-22765.162321,3947.943920,4597.105634,-6456.949587,758.193524,6000.772834,-9326.377133,-6182.894848,2727.806893,101.767493,3189.169251,-26216.249313,-10306.367017,0.000000,-0.012500,0.998500,192.000000,0.000000,0.000000,0.000000,0.000000,0.000000,0.000000,0.000000,0.000000,0.000000,1770887631.462551,0.000000
68.000000,-16446.704143,-10783.912037,-951.804334,-22910.403956,3817.052104,4525.736514,-6587.506126,634.409563,5981.527982,-9363.257511,-6223.329153,2698.324942,67.099937,3158.882637,-26269.155892,-10341.414552,0.002000,-0.014250,1.003250,192.000000,0.000000,16.000000,127.500000,64.000000,15.500000,64.000000,0.000000,0.000000,0.000000,1770887631.462625,0.000000
70.000000,-16321.422615,-10659.345765,-851.668519,-22790.084516,3916.606774,4595.429253,-6484.822212,725.247052,5982.153831,-9405.636419,-6276.660416,2661.243398,31.426553,3133.356945,-26324.454108,-10387.101518,0.002000,-0.014250,1.003250,192.000000,0.000000,0.000000,0.000000,0.000000,0.000000,0.000000,0.000000,0.000000,0.000000,1770887631.462645,0.000000
72.000000,-16369.948252,-10710.531260,-886.291371,-22837.291400,3887.370692,4572.295198,-6525.010648,688.232564,6017.402532,-9275.973949,-6162.420650,2762.832077,141.486542,3233.023373,-26186.365031,-10269.084307,0.002000,-0.014250,1.003250,192.000000,0.000000,0.000000,0.000000,0.000000,0.000000,0.000000,0.000000,0.000000,0.000000,1770887631.462663,0.000000
74.000000,-16435.170643,-10777.318272,-937.342755,-22893.103706,3850.691480,4539.952223,-6575.279722,630.386249,5958.438630,-9447.434181,-6310.411550,2623.871282,5.543233,3090.709816,-26349.711579,-10400.713730,0.002000,-0.014250,1.003250,192.000000,0.000000,0.000000,0.000000,0.000000,0.000000,0.000000,0.000000,0.000000,0.000000,1770887631.462682,0.000000
76.000000,-16311.051406,-10653.802532,-828.981498,-22775.198254,3966.249998,4606.180442,-6466.359671,732.600776,6000.884593,-9332.210938,-6207.839395,2715.848710,111.378743,3178.798041,-26216.115202,-10297.113394,0.002000,-0.014250,1.003250,192.000000,0.000000,0.000000,0.000000,0.000000,0.000000,0.000000,0.000000,0.000000,0.000000,1770887631.462701,0.000000
78.000000,-16469.815847,-10812.522270,-959.761555,-22922.071567,3829.971412,4515.812339,-6597.363245,610.314382,5973.280188,-9382.234142,-6246.127933,2679.415367,69.133946,3147.416192,-26260.058732,-10331.222156,-0.001000,-0.013125,1.006625,192.000000,127.500000,112.000000,127.500000,80.000000,15.500000,72.000000,0.000000,0.000000,0.000000,1770887631.462720,0.000000
80.000000,-16346.501272,-10692.806326,-863.291426,-22807.027138,3915.310373,4576.631436,-6493.405282,710.226680,5957.745726,-9440.952175,-6299.950933,2634.398953,14.573337,3094.308447,-26320.922532,-10385.939227,-0.001000,-0.013125,1.006625,192.000000,0.000000,0.000000,0.000000,0.000000,0.000000,0.000000,0.000000,0.000000,0.000000,1770887631.462741,0.000000
82.000000,-16388.768421,-10736.280469,-891.789900,-22847.975534,3888.912963,4555.173761,-6527.089361,685.393892,5995.900154,-9308.674551,-6170.824906,2740.033298,116.385533,3202.177966,-26186.029754,-10268.503161,-0.001000,-0.013125,1.006625,192.000000,0.000000,0.000000,0.000000,0.000000,0.000000,0.000000,0.000000,0.000000,0.000000,1770887631.462769,0.000000
84.000000,-16440.132730,-10783.599112,-938.192122,-22901.105631,3841.281395,4533.961956,-6571.234056,637.918787,5941.652470,-9466.187294,-6310.724474,2613.969459,-11.600555,3071.643778,-26351.298553,-10408.626247,-0.001000,-0.013125,1.006625,192.000000,0.000000,0.000000,0.000000,0.000000,0.000000,0.000000,0.000000,0.000000,0.000000,1770887631.462788,0.000000
86.000000,-16308.056272,-10650.919157,-827.126304,-22771.577271,3943.473571,4594.490480,-6461.442287,745.944768,5983.897267,-9333.529691,-6202.832604,2716.362800,85.987161,3168.091556,-26224.139479,-10309.406854,-0.001000,-0.013125,1.006625,192.000000,0.000000,0.000000,0.000000,0.000000,0.000000,0.000000,0.000000,0.000000,0.000000,1770887631.462808,0.000000
88.000000,-16458.237643,-10797.479546,-954.643006,-22921.088090,3818.393209,4521.892014,-6591.261219,626.631156,5960.182066,-9373.047575,-6236.896662,2687.707864,63.098975,3151.908893,-26271.771046,-10338.866453,-0.001000,-0.013125,1.006625,192.000000,0.000000,0.000000,0.000000,0.000000,0.000000,0.000000,0.000000,0.000000,0.000000,1770887631.462827,0.000000
90.000000,-16330.385665,-10676.176629,-854.082507,-22799.248731,3922.842911,4585.661541,-6487.638532,724.062410,5960.159714,-9426.982334,-6285.198782,2645.060735,19.535425,3112.502767,-26324.342349,-10390.476631,-0.002000,-0.010000,1.000000,192.000000,127.500000,120.000000,127.500000,88.000000,15.500000,32.000000,0.000000,0.000000,0.000000,1770887631.462846,0.000000
92.000000,-16375.267968,-10724.389341,-887.990104,-22843.371075,3894.478547,4563.376851,-6528.117541,687.383197,6010.764064,-9292.916571,-6158.397336,2749.599844,129.796580,3209.464635,-26185.336850,-10269.665452,-0.002000,-0.010000,1.000000,192.000000,0.000000,0.000000,0.000000,0.000000,0.000000,0.000000,0.000000,0.000000,0.000000,1770887631.462866,0.000000
94.000000,-16425.782910,-10774.881932,-934.861712,-22897.417593,3852.323157,4539.259319,-6573.290416,636.041240,5957.276339,-9455.480809,-6305.114186,2617.232814,5.654991,3086.194764,-26348.616344,-10410.459091,-0.002000,-0.010000,1.000000,192.000000,0.000000,0.000000,0.000000,0.000000,0.000000,0.000000,0.000000,0.000000,0.000000,1770887631.462884,0.000000
96.000000,-16295.248722,-10643.341916,-820.778408,-22766.011687,3959.790344,4609.779073,-6461.554046,743.083744,6010.249974,-9324.387827,-6197.423482,2717.994478,104.561461,3186.442338,-26215.355243,-10299.952066,-0.002000,-0.010000,1.000000,192.000000,0.000000,0.000000,0.000000,0.000000,0.000000,0.000000,0.000000,0.000000,0.000000,1770887631.462903,0.000000
98.000000,-16456.695373,-10799.379444,-950.798506,-22918.472936,3837.146322,4535.526578,-6594.748091,617.109313,5985.283075,-9370.946511,-6235.153226,2686.344407,77.940533,3162.123640,-26259.991677,-10328.808168,-0.002000,-0.010000,1.000000,192.000000,0.000000,0.000000,0.000000,0.000000,0.000000,0.000000,0.000000,0.000000,0.000000,1770887631.462922,0.000000
100.000000,-16345.137816,-10690.481745,-858.686967,-22806.222475,3926.799169,4590.333055,-6496.020436,702.694142,5960.316176,-9432.145587,-6298.855698,2632.901386,19.937756,3112.592174,-26320.028462,-10378.585503,-0.002000,-0.010000,1.000000,192.000000,0.000000,0.000000,127.500000,80.000000,15.500000,32.000000,0.000000,0.000000,0.000000,1770887631.462942,0.000000
102.000000,-16390.176581,-10735.364048,-890.158223,-22844.131034,3898.077178,4562.169857,-6532.632593,670.597037,5999.275267,-9302.304304,-6177.217505,2737.909882,132.612900,3207.587088,-26179.883025,-10260.300071,-0.002000,-0.010000,1.000000,192.000000,0.000000,0.000000,0.000000,0.000000,0.000000,0.000000,0.000000,0.000000,0.000000,1770887631.462961,0.000000
104.000000,-16450.638050,-10795.691406,-942.126029,-22907.341767,3845.707041,4534.565453,-6581.471155,615.924670,5939.573758,-9469.495352,-6325.007239,2605.431092,-5.923212,3081.769119,-26345.598858,-10400.512564,-0.002000,-0.010000,1.000000,192.000000,0.000000,0.000000,0.000000,0.000000,0.000000,0.000000,0.000000,0.000000,0.000000,1770887631.462979,0.000000
106.000000,-16305.932856,-10651.500303,-822.611251,-22774.460646,3952.101344,4594.602238,-6462.559874,737.629919,5985.685406,-9342.291575,-6211.415674,2703.711713,91.843318,3162.950654,-26217.411604,-10306.299961,-0.002000,-0.010000,1.000000,192.000000,0.000000,0.000000,0.000000,0.000000,0.000000,0.000000,0.000000,0.000000,0.000000,1770887631.462998,0.000000
108.000000,-16463.959690,-10806.353188,-955.537075,-22922.406843,3820.181348,4514.851214,-6591.663550,619.590356,5966.149982,-9378.143773,-6236.449627,2681.739948,58.874495,3143.504637,-26266.183110,-10341.883939,-0.002000,-0.010000,1.000000,192.000000,0.000000,0.000000,0.000000,0.000000,0.000000,0.000000,0.000000,0.000000,0.000000,1770887631.463018,0.000000
110.000000,-16335.817139,-10682.122193,-855.088336,-22802.869714,3917.746713,4577.637264,-6486.990331,718.340363,5955.264682,-9433.576099,-6289.400910,2638.489322,12.025239,3103.517366,-26328.857401,-10397.740948,-0.002000,-0.010000,1.002000,192.000000,127.500000,120.000000,127.500000,88.000000,15.500000,40.000000,0.000000,0.000000,0.000000,1770887631.463037,0.000000
112.000000,-16368.361279,-10713.012303,-881.619857,-22832.821051,3890.522288,4565.008529,-6518.662753,697.888517,6006.271363,-9288.066243,-6160.163124,2754.517228,133.976356,3217.287745,-26189.315461,-10276.482734,-0.002000,-0.010000,1.002000,192.000000,0.000000,0.000000,0.000000,0.000000,0.000000,0.000000,0.000000,0.000000,0.000000,1770887631.463056,0.000000
114.000000,-16419.613829,-10765.337737,-929.072610,-22892.142581,3848.836285,4542.455619,-6569.021233,648.401755,5961.813743,-9443.567329,-6294.273590,2635.114209,12.584032,3102.578593,-26351.745588,-10406.502832,-0.002000,-0.010000,1.002000,192.000000,0.000000,0.000000,0.000000,0.000000,0.000000,0.000000,0.000000,0.000000,0.000000,1770887631.463081,0.000000
116.000000,-16280.921254,-10632.098989,-813.916423,-22763.620050,3960.393841,4614.651753,-6457.083697,760.696919,6014.385046,-9316.251792,-6182.537220,2730.399696,113.837435,3179.580352,-26218.238618,-10305.316485,-0.002000,-0.010000,1.002000,192.000000,0.000000,0.000000,0.000000,0.000000,0.000000,0.000000,0.000000,0.000000,0.000000,1770887631.463100,0.000000
118.000000,-16441.362076,-10785.543714,-941.746049,-22913.466145,3832.161883,4533.917252,-6587.617885,636.510627,5990.938066,-9354.339165,-6215.997781,2699.531937,79.996893,3167.912742,-26263.322087,-10331.400970,-0.002000,-0.010000,1.002000,192.000000,0.000000,0.000000,0.000000,0.000000,0.000000,0.000000,0.000000,0.000000,0.000000,1770887631.463120,0.000000
120.000000,-16328.597525,-10672.779163,-849.925083,-22796.320653,3926.195672,4597.552669,-6489.806651,721.849587,5976.163563,-9413.347770,-6274.939331,2646.603006,36.478047,3114.983811,-26317.234494,-10382.273541,-0.002000,-0.006000,1.006000,192.000000,127.500000,120.000000,127.500000,104.000000,15.500000,56.000000,0.000000,0.000000,0.000000,1770887631.463140,0.000000
122.000000,-16373.032793,-10713.951077,-883.564458,-22829.334179,3898.121881,4571.691700,-6525.055352,692.568802,6007.254840,-9276.890370,-6162.152429,2755.388946,131.160036,3220.416989,-26179.145417,-10258.109600,-0.002000,-0.006000,1.006000,192.000000,0.000000,0.000000,0.000000,0.000000,0.000000,0.000000,0.000000,0.000000,0.000000,1770887631.463159,0.000000
124.000000,-16441.250317,-10781.408642,-937.834494,-22892.410802,3851.831418,4545.249587,-6576.442012,635.929481,5948.939139,-9445.780152,-6311.886765,2627.604023,-2.525747,3100.410473,-26340.167384,-10389.113175,-0.002000,-0.006000,1.006000,192.000000,0.000000,0.000000,0.000000,0.000000,0.000000,0.000000,0.000000,0.000000,0.000000,1770887631.463178,0.000000
126.000000,-16307.229257,-10650.874454,-823.438266,-22769.096228,3955.185885,4607.074512,-6464.884456,741.027384,5995.520174,-9323.650220,-6207.928802,2717.972126,101.879251,3187.694035,-26214.550580,-10289.446746,-0.002000,-0.006000,1.006000,192.000000,0.000000,0.000000,0.000000,0.000000,0.000000,0.000000,0.000000,0.000000,0.000000,1770887631.463198,0.000000
128.000000,-16472.207483,-10814.399816,-955.246503,-22924.105576,3824.361125,4524.775389,-6597.407949,609.867347,5969.882723,-9372.220561,-6243.848055,2679.795346,69.558629,3160.827239,-26258.225889,-10323.711970,-0.002000,-0.006000,1.006000,192.000000,0.000000,0.000000,0.000000,0.000000,0.000000,0.000000,0.000000,0.000000,0.000000,1770887631.463216,0.000000
130.000000,-16345.338982,-10689.006530,-858.262284,-22808.502353,3918.707838,4584.767471,-6495.416939,705.756331,5954.169447,-9434.961907,-6301.604963,2630.375639,10.862948,3103.696180,-26322.241285,-10385.402785,-0.002000,-0.010000,1.006000,192.000000,127.500000,120.000000,127.500000,88.000000,15.500000,56.000000,0.000000,0.000000,0.000000,1770887631.463237,0.000000
132.000000,-16378.397212,-10719.717827,-884.100900,-22836.263220,3890.388178,4559.554703,-6524.518910,685.148023,5999.476433,-9288.468574,-6169.819077,2745.397716,123.359278,3219.522920,-26180.128894,-10264.122220,-0.002000,-0.010000,1.006000,192.000000,0.000000,0.000000,0.000000,0.000000,0.000000,0.000000,0.000000,0.000000,0.000000,1770887631.463257,0.000000
134.000000,-16435.148291,-10777.787659,-939.242654,-22896.456468,3835.827569,4540.823941,-6575.927922,634.387211,5948.000365,-9451.323384,-6310.590364,2620.339706,3.084541,3097.594154,-26348.325771,-10398.433852,-0.002000,-0.010000,1.006000,192.000000,0.000000,0.000000,0.000000,0.000000,0.000000,0.000000,0.000000,0.000000,0.000000,1770887631.463278,0.000000
136.000000,-16290.577208,-10637.776332,-826.500455,-22761.697800,3946.803981,4599.229050,-6459.475334,748.001128,5999.811709,-9326.667705,-6203.190232,2720.609632,102.996838,3185.458861,-26225.838211,-10303.327179,-0.002000,-0.010000,1.006000,192.000000,0.000000,0.000000,0.000000,0.000000,0.000000,0.000000,0.000000,0.000000,0.000000,1770887631.463299,0.000000
138.000000,-16451.710934,-10794.819688,-956.967587,-22913.108517,3821.097770,4517.667534,-6592.132937,625.267699,5979.628084,-9361.089392,-6232.940404,2695.463919,65.222390,3157.608587,-26267.233642,-10329.344610,-0.002000,-0.010000,1.006000,192.000000,0.000000,0.000000,0.000000,0.000000,0.000000,0.000000,0.000000,0.000000,0.000000,1770887631.463317,0.000000
140.000000,-16332.911412,-10676.333091,-859.089298,-22799.829876,3916.852643,4583.806346,-6492.980599,716.216948,5966.194685,-9429.217509,-6290.719663,2642.937320,21.435323,3106.221927,-26330.354968,-10384.776936,-0.002000,-0.010000,1.006000,192.000000,127.500000,120.000000,127.500000,88.000000,15.500000,56.000000,0.000000,0.000000,0.000000,1770887631.463338,0.000000
142.000000,-16369.300052,-10714.576926,-883.653865,-22838.543098,3897.943067,4562.795706,-6526.798788,687.941991,6014.519157,-9285.629903,-6162.241836,2751.767963,134.356336,3227.703658,-26184.062801,-10262.803467,-0.002000,-0.010000,1.006000,192.000000,0.000000,0.000000,0.000000,0.000000,0.000000,0.000000,0.000000,0.000000,0.000000,1770887631.463357,0.000000
144.000000,-16434.164814,-10779.262874,-939.846151,-22901.351500,3850.177389,4541.650956,-6581.404100,630.296842,5954.303557,-9448.663527,-6310.098625,2620.920851,8.605422,3100.879860,-26344.905954,-10397.450375,-0.002000,-0.010000,1.006000,192.000000,0.000000,0.000000,0.000000,0.000000,0.000000,0.000000,0.000000,0.000000,0.000000,1770887631.463376,0.000000
146.000000,-16294.421708,-10640.011506,-826.500455,-22763.329478,3961.332615,4603.677047,-6466.225560,746.458858,6003.343285,-9327.628830,-6203.771377,2717.145111,104.226184,3178.038082,-26216.092851,-10293.715929,-0.002000,-0.010000,1.006000,192.000000,0.000000,0.000000,0.000000,0.000000,0.000000,0.000000,0.000000,0.000000,0.000000,1770887631.463398,0.000000
148.000000,-16447.911137,-10793.143307,-958.129878,-22914.539029,3835.112314,4523.121360,-6597.787928,624.977127,5979.538677,-9362.944587,-6230.705229,2696.782672,61.780222,3171.891352,-26256.236584,-10319.733360,-0.002000,-0.010000,1.006000,192.000000,0.000000,0.000000,0.000000,0.000000,0.000000,0.000000,0.000000,0.000000,0.000000,1770887631.463417,0.000000
150.000000,-16328.083435,-10676.623663,-856.429441,-22805.842496,3926.106265,4583.694587,-6499.060273,713.422980,5968.876895,-9425.283602,-6287.880991,2643.429058,25.972727,3107.764197,-26316.385128,-10377.132640,-0.002000,-0.010000,1.006000,192.000000,0.000000,0.000000,127.500000,88.000000,15.500000,56.000000,0.000000,0.000000,0.000000,1770887631.463437,0.000000
152.000000,-16365.924938,-10716.275658,-879.988179,-22839.548926,3898.390102,4559.554703,-6527.357582,687.696122,6012.552203,-9286.479269,-6164.052327,2748.683423,144.392269,3208.458806,-26175.099751,-10259.674222,-0.002000,-0.010000,1.006000,192.000000,0.000000,0.000000,0.000000,0.000000,0.000000,0.000000,0.000000,0.000000,0.000000,1770887631.463457,0.000000
154.000000,-16430.856756,-10776.714775,-936.225168,-22902.446735,3850.445610,4532.173816,-6576.419661,633.873121,5960.651453,-9447.545939,-6306.432939,2624.720648,10.080637,3096.789491,-26342.939000,-10401.294875,-0.002000,-0.010000,1.006000,192.000000,0.000000,0.000000,0.000000,0.000000,0.000000,0.000000,0.000000,0.000000,0.000000,1770887631.463477,0.000000
156.000000,-16292.119478,-10641.240852,-824.712315,-22769.185635,3955.007071,4592.545878,-6462.626930,746.168285,6000.325799,-9324.611345,-6203.391397,2720.587280,96.917164,3180.228553,-26221.121993,-10301.494336,-0.002000,-0.010000,1.006000,192.000000,0.000000,0.000000,0.000000,0.000000,0.000000,0.000000,0.000000,0.000000,0.000000,1770887631.463497,0.000000
158.000000,-16442.122035,-10793.031549,-949.300939,-22918.517639,3830.507854,4505.731703,-6591.328274,623.971298,5983.874915,-9363.816305,-6230.302898,2690.211259,73.470184,3155.462820,-26260.304601,-10337.078313,-0.002000,-0.010000,1.006000,192.000000,0.000000,0.000000,0.000000,0.000000,0.000000,0.000000,0.000000,0.000000,0.000000,1770887631.463516,0.000000
160.000000,-16328.351656,-10680.043480,-856.205923,-22804.300225,3923.513463,4573.882171,-6491.594790,711.970116,5976.543543,-9422.109654,-6285.377596,2644.993680,28.900806,3103.517366,-26322.867134,-10390.364872,0.001000,-0.008000,1.004000,192.000000,0.000000,16.000000,127.500000,104.000000,15.500000,40.000000,0.000000,0.000000,0.000000,1770887631.463535,0.000000
162.000000,-16370.529398,-10722.422388,-887.163089,-22838.364284,3888.018893,4541.628604,-6522.954288,686.444424,6007.232488,-9291.642522,-6167.047461,2746.090620,134.445743,3208.861137,-26185.336850,-10267.184409,0.001000,-0.008000,1.004000,192.000000,0.000000,0.000000,0.000000,0.000000,0.000000,0.000000,0.000000,0.000000,0.000000,1770887631.463555,0.000000
164.000000,-16433.069579,-10780.469868,-942.215436,-22900.323319,3832.944194,4526.049438,-6575.726757,634.454266,5949.699098,-9453.022117,-6309.740998,2618.193939,1.005829,3087.066482,-26352.885527,-10402.859497,0.001000,-0.008000,1.004000,192.000000,0.000000,0.000000,0.000000,0.000000,0.000000,0.000000,0.000000,0.000000,0.000000,1770887631.463574,0.000000
166.000000,-16292.834734,-10636.278765,-826.858083,-22763.843568,3951.654309,4598.782015,-6461.531694,745.721250,5994.447290,-9322.554984,-6207.146490,2717.882719,95.464301,3187.537573,-26228.252200,-10299.795604,0.001000,-0.008000,1.004000,192.000000,0.000000,0.000000,0.000000,0.000000,0.000000,0.000000,0.000000,0.000000,0.000000,1770887631.463593,0.000000
168.000000,-16449.743980,-10791.310464,-954.352433,-22915.835430,3832.117180,4523.255470,-6594.681036,620.819702,5979.404566,-9351.813418,-6230.951098,2694.726312,67.725786,3166.884561,-26259.164662,-10319.062807,0.001000,-0.008000,1.004000,192.000000,0.000000,0.000000,0.000000,0.000000,0.000000,0.000000,0.000000,0.000000,0.000000,1770887631.463619,0.000000
170.000000,-16337.091188,-10678.925893,-862.553819,-22803.070879,3927.804998,4582.398186,-6496.668636,707.477415,5957.410450,-9421.752026,-6297.045207,2636.231796,10.773541,3103.405607,-26323.694149,-10375.366852,0.001500,-0.007000,1.005000,192.000000,0.000000,8.000000,127.500000,104.000000,15.500000,56.000000,0.000000,0.000000,0.000000,1770887631.463639,0.000000
172.000000,-16370.216473,-10716.901507,-883.497403,-22831.926981,3900.066483,4557.833619,-6523.602488,688.053750,6008.126558,-9279.840801,-6166.242798,2751.946777,132.881121,3226.340202,-26176.329097,-10250.174731,0.001500,-0.007000,1.005000,192.000000,0.000000,0.000000,0.000000,0.000000,0.000000,0.000000,0.000000,0.000000,0.000000,1770887631.463657,0.000000
174.000000,-16431.192032,-10778.704080,-938.706212,-22899.295139,3843.002479,4533.917252,-6577.492544,633.493141,5952.157790,-9444.863730,-6307.684637,2621.837273,7.107855,3103.249145,-26340.949695,-10392.153012,0.001500,-0.007000,1.005000,192.000000,0.000000,0.000000,0.000000,0.000000,0.000000,0.000000,0.000000,0.000000,0.000000,1770887631.463676,0.000000
176.000000,-16296.321606,-10642.961936,-825.762847,-22767.308088,3957.018728,4594.334018,-6463.945683,743.463724,6001.577497,-9324.097255,-6204.844261,2716.787483,100.202870,3180.586181,-26219.311502,-10300.555563,0.001500,-0.007000,1.005000,192.000000,0.000000,0.000000,0.000000,0.000000,0.000000,0.000000,0.000000,0.000000,0.000000,1770887631.463696,0.000000
178.000000,-16446.771198,-10793.009197,-952.564293,-22914.270808,3836.408715,4515.722932,-6594.591629,623.725429,5982.064424,-9356.551988,-6231.465188,2692.401730,75.526545,3162.950654,-26254.001409,-10321.163871,0.001500,-0.007000,1.005000,192.000000,0.000000,0.000000,0.000000,0.000000,0.000000,0.000000,0.000000,0.000000,0.000000,1770887631.943181,0.000000
180.000000,-16331.279735,-10676.444850,-861.279769,-22805.797792,3928.475550,4583.605180,-6499.663770,710.584308,5968.228694,-9421.059122,-6293.915962,2640.545683,23.983422,3117.934241,-26322.688320,-10382.474706,-0.001250,-0.010500,1.002500,192.000000,127.500000,112.000000,127.500000,72.000000,15.500000,32.000000,0.000000,0.000000,0.000000,1770887631.943262,0.000000
182.000000,-16360.627575,-10704.697455,-883.832679,-22837.269048,3908.604849,4561.052270,-6525.412980,689.685427,6016.419055,-9275.772783,-6162.532409,2754.830152,137.083249,3216.706600,-26174.630365,-10255.963833,-0.001250,-0.010500,1.002500,192.000000,0.000000,0.000000,0.000000,0.000000,0.000000,0.000000,0.000000,0.000000,0.000000,1770887631.943323,0.000000
184.000000,-16430.946163,-10778.525266,-942.461305,-22899.451601,3847.450477,4520.372095,-6579.794774,630.632118,5960.517342,-9439.834588,-6308.757521,2623.647764,8.113683,3105.573726,-26342.067282,-10395.192849,-0.001250,-0.010500,1.002500,192.000000,0.000000,0.000000,0.000000,0.000000,0.000000,0.000000,0.000000,0.000000,0.000000,1770887631.943389,0.000000
186.000000,-16289.414917,-10636.748151,-829.473237,-22766.302260,3953.777725,4599.631381,-6462.537523,746.391803,6002.225697,-9326.824168,-6207.101787,2720.140245,96.179556,3172.561904,-26224.005368,-10296.644008,-0.001250,-0.010500,1.002500,192.000000,0.000000,0.000000,0.000000,0.000000,0.000000,0.000000,0.000000,0.000000,0.000000,1770887631.943449,0.000000
188.000000,-16445.407742,-10789.052938,-959.716852,-22914.114346,3828.093866,4515.387656,-6596.960914,620.037391,5976.007101,-9357.602520,-6232.493369,2693.474614,68.843373,3159.150858,-26258.695276,-10317.721703,-0.001250,-0.010500,1.002500,192.000000,0.000000,0.000000,0.000000,0.000000,0.000000,0.000000,0.000000,0.000000,0.000000,1770887631.943504,0.000000
190.000000,-16334.811310,-10680.244646,-869.058176,-22807.295359,3928.877882,4580.766509,-6504.938782,701.867128,5960.159714,-9421.729675,-6301.761425,2637.818770,13.098122,3110.289944,-26326.063433,-10376.931474,-0.002625,-0.010250,0.999250,192.000000,127.500000,112.000000,127.500000,88.000000,15.500000,16.000000,0.000000,0.000000,0.000000,1770887631.943527,0.000000
192.000000,-16355.509026,-10703.579867,-884.749101,-22829.267124,3904.447425,4564.941474,-6526.731733,688.344322,6010.674657,-9278.343234,-6170.847257,2751.097411,139.944272,3217.712428,-26178.363106,-10252.499312,-0.002625,-0.010250,0.999250,192.000000,0.000000,0.000000,0.000000,0.000000,0.000000,0.000000,0.000000,0.000000,0.000000,1770887631.943547,0.000000
194.000000,-16423.860660,-10773.674938,-945.232921,-22900.189209,3847.137552,4531.436209,-6582.901667,628.441647,5957.008118,-9438.985221,-6308.757521,2626.240567,11.578204,3105.126691,-26340.100329,-10386.878000,-0.002625,-0.010250,0.999250,192.000000,0.000000,0.000000,0.000000,0.000000,0.000000,0.000000,0.000000,0.000000,0.000000,1770887631.943568,0.000000
196.000000,-16285.481010,-10637.709276,-828.176836,-22766.548129,3955.677623,4594.579887,-6465.599712,739.127486,6000.035226,-9323.337295,-6211.125101,2713.166501,104.628516,3181.569658,-26218.126859,-10292.777156,-0.002625,-0.010250,0.999250,192.000000,0.000000,0.000000,0.000000,0.000000,0.000000,0.000000,0.000000,0.000000,0.000000,1770887631.943587,0.000000
198.000000,-16441.540890,-10790.997540,-955.648834,-22912.549724,3829.278508,4516.907575,-6595.642161,618.986859,5977.728185,-9356.730802,-6236.270813,2688.557230,77.694664,3159.799058,-26251.319200,-10316.335895,-0.002625,-0.010250,0.999250,192.000000,0.000000,0.000000,0.000000,0.000000,0.000000,0.000000,0.000000,0.000000,0.000000,1770887631.943607,0.000000
200.000000,-16331.167976,-10680.758736,-868.275865,-22805.373109,3924.027553,4579.805384,-6500.133157,707.119788,5958.863313,-9417.572250,-6298.766291,2637.885825,18.104913,3105.171395,-26321.503678,-10369.778916,-0.002625,-0.010250,0.999250,192.000000,0.000000,0.000000,127.500000,80.000000,15.500000,64.000000,0.000000,0.000000,0.000000,1770887631.943627,0.000000
202.000000,-16359.778209,-10707.804347,-889.979409,-22829.758862,3897.585439,4560.426421,-6523.334268,691.562973,6002.717436,-9281.830106,-6170.020243,2753.533751,126.712039,3204.390789,-26179.212472,-10252.946347,-0.002625,-0.010250,0.999250,192.000000,0.000000,0.000000,0.000000,0.000000,0.000000,0.000000,0.000000,0.000000,0.000000,1770887631.943646,0.000000
204.000000,-16428.733340,-10776.200685,-951.871389,-22904.279578,3837.056915,4529.446903,-6582.655797,629.335717,5947.553330,-9443.008535,-6310.478605,2624.608889,-1.631677,3079.198668,-26349.108082,-10390.811907,-0.002625,-0.010250,0.999250,192.000000,0.000000,0.000000,0.000000,0.000000,0.000000,0.000000,0.000000,0.000000,0.000000,1770887631.943666,0.000000
206.000000,-16287.693833,-10639.184492,-832.870702,-22769.476207,3949.195617,4592.255305,-6463.141020,746.078878,5990.267514,-9325.550118,-6207.705284,2714.976992,91.820966,3160.179038,-26224.698272,-10297.336912,-0.002625,-0.010250,0.999250,192.000000,0.000000,0.000000,0.000000,0.000000,0.000000,0.000000,0.000000,0.000000,0.000000,1770887631.943685,0.000000
208.000000,-16445.586556,-10798.328912,-958.934541,-22917.176535,3821.611860,4508.100987,-6592.714082,623.993650,5976.700005,-9358.228369,-6226.123122,2691.485309,71.927914,3137.089686,-26259.187014,-10319.711008,-0.002625,-0.010250,0.999250,192.000000,0.000000,0.000000,0.000000,0.000000,0.000000,0.000000,0.000000,0.000000,0.000000,1770887631.943705,0.000000
210.000000,-16337.649982,-10691.375815,-866.755946,-22813.062109,3920.384219,4576.318512,-6500.602543,705.666924,5957.991595,-9432.346753,-6294.921791,2631.649689,16.205015,3070.392081,-26332.299570,-10385.335730,-0.002625,-0.010250,0.999250,192.000000,0.000000,0.000000,127.500000,72.000000,15.500000,24.000000,0.000000,0.000000,0.000000,1770887631.943735,0.000000
212.000000,-16367.154284,-10717.974391,-888.392435,-22831.770519,3895.573782,4553.184456,-6524.004820,687.003218,6003.432692,-9287.060414,-6168.388566,2743.408411,126.153246,3194.310152,-26180.575929,-10257.483751,-0.002625,-0.010250,0.999250,192.000000,0.000000,0.000000,0.000000,0.000000,0.000000,0.000000,0.000000,0.000000,0.000000,1770887631.943754,0.000000
214.000000,-16437.115245,-10781.341586,-947.065764,-22903.027881,3838.845055,4526.228252,-6582.052300,627.100542,5943.932348,-9440.594547,-6312.602021,2622.664287,1.430512,3074.795374,-26346.045893,-10389.090823,-0.002625,-0.010250,0.999250,192.000000,0.000000,0.000000,0.000000,0.000000,0.000000,0.000000,0.000000,0.000000,0.000000,1770887631.943775,0.000000
216.000000,-16295.271074,-10639.050381,-828.713277,-22765.587004,3955.543513,4602.023018,-6464.795049,741.452067,5989.842831,-9325.281897,-6213.807310,2711.981858,97.073626,3151.171285,-26224.005368,-10298.298037,-0.002625,-0.010250,0.999250,192.000000,0.000000,0.000000,0.000000,0.000000,0.000000,0.000000,0.000000,0.000000,0.000000,1770887631.943794,0.000000
218.000000,-16453.633184,-10795.825517,-957.034642,-22909.666349,3827.333907,4517.555775,-6595.597457,612.638964,5972.274360,-9349.310023,-6234.728543,2691.105329,69.715091,3150.478381,-26252.637953,-10309.563316,-0.002625,-0.010250,0.999250,192.000000,0.000000,0.000000,0.000000,0.000000,0.000000,0.000000,0.000000,0.000000,0.000000,1770887631.943824,0.000000
220.000000,-16344.511967,-10690.168821,-870.131060,-22808.480002,3911.376466,4572.853991,-6503.083587,691.227697,5952.291900,-9423.160186,-6302.968419,2628.431037,19.602480,3087.088834,-26326.398710,-10373.712823,-0.003313,-0.014125,1.001625,192.000000,127.500000,112.000000,127.500000,56.000000,15.500000,48.000000,0.000000,0.000000,0.000000,1770887631.943845,0.000000
222.000000,-16369.702383,-10713.928725,-890.828775,-22835.838537,3895.260858,4561.588712,-6526.329401,675.581476,5993.262648,-9288.759147,-6177.038691,2738.871007,125.527397,3195.494794,-26181.872330,-10251.448780,-0.003313,-0.014125,1.001625,192.000000,0.000000,0.000000,0.000000,0.000000,0.000000,0.000000,0.000000,0.000000,0.000000,1770887631.943863,0.000000
224.000000,-16443.709009,-10786.191915,-953.368956,-22901.105631,3836.498122,4521.713200,-6587.439071,612.482502,5932.577662,-9447.322422,-6322.056809,2614.617659,-0.245869,3068.447479,-26343.028407,-10387.906180,-0.003313,-0.014125,1.001625,192.000000,0.000000,0.000000,0.000000,0.000000,0.000000,0.000000,0.000000,0.000000,0.000000,1770887631.943881,0.000000
226.000000,-16295.092260,-10639.787989,-831.686059,-22764.782341,3959.812696,4596.256268,-6465.800877,731.997279,5978.778717,-9329.461673,-6223.932651,2704.806948,89.026998,3148.332614,-26225.949970,-10294.744109,-0.003313,-0.014125,1.001625,192.000000,0.000000,0.000000,0.000000,0.000000,0.000000,0.000000,0.000000,0.000000,0.000000,1770887631.943905,0.000000
228.000000,-16447.799378,-10792.919790,-957.235808,-22915.276637,3829.233805,4521.735552,-6596.446824,613.287164,5971.804973,-9350.606424,-6234.996764,2689.518355,68.731614,3150.701898,-26254.850776,-10313.452520,-0.003313,-0.014125,1.001625,192.000000,0.000000,0.000000,0.000000,0.000000,0.000000,0.000000,0.000000,0.000000,0.000000,1770887631.943925,0.000000
230.000000,-16332.889060,-10684.938512,-864.654883,-22809.575237,3915.958573,4578.956017,-6501.854241,700.123692,5957.365746,-9427.965811,-6298.520422,2629.123942,11.444093,3078.639874,-26328.052739,-10380.060718,-0.003313,-0.014125,1.001625,192.000000,0.000000,0.000000,0.000000,0.000000,0.000000,0.000000,0.000000,0.000000,0.000000,1770887631.943945,0.000000
232.000000,-16354.637307,-10704.518641,-878.803537,-22828.462461,3897.227811,4567.646035,-6518.752160,690.601848,6005.287886,-9282.053623,-6164.052327,2747.655242,135.988013,3193.058454,-26181.984089,-10253.639251,-0.003313,-0.014125,1.001625,192.000000,0.000000,0.000000,127.500000,72.000000,15.500000,48.000000,0.000000,0.000000,0.000000,1770887631.943965,0.000000
234.000000,-16433.851890,-10780.939255,-946.082288,-22902.066756,3841.773133,4528.753999,-6581.404100,622.116103,5952.694232,-9438.493483,-6306.097663,2622.217253,14.796855,3081.925581,-26343.475442,-10385.358082,-0.003313,-0.014125,1.001625,192.000000,0.000000,0.000000,0.000000,0.000000,0.000000,0.000000,0.000000,0.000000,0.000000,1770887631.943985,0.000000
236.000000,-16290.420746,-10639.117436,-827.461580,-22764.916452,3955.878789,4600.301933,-6462.738688,735.104172,5996.458947,-9323.113778,-6210.812177,2708.852614,98.973524,3161.006053,-26226.642874,-10292.978322,-0.003313,-0.014125,1.001625,192.000000,0.000000,0.000000,0.000000,0.000000,0.000000,0.000000,0.000000,0.000000,0.000000,1770887631.944004,0.000000
238.000000,-16452.515596,-10798.843002,-957.012291,-22910.716881,3829.256157,4510.157348,-6593.585800,611.856653,5976.342377,-9352.975709,-6231.822816,2687.707864,75.928876,3139.794247,-26252.660305,-10308.222211,-0.003313,-0.014125,1.001625,192.000000,0.000000,0.000000,0.000000,0.000000,0.000000,0.000000,0.000000,0.000000,0.000000,1770887631.944024,0.000000
240.000000,-16339.192252,-10688.447736,-869.795784,-22810.715176,3915.086855,4568.473049,-6503.642381,695.429825,5953.700060,-9432.436160,-6306.544698,2625.815883,11.511148,3076.091775,-26328.388015,-10378.876076,-0.003313,-0.014125,1.001625,192.000000,0.000000,0.000000,0.000000,0.000000,0.000000,0.000000,0.000000,0.000000,0.000000,1770887631.944044,0.000000
242.000000,-16355.084342,-10703.803385,-887.140737,-22828.663627,3895.886707,4556.246645,-6524.183634,686.265610,6005.131424,-9275.012824,-6170.534333,2747.610539,135.764496,3191.471480,-26175.971469,-10249.705344,-0.002000,-0.016000,1.000000,192.000000,127.500000,120.000000,127.500000,64.000000,15.500000,32.000000,0.000000,0.000000,0.000000,1770887631.944068,0.000000
244.000000,-16441.965573,-10792.986845,-958.107526,-22905.732442,3834.397058,4521.936717,-6585.986207,618.718638,5941.585415,-9446.227186,-6317.161777,2616.472854,-3.352762,3067.531057,-26346.180003,-10388.554381,-0.002000,-0.016000,1.000000,192.000000,0.000000,0.000000,0.000000,0.000000,0.000000,0.000000,0.000000,0.000000,0.000000,1770887631.944087,0.000000
246.000000,-16297.796821,-10650.986213,-839.240949,-22769.967946,3942.892425,4586.779128,-6469.265398,734.523026,5984.366653,-9340.726953,-6221.920994,2703.644658,86.791824,3147.729116,-26231.314389,-10298.499203,-0.002000,-0.016000,1.000000,192.000000,0.000000,0.000000,0.000000,0.000000,0.000000,0.000000,0.000000,0.000000,0.000000,1770887631.944100,0.000000
248.000000,-16447.866434,-10800.005293,-964.120145,-22918.227067,3826.886872,4520.327392,-6600.716007,612.706019,5968.273397,-9367.861970,-6240.383534,2682.991646,72.263190,3136.441485,-26255.454273,-10314.212479,-0.002000,-0.016000,1.000000,192.000000,0.000000,0.000000,0.000000,0.000000,0.000000,0.000000,0.000000,0.000000,0.000000,1770887631.944113,0.000000
250.000000,-16345.070761,-10701.389396,-879.898772,-22816.705443,3919.199576,4590.936552,-6511.979581,688.076101,5951.308423,-9440.751009,-6311.372675,2617.210462,7.554890,3064.804144,-26331.740777,-10374.986872,-0.002000,-0.016000,1.000000,192.000000,0.000000,0.000000,0.000000,0.000000,0.000000,0.000000,0.000000,0.000000,0.000000,1770887631.944127,0.000000
252.000000,-16367.780133,-10722.087112,-896.863746,-22832.910458,3902.435768,4570.171782,-6527.648154,674.910924,5999.722302,-9298.482156,-6182.179592,2732.836036,123.985126,3186.375283,-26181.268833,-10246.799618,-0.004000,-0.012000,1.004000,192.000000,127.500000,112.000000,127.500000,80.000000,15.500000,48.000000,0.000000,0.000000,0.000000,1770887631.944140,0.000000
254.000000,-16441.965573,-10794.842040,-957.839305,-22901.977349,3840.744953,4534.140770,-6586.947332,615.477635,5940.333717,-9454.698498,-6325.409570,2612.494244,-10.460616,3063.731261,-26347.074073,-10382.228837,-0.004000,-0.012000,1.004000,192.000000,0.000000,0.000000,0.000000,0.000000,0.000000,0.000000,0.000000,0.000000,0.000000,1770887631.944153,0.000000
0.000000,-16296.232199,-10650.785047,-835.105876,-22763.888271,3963.701899,4602.268887,-6464.035089,734.590082,5990.513383,-9338.156502,-6221.406903,2704.963410,97.095978,3158.413250,-26226.128784,-10291.771327,-0.004000,-0.012000,1.004000,192.000000,0.000000,0.000000,0.000000,0.000000,0.000000,0.000000,0.000000,0.000000,0.000000,1770887631.944166,0.000000
2.000000,-16451.643878,-10807.359017,-961.728509,-22914.963712,3837.593357,4520.305040,-6595.865678,609.286202,5973.928389,-9364.129229,-6235.063819,2686.545573,72.442004,3138.654308,-26252.660305,-10309.183336,-0.004000,-0.012000,1.004000,192.000000,0.000000,0.000000,0.000000,0.000000,0.000000,0.000000,0.000000,0.000000,0.000000,1770887631.944179,0.000000
4.000000,-16346.993011,-10704.049254,-875.808403,-22813.240923,3923.200539,4580.319474,-6504.469395,691.406511,5957.768078,-9442.785018,-6306.544698,2620.786741,13.343991,3061.876066,-26329.840878,-10376.193866,-0.004000,-0.012000,1.004000,192.000000,0.000000,0.000000,0.000000,0.000000,0.000000,0.000000,0.000000,0.000000,0.000000,1770887631.944192,0.000000
6.000000,-16371.132895,-10726.780978,-892.281639,-22832.150499,3900.759387,4553.564436,-6523.915413,680.387101,5995.319008,-9301.432586,-6178.938589,2737.418143,115.603222,3177.032253,-26181.782923,-10253.639251,-0.002000,-0.010000,1.002000,192.000000,127.500000,120.000000,127.500000,88.000000,15.500000,40.000000,0.000000,0.000000,0.000000,1770887631.944205,0.000000
8.000000,-16445.139521,-10797.993636,-958.979244,-22908.884038,3832.519511,4518.494549,-6589.562486,615.745856,5943.999403,-9457.157190,-6314.434864,2616.919889,-2.458692,3065.765269,-26345.665913,-10389.247285,-0.002000,-0.010000,1.002000,192.000000,0.000000,0.000000,0.000000,0.000000,0.000000,0.000000,0.000000,0.000000,0.000000,1770887631.944219,0.000000
10.000000,-16294.645225,-10651.366192,-833.138923,-22772.225472,3943.965309,4596.211564,-6469.578322,733.561901,5985.171316,-9345.711392,-6222.300973,2697.989666,81.315646,3145.113962,-26230.889706,-10302.254296,-0.002000,-0.010000,1.002000,192.000000,0.000000,0.000000,0.000000,0.000000,0.000000,0.000000,0.000000,0.000000,0.000000,1770887631.944232,0.000000
12.000000,-16445.854777,-10799.401796,-961.102660,-22918.875267,3813.766398,4515.074732,-6598.704350,612.929536,5979.717491,-9358.496589,-6231.956927,2683.841012,75.973579,3136.553244,-26256.325991,-10318.034627,-0.002000,-0.010000,1.002000,192.000000,0.000000,0.000000,0.000000,0.000000,0.000000,0.000000,0.000000,0.000000,0.000000,1770887631.944246,0.000000
14.000000,-16335.750083,-10692.359292,-872.232124,-22816.057243,3910.191823,4570.507058,-6506.235183,692.300581,5965.233560,-9428.412846,-6306.477643,2621.926680,12.226404,3085.390101,-26337.082843,-10388.822602,-0.002000,-0.010000,1.002000,192.000000,0.000000,0.000000,0.000000,0.000000,0.000000,0.000000,0.000000,0.000000,0.000000,1770887631.944259,0.000000
16.000000,-16350.278717,-10714.264001,-887.185441,-22835.190336,3898.524213,4555.419630,-6524.340096,681.974075,6014.273288,-9291.329597,-6172.903618,2733.126609,126.488522,3177.211067,-26182.162903,-10257.640214,0.004000,-0.014000,1.004000,192.000000,0.000000,16.000000,127.500000,72.000000,15.500000,48.000000,0.000000,0.000000,0.000000,1770887631.944272,0.000000
18.000000,-16432.890765,-10792.763328,-953.368956,-22907.788802,3847.226959,4518.807473,-6588.131975,618.159845,5957.566912,-9455.346698,-6311.395027,2609.566165,10.125340,3057.629235,-26343.341332,-10391.773032,0.004000,-0.014000,1.004000,192.000000,0.000000,0.000000,0.000000,0.000000,0.000000,0.000000,0.000000,0.000000,0.000000,1770887631.944291,0.000000
20.000000,-16290.688967,-10651.924986,-835.329394,-22772.270175,3966.495868,4606.672180,-6468.393680,732.220797,5992.860316,-9344.325583,-6222.323325,2692.692303,93.430292,3139.391916,-26229.615656,-10298.722720,0.004000,-0.014000,1.004000,192.000000,0.000000,0.000000,0.000000,0.000000,0.000000,0.000000,0.000000,0.000000,0.000000,1770887631.944311,0.000000
22.000000,-16436.534099,-10798.217153,-958.174581,-22914.829602,3838.442724,4518.181624,-6596.379768,614.203586,5983.427880,-9369.940683,-6232.895700,2674.497983,77.940533,3131.814674,-26248.860508,-10303.260124,0.004000,-0.014000,1.004000,192.000000,0.000000,0.000000,0.000000,0.000000,0.000000,0.000000,0.000000,0.000000,0.000000,1770887631.944324,0.000000
24.000000,-16324.171880,-10683.597408,-870.220467,-22810.849286,3924.407533,4586.645017,-6508.157433,696.122729,5968.608674,-9432.302050,-6303.638971,2616.830482,28.051439,3075.242409,-26329.237381,-10373.265788,0.004000,-0.014000,1.004000,192.000000,0.000000,0.000000,0.000000,0.000000,0.000000,0.000000,0.000000,0.000000,0.000000,1770887631.944337,0.000000
26.000000,-16337.739389,-10696.717882,-884.123252,-22829.200069,3910.616506,4573.524543,-6525.055352,690.423034,6019.637706,-9279.483173,-6167.360385,2739.675670,142.537074,3188.051663,-26177.424333,-10245.011478,0.004000,-0.014000,0.998000,192.000000,0.000000,16.000000,127.500000,72.000000,15.500000,24.000000,0.000000,0.000000,0.000000,1770887631.944350,0.000000
28.000000,-16420.552602,-10778.055880,-951.446706,-22906.559456,3844.567102,4533.000831,-6588.556658,625.915900,5962.976034,-9439.946346,-6306.388236,2619.088008,15.221538,3074.884781,-26341.709655,-10382.251189,0.004000,-0.014000,0.998000,192.000000,0.000000,0.000000,0.000000,0.000000,0.000000,0.000000,0.000000,0.000000,0.000000,1770887631.944364,0.000000
30.000000,-16276.987347,-10637.575166,-830.814341,-22764.983507,3962.494905,4595.764529,-6467.611369,739.909797,6000.437558,-9333.283822,-6215.237822,2700.805986,96.470129,3148.422020,-26229.883877,-10298.163926,0.004000,-0.014000,0.998000,192.000000,0.000000,0.000000,0.000000,0.000000,0.000000,0.000000,0.000000,0.000000,0.000000,1770887631.944377,0.000000
32.000000,-16435.729436,-10794.909095,-957.235808,-22920.439889,3843.717735,4514.381828,-6598.123204,614.471807,5981.885610,-9360.150619,-6230.615822,2679.303608,83.215545,3140.375392,-26247.966438,-10314.637162,0.004000,-0.014000,0.998000,192.000000,0.000000,0.000000,0.000000,0.000000,0.000000,0.000000,0.000000,0.000000,0.000000,1770887631.944390,0.000000
34.000000,-16329.759816,-10689.744137,-876.367197,-22815.677263,3912.315239,4565.097936,-6509.230317,695.318067,5962.953682,-9435.565404,-6304.622448,2616.875186,21.100047,3074.817726,-26332.299570,-10390.029596,0.004000,-0.014000,0.998000,192.000000,0.000000,0.000000,0.000000,0.000000,0.000000,0.000000,0.000000,0.000000,0.000000,1770887631.944403,0.000000
36.000000,-16349.809331,-10706.999684,-892.438101,-22827.456633,3892.556297,4550.479895,-6525.100055,684.566877,6004.974962,-9291.396653,-6176.234028,2735.719411,129.707173,3176.696977,-26186.990879,-10266.446801,0.002000,-0.010000,1.006000,192.000000,0.000000,8.000000,127.500000,88.000000,15.500000,56.000000,0.000000,0.000000,0.000000,1770887631.944417,0.000000
38.000000,-16426.185241,-10781.609807,-959.292169,-22909.331072,3834.777037,4533.134941,-6590.724777,619.925632,5946.413391,-9442.717963,-6315.775969,2617.456331,1.206994,3072.828421,-26353.220803,-10394.991683,0.002000,-0.010000,1.006000,192.000000,0.000000,0.000000,0.000000,0.000000,0.000000,0.000000,0.000000,0.000000,0.000000,1770887631.944429,0.000000
40.000000,-16279.602501,-10638.558643,-833.071868,-22758.434446,3954.247112,4599.631381,-6465.219732,738.412230,5990.178107,-9332.143883,-6219.194081,2706.639791,92.290353,3150.634843,-26237.237601,-10297.158098,0.002000,-0.010000,1.006000,192.000000,0.000000,0.000000,0.000000,0.000000,0.000000,0.000000,0.000000,0.000000,0.000000,1770887631.944442,0.000000
42.000000,-16445.072466,-10798.798299,-961.236770,-22914.114346,3836.721639,4527.077618,-6597.787928,613.488330,5977.683482,-9348.326546,-6232.180444,2692.021750,81.829736,3144.979852,-26253.889651,-10303.170717,0.002000,-0.010000,1.006000,192.000000,0.000000,0.000000,0.000000,0.000000,0.000000,0.000000,0.000000,0.000000,0.000000,1770887632.424318,0.000000
44.000000,-16338.097017,-10698.394263,-876.322493,-22816.548981,3914.684524,4576.542029,-6509.453834,691.987657,5953.275377,-9438.225262,-6311.529137,2615.154101,12.896957,3088.049959,-26338.759224,-10382.631169,0.002000,-0.010000,1.006000,192.000000,0.000000,0.000000,0.000000,0.000000,0.000000,0.000000,0.000000,0.000000,0.000000,1770887632.424386,0.000000
46.000000,-16354.167921,-10715.314533,-889.174746,-22829.289476,3901.407588,4572.541067,-6523.758951,683.561049,6003.835023,-9294.905877,-6176.032862,2732.210187,127.539054,3189.929210,-26183.302842,-10253.952176,0.002000,-0.010000,1.005000,192.000000,0.000000,8.000000,127.500000,88.000000,15.500000,48.000000,0.000000,0.000000,0.000000,1770887632.424434,0.000000
48.000000,-16435.640029,-10792.606865,-959.426279,-22904.391337,3840.297918,4543.059116,-6591.060053,615.343525,5949.676746,-9446.607166,-6314.814844,2612.315430,10.661782,3071.442613,-26345.397692,-10378.473744,0.002000,-0.010000,1.005000,192.000000,0.000000,0.000000,0.000000,0.000000,0.000000,0.000000,0.000000,0.000000,0.000000,1770887632.424483,0.000000
50.000000,-16285.972749,-10642.716067,-839.799743,-22763.776513,3956.974024,4616.998686,-6470.740613,731.662003,5994.648456,-9330.691019,-6224.178520,2699.442530,90.010475,3166.549285,-26235.203592,-10293.134784,0.002000,-0.010000,1.005000,192.000000,0.000000,0.000000,0.000000,0.000000,0.000000,0.000000,0.000000,0.000000,0.000000,1770887632.424536,0.000000
52.000000,-16441.742056,-10796.406662,-964.656587,-22911.298026,3827.311555,4533.581976,-6600.045455,611.163749,5978.890476,-9347.298366,-6237.433104,2688.333713,76.644132,3152.892369,-26254.157872,-10302.701331,0.002000,-0.010000,1.005000,192.000000,0.000000,0.000000,0.000000,0.000000,0.000000,0.000000,0.000000,0.000000,0.000000,1770887632.424580,0.000000
54.000000,-16330.363313,-10693.208658,-876.724825,-22814.000882,3912.359942,4582.040558,-6509.900869,696.413302,5964.317139,-9431.407980,-6307.952858,2625.659421,14.528634,3087.446462,-26337.038140,-10383.011148,0.002000,-0.010000,1.005000,192.000000,0.000000,0.000000,0.000000,0.000000,0.000000,0.000000,0.000000,0.000000,0.000000,1770887632.424614,0.000000
56.000000,-16342.299145,-10708.251382,-883.698569,-22827.724853,3892.466890,4561.812229,-6521.255555,691.942953,6016.217889,-9284.668778,-6166.555723,2742.894321,134.132818,3191.829108,-26186.521493,-10258.646042,0.003000,-0.008000,1.007500,192.000000,0.000000,16.000000,127.500000,104.000000,15.500000,72.000000,0.000000,0.000000,0.000000,1770887632.424630,0.000000
58.000000,-16422.430148,-10785.096679,-953.011328,-22908.861686,3833.681802,4533.201996,-6587.260257,622.294917,5961.813743,-9445.109599,-6307.036436,2615.645840,11.935832,3068.603941,-26347.766977,-10393.315303,0.003000,-0.008000,1.007500,192.000000,0.000000,0.000000,0.000000,0.000000,0.000000,0.000000,0.000000,0.000000,0.000000,1770887632.424646,0.000000
60.000000,-16275.422725,-10634.825901,-832.513074,-22771.309050,3948.167437,4611.321343,-6466.694947,736.199407,6005.176128,-9331.786255,-6217.897680,2699.777806,92.670333,3147.907930,-26234.465985,-10304.377711,0.003000,-0.008000,1.007500,192.000000,0.000000,0.000000,0.000000,0.000000,0.000000,0.000000,0.000000,0.000000,0.000000,1770887632.424662,0.000000
62.000000,-16440.870338,-10797.501898,-962.041433,-22914.851953,3821.164825,4522.808435,-6598.167908,613.018943,5985.752462,-9354.853255,-6231.129912,2684.913896,79.594562,3149.271387,-26253.844947,-10315.106549,0.003000,-0.008000,1.007500,192.000000,0.000000,0.000000,0.000000,0.000000,0.000000,0.000000,0.000000,0.000000,0.000000,1770887632.424680,0.000000
64.000000,-16330.318610,-10690.794669,-879.898772,-22814.716138,3898.635971,4569.411822,-6510.549070,694.267535,5956.561083,-9438.784056,-6315.440692,2619.847968,3.799797,3076.605866,-26342.804890,-10388.979064,0.003000,-0.008000,1.007500,192.000000,0.000000,0.000000,0.000000,0.000000,0.000000,0.000000,0.000000,0.000000,0.000000,1770887632.424697,0.000000
66.000000,-16338.678162,-10701.992893,-885.151432,-22824.282685,3891.326951,4567.824849,-6521.546128,690.557145,6013.245107,-9284.154687,-6172.836563,2744.123667,136.077420,3194.131338,-26182.922862,-10255.226225,0.004500,-0.009000,1.009750,192.000000,0.000000,24.000000,127.500000,88.000000,15.500000,80.000000,0.000000,0.000000,0.000000,1770887632.424714,0.000000
68.000000,-16425.201765,-10787.555371,-958.599264,-22907.878209,3826.998630,4535.973613,-6595.351588,617.802217,5958.081002,-9439.342849,-6313.183166,2618.596270,-1.676381,3077.522287,-26345.174175,-10382.854686,0.004500,-0.009000,1.009750,192.000000,0.000000,0.000000,0.000000,0.000000,0.000000,0.000000,0.000000,0.000000,0.000000,1770887632.424729,0.000000
70.000000,-16271.645280,-10634.669439,-830.881397,-22764.156492,3954.738850,4618.719771,-6469.041880,739.038079,6002.136290,-9332.546214,-6222.725656,2700.828338,85.584830,3147.796172,-26234.108357,-10294.475889,0.004500,-0.009000,1.009750,192.000000,0.000000,0.000000,0.000000,0.000000,0.000000,0.000000,0.000000,0.000000,0.000000,1770887632.424743,0.000000
72.000000,-16426.118186,-10786.437784,-956.252331,-22916.193058,3833.815912,4530.005697,-6598.257315,618.249252,5988.121747,-9345.867854,-6225.743142,2692.491137,77.582905,3157.474477,-26244.658380,-10303.997732,0.004500,-0.009000,1.009750,192.000000,0.000000,0.000000,0.000000,0.000000,0.000000,0.000000,0.000000,0.000000,0.000000,1770887632.424760,0.000000
74.000000,-16321.221450,-10681.228123,-872.746214,-22815.654911,3905.833233,4577.145526,-6508.671523,701.107168,5970.754441,-9428.099922,-6301.068521,2628.542796,21.167102,3085.948895,-26331.360797,-10388.219105,0.004500,-0.009000,1.009750,192.000000,0.000000,0.000000,0.000000,0.000000,0.000000,0.000000,0.000000,0.000000,0.000000,1770887632.424777,0.000000
76.000000,-16327.681104,-10692.225181,-880.032883,-22825.377920,3899.798262,4574.418613,-6519.445064,697.888517,6027.237299,-9276.018652,-6158.620853,2749.935120,140.570121,3207.676495,-26178.966603,-10257.349641,0.000250,-0.010500,1.006875,192.000000,127.500000,112.000000,127.500000,80.000000,15.500000,48.000000,0.000000,0.000000,0.000000,1770887632.424790,0.000000
78.000000,-16413.489451,-10780.022833,-949.345642,-22911.879171,3835.201721,4536.957090,-6590.389501,622.674897,5971.447345,-9437.800579,-6297.045207,2622.574880,2.436340,3079.846868,-26344.973009,-10383.905218,0.000250,-0.010500,1.006875,192.000000,0.000000,0.000000,0.000000,0.000000,0.000000,0.000000,0.000000,0.000000,0.000000,1770887632.424807,0.000000
80.000000,-16266.169103,-10631.808416,-826.209882,-22762.681277,3951.319033,4606.202794,-6468.125459,739.641576,6019.280078,-9335.518996,-6209.091092,2700.113082,111.691667,3148.377317,-26233.616618,-10299.862659,0.000250,-0.010500,1.006875,192.000000,0.000000,0.000000,0.000000,0.000000,0.000000,0.000000,0.000000,0.000000,0.000000,1770887632.424823,0.000000
82.000000,-16418.429186,-10781.878028,-951.670224,-22907.945264,3836.609881,4533.403162,-6595.575106,622.451380,6009.042979,-9343.118589,-6217.160072,2698.682570,100.918126,3153.875846,-26246.267706,-10303.953028,0.000250,-0.010500,1.006875,192.000000,0.000000,0.000000,0.000000,0.000000,0.000000,0.000000,0.000000,0.000000,0.000000,1770887632.424843,0.000000
84.000000,-16320.550897,-10682.882152,-874.355540,-22811.855115,3913.790454,4579.805384,-6511.264326,698.827290,5982.220886,-9428.189329,-6298.363960,2630.330936,29.794875,3094.643723,-26332.344274,-10381.267712,0.000250,-0.010500,1.006875,192.000000,0.000000,0.000000,0.000000,0.000000,0.000000,0.000000,0.000000,0.000000,0.000000,1770887632.424857,0.000000
86.000000,-16329.335133,-10693.745100,-877.842412,-22820.996978,3903.285134,4568.741270,-6518.416884,697.620296,6027.840796,-9277.963254,-6161.973615,2749.018699,147.253292,3206.782425,-26177.916071,-10252.231092,0.002125,-0.011250,1.006438,192.000000,0.000000,16.000000,127.500000,80.000000,15.500000,56.000000,0.000000,0.000000,0.000000,1770887632.424874,0.000000
88.000000,-16420.597305,-10782.637987,-952.497238,-22909.755756,3833.815912,4525.714162,-6592.602324,622.943118,5970.709738,-9438.158207,-6302.946067,2622.999564,14.953317,3086.708854,-26339.608591,-10384.128736,0.002125,-0.011250,1.006438,192.000000,0.000000,0.000000,0.000000,0.000000,0.000000,0.000000,0.000000,0.000000,0.000000,1770887632.424892,0.000000
90.000000,-16274.014565,-10636.859910,-831.998984,-22766.570481,3952.034289,4603.073550,-6469.041880,742.100268,6007.053674,-9337.128322,-6217.607107,2700.917745,91.552745,3158.457954,-26232.744900,-10298.968589,0.002125,-0.011250,1.006438,192.000000,0.000000,0.000000,0.000000,0.000000,0.000000,0.000000,0.000000,0.000000,0.000000,1770887632.424905,0.000000
92.000000,-16432.130806,-10793.344473,-958.711023,-22914.069642,3831.513683,4529.357496,-6597.899687,618.808045,5993.732034,-9349.108857,-6223.686781,2690.323018,83.193193,3155.976910,-26248.793453,-10303.573049,0.002125,-0.011250,1.006438,192.000000,0.000000,0.000000,0.000000,0.000000,0.000000,0.000000,0.000000,0.000000,0.000000,1770887632.424918,0.000000
94.000000,-16331.950287,-10692.694568,-876.478955,-22816.593685,3916.673829,4583.113442,-6511.420788,697.419130,5964.227732,-9438.806407,-6306.522346,2620.585575,15.869739,3075.085947,-26332.456032,-10378.853724,0.002125,-0.011250,1.006438,192.000000,0.000000,0.000000,0.000000,0.000000,0.000000,0.000000,0.000000,0.000000,0.000000,1770887632.424937,0.000000
96.000000,-16344.444912,-10705.725635,-881.530450,-22829.155365,3901.072312,4566.908427,-6520.674410,694.669866,6012.775721,-9288.826202,-6168.500324,2743.430763,132.679955,3202.937925,-26178.005478,-10253.572196,0.002063,-0.010625,1.006219,192.000000,0.000000,8.000000,127.500000,88.000000,15.500000,56.000000,0.000000,0.000000,0.000000,1770887632.424955,0.000000
98.000000,-16429.113320,-10792.360996,-952.832514,-22912.080337,3824.562290,4524.149540,-6588.847231,625.133589,5959.511514,-9446.227186,-6304.376579,2620.093837,7.331372,3084.473680,-26342.335503,-10392.555343,0.002063,-0.010625,1.006219,192.000000,0.000000,0.000000,0.000000,0.000000,0.000000,0.000000,0.000000,0.000000,0.000000,1770887632.424968,0.000000
100.000000,-16283.357594,-10646.091181,-829.517940,-22767.039867,3939.070277,4601.285410,-6464.169200,742.726117,6002.940953,-9338.245909,-6216.109540,2703.801120,87.864707,3159.307320,-26238.578706,-10306.411720,0.002063,-0.010625,1.006219,192.000000,0.000000,0.000000,0.000000,0.000000,0.000000,0.000000,0.000000,0.000000,0.000000,1770887632.424984,0.000000
