Sample_index,EXG Channel 0,EXG Channel 1,EXG Channel 2,EXG Channel 3,EXG Channel 4,EXG Channel 5,EXG Channel 6,EXG Channel 7,EXG Channel 8,EXG Channel 9,EXG Channel 10,EXG Channel 11,EXG Channel 12,EXG Channel 13,EXG Channel 14,EXG Channel 15,Accel Channel 0,Accel Channel 1,Accel Channel 2,Not Used,Digital Channel 0 (D11),Digital Channel 1 (D12),Digital Channel 2 (D13),Digital Channel 3 (D17),Not Used,Digital Channel 4 (D18),Analog Channel 0,Analog Channel 1,Analog Channel 2,Timestamp,Marker Channel
210.000000,-15922.689846,-8969.889160,1756.042451,-19121.917382,7012.010457,-893.868613,-7630.572633,614.315345,2153.098840,-12017.393055,-5174.697062,3191.247963,2198.137605,1914.091636,-22695.268416,-11817.233183,-0.004000,-0.014000,1.008000,192.000000,0.000000,0.000000,0.000000,0.000000,0.000000,0.000000,0.000000,0.000000,0.000000,1770885840.523894,101.000000
212.000000,-15933.664552,-8985.803602,1742.229073,-19136.535422,7013.910355,-898.473072,-7641.346173,595.070493,2092.011522,-12162.522931,-5311.377980,3066.167601,2079.919229,1795.806205,-22843.818109,-11948.974365,-0.004000,-0.014000,1.008000,192.000000,0.000000,0.000000,0.000000,0.000000,0.000000,0.000000,0.000000,0.000000,0.000000,1770885840.523959,0.000000
214.000000,-15828.209022,-8881.353901,1827.366868,-19040.937011,7107.698275,-829.473237,-7561.483391,678.062520,2152.025956,-12021.773997,-5187.124632,3180.116794,2197.332942,1916.103293,-22693.592035,-11817.009666,-0.004000,-0.014000,1.008000,192.000000,0.000000,0.000000,0.000000,0.000000,0.000000,0.000000,0.000000,0.000000,0.000000,1770885840.524008,0.000000
216.000000,-15965.515788,-9015.866699,1709.461416,-19175.449809,6984.584866,-906.474996,-7681.445203,568.896600,2127.595499,-12097.993445,-5248.457819,3119.342401,2145.856875,1857.139392,-22774.885330,-11882.075594,-0.004000,-0.014000,1.008000,192.000000,0.000000,0.000000,127.500000,72.000000,15.500000,48.000000,0.000000,0.000000,0.000000,1770885840.524057,0.000000
218.000000,-15830.511252,-8873.441383,1821.331897,-19041.898136,7097.729397,-833.250682,-7563.629158,679.224811,2123.013392,-12095.355939,-5258.471401,3117.286040,2126.500264,1836.665194,-22788.318728,-11892.089175,-0.004000,-0.014000,1.008000,192.000000,0.000000,0.000000,0.000000,0.000000,0.000000,0.000000,0.000000,0.000000,0.000000,1770885840.524106,0.000000
220.000000,-15911.715139,-8956.276948,1758.657605,-19116.128280,7024.370971,-881.977484,-7630.773798,620.283260,2159.893770,-11997.298836,-5164.750536,3200.702751,2209.045256,1936.935119,-22687.288843,-11806.794918,-0.004000,-0.014000,1.008000,192.000000,0.000000,0.000000,0.000000,0.000000,0.000000,0.000000,0.000000,0.000000,0.000000,1770885840.524161,0.000000
222.000000,-15927.942506,-8977.041719,1745.827704,-19141.050475,7010.959925,-891.924011,-7641.659098,597.573888,2090.826880,-12157.762010,-5307.019390,3070.749709,2068.765708,1804.545737,-22843.706351,-11948.482626,-0.004000,-0.014000,1.008000,192.000000,0.000000,0.000000,0.000000,0.000000,0.000000,0.000000,0.000000,0.000000,0.000000,1770885840.524180,0.000000
224.000000,-15831.204156,-8878.939912,1832.284252,-19038.835947,7090.576838,-845.968824,-7555.381364,681.728206,2155.043442,-12018.130662,-5183.347187,3180.876753,2200.238669,1900.121796,-22701.549256,-11831.359486,-0.004000,-0.014000,1.008000,192.000000,0.000000,0.000000,0.000000,0.000000,0.000000,0.000000,0.000000,0.000000,0.000000,1770885840.524198,0.000000
226.000000,-15979.820905,-9024.628583,1710.221375,-19179.383717,6963.417764,-933.431200,-7679.455898,560.514696,2112.016334,-12098.395777,-5252.794057,3118.247165,2135.731534,1844.443601,-22783.714269,-11902.572143,0.004000,-0.008000,1.008000,192.000000,0.000000,16.000000,127.500000,96.000000,15.500000,64.000000,0.000000,0.000000,0.000000,1770885840.524216,0.000000
228.000000,-15842.268269,-8886.695968,1817.375638,-19047.284907,7075.623521,-856.988234,-7564.925559,668.473621,2109.110607,-12104.989541,-5268.574389,3111.161662,2115.391447,1824.125865,-22798.041737,-11916.407873,0.004000,-0.008000,1.008000,192.000000,0.000000,0.000000,0.000000,0.000000,0.000000,0.000000,0.000000,0.000000,0.000000,1770885840.524236,0.000000
230.000000,-15912.631561,-8957.528646,1759.328158,-19119.883373,7026.293221,-885.352598,-7630.483226,615.209414,2152.987081,-12005.256057,-5172.975978,3198.199355,2201.199794,1936.935119,-22696.073079,-11822.038808,0.004000,-0.008000,1.008000,192.000000,0.000000,0.000000,0.000000,0.000000,0.000000,0.000000,0.000000,0.000000,0.000000,1770885840.524260,0.000000
232.000000,-15929.529480,-8969.196256,1747.079402,-19134.680228,7009.417654,-898.294258,-7642.039078,598.758530,2091.609191,-12151.414114,-5308.449901,3073.968360,2084.546040,1796.789682,-22848.400217,-11952.394182,0.004000,-0.008000,1.008000,192.000000,0.000000,0.000000,0.000000,0.000000,0.000000,0.000000,0.000000,0.000000,0.000000,1770885840.524277,0.000000
234.000000,-15828.812519,-8868.591055,1837.425153,-19038.813596,7102.713836,-838.235121,-7556.811876,684.969209,2156.943340,-12010.106386,-5178.675673,3188.521050,2199.948096,1917.600860,-22697.660052,-11829.034904,0.004000,-0.008000,1.008000,192.000000,0.000000,0.000000,0.000000,0.000000,0.000000,0.000000,0.000000,0.000000,0.000000,1770885840.524296,0.000000
236.000000,-15975.663480,-9019.264164,1710.824872,-19177.796743,6970.212694,-918.522587,-7684.038005,564.269789,2123.572185,-12089.410375,-5246.893197,3125.332668,2145.856875,1846.745830,-22779.936824,-11894.905495,0.006000,-0.008000,1.006000,192.000000,0.000000,32.000000,127.500000,96.000000,15.500000,48.000000,0.000000,0.000000,0.000000,1770885840.524311,0.000000
238.000000,-15836.389761,-8884.393738,1821.868339,-19044.759160,7097.751748,-835.910539,-7566.624292,673.078081,2118.610098,-12102.575553,-5265.959235,3112.502767,2128.243700,1828.886787,-22790.509199,-11900.962818,0.006000,-0.008000,1.006000,192.000000,0.000000,0.000000,0.000000,0.000000,0.000000,0.000000,0.000000,0.000000,0.000000,1770885840.524329,0.000000
240.000000,-15915.984323,-8964.189466,1757.674129,-19122.632637,7026.069704,-881.195173,-7632.763104,616.170539,2157.166857,-12010.911049,-5172.216019,3191.762053,2204.239631,1927.547387,-22686.707698,-11811.801709,0.006000,-0.008000,1.006000,192.000000,0.000000,0.000000,0.000000,0.000000,0.000000,0.000000,0.000000,0.000000,0.000000,1770885840.524349,0.000000
242.000000,-15928.724817,-8977.689919,1744.754820,-19141.877489,7007.204832,-895.679104,-7640.943842,598.847937,2093.151461,-12157.873769,-5307.622887,3069.028624,2075.158307,1794.353341,-22842.924040,-11954.271728,0.006000,-0.008000,1.006000,192.000000,0.000000,0.000000,0.000000,0.000000,0.000000,0.000000,0.000000,0.000000,0.000000,1770885840.524367,0.000000
244.000000,-15829.751292,-8875.900075,1828.149179,-19040.199404,7084.407757,-853.858990,-7556.007213,682.488165,2154.305834,-12016.096653,-5182.028435,3181.659064,2196.528279,1909.308363,-22702.197457,-11832.722942,0.006000,-0.008000,1.006000,192.000000,0.000000,0.000000,0.000000,0.000000,0.000000,0.000000,0.000000,0.000000,0.000000,1770885840.524386,0.000000
246.000000,-15978.479800,-9023.421588,1706.376875,-19182.580016,6954.901749,-934.548787,-7679.277084,564.538010,2113.849177,-12095.981788,-5253.419906,3120.974078,2126.321450,1841.470819,-22793.236112,-11906.818975,0.006000,-0.008000,1.006000,192.000000,0.000000,0.000000,127.500000,80.000000,15.500000,24.000000,0.000000,0.000000,0.000000,1770885840.524404,0.000000
248.000000,-15837.015609,-8885.019587,1819.946089,-19053.588099,7077.255199,-852.249664,-7561.192818,677.168450,2108.104778,-12109.862221,-5265.355738,3111.474587,2121.113494,1828.707973,-22801.416850,-11922.979286,0.006000,-0.008000,1.006000,192.000000,0.000000,0.000000,0.000000,0.000000,0.000000,0.000000,0.000000,0.000000,0.000000,1770885840.524423,0.000000
250.000000,-15912.251581,-8955.718154,1760.088117,-19124.778405,7011.697532,-894.963848,-7626.974002,623.457208,2154.931683,-12005.434871,-5166.762193,3198.758149,2198.942268,1920.931270,-22700.364614,-11830.554823,0.006000,-0.008000,1.006000,192.000000,0.000000,0.000000,0.000000,0.000000,0.000000,0.000000,0.000000,0.000000,0.000000,1770885840.524442,0.000000
252.000000,-15923.025122,-8968.078669,1745.783001,-19141.497510,6998.957038,-905.558575,-7639.200406,604.011190,2093.687903,-12157.359678,-5302.258468,3075.644741,2080.030987,1793.146347,-22853.049380,-11964.419420,0.006000,-0.008000,1.006000,192.000000,0.000000,0.000000,0.000000,0.000000,0.000000,0.000000,0.000000,0.000000,0.000000,1770885840.524462,0.000000
254.000000,-15830.220679,-8870.580360,1828.126827,-19039.350037,7090.353321,-847.488743,-7555.895454,681.459985,2156.920988,-12014.062645,-5179.346225,3184.922419,2196.550631,1908.257831,-22708.165372,-11839.584928,0.006000,-0.008000,1.006000,192.000000,0.000000,0.000000,0.000000,0.000000,0.000000,0.000000,0.000000,0.000000,0.000000,1770885840.524482,0.000000
0.000000,-15980.111477,-9020.649972,1707.650925,-19176.589748,6969.318625,-923.261156,-7679.679415,560.201771,2114.743246,-12090.997349,-5252.615244,3122.896328,2137.474971,1851.439697,-22791.135048,-11902.370978,0.004000,-0.008000,1.005000,192.000000,0.000000,8.000000,127.500000,96.000000,15.500000,48.000000,0.000000,0.000000,0.000000,1770885840.524510,0.000000
2.000000,-15841.307144,-8889.422880,1821.018973,-19054.079837,7089.213382,-845.946472,-7566.981920,665.858467,2110.988153,-12111.605658,-5270.697805,3104.389084,2115.190281,1841.202598,-22796.700632,-11921.012333,0.004000,-0.008000,1.005000,192.000000,0.000000,0.000000,0.000000,0.000000,0.000000,0.000000,0.000000,0.000000,0.000000,1770885840.524530,0.000000
4.000000,-15914.777328,-8960.657890,1759.305806,-19126.253620,7025.779131,-883.095072,-7634.819464,610.470845,2163.335939,-12011.782767,-5172.886571,3188.833974,2207.525338,1904.815662,-22689.881645,-11822.083512,0.004000,-0.008000,1.005000,192.000000,0.000000,0.000000,0.000000,0.000000,0.000000,0.000000,0.000000,0.000000,0.000000,1770885840.524550,0.000000
6.000000,-15927.629581,-8974.515971,1742.899626,-19138.971763,7015.027942,-894.539165,-7646.755296,594.690513,2094.201993,-12153.448123,-5308.919288,3066.972264,2082.467327,1799.807167,-22844.220441,-11954.383487,0.004000,-0.008000,1.005000,192.000000,0.000000,0.000000,0.000000,0.000000,0.000000,0.000000,0.000000,0.000000,0.000000,1770885840.524571,0.000000
8.000000,-15826.733807,-8877.844677,1829.177359,-19042.993372,7098.802280,-842.392545,-7560.455210,678.934238,2155.311663,-12016.767206,-5183.682464,3181.457899,2205.983067,1918.696096,-22702.510381,-11830.353657,0.004000,-0.008000,1.005000,192.000000,0.000000,0.000000,0.000000,0.000000,0.000000,0.000000,0.000000,0.000000,0.000000,1770885840.524591,0.000000
10.000000,-15970.209655,-9018.526556,1710.824872,-19182.937644,6963.775392,-921.696534,-7681.646369,564.985045,2126.187340,-12098.015797,-5248.279005,3118.627145,2146.661537,1853.138429,-22784.116600,-11902.818013,0.003000,-0.011000,1.001500,192.000000,0.000000,8.000000,127.500000,72.000000,15.500000,24.000000,0.000000,0.000000,0.000000,1770885840.524609,0.000000
12.000000,-15837.261479,-8885.287808,1819.364943,-19056.180901,7076.182315,-851.467353,-7568.904170,670.284113,2118.207767,-12108.498765,-5265.065165,3106.467796,2113.737418,1834.966461,-22801.103926,-11920.386484,0.003000,-0.011000,1.001500,192.000000,0.000000,0.000000,0.000000,0.000000,0.000000,0.000000,0.000000,0.000000,0.000000,1770885840.524630,0.000000
14.000000,-15910.038759,-8958.065088,1758.568199,-19128.868774,7012.770416,-888.928877,-7634.215967,616.014077,2166.040500,-12008.340598,-5168.617388,3191.873812,2205.290163,1920.037200,-22697.883570,-11829.660753,0.003000,-0.011000,1.001500,192.000000,0.000000,0.000000,0.000000,0.000000,0.000000,0.000000,0.000000,0.000000,0.000000,1770885840.524648,0.000000
16.000000,-15928.568355,-8974.963006,1740.932672,-19147.510129,6999.068797,-905.580927,-7644.922453,601.373685,2099.365246,-12158.633728,-5305.454767,3066.100546,2075.895915,1774.080309,-22850.367171,-11966.967519,0.003000,-0.011000,1.001500,192.000000,0.000000,0.000000,0.000000,0.000000,0.000000,0.000000,0.000000,0.000000,0.000000,1770885840.524667,0.000000
18.000000,-15831.002990,-8874.983653,1824.930528,-19047.798997,7084.497164,-853.993100,-7556.834228,689.283096,2153.612930,-12019.091787,-5179.659150,3183.737777,2186.492346,1910.157729,-22713.239218,-11846.715134,0.003000,-0.011000,1.001500,192.000000,0.000000,0.000000,0.000000,0.000000,0.000000,0.000000,0.000000,0.000000,0.000000,1770885840.524687,0.000000
20.000000,-15983.285425,-9030.261222,1701.481843,-19191.274845,6955.013508,-935.711078,-7682.763956,565.879114,2118.744209,-12101.636780,-5246.736735,3122.337535,2122.208729,1834.921758,-22793.392574,-11918.732455,0.003500,-0.011500,0.999750,192.000000,0.000000,16.000000,127.500000,80.000000,15.500000,24.000000,0.000000,0.000000,0.000000,1770885840.524704,0.000000
22.000000,-15844.458740,-8894.206154,1812.994696,-19059.801884,7069.141515,-861.346824,-7565.707870,675.045034,2110.049380,-12125.799015,-5267.993244,3101.036322,2109.043552,1819.767275,-22809.418775,-11932.367019,0.003500,-0.011500,0.999750,192.000000,0.000000,0.000000,0.000000,0.000000,0.000000,0.000000,0.000000,0.000000,0.000000,1770885840.524721,0.000000
24.000000,-15920.722892,-8967.765745,1753.449649,-19128.175870,7006.534279,-890.918182,-7630.036191,620.372667,2144.426363,-12018.264773,-5170.114955,3191.449129,2194.583678,1913.398732,-22707.651282,-11836.902718,0.003500,-0.011500,0.999750,192.000000,0.000000,0.000000,0.000000,0.000000,0.000000,0.000000,0.000000,0.000000,0.000000,1770885840.524740,0.000000
26.000000,-15925.684980,-8974.806544,1736.417620,-19136.982457,6989.636360,-891.879307,-7642.642575,606.603993,2081.819127,-12162.299414,-5305.968858,3070.593246,2067.044624,1787.424301,-22860.514863,-11965.537008,0.003500,-0.011500,0.999750,192.000000,0.000000,0.000000,0.000000,0.000000,0.000000,0.000000,0.000000,0.000000,0.000000,1770885840.524758,0.000000
28.000000,-15823.716321,-8866.802915,1824.461141,-19034.946744,7074.416527,-837.206940,-7554.979033,691.428863,2156.004567,-12008.407653,-5178.027472,3195.070111,2188.302837,1924.619308,-22714.021529,-11837.819140,0.003500,-0.011500,0.999750,192.000000,0.000000,0.000000,0.000000,0.000000,0.000000,0.000000,0.000000,0.000000,0.000000,1770885840.524776,0.000000
30.000000,-15977.362213,-9014.883222,1703.627611,-19188.369118,6953.270072,-919.863691,-7683.143936,563.621588,2117.112531,-12088.918637,-5248.211950,3128.260747,2124.890938,1860.670967,-22790.240978,-11903.913248,0.002750,-0.013750,1.000875,192.000000,0.000000,8.000000,127.500000,64.000000,15.500000,40.000000,0.000000,0.000000,0.000000,1770885840.524794,0.000000
32.000000,-15846.135121,-8887.902962,1814.246394,-19063.668735,7078.082213,-851.824981,-7570.535847,665.634950,2117.492511,-12109.594001,-5270.161363,3102.891517,2115.570261,1829.110304,-22805.954254,-11928.790740,0.002750,-0.013750,1.000875,192.000000,0.000000,0.000000,0.000000,0.000000,0.000000,0.000000,0.000000,0.000000,0.000000,1770885840.524807,0.000000
34.000000,-15918.331256,-8967.341062,1759.305806,-19130.388693,7019.945326,-891.879307,-7634.841816,611.007286,2149.231988,-12014.800252,-5176.462850,3186.062358,2197.154128,1903.139282,-22701.348090,-11831.091265,0.002750,-0.013750,1.000875,192.000000,0.000000,0.000000,0.000000,0.000000,0.000000,0.000000,0.000000,0.000000,0.000000,1770885840.524821,0.000000
36.000000,-15933.373980,-8982.048509,1746.945291,-19149.588841,7003.717959,-907.212604,-7645.481246,598.914993,2090.715121,-12170.994243,-5306.013561,3065.899380,2083.517859,1781.188164,-22846.746188,-11969.761487,0.002750,-0.013750,1.000875,192.000000,0.000000,0.000000,0.000000,0.000000,0.000000,0.000000,0.000000,0.000000,0.000000,1770885840.524834,0.000000
38.000000,-15831.293563,-8879.632816,1828.640917,-19049.765950,7093.571972,-853.121382,-7558.510608,687.159680,2153.165895,-12027.160767,-5178.474507,3186.576448,2190.158032,1896.143186,-22708.433593,-11853.465361,0.002750,-0.013750,1.000875,192.000000,0.000000,0.000000,0.000000,0.000000,0.000000,0.000000,0.000000,0.000000,0.000000,1770885840.524846,0.000000
40.000000,-15975.551722,-9024.203899,1705.035771,-19189.218484,6963.730689,-935.644023,-7684.909723,566.080280,2111.144616,-12108.185841,-5250.424773,3123.745695,2117.894842,1825.399914,-22788.430487,-11917.346646,0.002375,-0.013875,1.005437,192.000000,0.000000,8.000000,127.500000,72.000000,15.500000,72.000000,0.000000,0.000000,0.000000,1770885840.524859,0.000000
42.000000,-15839.943688,-8885.243104,1815.811016,-19061.210044,7075.802335,-858.619912,-7571.072289,672.005197,2114.497377,-12118.087663,-5267.546209,3111.452235,2115.212633,1823.701182,-22804.255522,-11934.892766,0.002375,-0.013875,1.005437,192.000000,0.000000,0.000000,0.000000,0.000000,0.000000,0.000000,0.000000,0.000000,0.000000,1770885840.524873,0.000000
44.000000,-15912.206878,-8959.272082,1756.802411,-19134.635524,7016.480805,-889.644133,-7636.294679,617.154016,2153.098840,-12017.616572,-5170.964321,3194.377207,2195.857727,1910.716523,-22700.521076,-11840.277832,0.002375,-0.013875,1.005437,192.000000,0.000000,0.000000,0.000000,0.000000,0.000000,0.000000,0.000000,0.000000,0.000000,1770885840.524886,0.000000
46.000000,-15930.803529,-8976.259408,1737.646966,-19149.208861,7002.980352,-896.528470,-7648.230511,598.937344,2095.699560,-12165.853341,-5304.605401,3072.649607,2079.092214,1784.563277,-22855.195147,-11971.214351,0.002375,-0.013875,1.005437,192.000000,0.000000,0.000000,0.000000,0.000000,0.000000,0.000000,0.000000,0.000000,0.000000,1770885840.524898,0.000000
48.000000,-15830.779473,-8878.291712,1827.523330,-19048.603660,7085.637103,-847.086411,-7561.215170,686.109148,2150.371927,-12027.876023,-5182.095490,3184.453033,2184.838317,1902.088750,-22713.395681,-11848.100942,0.002375,-0.013875,1.005437,192.000000,0.000000,0.000000,0.000000,0.000000,0.000000,0.000000,0.000000,0.000000,0.000000,1770885840.524911,0.000000
50.000000,-15983.017204,-9026.573184,1705.572212,-19189.263188,6961.763735,-921.785941,-7685.490869,566.572018,2116.129055,-12102.061463,-5248.726040,3126.897291,2126.656726,1838.743906,-22790.598606,-11911.311675,0.002375,-0.013875,1.005437,192.000000,0.000000,0.000000,0.000000,0.000000,0.000000,0.000000,0.000000,0.000000,0.000000,1770885840.524925,0.000000
52.000000,-15849.219662,-8890.518116,1816.079237,-19054.526872,7075.869390,-854.998929,-7569.194742,672.742805,2101.175738,-12124.010876,-5271.591875,3112.569822,2104.908479,1824.863473,-22806.155420,-11925.572088,0.002375,-0.013875,1.005437,192.000000,0.000000,0.000000,127.500000,80.000000,15.500000,40.000000,0.000000,0.000000,0.000000,1770885840.524938,0.000000
54.000000,-15921.572259,-8963.988300,1757.092983,-19130.679265,7012.301029,-893.198060,-7634.841816,614.404752,2148.092049,-12019.069435,-5173.959455,3196.411216,2194.650733,1908.637811,-22700.096393,-11831.471244,0.002375,-0.013875,1.005437,192.000000,0.000000,0.000000,0.000000,0.000000,0.000000,0.000000,0.000000,0.000000,0.000000,1770885840.524951,0.000000
56.000000,-15933.843366,-8977.332291,1740.776210,-19151.980478,6996.699512,-900.149453,-7649.482208,596.813929,2085.440109,-12168.893179,-5309.500433,3066.145249,2075.292417,1783.959780,-22856.558604,-11972.890731,0.002375,-0.013875,1.005437,192.000000,0.000000,0.000000,0.000000,0.000000,0.000000,0.000000,0.000000,0.000000,0.000000,1770885840.524964,0.000000
58.000000,-15835.965077,-8878.314063,1821.488359,-19054.616279,7087.693463,-843.979519,-7563.785620,681.035302,2153.612930,-12025.506738,-5184.241257,3183.693073,2175.204715,1898.154843,-22711.004044,-11851.185483,0.002375,-0.013875,1.005437,192.000000,0.000000,0.000000,0.000000,0.000000,0.000000,0.000000,0.000000,0.000000,0.000000,1770885840.524977,0.000000
60.000000,-15988.426326,-9029.367152,1701.481843,-19199.254417,6956.444020,-923.395267,-7688.575409,560.760565,2110.161139,-12107.068253,-5258.024366,3121.890500,2113.357438,1835.949938,-22794.308996,-11917.994847,0.002375,-0.013875,1.005437,192.000000,0.000000,0.000000,0.000000,0.000000,0.000000,0.000000,0.000000,0.000000,0.000000,1770885840.524990,0.000000
62.000000,-15849.420828,-8891.993331,1815.922775,-19067.088552,7074.662396,-863.850220,-7572.726318,668.339511,2110.339953,-12119.696989,-5272.910627,3108.635915,2113.580956,1829.669098,-22811.296321,-11938.804321,0.002000,-0.010000,1.002000,192.000000,0.000000,8.000000,127.500000,88.000000,15.500000,40.000000,0.000000,0.000000,0.000000,1770885840.525007,0.000000
64.000000,-15919.895878,-8966.022309,1760.937483,-19137.317733,7016.994896,-902.295220,-7636.942880,614.851786,2151.958901,-12021.550479,-5172.014853,3191.292666,2198.852861,1900.971162,-22698.710584,-11843.071800,0.002000,-0.010000,1.002000,192.000000,0.000000,0.000000,0.000000,0.000000,0.000000,0.000000,0.000000,0.000000,0.000000,1770885840.525028,0.000000
66.000000,-15933.105759,-8973.867771,1743.592530,-19150.862891,6996.274828,-903.546918,-7651.113886,602.468920,2093.620848,-12167.194446,-5302.772558,3072.403738,2076.812336,1780.584667,-22854.010505,-11972.398993,0.002000,-0.010000,1.002000,192.000000,0.000000,0.000000,0.000000,0.000000,0.000000,0.000000,0.000000,0.000000,0.000000,1770885840.525044,0.000000
68.000000,-15829.795996,-8866.869970,1828.350345,-19049.877709,7087.022911,-844.448906,-7562.153943,694.379293,2150.103706,-12018.667104,-5179.234466,3195.517146,2179.697416,1907.408465,-22718.558934,-11853.219492,0.002000,-0.010000,1.002000,192.000000,0.000000,0.000000,0.000000,0.000000,0.000000,0.000000,0.000000,0.000000,0.000000,1770885840.525062,0.000000
70.000000,-15982.123134,-9022.304001,1703.739369,-19194.538199,6960.668500,-924.535206,-7688.463651,571.109423,2115.614964,-12097.635817,-5245.149761,3135.033326,2124.332145,1841.202598,-22796.946501,-11919.760635,0.002000,-0.010000,1.002000,192.000000,0.000000,0.000000,0.000000,0.000000,0.000000,0.000000,0.000000,0.000000,0.000000,1770885840.525078,0.000000
72.000000,-15847.230357,-8890.004026,1808.837272,-19064.562805,7080.742071,-840.179722,-7576.682577,668.473621,2106.406046,-12114.734902,-5273.044738,3112.703933,2103.187395,1830.071429,-22809.083499,-11933.708123,0.002000,-0.010000,1.008000,192.000000,0.000000,8.000000,127.500000,88.000000,15.500000,64.000000,0.000000,0.000000,0.000000,1770885840.525097,0.000000
74.000000,-15920.074692,-8962.758954,1749.649852,-19129.628733,7023.052218,-876.098976,-7638.641612,609.487368,2151.936549,-12006.239534,-5179.368577,3194.198393,2191.052102,1923.457017,-22705.974901,-11832.030038,0.002000,-0.010000,1.008000,192.000000,0.000000,0.000000,0.000000,0.000000,0.000000,0.000000,0.000000,0.000000,0.000000,1770885841.003523,0.000000
76.000000,-15946.717971,-8989.156364,1730.829684,-19151.578146,7005.729616,-880.591676,-7655.472476,584.319304,2084.277819,-12166.926225,-5322.486797,3061.294921,2047.240978,1787.513708,-22859.285517,-11963.704164,0.002000,-0.010000,1.008000,192.000000,0.000000,0.000000,0.000000,0.000000,0.000000,0.000000,0.000000,0.000000,0.000000,1770885841.003595,0.000000
78.000000,-15840.636592,-8883.119688,1823.388257,-19055.823273,7096.812975,-826.254586,-7567.004271,677.101395,2146.750944,-12030.379418,-5192.980789,3173.634788,2188.839279,1899.495947,-22714.826192,-11844.748180,0.002000,-0.010000,1.008000,192.000000,0.000000,0.000000,0.000000,0.000000,0.000000,0.000000,0.000000,0.000000,0.000000,1770885841.003648,0.000000
80.000000,-15982.391355,-9026.975516,1707.248593,-19193.264150,6970.637378,-915.728619,-7689.648293,563.375719,2114.251508,-12099.491012,-5248.703688,3119.521215,2125.762656,1847.684604,-22792.409097,-11908.830632,0.002000,-0.010000,1.008000,192.000000,0.000000,0.000000,0.000000,0.000000,0.000000,0.000000,0.000000,0.000000,0.000000,1770885841.003711,0.000000
82.000000,-15844.034057,-8886.651264,1817.375638,-19066.127427,7075.243542,-854.753060,-7574.357995,675.089738,2111.993982,-12117.439463,-5265.869828,3105.931354,2110.272898,1825.198749,-22805.842496,-11931.003562,0.002000,-0.014000,1.008000,192.000000,0.000000,8.000000,127.500000,72.000000,15.500000,64.000000,0.000000,0.000000,0.000000,1770885841.003782,0.000000
84.000000,-15923.606267,-8962.758954,1758.299978,-19140.290515,7011.272849,-896.796691,-7637.658136,616.930499,2156.161029,-12015.493156,-5168.930312,3192.477309,2196.036541,1919.120779,-22707.785393,-11846.089285,0.002000,-0.014000,1.008000,192.000000,0.000000,0.000000,0.000000,0.000000,0.000000,0.000000,0.000000,0.000000,0.000000,1770885841.003819,0.000000
86.000000,-15947.254413,-8987.770556,1735.344736,-19154.528577,6986.708282,-913.091113,-7651.829142,595.919859,2081.685016,-12173.542341,-5317.502358,3063.977130,2067.111679,1784.138594,-22862.392409,-11986.011205,0.002000,-0.014000,1.008000,192.000000,0.000000,0.000000,0.000000,0.000000,0.000000,0.000000,0.000000,0.000000,0.000000,1770885841.003836,0.000000
88.000000,-15837.194423,-8879.275188,1825.578728,-19052.001125,7083.960722,-851.288539,-7559.672899,685.349188,2142.794686,-12027.876023,-5190.767967,3182.620190,2178.982160,1895.696151,-22721.509364,-11864.171846,0.002000,-0.014000,1.008000,192.000000,0.000000,0.000000,0.000000,0.000000,0.000000,0.000000,0.000000,0.000000,0.000000,1770885841.003854,0.000000
90.000000,-15984.380661,-9022.348705,1703.314686,-19193.264150,6962.702508,-921.517720,-7689.827107,562.883981,2112.753941,-12098.798108,-5255.744488,3124.751523,2115.793778,1835.122923,-22795.203065,-11921.414664,0.002000,-0.014000,1.008000,192.000000,0.000000,0.000000,0.000000,0.000000,0.000000,0.000000,0.000000,0.000000,0.000000,1770885841.003872,0.000000
92.000000,-15841.664772,-8876.816496,1816.526272,-19059.734828,7086.486469,-832.848350,-7576.459059,671.155831,2116.352572,-12107.045902,-5270.787212,3109.306468,2117.067828,1831.412534,-22807.764746,-11933.618716,0.004000,-0.006000,1.012000,192.000000,0.000000,16.000000,127.500000,104.000000,15.500000,80.000000,0.000000,0.000000,0.000000,1770885841.003888,0.000000
94.000000,-15918.666532,-8952.320689,1755.796582,-19130.142823,7028.416637,-872.276827,-7642.240243,615.254118,2163.224180,-11996.337711,-5166.739841,3202.893222,2202.585602,1932.196549,-22698.151791,-11829.951326,0.004000,-0.006000,1.012000,192.000000,0.000000,0.000000,0.000000,0.000000,0.000000,0.000000,0.000000,0.000000,0.000000,1770885841.003906,0.000000
96.000000,-15937.956087,-8972.973701,1738.272815,-19152.561623,7014.133872,-881.329284,-7656.612415,598.870289,2095.833671,-12153.917510,-5308.584012,3076.158831,2082.377920,1809.440769,-22851.417703,-11965.201731,0.004000,-0.006000,1.012000,192.000000,0.000000,0.000000,0.000000,0.000000,0.000000,0.000000,0.000000,0.000000,0.000000,1770885841.003924,0.000000
98.000000,-15836.948554,-8878.090546,1826.606909,-19052.425808,7100.925696,-814.452864,-7570.424088,681.728206,2155.982215,-12017.974200,-5187.415205,3187.291704,2193.153166,1918.293764,-22706.421936,-11839.853148,0.004000,-0.006000,1.012000,192.000000,0.000000,0.000000,0.000000,0.000000,0.000000,0.000000,0.000000,0.000000,0.000000,1770885841.003942,0.000000
100.000000,-15996.674120,-9039.648955,1700.274849,-19202.137792,6971.151468,-911.727656,-7700.488889,551.149315,2110.049380,-12104.676617,-5257.644386,3119.565918,2120.532348,1837.805133,-22787.871693,-11897.520649,0.004000,-0.006000,1.012000,192.000000,0.000000,0.000000,0.000000,0.000000,0.000000,0.000000,0.000000,0.000000,0.000000,1770885841.003959,0.000000
102.000000,-15861.803694,-8906.432558,1809.910156,-19075.761029,7076.182315,-848.203999,-7583.946894,660.471697,2104.193223,-12134.069161,-5280.040834,3097.884726,2099.253487,1806.758560,-22806.021310,-11925.415626,0.004000,-0.008000,1.010000,192.000000,0.000000,16.000000,127.500000,96.000000,15.500000,72.000000,0.000000,0.000000,0.000000,1770885841.003977,0.000000
104.000000,-15937.352590,-8983.613131,1749.962777,-19143.978553,7014.826776,-899.434197,-7646.799999,608.034504,2143.711107,-12031.519357,-5182.721339,3189.079844,2187.811099,1898.691285,-22707.740689,-11837.796788,0.004000,-0.008000,1.010000,192.000000,0.000000,0.000000,0.000000,0.000000,0.000000,0.000000,0.000000,0.000000,0.000000,1770885841.003996,0.000000
106.000000,-15937.352590,-8983.903704,1737.423448,-19160.876472,6995.894849,-905.268002,-7659.585197,596.858632,2087.295304,-12180.851362,-5309.858061,3068.715700,2067.514010,1778.170678,-22856.133921,-11973.561284,0.004000,-0.008000,1.010000,192.000000,0.000000,0.000000,0.000000,0.000000,0.000000,0.000000,0.000000,0.000000,0.000000,1770885841.004013,0.000000
108.000000,-15837.686162,-8880.862162,1824.796417,-19063.445218,7089.593362,-848.539275,-7573.285112,681.683502,2153.009433,-12036.123817,-5183.615408,3181.010864,2187.207602,1887.448357,-22716.860201,-11859.366221,0.004000,-0.008000,1.010000,192.000000,0.000000,0.000000,0.000000,0.000000,0.000000,0.000000,0.000000,0.000000,0.000000,1770885841.004031,0.000000
110.000000,-15979.373870,-9018.727722,1706.175710,-19193.934702,6963.417764,-927.195063,-7693.783366,562.928684,2121.180549,-12102.620256,-5244.278043,3125.444427,2134.278671,1835.145275,-22793.236112,-11918.307771,0.004000,-0.008000,1.010000,192.000000,0.000000,0.000000,0.000000,0.000000,0.000000,0.000000,0.000000,0.000000,0.000000,1770885841.004046,0.000000
112.000000,-15850.158435,-8892.149793,1818.113246,-19070.508369,7076.294074,-859.871609,-7577.889571,667.601903,2113.156273,-12120.099320,-5268.037947,3109.842910,2115.972592,1818.135597,-22810.558714,-11943.162911,0.002000,-0.012000,1.010000,192.000000,0.000000,8.000000,127.500000,80.000000,15.500000,72.000000,0.000000,0.000000,0.000000,1770885841.004058,0.000000
114.000000,-15934.580974,-8972.973701,1759.641082,-19142.145710,7020.861747,-895.656752,-7639.110999,614.181234,2150.304872,-12018.801215,-5170.383176,3195.673608,2198.428178,1900.792348,-22703.896189,-11847.877425,0.002000,-0.012000,1.010000,192.000000,0.000000,0.000000,0.000000,0.000000,0.000000,0.000000,0.000000,0.000000,0.000000,1770885841.004077,0.000000
116.000000,-15952.529425,-8994.341969,1737.266986,-19165.145655,7014.938535,-903.166938,-7658.087630,588.364969,2078.354606,-12175.129315,-5312.629677,3063.887723,2062.842496,1766.480716,-22853.541118,-11980.289159,0.002000,-0.012000,1.010000,192.000000,0.000000,0.000000,0.000000,0.000000,0.000000,0.000000,0.000000,0.000000,0.000000,1770885841.004096,0.000000
118.000000,-15846.582156,-8889.378177,1824.505845,-19061.590023,7096.723568,-838.503341,-7571.161696,673.368653,2140.246587,-12035.319154,-5191.840850,3171.421966,2180.479727,1885.079072,-22707.964207,-11851.856035,0.002000,-0.012000,1.010000,192.000000,0.000000,0.000000,0.000000,0.000000,0.000000,0.000000,0.000000,0.000000,0.000000,1770885841.004124,0.000000
120.000000,-16002.798498,-9038.397257,1693.323456,-19201.936627,6961.897845,-925.295165,-7700.578296,548.154181,2103.433264,-12111.628009,-5257.487924,3115.386142,2125.203863,1831.747810,-22786.485885,-11909.925867,0.002000,-0.012000,1.010000,192.000000,0.000000,0.000000,0.000000,0.000000,0.000000,0.000000,0.000000,0.000000,0.000000,1770885841.004143,0.000000
122.000000,-15868.956252,-8900.196421,1802.735246,-19073.302337,7077.322254,-848.315757,-7585.869144,653.654415,2094.604325,-12131.275193,-5286.679302,3096.253049,2094.090235,1818.023839,-22810.514010,-11933.931641,0.006000,-0.012000,1.009000,192.000000,0.000000,40.000000,127.500000,80.000000,15.500000,64.000000,0.000000,0.000000,0.000000,1770885841.004161,0.000000
124.000000,-15931.138805,-8966.916378,1749.247521,-19135.171966,7025.689724,-876.590714,-7643.827217,606.022847,2145.342785,-12018.756511,-5182.587228,3186.755262,2196.863556,1910.671820,-22701.616311,-11834.019343,0.006000,-0.012000,1.009000,192.000000,0.000000,0.000000,0.000000,0.000000,0.000000,0.000000,0.000000,0.000000,0.000000,1770885841.004178,0.000000
126.000000,-15946.673268,-8985.021291,1729.108599,-19158.261318,7008.009494,-884.302066,-7659.987528,584.319304,2082.266162,-12162.791152,-5316.183605,3066.368767,2063.691862,1784.518574,-22855.530424,-11966.073449,0.006000,-0.012000,1.009000,192.000000,0.000000,0.000000,0.000000,0.000000,0.000000,0.000000,0.000000,0.000000,0.000000,1770885841.004194,0.000000
128.000000,-15838.066141,-8876.771793,1822.449484,-19054.370410,7095.605981,-833.608309,-7570.111164,673.569819,2145.074564,-12027.741912,-5186.901115,3176.249942,2178.132794,1897.931325,-22715.340282,-11845.038753,0.006000,-0.012000,1.009000,192.000000,0.000000,0.000000,0.000000,0.000000,0.000000,0.000000,0.000000,0.000000,0.000000,1770885841.004211,0.000000
130.000000,-15986.727594,-9031.043533,1703.381741,-19195.745193,6960.646148,-923.730543,-7692.397558,556.916065,2110.675229,-12104.475451,-5247.429639,3122.359886,2121.337011,1835.234682,-22794.241940,-11914.105644,0.006000,-0.012000,1.009000,192.000000,0.000000,0.000000,0.000000,0.000000,0.000000,0.000000,0.000000,0.000000,0.000000,1770885841.004228,0.000000
132.000000,-15856.349868,-8891.970979,1810.781874,-19072.967061,7074.528286,-848.986310,-7577.397833,670.820555,2109.356476,-12124.726132,-5264.215799,3107.898308,2103.343857,1799.360132,-22817.286589,-11941.263013,0.009000,-0.012000,1.010500,192.000000,0.000000,48.000000,127.500000,80.000000,15.500000,80.000000,0.000000,0.000000,0.000000,1770885841.004246,0.000000
134.000000,-15928.970686,-8968.302187,1753.136725,-19140.558736,7012.658657,-893.041598,-7641.860264,614.494159,2153.612930,-12018.488290,-5165.778716,3196.344161,2197.489404,1919.165482,-22708.187724,-11844.368201,0.009000,-0.012000,1.010500,192.000000,0.000000,0.000000,0.000000,0.000000,0.000000,0.000000,0.000000,0.000000,0.000000,1770885841.004265,0.000000
136.000000,-15948.036724,-8991.592704,1728.214530,-19161.301155,6996.565401,-895.835566,-7660.434563,584.207545,2083.562563,-12177.967987,-5318.195262,3065.608807,2051.219589,1769.229981,-22863.532348,-11979.484496,0.009000,-0.012000,1.010500,192.000000,0.000000,0.000000,0.000000,0.000000,0.000000,0.000000,0.000000,0.000000,0.000000,1770885841.004282,0.000000
138.000000,-15847.208005,-8883.074985,1822.740057,-19053.029305,7085.458289,-833.228330,-7567.920693,675.737938,2140.470104,-12027.227822,-5196.601772,3182.731948,2174.176535,1896.590221,-22721.665826,-11851.520759,0.009000,-0.012000,1.010500,192.000000,0.000000,0.000000,0.000000,0.000000,0.000000,0.000000,0.000000,0.000000,0.000000,1770885841.004301,0.000000
140.000000,-15993.902504,-9033.412818,1703.784073,-19196.818077,6963.931854,-918.679049,-7692.598723,555.731422,2107.300116,-12104.654265,-5256.750316,3122.806921,2126.097933,1837.872188,-22795.292472,-11914.865603,0.009000,-0.012000,1.010500,192.000000,0.000000,0.000000,0.000000,0.000000,0.000000,0.000000,0.000000,0.000000,0.000000,1770885841.004316,0.000000
142.000000,-15862.563653,-8905.650247,1809.329010,-19070.284852,7082.261989,-846.214693,-7583.186934,658.504743,2103.545022,-12126.223698,-5276.173982,3102.712703,2101.958049,1810.848929,-22812.011577,-11930.131844,0.007500,-0.015000,1.010250,192.000000,0.000000,24.000000,127.500000,56.000000,15.500000,72.000000,0.000000,0.000000,0.000000,1770885841.004334,0.000000
144.000000,-15932.994000,-8976.460573,1755.260140,-19137.429492,7017.464282,-888.168918,-7645.548301,607.743932,2155.177552,-12027.138415,-5171.321949,3187.649332,2195.455396,1904.167462,-22702.353919,-11835.203986,0.007500,-0.015000,1.010250,192.000000,0.000000,0.000000,0.000000,0.000000,0.000000,0.000000,0.000000,0.000000,0.000000,1770885841.004352,0.000000
146.000000,-15954.675192,-8996.666550,1734.025983,-19165.682097,6996.543049,-903.703380,-7661.865075,587.694417,2080.813298,-12179.890237,-5311.512090,3062.568970,2065.859981,1768.268856,-22855.664534,-11973.024842,0.007500,-0.015000,1.010250,192.000000,0.000000,0.000000,0.000000,0.000000,0.000000,0.000000,0.000000,0.000000,0.000000,1770885841.004375,0.000000
148.000000,-15851.588947,-8888.282941,1821.689525,-19065.792151,7085.123013,-847.756964,-7573.642739,674.329778,2138.257282,-12040.862386,-5191.617333,3174.238285,2167.873343,1885.771976,-22716.301407,-11854.247672,0.007500,-0.015000,1.010250,192.000000,0.000000,0.000000,0.000000,0.000000,0.000000,0.000000,0.000000,0.000000,0.000000,1770885841.004393,0.000000
150.000000,-15990.035652,-9037.369077,1704.856957,-19207.055176,6958.947415,-929.273776,-7696.957314,559.307702,2110.675229,-12118.199422,-5251.251787,3114.447369,2116.151406,1822.941223,-22792.833780,-11919.939449,0.007500,-0.015000,1.010250,192.000000,0.000000,0.000000,0.000000,0.000000,0.000000,0.000000,0.000000,0.000000,0.000000,1770885841.004411,0.000000
152.000000,-15857.243938,-8900.799918,1813.575842,-19078.443239,7068.806239,-854.753060,-7579.834173,668.764194,2107.233060,-12138.830082,-5267.300340,3097.370636,2099.275839,1808.971382,-22815.006711,-11942.380600,0.005750,-0.014500,1.008125,192.000000,0.000000,16.000000,127.500000,72.000000,15.500000,56.000000,0.000000,0.000000,0.000000,1770885841.004429,0.000000
154.000000,-15923.360398,-8966.178771,1760.110469,-19139.865832,7013.239803,-884.838508,-7636.875825,620.998516,2150.327224,-12024.724427,-5166.382213,3194.533669,2182.737253,1903.876889,-22708.634759,-11845.284622,0.005750,-0.014500,1.008125,192.000000,0.000000,0.000000,0.000000,0.000000,0.000000,0.000000,0.000000,0.000000,0.000000,1770885841.004450,0.000000
156.000000,-15940.548890,-8984.954236,1743.190198,-19159.244795,6997.213602,-894.583868,-7655.114848,601.328981,2083.830784,-12173.788211,-5301.587916,3071.733185,2070.084461,1773.007425,-22860.492511,-11972.130772,0.005750,-0.014500,1.008125,192.000000,0.000000,0.000000,0.000000,0.000000,0.000000,0.000000,0.000000,0.000000,0.000000,1770885841.004469,0.000000
158.000000,-15834.936897,-8873.687252,1830.876092,-19055.443294,7089.839231,-833.541254,-7569.060632,685.103319,2152.495343,-12032.525186,-5177.423975,3182.173155,2186.246477,1896.411407,-22718.000140,-11851.185483,0.005750,-0.014500,1.008125,192.000000,0.000000,0.000000,0.000000,0.000000,0.000000,0.000000,0.000000,0.000000,0.000000,1770885841.004487,0.000000
160.000000,-15988.761602,-9028.830711,1703.828776,-19198.270941,6968.201037,-911.973526,-7696.957314,557.541914,2119.459464,-12100.742710,-5246.870845,3123.343363,2124.510959,1840.509694,-22793.124353,-11913.546850,0.005750,-0.014500,1.008125,192.000000,0.000000,0.000000,0.000000,0.000000,0.000000,0.000000,0.000000,0.000000,0.000000,1770885841.004505,0.000000
162.000000,-15867.413982,-8903.951514,1804.076350,-19072.765895,7076.606998,-846.549970,-7584.036301,655.710775,2108.484758,-12128.302411,-5277.895066,3098.644686,2100.929868,1818.761446,-22812.615074,-11931.271783,0.003875,-0.013250,1.008063,192.000000,0.000000,8.000000,127.500000,80.000000,15.500000,64.000000,0.000000,0.000000,0.000000,1770885841.004523,0.000000
164.000000,-15931.943468,-8966.312881,1746.721774,-19134.926097,7008.657695,-880.234048,-7641.457932,608.682705,2149.679023,-12015.470805,-5183.391891,3191.896163,2186.045311,1904.860366,-22707.897151,-11835.181634,0.003875,-0.013250,1.008063,192.000000,0.000000,0.000000,0.000000,0.000000,0.000000,0.000000,0.000000,0.000000,0.000000,1770885841.004541,0.000000
166.000000,-15953.177625,-8986.809431,1725.487617,-19162.552853,6995.984256,-895.097958,-7662.066241,585.012208,2079.293380,-12166.278024,-5320.922175,3070.146211,2056.136972,1786.999617,-22865.991040,-11974.164781,0.003875,-0.013250,1.008063,192.000000,0.000000,0.000000,0.000000,0.000000,0.000000,0.000000,0.000000,0.000000,0.000000,1770885841.004559,0.000000
168.000000,-15851.298374,-8888.148831,1817.979135,-19058.952517,7099.226963,-830.635527,-7572.838077,671.647569,2143.197017,-12029.619459,-5196.490013,3178.395710,2179.831526,1892.321037,-22715.943779,-11849.151474,0.003875,-0.013250,1.008063,192.000000,0.000000,0.000000,0.000000,0.000000,0.000000,0.000000,0.000000,0.000000,0.000000,1770885841.004573,0.000000
170.000000,-16001.524449,-9034.195129,1693.658733,-19200.126135,6964.736517,-910.833587,-7699.661875,548.176533,2106.115473,-12109.236373,-5260.751278,3114.492072,2118.341877,1842.789572,-22790.777420,-11911.669303,0.003875,-0.013250,1.008063,192.000000,0.000000,0.000000,0.000000,0.000000,0.000000,0.000000,0.000000,0.000000,0.000000,1770885841.004591,0.000000
172.000000,-15852.527720,-8894.899058,1806.892670,-19073.078820,7070.907303,-838.615100,-7582.918713,659.130592,2100.326371,-12119.674637,-5283.415947,3099.695218,2093.218516,1803.316391,-22816.951313,-11930.735341,0.002938,-0.012625,1.009031,192.000000,0.000000,8.000000,127.500000,80.000000,15.500000,72.000000,0.000000,0.000000,0.000000,1770885841.004609,0.000000
174.000000,-15926.221422,-8972.347852,1755.461306,-19140.022295,7011.898698,-884.056197,-7640.139179,612.191929,2152.450639,-12029.306534,-5174.674711,3186.084710,2193.421387,1908.816625,-22707.070137,-11836.813311,0.002938,-0.012625,1.009031,192.000000,0.000000,0.000000,0.000000,0.000000,0.000000,0.000000,0.000000,0.000000,0.000000,1770885841.004625,0.000000
176.000000,-15942.381733,-8990.296303,1733.020155,-19161.010583,6990.418671,-893.913316,-7658.132334,587.672065,2092.480909,-12181.164286,-5309.612192,3064.602979,2064.250656,1787.021969,-22862.124188,-11974.209484,0.002938,-0.012625,1.009031,192.000000,0.000000,0.000000,0.000000,0.000000,0.000000,0.000000,0.000000,0.000000,0.000000,1770885841.004641,0.000000
178.000000,-15842.178862,-8889.758157,1820.750752,-19060.092456,7091.023873,-825.338164,-7568.859466,671.289941,2155.445773,-12046.025639,-5188.957475,3171.310207,2181.664369,1888.320075,-22724.504498,-11852.705402,0.002938,-0.012625,1.009031,192.000000,0.000000,0.000000,0.000000,0.000000,0.000000,0.000000,0.000000,0.000000,0.000000,1770885841.004660,0.000000
180.000000,-15981.832562,-9024.270955,1698.799634,-19200.081432,6960.735555,-916.577985,-7696.353817,554.926760,2118.140712,-12114.377274,-5252.950520,3113.843872,2112.642182,1837.402801,-22801.036871,-11910.976399,0.002938,-0.012625,1.009031,192.000000,0.000000,0.000000,0.000000,0.000000,0.000000,0.000000,0.000000,0.000000,0.000000,1770885841.004679,0.000000
182.000000,-15841.664772,-8886.740671,1809.038437,-19073.861131,7074.528286,-839.598577,-7579.767117,665.903171,2112.955107,-12123.697951,-5270.317825,3103.785587,2095.788967,1818.470874,-22818.895914,-11934.356324,0.004469,-0.009313,1.008516,192.000000,0.000000,24.000000,127.500000,104.000000,15.500000,64.000000,0.000000,0.000000,0.000000,1770885841.004697,0.000000
184.000000,-15910.642256,-8957.014556,1750.968605,-19137.943582,7009.685875,-886.738406,-7639.625089,615.343525,2163.671215,-12023.360970,-5168.863257,3193.572544,2199.545765,1903.742779,-22710.713471,-11838.467340,0.004469,-0.009313,1.008516,192.000000,0.000000,0.000000,0.000000,0.000000,0.000000,0.000000,0.000000,0.000000,0.000000,1770885841.004714,0.000000
186.000000,-15936.257355,-8979.321597,1732.729582,-19160.362382,6991.357445,-888.392435,-7655.070145,596.344542,2091.944467,-12172.178885,-5308.584012,3072.560200,2068.989226,1785.345588,-22865.253432,-11969.716784,0.004469,-0.009313,1.008516,192.000000,0.000000,0.000000,0.000000,0.000000,0.000000,0.000000,0.000000,0.000000,0.000000,1770885841.004748,0.000000
188.000000,-15838.289659,-8878.872857,1817.934432,-19057.298488,7086.508821,-835.888187,-7568.255969,682.197593,2149.343747,-12038.694267,-5186.319969,3180.183849,2176.925799,1886.755453,-22720.883515,-11847.497445,0.004469,-0.009313,1.008516,192.000000,0.000000,0.000000,0.000000,0.000000,0.000000,0.000000,0.000000,0.000000,0.000000,1770885841.004765,0.000000
190.000000,-15979.239759,-9020.292344,1696.787977,-19201.623702,6960.333223,-919.371953,-7693.917476,562.191077,2116.106703,-12106.397701,-5248.904854,3121.979907,2113.580956,1843.326013,-22801.483905,-11911.602248,0.004469,-0.009313,1.008516,192.000000,0.000000,0.000000,0.000000,0.000000,0.000000,0.000000,0.000000,0.000000,0.000000,1770885841.004780,0.000000
192.000000,-15850.717229,-8890.540468,1803.830481,-19082.131276,7072.382518,-849.075717,-7581.264684,663.444479,2113.133921,-12127.833024,-5272.441241,3099.896383,2093.620848,1808.725513,-22818.560638,-11938.334935,0.004469,-0.009313,1.008516,192.000000,0.000000,0.000000,0.000000,0.000000,0.000000,0.000000,0.000000,0.000000,0.000000,1770885841.004795,0.000000
194.000000,-15921.147576,-8963.898893,1753.114373,-19142.346876,7013.418616,-886.604296,-7637.412266,613.823606,2149.902540,-12024.679723,-5174.719414,3187.381111,2181.105576,1905.754436,-22709.484125,-11844.010573,0.004000,-0.006000,1.004000,192.000000,0.000000,16.000000,127.500000,104.000000,15.500000,48.000000,0.000000,0.000000,0.000000,1770885841.484462,0.000000
196.000000,-15948.059076,-8988.686977,1731.097905,-19165.838559,6986.507116,-901.647020,-7657.238264,590.935420,2081.461499,-12178.884408,-5313.121416,3064.826496,2058.930941,1781.635199,-22866.438075,-11979.708013,0.004000,-0.006000,1.004000,192.000000,0.000000,0.000000,0.000000,0.000000,0.000000,0.000000,0.000000,0.000000,0.000000,1770885841.484528,0.000000
198.000000,-15836.099188,-8878.291712,1821.197786,-19059.935994,7091.090928,-834.770600,-7567.585417,683.493994,2152.383584,-12041.510587,-5187.214039,3179.446242,2185.508869,1892.030465,-22727.343169,-11862.182541,0.004000,-0.006000,1.004000,192.000000,0.000000,0.000000,0.000000,0.000000,0.000000,0.000000,0.000000,0.000000,0.000000,1770885841.484577,0.000000
200.000000,-15981.944320,-9023.153367,1698.486709,-19201.422537,6962.411936,-911.235918,-7693.135165,563.308664,2126.321450,-12109.683408,-5242.869883,3123.052791,2131.283537,1835.391144,-22798.220551,-11915.647914,0.004000,-0.006000,1.004000,192.000000,0.000000,0.000000,0.000000,0.000000,0.000000,0.000000,0.000000,0.000000,0.000000,1770885841.484625,0.000000
202.000000,-15842.938822,-8888.193534,1806.959725,-19073.592910,7083.334873,-832.580129,-7577.844867,671.044072,2116.441979,-12131.163434,-5268.864962,3106.378389,2098.717046,1810.558356,-22823.120394,-11935.630373,0.004000,-0.006000,1.004000,192.000000,0.000000,0.000000,0.000000,0.000000,0.000000,0.000000,0.000000,0.000000,0.000000,1770885841.484675,0.000000
204.000000,-15921.371093,-8958.378012,1754.947216,-19140.245812,7026.002649,-876.769528,-7638.038115,616.796388,2160.609026,-12023.740950,-5167.388042,3197.864079,2193.443739,1916.527977,-22707.785393,-11836.925070,0.004000,-0.006000,1.004000,192.000000,0.000000,0.000000,127.500000,88.000000,15.500000,32.000000,0.000000,0.000000,0.000000,1770885841.484719,0.000000
206.000000,-15944.035762,-8984.261332,1726.806370,-19166.866740,7007.562459,-895.723807,-7663.027366,586.487423,2091.072749,-12172.625920,-5309.478081,3073.342511,2060.808487,1787.424301,-22865.856930,-11974.120077,0.004000,-0.006000,1.004000,192.000000,0.000000,0.000000,0.000000,0.000000,0.000000,0.000000,0.000000,0.000000,0.000000,1770885841.484736,0.000000
208.000000,-15841.262441,-8885.108994,1822.047153,-19065.501579,7089.347492,-838.101010,-7570.044109,674.441537,2151.422459,-12049.311346,-5187.884592,3174.350044,2173.863610,1879.379377,-22724.772719,-11858.025117,0.004000,-0.006000,1.004000,192.000000,0.000000,0.000000,0.000000,0.000000,0.000000,0.000000,0.000000,0.000000,0.000000,1770885841.484752,0.000000
210.000000,-15989.499210,-9034.709219,1699.425483,-19215.682950,6951.794857,-935.375802,-7699.550116,552.892751,2113.066866,-12124.770835,-5246.602624,3115.654363,2115.749075,1824.394086,-22800.992167,-11920.632353,0.004000,-0.006000,1.004000,192.000000,0.000000,0.000000,0.000000,0.000000,0.000000,0.000000,0.000000,0.000000,0.000000,1770885841.484785,0.000000
212.000000,-15844.101112,-8886.986540,1810.446597,-19081.818352,7066.302844,-856.943531,-7582.158754,666.417261,2111.993982,-12144.395667,-5267.903837,3098.287058,2106.160177,1794.710969,-22822.382787,-11951.053077,0.004000,-0.006000,1.004000,192.000000,0.000000,0.000000,0.000000,0.000000,0.000000,0.000000,0.000000,0.000000,0.000000,1770885841.484805,0.000000
214.000000,-15916.409006,-8954.421753,1756.780059,-19144.112664,7017.196061,-881.999836,-7641.256766,615.768208,2162.598331,-12021.572831,-5159.855504,3200.367475,2191.677951,1910.314192,-22709.931160,-11845.530492,0.002000,-0.006000,0.998000,192.000000,0.000000,8.000000,127.500000,104.000000,15.500000,24.000000,0.000000,0.000000,0.000000,1770885841.484822,0.000000
216.000000,-15941.420608,-8979.343948,1735.121219,-19170.018336,7005.997837,-887.252496,-7660.747488,592.567097,2093.978476,-12175.129315,-5302.213764,3073.521325,2068.586894,1787.513708,-22863.599403,-11978.523371,0.002000,-0.006000,0.998000,192.000000,0.000000,0.000000,0.000000,0.000000,0.000000,0.000000,0.000000,0.000000,0.000000,1770885841.484840,0.000000
218.000000,-15834.780435,-8872.323796,1826.606909,-19060.584195,7103.384388,-826.768676,-7568.501838,681.124709,2154.037613,-12040.258889,-5184.285961,3182.776652,2171.226105,1899.026561,-22722.492841,-11857.063992,0.002000,-0.006000,0.998000,192.000000,0.000000,0.000000,0.000000,0.000000,0.000000,0.000000,0.000000,0.000000,0.000000,1770885841.484860,0.000000
220.000000,-15980.044422,-9014.324428,1703.359390,-19201.958978,6962.635453,-909.157206,-7694.275104,562.548704,2116.933717,-12110.443367,-5244.747429,3126.718477,2122.968688,1833.044211,-22797.371185,-11915.983190,0.002000,-0.006000,0.998000,192.000000,0.000000,0.000000,0.000000,0.000000,0.000000,0.000000,0.000000,0.000000,0.000000,1770885841.484880,0.000000
222.000000,-15841.195386,-8878.828153,1812.078275,-19073.078820,7071.443745,-828.802684,-7579.655359,672.832212,2118.766560,-12121.596887,-5264.282854,3110.602869,2101.779235,1827.813903,-22823.165098,-11937.552623,0.002000,-0.006000,0.998000,192.000000,0.000000,0.000000,0.000000,0.000000,0.000000,0.000000,0.000000,0.000000,0.000000,1770885841.484900,0.000000
224.000000,-15907.401253,-8946.553939,1757.092983,-19133.808510,7002.108634,-875.942513,-7637.121694,624.083057,2160.765488,-12011.447491,-5161.375423,3203.027332,2195.857727,1928.195587,-22716.748442,-11840.747218,0.002000,-0.006000,1.000000,192.000000,0.000000,8.000000,127.500000,104.000000,15.500000,32.000000,0.000000,0.000000,0.000000,1770885841.484919,0.000000
226.000000,-15938.380770,-8977.041719,1731.276719,-19165.391524,6982.282636,-887.140737,-7656.835932,594.198775,2094.716083,-12167.797943,-5303.264296,3075.756499,2060.987301,1787.960742,-22871.064886,-11975.394127,0.002000,-0.006000,1.000000,192.000000,0.000000,0.000000,0.000000,0.000000,0.000000,0.000000,0.000000,0.000000,0.000000,1770885841.484938,0.000000
228.000000,-15838.356714,-8876.011834,1821.890691,-19060.561843,7085.391234,-836.312871,-7567.898341,677.704892,2145.655709,-12035.945003,-5192.421996,3177.971027,2161.771317,1900.971162,-22730.360655,-11859.589739,0.002000,-0.006000,1.000000,192.000000,0.000000,0.000000,0.000000,0.000000,0.000000,0.000000,0.000000,0.000000,0.000000,1770885841.484957,0.000000
230.000000,-15990.437983,-9028.629545,1702.107692,-19205.959941,6962.993081,-919.930747,-7697.158479,553.898579,2113.715066,-12113.259687,-5253.822238,3120.124712,2124.287441,1835.659365,-22796.588873,-11915.692617,0.002000,-0.006000,1.000000,192.000000,0.000000,0.000000,0.000000,0.000000,0.000000,0.000000,0.000000,0.000000,0.000000,1770885841.484977,0.000000
232.000000,-15860.887272,-8899.280000,1808.636106,-19078.197369,7077.881047,-841.789048,-7584.416280,654.906113,2108.998848,-12142.406361,-5279.683206,3096.409511,2095.096063,1806.736208,-22819.566467,-11939.072542,0.002000,-0.006000,1.000000,192.000000,0.000000,0.000000,0.000000,0.000000,0.000000,0.000000,0.000000,0.000000,0.000000,1770885841.484997,0.000000
234.000000,-15927.093140,-8970.470306,1757.338853,-19146.414893,7024.482730,-880.189345,-7642.843740,603.072417,2155.088145,-12035.453264,-5178.094527,3184.520088,2191.007398,1907.699038,-22704.723204,-11838.132064,0.004000,-0.012000,1.002000,192.000000,0.000000,16.000000,127.500000,80.000000,15.500000,40.000000,0.000000,0.000000,0.000000,1770885841.485016,0.000000
236.000000,-15953.021163,-8994.073748,1729.712096,-19177.237949,7001.795709,-895.299124,-7664.882560,576.406786,2089.508127,-12191.647254,-5316.094198,3056.377537,2058.707423,1769.542905,-22862.012429,-11978.970406,0.004000,-0.012000,1.002000,192.000000,0.000000,0.000000,0.000000,0.000000,0.000000,0.000000,0.000000,0.000000,0.000000,1770885841.485037,0.000000
238.000000,-15835.786263,-8881.711529,1822.382429,-19070.150741,7094.376635,-827.573338,-7572.703966,670.909962,2151.310700,-12048.774904,-5191.818499,3169.231495,2175.897619,1890.622305,-22729.332474,-11862.741335,0.004000,-0.012000,1.002000,192.000000,0.000000,0.000000,0.000000,0.000000,0.000000,0.000000,0.000000,0.000000,0.000000,1770885841.485057,0.000000
240.000000,-15978.300986,-9025.477949,1699.425483,-19210.966731,6962.277825,-920.958927,-7699.706578,554.211504,2119.392409,-12119.831099,-5250.111848,3112.368657,2114.475025,1835.949938,-22799.181676,-11922.375789,0.004000,-0.012000,1.002000,192.000000,0.000000,0.000000,0.000000,0.000000,0.000000,0.000000,0.000000,0.000000,0.000000,1770885841.485072,0.000000
242.000000,-15849.957269,-8888.372348,1807.920850,-19083.248864,7081.099699,-843.845408,-7584.952722,659.532924,2116.106703,-12138.561861,-5273.759994,3096.856546,2108.529461,1802.779949,-22823.746243,-11949.041420,0.004000,-0.012000,1.002000,192.000000,0.000000,0.000000,0.000000,0.000000,0.000000,0.000000,0.000000,0.000000,0.000000,1770885841.485099,0.000000
244.000000,-15910.530497,-8952.834779,1758.545847,-19142.615097,7023.588660,-866.867705,-7639.468627,614.918842,2160.229046,-12020.410540,-5169.936141,3192.365550,2191.342675,1911.118854,-22708.634759,-11846.469265,0.004000,-0.006000,1.004000,192.000000,0.000000,16.000000,127.500000,104.000000,15.500000,48.000000,0.000000,0.000000,0.000000,1770885841.485115,0.000000
246.000000,-15937.933736,-8979.925094,1735.925881,-19166.598519,7000.856936,-880.412862,-7660.479267,588.320266,2091.855060,-12169.675490,-5306.192375,3069.900342,2070.643255,1794.241583,-22865.409895,-11979.149220,0.004000,-0.006000,1.004000,192.000000,0.000000,0.000000,0.000000,0.000000,0.000000,0.000000,0.000000,0.000000,0.000000,1770885841.485131,0.000000
248.000000,-15828.566650,-8871.094450,1823.477664,-19063.691087,7099.539888,-821.136036,-7570.424088,679.783604,2156.786878,-12038.582508,-5186.074100,3179.312131,2176.746986,1895.450282,-22722.917524,-11857.958061,0.004000,-0.006000,1.004000,192.000000,0.000000,0.000000,0.000000,0.000000,0.000000,0.000000,0.000000,0.000000,0.000000,1770885841.485147,0.000000
250.000000,-15976.915178,-9014.659705,1703.091169,-19200.796688,6964.468296,-902.205813,-7695.750319,562.146373,2116.911366,-12106.129480,-5242.534607,3123.142198,2119.794741,1857.720537,-22797.348833,-11912.451614,0.004000,-0.006000,1.004000,192.000000,0.000000,0.000000,0.000000,0.000000,0.000000,0.000000,0.000000,0.000000,0.000000,1770885841.485166,0.000000
252.000000,-15851.656002,-8889.914619,1806.378580,-19079.382012,7082.306693,-828.936795,-7585.690330,660.494049,2108.305944,-12126.648382,-5268.842610,3102.422130,2098.158252,1821.868339,-22823.209801,-11938.022010,0.004000,-0.006000,1.004000,192.000000,0.000000,0.000000,0.000000,0.000000,0.000000,0.000000,0.000000,0.000000,0.000000,1770885841.485184,0.000000
254.000000,-15923.807433,-8962.423678,1755.528361,-19138.569431,7026.337925,-864.967807,-7643.916624,608.369781,2153.456468,-12026.043180,-5172.975978,3188.677512,2189.375721,1920.573642,-22712.613370,-11833.974640,-0.002000,-0.008000,1.006000,192.000000,127.500000,120.000000,127.500000,96.000000,15.500000,56.000000,0.000000,0.000000,0.000000,1770885841.485202,0.000000
0.000000,-15949.333125,-8989.379882,1727.655736,-19169.258376,6986.596523,-880.234048,-7664.860209,583.268772,2087.518822,-12180.069051,-5308.941640,3061.093755,2062.395461,1793.995713,-22866.102799,-11970.029708,-0.002000,-0.008000,1.006000,192.000000,0.000000,0.000000,0.000000,0.000000,0.000000,0.000000,0.000000,0.000000,0.000000,1770885841.485221,0.000000
2.000000,-15841.329496,-8881.465659,1818.873205,-19066.999145,7091.023873,-824.041763,-7573.642739,674.486241,2141.006546,-12047.389096,-5188.756310,3169.678529,2164.766450,1887.358950,-22732.104091,-11855.275852,-0.002000,-0.008000,1.006000,192.000000,0.000000,0.000000,0.000000,0.000000,0.000000,0.000000,0.000000,0.000000,0.000000,1770885841.485242,0.000000
4.000000,-15989.499210,-9030.954126,1696.452701,-19210.027958,6961.629625,-910.744180,-7699.751282,555.485553,2105.444921,-12116.657152,-5249.418944,3117.464854,2098.605287,1833.200673,-22809.396423,-11919.134786,-0.002000,-0.008000,1.006000,192.000000,0.000000,0.000000,0.000000,0.000000,0.000000,0.000000,0.000000,0.000000,0.000000,1770885841.485260,0.000000
6.000000,-15855.187578,-8898.788261,1810.446597,-19087.071012,7076.003501,-842.459600,-7588.529001,658.370633,2110.362304,-12142.272251,-5270.608398,3094.777834,2101.511014,1816.436865,-22820.952275,-11952.863568,-0.002000,-0.008000,1.006000,192.000000,0.000000,0.000000,0.000000,0.000000,0.000000,0.000000,0.000000,0.000000,0.000000,1770885841.485278,0.000000
8.000000,-15918.487718,-8958.243902,1759.529324,-19144.067960,7021.934631,-871.650979,-7639.133351,611.610784,2154.909331,-12028.300706,-5172.126612,3187.247001,2191.789710,1912.281145,-22707.472468,-11853.890044,-0.003000,-0.008000,1.007000,192.000000,127.500000,112.000000,127.500000,96.000000,15.500000,64.000000,0.000000,0.000000,0.000000,1770885841.485297,0.000000
10.000000,-15940.861814,-8986.831783,1734.920053,-19173.751077,6999.068797,-887.408958,-7659.629900,584.878097,2094.470214,-12177.990339,-5306.013561,3066.413470,2059.869714,1789.771234,-22867.130979,-11991.397976,-0.003000,-0.008000,1.007000,192.000000,0.000000,0.000000,0.000000,0.000000,0.000000,0.000000,0.000000,0.000000,0.000000,1770885841.485313,0.000000
12.000000,-15837.999086,-8880.638645,1825.131693,-19065.747448,7086.419414,-832.200150,-7569.485315,674.575648,2154.238779,-12047.389096,-5188.801013,3169.812640,2174.601218,1886.397825,-22732.081739,-11872.129067,-0.003000,-0.008000,1.007000,192.000000,0.000000,0.000000,0.000000,0.000000,0.000000,0.000000,0.000000,0.000000,0.000000,1770885841.485332,0.000000
14.000000,-15984.090088,-9024.449769,1703.471148,-19206.786955,6966.345843,-902.496386,-7696.152651,557.161934,2120.174720,-12111.985637,-5241.238206,3119.834139,2116.889014,1846.857589,-22801.081574,-11925.102702,-0.003000,-0.008000,1.007000,192.000000,0.000000,0.000000,0.000000,0.000000,0.000000,0.000000,0.000000,0.000000,0.000000,1770885841.485351,0.000000
16.000000,-15853.645307,-8894.854354,1809.999563,-19079.560826,7075.757632,-831.216673,-7583.835135,660.941084,2115.391447,-12130.336419,-5267.054470,3099.605811,2092.816185,1826.673964,-22829.311827,-11948.437923,-0.003000,-0.008000,1.007000,192.000000,0.000000,0.000000,0.000000,0.000000,0.000000,0.000000,0.000000,0.000000,0.000000,1770885841.485370,0.000000
18.000000,-15923.561564,-8965.150591,1760.401042,-19148.135978,7019.274774,-865.526601,-7641.055601,611.320211,2163.693567,-12026.467863,-5162.135382,3188.699864,2202.943230,1925.222805,-22709.752346,-11843.697648,-0.002500,-0.007000,1.008500,192.000000,127.500000,120.000000,127.500000,104.000000,15.500000,72.000000,0.000000,0.000000,0.000000,1770885841.485397,0.000000
20.000000,-15945.823901,-8990.475117,1726.940480,-19172.007641,6992.676198,-889.018284,-7662.692089,583.536992,2088.099967,-12181.700728,-5307.846404,3062.904246,2057.366318,1785.457347,-22869.433209,-11981.138525,-0.002500,-0.007000,1.008500,192.000000,0.000000,0.000000,0.000000,0.000000,0.000000,0.000000,0.000000,0.000000,0.000000,1770885841.485416,0.000000
22.000000,-15838.244955,-8876.056537,1818.828502,-19063.020535,7088.743995,-831.060211,-7567.987748,677.570781,2143.174665,-12043.924575,-5187.728129,3174.372396,2164.140602,1874.059662,-22733.847527,-11864.104791,-0.002500,-0.007000,1.008500,192.000000,0.000000,0.000000,0.000000,0.000000,0.000000,0.000000,0.000000,0.000000,0.000000,1770885841.485435,0.000000
24.000000,-15988.895713,-9027.266088,1694.441044,-19213.894810,6952.599520,-912.375857,-7697.091424,556.916065,2114.385618,-12111.873878,-5244.948595,3122.248128,2105.556679,1846.008223,-22800.455725,-11920.677056,-0.002500,-0.007000,1.008500,192.000000,0.000000,0.000000,0.000000,0.000000,0.000000,0.000000,0.000000,0.000000,0.000000,1770885841.485454,0.000000
26.000000,-15854.651136,-8892.060386,1805.283344,-19084.768782,7059.396155,-843.554836,-7582.605789,664.897342,2108.797682,-12138.360696,-5268.976720,3099.047017,2083.137880,1817.934432,-22829.289476,-11952.707106,-0.002500,-0.007000,1.008500,192.000000,0.000000,0.000000,0.000000,0.000000,0.000000,0.000000,0.000000,0.000000,0.000000,1770885841.485474,0.000000
28.000000,-15918.822994,-8955.069954,1755.260140,-19146.951335,7008.322419,-878.267095,-7640.720325,616.595223,2152.204770,-12027.339581,-5163.677652,3194.265448,2183.005474,1911.834110,-22721.084681,-11850.626689,-0.002250,-0.007500,1.010250,192.000000,127.500000,120.000000,127.500000,96.000000,15.500000,80.000000,0.000000,0.000000,0.000000,1770885841.485492,0.000000
30.000000,-15947.120303,-8981.981454,1730.784980,-19176.098010,6985.121308,-892.661618,-7665.083726,590.220164,2084.680150,-12180.627844,-5306.013561,3067.531057,2050.504333,1772.873315,-22873.367116,-11987.799345,-0.002250,-0.007500,1.010250,192.000000,0.000000,0.000000,0.000000,0.000000,0.000000,0.000000,0.000000,0.000000,0.000000,1770885841.485510,0.000000
32.000000,-15825.057426,-8861.885531,1828.260938,-19063.601680,7085.950027,-833.228330,-7569.507667,689.350151,2156.742174,-12036.459093,-5177.401623,3184.363626,2175.674102,1895.338523,-22733.109919,-11871.302053,-0.002250,-0.007500,1.010250,192.000000,0.000000,0.000000,0.000000,0.000000,0.000000,0.000000,0.000000,0.000000,0.000000,1770885841.485528,0.000000
34.000000,-15977.161047,-9019.107702,1701.347733,-19206.764603,6950.274938,-920.802465,-7697.717273,566.706129,2123.706296,-12104.810727,-5232.856301,3134.183959,2114.609136,1847.237569,-22804.657853,-11928.544870,-0.002250,-0.007500,1.010250,192.000000,0.000000,0.000000,0.000000,0.000000,0.000000,0.000000,0.000000,0.000000,0.000000,1770885841.485546,0.000000
36.000000,-15852.483017,-8895.502555,1804.970420,-19087.562750,7065.945216,-850.819153,-7586.718510,662.885685,2108.238889,-12138.405399,-5268.082651,3105.037284,2091.318618,1812.726475,-22831.301133,-11959.636147,-0.002250,-0.007500,1.010250,192.000000,0.000000,0.000000,0.000000,0.000000,0.000000,0.000000,0.000000,0.000000,0.000000,1770885841.485564,0.000000
38.000000,-15917.057206,-8956.902797,1755.885989,-19145.789045,7012.390436,-883.564458,-7640.765028,614.963545,2155.043442,-12029.194776,-5168.371519,3193.974876,2176.456413,1913.465788,-22715.876724,-11855.409963,-0.000125,-0.010750,1.008125,192.000000,0.000000,8.000000,127.500000,72.000000,15.500000,56.000000,0.000000,0.000000,0.000000,1770885841.485583,0.000000
40.000000,-15948.729628,-8980.573294,1728.706268,-19176.522693,6984.249590,-890.605258,-7666.983624,588.834356,2080.165098,-12177.364490,-5308.114625,3069.766232,2050.504333,1779.332969,-22872.830674,-11987.955807,-0.000125,-0.010750,1.008125,192.000000,0.000000,0.000000,0.000000,0.000000,0.000000,0.000000,0.000000,0.000000,0.000000,1770885841.485602,0.000000
42.000000,-15841.105979,-8873.888418,1819.566109,-19064.741619,7083.826611,-834.591786,-7573.486277,680.275342,2142.213540,-12043.902224,-5186.789356,3178.730986,2168.119212,1884.319113,-22732.327608,-11869.603320,-0.000125,-0.010750,1.008125,192.000000,0.000000,0.000000,0.000000,0.000000,0.000000,0.000000,0.000000,0.000000,0.000000,1770885841.485619,0.000000
44.000000,-15989.365100,-9024.002734,1698.509061,-19210.810269,6962.993081,-906.430293,-7700.064206,556.200809,2104.439092,-12107.381178,-5246.624976,3127.098456,2115.771427,1849.562150,-22799.002862,-11919.335952,-0.000125,-0.010750,1.008125,192.000000,0.000000,0.000000,0.000000,0.000000,0.000000,0.000000,0.000000,0.000000,0.000000,1770885841.485638,0.000000
46.000000,-15861.177845,-8898.564744,1802.042341,-19092.234265,7073.343643,-833.474199,-7592.485260,656.046052,2096.928906,-12141.869920,-5278.811488,3095.895421,2085.976551,1812.502958,-22825.869659,-11947.834426,-0.000125,-0.010750,1.008125,192.000000,0.000000,0.000000,0.000000,0.000000,0.000000,0.000000,0.000000,0.000000,0.000000,1770885841.485655,0.000000
48.000000,-15924.656799,-8961.350794,1755.014271,-19148.828882,7019.274774,-878.870592,-7646.420019,611.141397,2148.829657,-12027.361933,-5171.903094,3191.315018,2180.367968,1912.996401,-22717.128422,-11848.011535,0.001937,-0.010375,1.003062,192.000000,0.000000,16.000000,127.500000,88.000000,15.500000,24.000000,0.000000,0.000000,0.000000,1770885841.485673,0.000000
50.000000,-15954.563433,-8994.498431,1728.214530,-19177.975557,6990.373968,-889.688836,-7669.375261,583.179365,2086.535345,-12182.393632,-5309.545137,3065.787621,2052.851266,1779.400024,-22872.249528,-11983.954845,0.001937,-0.010375,1.003062,192.000000,0.000000,0.000000,0.000000,0.000000,0.000000,0.000000,0.000000,0.000000,0.000000,1770885841.485692,0.000000
52.000000,-15841.374200,-8881.152735,1818.716743,-19069.726058,7082.172582,-835.284690,-7575.185010,679.224811,2135.172741,-12053.848750,-5194.366597,3173.545381,2156.138677,1884.319113,-22735.166280,-11866.563483,0.001937,-0.010375,1.003062,192.000000,0.000000,0.000000,0.000000,0.000000,0.000000,0.000000,0.000000,0.000000,0.000000,1770885841.485705,0.000000
54.000000,-15995.511829,-9027.444902,1696.631515,-19210.810269,6952.353651,-920.444837,-7700.108910,563.040443,2107.121302,-12116.433634,-5245.194464,3128.417209,2105.444921,1839.906197,-22810.089327,-11923.471024,0.001937,-0.010375,1.003062,192.000000,0.000000,0.000000,0.000000,0.000000,0.000000,0.000000,0.000000,0.000000,0.000000,1770885841.485718,0.000000
56.000000,-15861.021383,-8900.352883,1803.428150,-19089.552056,7061.318405,-852.160257,-7588.864277,665.545543,2097.733569,-12146.943766,-5272.709462,3099.874032,2078.354606,1796.454405,-22835.123281,-11953.981156,0.001937,-0.010375,1.003062,192.000000,0.000000,0.000000,0.000000,0.000000,0.000000,0.000000,0.000000,0.000000,0.000000,1770885841.485736,0.000000
58.000000,-15924.902669,-8960.389669,1758.814068,-19148.359495,7008.680047,-884.100900,-7639.982717,619.523301,2146.348613,-12034.201566,-5166.024585,3192.164384,2179.160974,1901.239383,-22720.391777,-11855.007631,0.002969,-0.012188,1.004531,192.000000,0.000000,16.000000,127.500000,72.000000,15.500000,56.000000,0.000000,0.000000,0.000000,1770885841.964787,0.000000
60.000000,-15957.379753,-8991.235076,1730.203835,-19179.339013,6981.477974,-909.224261,-7662.535627,588.744949,2083.897839,-12179.577312,-5302.392578,3074.169525,2057.142801,1771.867486,-22870.975479,-11992.783784,0.002969,-0.012188,1.004531,192.000000,0.000000,0.000000,0.000000,0.000000,0.000000,0.000000,0.000000,0.000000,0.000000,1770885841.964862,0.000000
62.000000,-15851.276022,-8887.210058,1818.962612,-19079.829047,7073.857733,-848.807496,-7575.341472,673.078081,2136.223273,-12056.061573,-5192.466699,3172.852477,2156.429250,1878.977046,-22738.787262,-11879.482791,0.002969,-0.012188,1.004531,192.000000,0.000000,0.000000,0.000000,0.000000,0.000000,0.000000,0.000000,0.000000,0.000000,1770885841.964919,0.000000
64.000000,-16004.966617,-9035.826807,1692.697608,-19222.410825,6947.704488,-927.977375,-7703.416968,550.501114,2103.545022,-12126.111940,-5251.005918,3115.564956,2094.537269,1836.709897,-22806.647158,-11933.551661,0.002969,-0.012188,1.004531,192.000000,0.000000,0.000000,0.000000,0.000000,0.000000,0.000000,0.000000,0.000000,0.000000,1770885841.964968,0.000000
66.000000,-15864.999993,-8901.962209,1796.834385,-19093.575370,7052.824742,-854.440135,-7589.199554,657.655377,2094.626676,-12152.732867,-5276.889238,3095.068406,2075.046548,1796.812033,-22838.833670,-11961.334880,0.002969,-0.012188,1.004531,192.000000,0.000000,0.000000,0.000000,0.000000,0.000000,0.000000,0.000000,0.000000,0.000000,1770885841.965019,0.000000
68.000000,-15923.919192,-8962.177809,1751.348585,-19150.058228,7007.405997,-881.016359,-7640.720325,613.555385,2150.103706,-12034.983878,-5170.673748,3191.739701,2175.718805,1906.939078,-22721.934047,-11857.131047,0.002969,-0.012188,1.004531,192.000000,0.000000,0.000000,0.000000,0.000000,0.000000,0.000000,0.000000,0.000000,0.000000,1770885841.965039,0.000000
70.000000,-15955.099875,-8990.072786,1722.984221,-19176.232121,6981.232104,-895.410883,-7665.888389,583.849917,2077.259371,-12183.913551,-5307.555831,3065.854676,2045.586949,1777.634237,-22876.451656,-11985.810040,0.004000,-0.008000,1.008000,192.000000,0.000000,16.000000,127.500000,96.000000,15.500000,64.000000,0.000000,0.000000,0.000000,1770885841.965098,0.000000
72.000000,-15845.039886,-8879.386947,1819.096722,-19067.647346,7080.518553,-830.009679,-7575.609693,674.419185,2142.839389,-12050.719506,-5187.906943,3171.980759,2162.151296,1895.584392,-22739.502518,-11866.675242,0.004000,-0.008000,1.008000,192.000000,0.000000,0.000000,0.000000,0.000000,0.000000,0.000000,0.000000,0.000000,0.000000,1770885841.965119,0.000000
74.000000,-15991.756736,-9027.958992,1697.905564,-19211.413766,6956.555779,-913.158168,-7701.762939,554.546780,2113.737418,-12115.271344,-5244.255691,3117.733075,2116.486682,1843.504827,-22807.831801,-11917.681923,0.004000,-0.008000,1.008000,192.000000,0.000000,0.000000,0.000000,0.000000,0.000000,0.000000,0.000000,0.000000,0.000000,1770885841.965138,0.000000
76.000000,-15862.518950,-8896.418976,1800.701237,-19087.160419,7062.435992,-839.486818,-7590.875934,655.241389,2109.445883,-12145.468550,-5274.341139,3094.330799,2091.162156,1804.053998,-22834.564487,-11949.019068,0.004000,-0.008000,1.008000,192.000000,0.000000,0.000000,0.000000,0.000000,0.000000,0.000000,0.000000,0.000000,0.000000,1770885841.965151,0.000000
78.000000,-15925.439110,-8963.831838,1750.074536,-19147.934812,7007.964791,-872.477993,-7645.883578,607.028676,2144.895750,-12028.524223,-5172.685405,3191.024445,2167.180439,1920.618346,-22718.804803,-11846.893948,0.004000,-0.008000,1.008000,192.000000,0.000000,0.000000,0.000000,0.000000,0.000000,0.000000,0.000000,0.000000,0.000000,1770885841.965164,0.000000
80.000000,-15948.573166,-8993.805527,1726.895777,-19180.970690,6982.148526,-893.756854,-7667.028328,581.525335,2085.797737,-12188.763879,-5309.209860,3063.932426,2052.068955,1775.019082,-22873.344764,-11985.273598,0.004000,-0.008000,1.008000,192.000000,0.000000,0.000000,127.500000,72.000000,15.500000,32.000000,0.000000,0.000000,0.000000,1770885841.965176,0.000000
82.000000,-15839.876633,-8882.180915,1819.499054,-19076.163361,7080.607960,-836.983423,-7574.760327,675.022683,2140.492456,-12057.827360,-5188.085757,3170.840820,2168.253323,1885.101424,-22734.048692,-11876.085326,0.004000,-0.008000,1.008000,192.000000,0.000000,0.000000,0.000000,0.000000,0.000000,0.000000,0.000000,0.000000,0.000000,1770885841.965199,0.000000
84.000000,-15983.419536,-9028.160158,1698.218488,-19220.265057,6953.605348,-920.981279,-7701.785290,558.592446,2113.938584,-12123.005047,-5238.310127,3118.917718,2107.501281,1840.688508,-22803.003824,-11926.890841,0.004000,-0.008000,1.008000,192.000000,0.000000,0.000000,0.000000,0.000000,0.000000,0.000000,0.000000,0.000000,0.000000,1770885841.965211,0.000000
86.000000,-15850.046676,-8894.854354,1804.769254,-19093.955349,7065.900512,-847.198170,-7590.004216,661.768098,2112.798645,-12145.580309,-5267.188581,3098.443520,2084.501336,1810.223080,-22838.051359,-11961.916025,0.004000,-0.008000,1.008000,192.000000,0.000000,0.000000,0.000000,0.000000,0.000000,0.000000,0.000000,0.000000,0.000000,1770885841.965223,0.000000
88.000000,-15917.861869,-8953.952367,1758.098812,-19149.387675,7012.770416,-882.156298,-7643.268423,616.796388,2162.374814,-12030.066494,-5161.263664,3192.209088,2191.655599,1898.087787,-22713.730957,-11859.925015,0.004000,-0.008000,1.008000,192.000000,0.000000,0.000000,0.000000,0.000000,0.000000,0.000000,0.000000,0.000000,0.000000,1770885841.965235,0.000000
90.000000,-15952.976460,-8989.335178,1721.576061,-19184.010528,6978.125212,-898.987162,-7671.699842,582.933495,2088.055264,-12181.208990,-5304.739512,3067.016967,2056.025214,1788.050149,-22872.562453,-11997.432947,-0.004000,-0.016000,1.000000,192.000000,127.500000,112.000000,127.500000,64.000000,15.500000,32.000000,0.000000,0.000000,0.000000,1770885841.965248,0.000000
92.000000,-15840.234261,-8878.984616,1815.498092,-19075.336346,7076.830515,-841.721993,-7578.090737,677.906058,2142.548817,-12046.673840,-5187.973999,3175.981721,2155.490477,1898.288953,-22742.005913,-11878.141687,-0.004000,-0.016000,1.000000,192.000000,0.000000,0.000000,0.000000,0.000000,0.000000,0.000000,0.000000,0.000000,0.000000,1770885841.965269,0.000000
94.000000,-15989.052175,-9028.674248,1690.596544,-19216.733481,6948.151523,-918.768456,-7705.205107,556.290216,2114.922060,-12118.959381,-5242.892235,3125.600889,2108.596517,1842.677813,-22809.195257,-11933.283440,-0.004000,-0.016000,1.000000,192.000000,0.000000,0.000000,0.000000,0.000000,0.000000,0.000000,0.000000,0.000000,0.000000,1770885841.965287,0.000000
96.000000,-15865.268214,-8897.514212,1799.248373,-19092.658948,7067.241617,-841.029089,-7595.055711,655.174333,2101.935697,-12147.502559,-5277.336273,3100.321066,2091.296266,1802.958763,-22838.788967,-11960.686679,-0.004000,-0.016000,1.000000,192.000000,0.000000,0.000000,0.000000,0.000000,0.000000,0.000000,0.000000,0.000000,0.000000,1770885841.965308,0.000000
98.000000,-15931.071750,-8962.624843,1751.527399,-19146.839577,7011.339904,-873.327359,-7649.862188,607.095731,2150.260168,-12028.412465,-5170.092603,3196.098291,2184.123061,1906.670857,-22717.620160,-11847.698611,-0.004000,-0.016000,1.000000,192.000000,0.000000,0.000000,0.000000,0.000000,0.000000,0.000000,0.000000,0.000000,0.000000,1770885841.965326,0.000000
100.000000,-15963.325317,-8997.158289,1720.257309,-19179.875455,6987.132965,-889.375912,-7677.779517,573.054024,2082.288513,-12184.427641,-5311.489738,3066.055842,2051.465458,1778.908286,-22874.730572,-11981.362043,-0.002000,-0.014000,1.002000,192.000000,127.500000,120.000000,127.500000,72.000000,15.500000,40.000000,0.000000,0.000000,0.000000,1770885841.965343,0.000000
102.000000,-15851.007801,-8884.416090,1813.285269,-19072.520026,7082.016120,-828.534463,-7582.829306,663.355072,2137.631433,-12052.686459,-5197.965228,3173.947713,2156.786878,1904.458035,-22736.730902,-11864.328309,-0.002000,-0.014000,1.002000,192.000000,0.000000,0.000000,0.000000,0.000000,0.000000,0.000000,0.000000,0.000000,0.000000,1770885841.965359,0.000000
104.000000,-15999.803364,-9035.044495,1686.550878,-19215.660598,6952.308947,-904.530395,-7709.250773,542.365079,2106.026066,-12122.915640,-5257.443220,3118.582442,2091.273915,1841.694336,-22806.535400,-11917.927792,-0.002000,-0.014000,1.002000,192.000000,0.000000,0.000000,0.000000,0.000000,0.000000,0.000000,0.000000,0.000000,0.000000,1770885841.965391,0.000000
106.000000,-15867.212816,-8897.760081,1794.375693,-19092.703652,7055.484600,-836.290519,-7599.146080,647.619444,2097.755921,-12143.054562,-5285.338197,3095.157813,2070.911476,1813.598193,-22840.107720,-11953.824693,-0.002000,-0.014000,1.002000,192.000000,0.000000,0.000000,0.000000,0.000000,0.000000,0.000000,0.000000,0.000000,0.000000,1770885841.965409,0.000000
108.000000,-15923.114529,-8961.797829,1751.862675,-19154.059190,7003.226221,-873.573229,-7648.699897,606.156958,2153.903503,-12030.915860,-5171.903094,3189.146899,2180.502079,1903.921593,-22721.710530,-11852.906567,-0.002000,-0.014000,1.002000,192.000000,0.000000,0.000000,0.000000,0.000000,0.000000,0.000000,0.000000,0.000000,0.000000,1770885841.965422,0.000000
110.000000,-15957.312698,-8991.592704,1724.727657,-19186.133943,6969.609197,-901.468206,-7671.275159,581.771205,2080.165098,-12188.361548,-5307.779349,3064.424165,2048.917359,1779.042396,-22880.474970,-11995.443642,0.002000,-0.016000,1.000000,192.000000,0.000000,8.000000,127.500000,64.000000,15.500000,32.000000,0.000000,0.000000,0.000000,1770885841.965439,0.000000
112.000000,-15832.142929,-8877.375290,1820.728400,-19073.659965,7070.035585,-843.912464,-7573.776850,678.196630,2140.112476,-12051.345354,-5187.437557,3180.809698,2157.189209,1896.299648,-22745.313972,-11880.823896,0.002000,-0.016000,1.000000,192.000000,0.000000,0.000000,0.000000,0.000000,0.000000,0.000000,0.000000,0.000000,0.000000,1770885841.965458,0.000000
114.000000,-15985.051213,-9023.689809,1698.911393,-19219.393339,6953.180665,-919.260194,-7701.204145,559.173591,2112.083389,-12115.204288,-5239.561825,3126.226738,2100.393426,1840.330880,-22806.691862,-11933.551661,0.002000,-0.016000,1.000000,192.000000,0.000000,0.000000,0.000000,0.000000,0.000000,0.000000,0.000000,0.000000,0.000000,1770885841.965481,0.000000
116.000000,-15860.730810,-8897.938895,1802.489376,-19102.247846,7058.144457,-848.673385,-7597.045016,655.554313,2112.128092,-12151.548225,-5269.200238,3093.883764,2089.552830,1794.710969,-22834.139804,-11963.838275,0.002000,-0.016000,1.000000,192.000000,0.000000,0.000000,0.000000,0.000000,0.000000,0.000000,0.000000,0.000000,0.000000,1770885841.965500,0.000000
118.000000,-15919.962933,-8955.159361,1754.209608,-19154.148597,7014.871480,-863.157316,-7647.045868,612.951888,2158.463259,-12030.021790,-5163.632949,3192.007922,2183.541916,1917.310288,-22716.793146,-11852.504236,0.002000,-0.016000,1.000000,192.000000,0.000000,0.000000,0.000000,0.000000,0.000000,0.000000,0.000000,0.000000,0.000000,1770885841.965516,0.000000
120.000000,-15950.227195,-8993.202030,1728.192178,-19183.965824,6989.301084,-883.095072,-7671.163401,583.246420,2086.133014,-12186.349891,-5305.164195,3065.139421,2041.071897,1775.957856,-22869.455560,-11983.507810,-0.002000,-0.012000,1.000000,192.000000,127.500000,120.000000,127.500000,80.000000,15.500000,32.000000,0.000000,0.000000,0.000000,1770885841.965534,0.000000
122.000000,-15845.509272,-8885.846601,1818.068542,-19074.889311,7078.529248,-824.108818,-7576.190838,673.592171,2153.992910,-12048.618442,-5185.872935,3174.439451,2165.302892,1904.279221,-22738.519041,-11868.932768,-0.002000,-0.012000,1.000000,192.000000,0.000000,0.000000,0.000000,0.000000,0.000000,0.000000,0.000000,0.000000,0.000000,1770885841.965550,0.000000
124.000000,-15999.378681,-9038.754885,1692.049407,-19219.795670,6944.016450,-913.225223,-7704.623962,548.400050,2106.875432,-12121.730998,-5246.379107,3118.649497,2106.696618,1840.688508,-22804.300225,-11924.163929,-0.002000,-0.012000,1.000000,192.000000,0.000000,0.000000,0.000000,0.000000,0.000000,0.000000,0.000000,0.000000,0.000000,1770885841.965569,0.000000
126.000000,-15862.228377,-8905.382026,1797.057902,-19097.419870,7055.797524,-833.049516,-7593.535792,652.313310,2095.408987,-12156.175036,-5279.683206,3088.876973,2072.096118,1804.590440,-22844.220441,-11958.965595,-0.002000,-0.012000,1.000000,192.000000,0.000000,0.000000,0.000000,0.000000,0.000000,0.000000,0.000000,0.000000,0.000000,1770885841.965586,0.000000
128.000000,-15925.573221,-8963.004823,1751.214475,-19150.415856,7016.972544,-872.857973,-7643.670755,608.347429,2148.382622,-12036.302630,-5171.567818,3187.045835,2177.953980,1902.982819,-22721.598771,-11852.750105,-0.002000,-0.012000,1.000000,192.000000,0.000000,0.000000,0.000000,0.000000,0.000000,0.000000,0.000000,0.000000,0.000000,1770885841.965604,0.000000
130.000000,-15956.843311,-8989.469289,1724.325326,-19187.698565,6983.087299,-892.326342,-7672.884485,579.781899,2080.992112,-12185.366414,-5310.506262,3066.033490,2047.799772,1778.483603,-22875.468180,-11991.040348,-0.002000,-0.014000,1.000000,192.000000,127.500000,120.000000,127.500000,72.000000,15.500000,32.000000,0.000000,0.000000,0.000000,1770885841.965621,0.000000
132.000000,-15843.609374,-8878.112898,1822.427132,-19079.180846,7082.127879,-831.283728,-7577.487240,674.910924,2142.973500,-12056.374497,-5188.644551,3170.416137,2154.909331,1899.026561,-22738.519041,-11882.567332,-0.002000,-0.014000,1.000000,192.000000,0.000000,0.000000,0.000000,0.000000,0.000000,0.000000,0.000000,0.000000,0.000000,1770885841.965639,0.000000
134.000000,-15992.963730,-9029.903594,1698.397302,-19223.886040,6952.912444,-914.052238,-7705.830956,550.635225,2116.017296,-12115.718379,-5241.841703,3121.287003,2106.584860,1841.068487,-22802.310920,-11932.657591,-0.002000,-0.014000,1.000000,192.000000,0.000000,0.000000,0.000000,0.000000,0.000000,0.000000,0.000000,0.000000,0.000000,1770885841.965658,0.000000
136.000000,-15868.151589,-8904.152680,1800.947106,-19101.107907,7053.741163,-844.180685,-7596.888554,654.235560,2098.582935,-12151.123542,-5275.414023,3092.453252,2080.947409,1804.523385,-22840.040665,-11965.693470,-0.002000,-0.014000,1.000000,192.000000,0.000000,0.000000,0.000000,0.000000,0.000000,0.000000,0.000000,0.000000,0.000000,1770885841.965675,0.000000
138.000000,-15926.355532,-8962.870713,1756.556542,-19153.321582,7008.344770,-874.176726,-7646.755296,612.862481,2144.515770,-12037.688439,-5166.583379,3188.856326,2166.174610,1912.415256,-22725.487974,-11858.338041,-0.002000,-0.014000,1.000000,192.000000,0.000000,0.000000,0.000000,0.000000,0.000000,0.000000,0.000000,0.000000,0.000000,1770885841.965693,0.000000
140.000000,-15962.028916,-8998.722911,1726.247576,-19194.135868,6985.233067,-882.938609,-7676.505467,579.312513,2075.426528,-12196.341121,-5306.237078,3059.171505,2049.945539,1767.017158,-22876.921043,-11989.654540,0.000000,-0.014000,1.001000,192.000000,0.000000,8.000000,127.500000,72.000000,15.500000,40.000000,0.000000,0.000000,0.000000,1770885841.965706,0.000000
142.000000,-15842.469435,-8880.728052,1822.538891,-19078.264425,7080.965588,-829.920272,-7580.460022,677.324912,2135.396258,-12061.582453,-5191.773795,3169.790288,2158.910293,1886.621342,-22739.033131,-11871.525570,0.000000,-0.014000,1.001000,192.000000,0.000000,0.000000,0.000000,0.000000,0.000000,0.000000,0.000000,0.000000,0.000000,1770885841.965720,0.000000
144.000000,-15996.785879,-9029.255394,1703.582907,-19215.705301,6954.968805,-909.268964,-7704.646314,558.056004,2108.283592,-12115.159585,-5242.445200,3130.428866,2113.826825,1852.020842,-22802.065051,-11924.186280,0.000000,-0.014000,1.001000,192.000000,0.000000,0.000000,0.000000,0.000000,0.000000,0.000000,0.000000,0.000000,0.000000,1770885841.965739,0.000000
146.000000,-15877.427563,-8909.248878,1802.467025,-19093.910646,7059.530265,-841.297310,-7595.748615,651.843924,2096.660685,-12153.358716,-5277.559790,3097.013008,2071.984359,1805.372751,-22835.480909,-11958.563263,0.000000,-0.014000,1.001000,192.000000,0.000000,0.000000,0.000000,0.000000,0.000000,0.000000,0.000000,0.000000,0.000000,1770885841.965758,0.000000
148.000000,-15935.810320,-8968.324538,1754.790754,-19146.392542,6997.504174,-864.386662,-7643.246072,609.554423,2138.883130,-12036.012058,-5171.836039,3190.197431,2171.539029,1909.286011,-22722.671655,-11853.420657,0.000000,-0.014000,1.001000,192.000000,0.000000,0.000000,0.000000,0.000000,0.000000,0.000000,0.000000,0.000000,0.000000,1770885841.965773,0.000000
150.000000,-15968.242701,-9005.741358,1715.764608,-19185.485743,6964.490648,-883.810328,-7676.863095,571.869382,2072.476098,-12188.629769,-5313.032009,3066.458174,2034.098152,1782.953952,-22885.526465,-11986.368833,0.003000,-0.011000,1.000500,192.000000,0.000000,24.000000,127.500000,96.000000,15.500000,32.000000,0.000000,0.000000,0.000000,1770885841.965788,0.000000
152.000000,-15852.862996,-8884.371386,1811.363019,-19066.418000,7059.507914,-821.337202,-7578.716585,670.664092,2124.600366,-12057.693250,-5202.815557,3168.516239,2140.224235,1897.216069,-22751.907736,-11872.576102,0.003000,-0.011000,1.000500,192.000000,0.000000,0.000000,0.000000,0.000000,0.000000,0.000000,0.000000,0.000000,0.000000,1770885841.965806,0.000000
154.000000,-15993.656635,-9027.713123,1693.077587,-19214.386548,6933.779351,-904.910374,-7701.874697,556.066699,2096.414816,-12108.252896,-5246.356755,3129.691259,2091.944467,1861.788554,-22817.800679,-11921.392312,0.003000,-0.011000,1.000500,192.000000,0.000000,0.000000,0.000000,0.000000,0.000000,0.000000,0.000000,0.000000,0.000000,1770885841.965825,0.000000
156.000000,-15869.939729,-8904.063273,1798.331952,-19100.035024,7049.002594,-849.098068,-7595.212173,651.754517,2088.994037,-12149.380106,-5279.303226,3095.761311,2066.552885,1818.359115,-22849.137825,-11963.950034,0.003000,-0.011000,1.000500,192.000000,0.000000,0.000000,0.000000,0.000000,0.000000,0.000000,0.000000,0.000000,0.000000,1770885841.965844,0.000000
158.000000,-15934.715084,-8972.236094,1754.634291,-19156.987269,6996.140718,-887.163089,-7647.381144,604.905260,2131.842331,-12042.404657,-5176.060519,3187.023483,2156.093974,1908.906032,-22729.846565,-11862.786038,0.003000,-0.011000,1.000500,192.000000,0.000000,0.000000,0.000000,0.000000,0.000000,0.000000,0.000000,0.000000,0.000000,1770885841.965861,0.000000
160.000000,-15966.968652,-9005.942524,1726.672259,-19195.164048,6980.919180,-897.891927,-7677.019558,570.148298,2067.245789,-12202.107871,-5312.920250,3056.891627,2042.055373,1763.954969,-22874.998793,-12000.025749,0.003500,-0.009500,0.999250,192.000000,0.000000,16.000000,127.500000,96.000000,15.500000,24.000000,0.000000,0.000000,0.000000,1770885841.965880,0.000000
162.000000,-15850.471360,-8887.344168,1822.181263,-19084.277044,7084.474812,-832.177798,-7581.063519,667.691310,2133.988098,-12067.617424,-5197.339379,3162.347157,2156.406898,1871.578618,-22739.390759,-11883.751975,0.003500,-0.009500,0.999250,192.000000,0.000000,0.000000,0.000000,0.000000,0.000000,0.000000,0.000000,0.000000,0.000000,1770885841.965898,0.000000
164.000000,-16000.026882,-9033.479873,1696.855032,-19226.411787,6963.797744,-908.129025,-7706.166232,547.908312,2101.287496,-12121.976867,-5248.122543,3119.789436,2107.836557,1841.157894,-22802.377975,-11932.389370,0.003500,-0.009500,0.999250,192.000000,0.000000,0.000000,0.000000,0.000000,0.000000,0.000000,0.000000,0.000000,0.000000,1770885841.965914,0.000000
166.000000,-15874.275967,-8908.220697,1798.577821,-19101.979625,7066.146382,-845.030051,-7598.184955,646.680671,2089.910458,-12155.817408,-5282.857154,3090.799223,2070.218571,1814.067580,-22835.436205,-11960.574920,0.003500,-0.009500,0.999250,192.000000,0.000000,0.000000,0.000000,0.000000,0.000000,0.000000,0.000000,0.000000,0.000000,1770885841.965933,0.000000
168.000000,-15930.200032,-8965.687032,1755.818934,-19155.444998,7013.776244,-865.191324,-7650.912720,602.714789,2135.351555,-12045.176273,-5176.485202,3182.061396,2167.873343,1908.414293,-22714.736785,-11852.526588,0.003500,-0.009500,0.999250,192.000000,0.000000,0.000000,0.000000,0.000000,0.000000,0.000000,0.000000,0.000000,0.000000,1770885841.965949,0.000000
170.000000,-15965.113457,-9001.181603,1726.739314,-19186.357461,6979.399261,-889.688836,-7677.466592,571.467050,2064.697691,-12193.994188,-5311.936773,3058.120973,2040.691917,1779.780004,-22869.857892,-11983.910141,0.000750,-0.011750,1.000625,192.000000,127.500000,120.000000,127.500000,72.000000,15.500000,40.000000,0.000000,0.000000,0.000000,1770885841.965968,0.000000
172.000000,-15850.538415,-8880.973921,1823.164740,-19076.789209,7077.612827,-820.577242,-7580.795298,668.272456,2124.935642,-12063.214131,-5196.400606,3165.655215,2155.848104,1878.977046,-22736.172108,-11866.496428,0.000750,-0.011750,1.000625,192.000000,0.000000,0.000000,0.000000,0.000000,0.000000,0.000000,0.000000,0.000000,0.000000,1770885841.965984,0.000000
174.000000,-16003.938437,-9031.669382,1697.413826,-19221.069720,6942.496531,-905.402113,-7706.814433,548.265940,2098.962915,-12116.232469,-5246.043831,3121.778741,2111.681057,1852.400822,-22802.109754,-11917.525460,0.000750,-0.011750,1.000625,192.000000,0.000000,0.000000,0.000000,0.000000,0.000000,0.000000,0.000000,0.000000,0.000000,1770885841.966003,0.000000
176.000000,-15867.905720,-8899.034130,1799.784815,-19097.196352,7049.829608,-831.127266,-7595.502746,653.497953,2081.886182,-12151.637632,-5283.259485,3090.799223,2062.641330,1815.229871,-22850.054246,-11957.758600,0.000750,-0.011750,1.000625,192.000000,0.000000,0.000000,0.000000,0.000000,0.000000,0.000000,0.000000,0.000000,0.000000,1770885841.966021,0.000000
178.000000,-15927.093140,-8965.910550,1755.550713,-19152.494568,7007.405997,-869.013473,-7648.968118,609.532071,2135.329203,-12035.989706,-5170.718452,3189.750396,2171.717843,1917.064418,-22722.269323,-11851.744276,0.000750,-0.011750,1.000625,192.000000,0.000000,0.000000,0.000000,0.000000,0.000000,0.000000,0.000000,0.000000,0.000000,1770885842.445713,0.000000
180.000000,-15975.417611,-9004.981399,1723.453608,-19186.446868,6974.906561,-885.196136,-7678.830049,574.104556,2066.195257,-12192.340159,-5310.707427,3063.127764,2044.022327,1794.219231,-22883.447752,-11987.553476,0.001375,-0.013875,1.002312,192.000000,0.000000,8.000000,127.500000,64.000000,15.500000,48.000000,0.000000,0.000000,0.000000,1770885842.445778,0.000000
182.000000,-15856.886310,-8884.192572,1818.806150,-19075.179884,7079.624484,-820.644298,-7581.421147,669.166526,2124.488607,-12060.107238,-5198.859298,3169.700881,2145.499247,1892.410444,-22743.101149,-11870.162114,0.001375,-0.013875,1.002312,192.000000,0.000000,0.000000,0.000000,0.000000,0.000000,0.000000,0.000000,0.000000,0.000000,1770885842.445830,0.000000
184.000000,-16009.548725,-9038.486664,1691.065930,-19219.505098,6942.854159,-905.133892,-7710.569526,545.673137,2107.590688,-12120.524004,-5252.324671,3119.722381,2089.150499,1849.785668,-22808.725871,-11923.694542,0.001375,-0.013875,1.002312,192.000000,0.000000,0.000000,0.000000,0.000000,0.000000,0.000000,0.000000,0.000000,0.000000,1770885842.445892,0.000000
186.000000,-15885.273026,-8914.568593,1792.185222,-19104.192448,7053.294129,-846.192342,-7606.410397,639.841037,2091.631543,-12158.901949,-5290.903782,3087.044130,2064.988263,1811.854757,-22843.885165,-11963.882978,0.001375,-0.013875,1.002312,192.000000,0.000000,0.000000,0.000000,0.000000,0.000000,0.000000,0.000000,0.000000,0.000000,1770885842.445944,0.000000
188.000000,-15942.940526,-8970.850285,1748.420507,-19160.742362,7002.689779,-881.999836,-7654.019613,599.339676,2143.956976,-12042.717581,-5185.828231,3181.726120,2159.290273,1909.286011,-22721.576419,-11861.623748,0.001375,-0.013875,1.002312,192.000000,0.000000,0.000000,0.000000,0.000000,0.000000,0.000000,0.000000,0.000000,0.000000,1770885842.445992,0.000000
190.000000,-15976.848123,-8999.840498,1713.618840,-19194.001757,6960.847314,-900.618839,-7683.501563,568.158992,2074.375996,-12194.731795,-5324.319640,3057.003386,2029.158417,1780.808184,-22881.547854,-11997.209429,0.003687,-0.012938,1.004156,192.000000,0.000000,24.000000,127.500000,80.000000,15.500000,56.000000,0.000000,0.000000,0.000000,1770885842.446039,0.000000
192.000000,-15851.074857,-8875.095412,1816.213347,-19077.057430,7062.458344,-832.870702,-7582.538734,672.318121,2146.169799,-12053.066439,-5201.273286,3171.734890,2148.919064,1887.850688,-22752.220661,-11881.963835,0.003687,-0.012938,1.004156,192.000000,0.000000,0.000000,0.000000,0.000000,0.000000,0.000000,0.000000,0.000000,0.000000,1770885842.446052,0.000000
194.000000,-15998.261094,-9026.014391,1689.724826,-19221.986141,6947.391563,-906.653810,-7712.670590,548.221236,2120.286479,-12112.611486,-5248.994261,3131.412343,2102.472139,1863.889618,-22811.899818,-11929.550699,0.003687,-0.012938,1.004156,192.000000,0.000000,0.000000,0.000000,0.000000,0.000000,0.000000,0.000000,0.000000,0.000000,1770885842.446065,0.000000
196.000000,-15873.314842,-8895.256686,1792.229926,-19098.470402,7050.924844,-839.844446,-7604.689313,648.066479,2103.723836,-12148.128408,-5289.272104,3097.437691,2063.915380,1814.425208,-22845.226269,-11959.770257,0.003687,-0.012938,1.004156,192.000000,0.000000,0.000000,0.000000,0.000000,0.000000,0.000000,0.000000,0.000000,0.000000,1770885842.446077,0.000000
198.000000,-15927.093140,-8951.024288,1749.851018,-19151.108760,6997.392416,-868.857010,-7653.572578,607.654525,2158.150334,-12023.137453,-5178.362748,3198.489928,2157.993872,1924.596956,-22726.113823,-11850.738448,0.003687,-0.012938,1.004156,192.000000,0.000000,0.000000,0.000000,0.000000,0.000000,0.000000,0.000000,0.000000,0.000000,1770885842.446090,0.000000
200.000000,-15958.095009,-8980.439184,1716.725733,-19183.876417,6973.990139,-876.121327,-7683.792136,576.809117,2087.250601,-12173.095307,-5313.255526,3072.023758,2043.575292,1800.723589,-22882.441924,-11988.224028,0.002844,-0.012469,1.006078,192.000000,0.000000,8.000000,127.500000,80.000000,15.500000,64.000000,0.000000,0.000000,0.000000,1770885842.446102,0.000000
202.000000,-15836.926202,-8864.098354,1816.325106,-19070.955404,7069.253274,-819.906690,-7584.796260,673.614523,2147.332090,-12041.421180,-5199.082816,3180.854402,2143.398183,1906.447340,-22746.811539,-11874.073669,0.002844,-0.012469,1.006078,192.000000,0.000000,0.000000,0.000000,0.000000,0.000000,0.000000,0.000000,0.000000,0.000000,1770885842.446114,0.000000
204.000000,-15996.316492,-9019.733551,1694.530451,-19218.611028,6938.316755,-900.775302,-7713.408198,551.104611,2125.181511,-12104.721320,-5245.775610,3131.591157,2106.406046,1861.341520,-22808.904685,-11927.002600,0.002844,-0.012469,1.006078,192.000000,0.000000,0.000000,0.000000,0.000000,0.000000,0.000000,0.000000,0.000000,0.000000,1770885842.446126,0.000000
206.000000,-15868.889197,-8895.569610,1790.218269,-19098.559809,7042.565291,-836.603443,-7609.740807,644.132572,2107.143653,-12140.886443,-5286.701654,3097.035360,2072.587856,1828.953842,-22848.802549,-11963.927682,0.002844,-0.012469,1.006078,192.000000,0.000000,0.000000,0.000000,0.000000,0.000000,0.000000,0.000000,0.000000,0.000000,1770885842.446138,0.000000
208.000000,-15926.221422,-8954.421753,1748.845190,-19152.561623,6998.308837,-866.308912,-7658.802886,603.027714,2158.463259,-12026.289049,-5179.078004,3191.315018,2176.054081,1927.189759,-22728.907791,-11855.141742,0.002844,-0.012469,1.006078,192.000000,0.000000,0.000000,0.000000,0.000000,0.000000,0.000000,0.000000,0.000000,0.000000,1770885842.446151,0.000000
210.000000,-15962.163027,-8988.776384,1716.546919,-19191.252493,6968.111630,-878.110633,-7689.156555,571.176478,2090.089272,-12178.325615,-5316.563584,3071.107336,2041.720097,1796.677923,-22884.878264,-11988.313435,0.002844,-0.012469,1.006078,192.000000,0.000000,0.000000,0.000000,0.000000,0.000000,0.000000,0.000000,0.000000,0.000000,1770885842.446173,0.000000
212.000000,-15846.626860,-8880.862162,1815.833368,-19081.796000,7086.240600,-827.148655,-7592.976998,664.763232,2150.930721,-12055.458075,-5203.687275,3170.416137,2146.281558,1892.611610,-22745.135158,-11874.565408,0.004000,-0.010000,1.008000,192.000000,0.000000,16.000000,127.500000,88.000000,15.500000,64.000000,0.000000,0.000000,0.000000,1770885842.446187,0.000000
214.000000,-15999.959826,-9028.808359,1688.160203,-19222.857859,6954.812343,-903.390456,-7719.577279,545.628434,2114.005639,-12114.041998,-5253.665775,3125.355020,2101.466310,1853.294892,-22802.780307,-11921.928754,0.004000,-0.010000,1.008000,192.000000,0.000000,0.000000,0.000000,0.000000,0.000000,0.000000,0.000000,0.000000,0.000000,1770885842.446200,0.000000
216.000000,-15873.963043,-8901.291657,1796.454405,-19100.862038,7067.755707,-842.504304,-7608.354999,647.820610,2100.996924,-12150.117713,-5288.310979,3096.454215,2061.657853,1814.492263,-22832.329313,-11959.077353,0.004000,-0.010000,1.008000,192.000000,0.000000,0.000000,0.000000,0.000000,0.000000,0.000000,0.000000,0.000000,0.000000,1770885842.446214,0.000000
218.000000,-15925.863794,-8953.482980,1752.332062,-19152.203995,7011.585773,-871.494516,-7655.986566,612.638964,2154.395241,-12028.099540,-5173.668882,3197.104120,2169.102689,1927.189759,-22712.792183,-11852.548939,0.004000,-0.010000,1.008000,192.000000,0.000000,0.000000,0.000000,0.000000,0.000000,0.000000,0.000000,0.000000,0.000000,1770885842.446232,0.000000
220.000000,-15969.427344,-8995.012521,1716.636326,-19194.202923,6985.009549,-894.360351,-7688.396596,575.959751,2088.211726,-12186.461650,-5311.512090,3068.447479,2040.691917,1790.575897,-22871.981308,-11994.929551,0.004000,-0.010000,1.008000,192.000000,0.000000,0.000000,0.000000,0.000000,0.000000,0.000000,0.000000,0.000000,0.000000,1770885842.446246,0.000000
222.000000,-15847.856205,-8877.710566,1811.832406,-19082.399497,7081.054995,-828.221539,-7591.390025,670.105299,2138.503151,-12059.839017,-5203.106130,3169.589122,2144.783991,1894.556212,-22742.140024,-11881.717966,0.004000,-0.010000,1.008000,192.000000,0.000000,0.000000,127.500000,88.000000,15.500000,56.000000,0.000000,0.000000,0.000000,1770885842.446260,0.000000
224.000000,-15992.807268,-9020.381751,1691.110634,-19219.572153,6948.598558,-912.264098,-7715.397503,555.574960,2113.469197,-12112.075044,-5249.485999,3127.970174,2097.755921,1839.995604,-22803.987301,-11927.404931,0.004000,-0.010000,1.008000,192.000000,0.000000,0.000000,0.000000,0.000000,0.000000,0.000000,0.000000,0.000000,0.000000,1770885842.446273,0.000000
226.000000,-15864.731773,-8895.457851,1790.978228,-19103.656006,7054.970509,-839.263301,-7608.802034,651.441592,2101.935697,-12140.819388,-5283.147726,3102.422130,2074.890086,1824.818769,-22843.929868,-11965.112324,0.004000,-0.010000,1.008000,192.000000,0.000000,0.000000,0.000000,0.000000,0.000000,0.000000,0.000000,0.000000,0.000000,1770885842.446285,0.000000
228.000000,-15925.975552,-8955.606396,1746.967643,-19158.551891,7013.329209,-868.141755,-7656.590063,607.609821,2150.662500,-12030.759398,-5176.038167,3192.522012,2155.177552,1928.486160,-22721.285846,-11857.309861,0.004000,-0.010000,1.008000,192.000000,0.000000,0.000000,0.000000,0.000000,0.000000,0.000000,0.000000,0.000000,0.000000,1770885842.446376,0.000000
230.000000,-15963.101800,-8992.442071,1712.992992,-19191.297196,6968.692776,-882.245705,-7686.943732,572.249362,2082.936714,-12182.974778,-5321.011582,3065.161772,2034.634594,1787.647818,-22882.687793,-11993.007301,0.004000,-0.010000,1.008000,192.000000,0.000000,0.000000,0.000000,0.000000,0.000000,0.000000,0.000000,0.000000,0.000000,1770885842.446397,0.000000
232.000000,-15845.933955,-8871.474430,1813.128807,-19075.805733,7076.294074,-830.702583,-7587.679635,669.904133,2140.358346,-12052.552349,-5204.648400,3172.293684,2143.308776,1896.590221,-22748.085588,-11876.621768,0.002000,-0.008000,1.014000,192.000000,0.000000,8.000000,127.500000,96.000000,15.500000,88.000000,0.000000,0.000000,0.000000,1770885842.446415,0.000000
234.000000,-15993.187248,-9020.448806,1695.089244,-19219.840374,6946.586901,-916.957965,-7712.961163,553.764469,2110.831691,-12106.464756,-5251.274139,3130.339459,2097.979438,1852.289063,-22805.082536,-11926.041475,0.002000,-0.008000,1.014000,192.000000,0.000000,0.000000,0.000000,0.000000,0.000000,0.000000,0.000000,0.000000,0.000000,1770885842.446431,0.000000
236.000000,-15868.352755,-8900.621104,1796.186184,-19104.997111,7058.636195,-841.319661,-7608.198536,648.669976,2105.154348,-12151.369411,-5282.968912,3095.358979,2068.877467,1811.810054,-22840.644162,-11960.843141,0.002000,-0.008000,1.014000,192.000000,0.000000,0.000000,0.000000,0.000000,0.000000,0.000000,0.000000,0.000000,0.000000,1770885842.446451,0.000000
238.000000,-15927.003733,-8955.181713,1749.403983,-19154.975612,7012.658657,-872.992083,-7657.864113,604.860557,2155.378718,-12032.078151,-5176.351091,3188.096367,2167.336901,1917.287936,-22718.625989,-11851.319593,0.002000,-0.008000,1.014000,192.000000,0.000000,0.000000,0.000000,0.000000,0.000000,0.000000,0.000000,0.000000,0.000000,1770885842.446473,0.000000
240.000000,-15963.839407,-8989.961027,1715.541090,-19191.408955,6975.040671,-894.382703,-7689.089500,572.897562,2083.428452,-12182.192467,-5319.022276,3065.497049,2036.847417,1797.907269,-22878.262148,-11987.464069,0.002000,-0.008000,1.014000,192.000000,0.000000,0.000000,0.000000,0.000000,0.000000,0.000000,0.000000,0.000000,0.000000,1770885842.446491,0.000000
242.000000,-15845.621031,-8870.736822,1813.307621,-19078.085611,7085.257123,-833.518902,-7590.853583,672.608694,2149.254340,-12051.099485,-5199.038112,3175.065300,2145.365136,1898.825395,-22743.056445,-11877.828762,0.002000,-0.008000,1.014000,192.000000,0.000000,0.000000,127.500000,88.000000,15.500000,56.000000,0.000000,0.000000,0.000000,1770885842.446516,0.000000
244.000000,-15999.378681,-9028.070751,1688.718997,-19226.925877,6946.653956,-910.230089,-7720.918384,549.942321,2117.291345,-12111.739768,-5250.067145,3129.557148,2096.526575,1838.319223,-22807.004786,-11931.025914,0.002000,-0.008000,1.014000,192.000000,0.000000,0.000000,0.000000,0.000000,0.000000,0.000000,0.000000,0.000000,0.000000,1770885842.446532,0.000000
246.000000,-15872.085496,-8904.487956,1793.571030,-19106.159402,7050.768381,-852.272016,-7611.171318,648.200589,2103.343857,-12155.750353,-5289.540325,3090.978037,2064.071842,1808.434940,-22843.974572,-11971.929606,0.002000,-0.008000,1.014000,192.000000,0.000000,0.000000,0.000000,0.000000,0.000000,0.000000,0.000000,0.000000,0.000000,1770885842.446548,0.000000
248.000000,-15924.567392,-8950.510198,1754.723698,-19152.494568,7006.556631,-872.992083,-7655.137200,615.924670,2152.897674,-12027.607802,-5176.619312,3195.695960,2162.441869,1911.185910,-22720.168259,-11856.952233,0.002000,-0.008000,1.014000,192.000000,0.000000,0.000000,0.000000,0.000000,0.000000,0.000000,0.000000,0.000000,0.000000,1770885842.446566,0.000000
250.000000,-15965.269919,-8993.783175,1719.832625,-19191.967749,6973.096069,-895.209717,-7689.335369,578.686664,2085.663627,-12185.612283,-5310.081579,3068.536886,2043.955272,1805.238641,-22876.451656,-11992.560267,0.002000,-0.008000,1.014000,192.000000,0.000000,0.000000,0.000000,0.000000,0.000000,0.000000,0.000000,0.000000,0.000000,1770885842.446582,0.000000
252.000000,-15841.083627,-8874.067232,1815.811016,-19076.856265,7079.400966,-825.271109,-7591.457080,674.620351,2148.762601,-12053.446418,-5193.450176,3173.903009,2145.342785,1903.876889,-22744.218736,-11874.900684,0.006000,-0.006000,1.000000,192.000000,0.000000,24.000000,127.500000,104.000000,15.500000,32.000000,0.000000,0.000000,0.000000,1770885842.446599,0.000000
254.000000,-16000.116289,-9032.004658,1687.444948,-19224.869516,6943.077677,-911.392380,-7720.940735,547.796553,2114.117398,-12116.478338,-5248.100191,3125.489131,2089.105796,1845.069450,-22805.931903,-11921.884051,0.006000,-0.006000,1.000000,192.000000,0.000000,0.000000,0.000000,0.000000,0.000000,0.000000,0.000000,0.000000,0.000000,1770885842.446617,0.000000
0.000000,-15881.719098,-8905.940819,1789.212440,-19109.132184,7048.019117,-851.445002,-7613.048865,646.747726,2096.973610,-12152.531702,-5289.182697,3091.626238,2058.260388,1813.464083,-22846.053284,-11962.541874,0.006000,-0.006000,1.000000,192.000000,0.000000,0.000000,0.000000,0.000000,0.000000,0.000000,0.000000,0.000000,0.000000,1770885842.446635,0.000000
2.000000,-15932.748131,-8960.210855,1747.504085,-19158.976574,6997.124195,-883.720921,-7661.753316,608.660353,2145.901578,-12036.593203,-5178.027472,3187.559925,2158.753831,1914.158692,-22724.616256,-11858.181579,0.006000,-0.006000,1.000000,192.000000,0.000000,0.000000,0.000000,0.000000,0.000000,0.000000,0.000000,0.000000,0.000000,1770885842.446655,0.000000
4.000000,-15973.875341,-8999.996960,1712.411846,-19199.567342,6967.306968,-894.092130,-7695.884430,566.169687,2079.941580,-12189.970874,-5316.138901,3057.964511,2027.683202,1784.630333,-22882.330165,-11989.989816,0.006000,-0.006000,1.000000,192.000000,0.000000,0.000000,0.000000,0.000000,0.000000,0.000000,0.000000,0.000000,0.000000,1770885842.446673,0.000000
6.000000,-15854.137046,-8878.492877,1810.267783,-19082.980643,7064.090021,-827.998022,-7596.687388,662.617464,2141.632395,-12056.061573,-5204.134310,3163.375338,2143.398183,1897.707808,-22747.035056,-11876.398251,0.002000,-0.008000,0.998000,192.000000,0.000000,8.000000,127.500000,96.000000,15.500000,24.000000,0.000000,0.000000,0.000000,1770885842.446691,0.000000
8.000000,-16002.507925,-9026.103798,1688.182555,-19226.478842,6938.920252,-914.722790,-7721.208956,545.181399,2112.686886,-12114.176108,-5252.548188,3121.979907,2097.420644,1840.800266,-22811.989225,-11930.914155,0.002000,-0.008000,0.998000,192.000000,0.000000,0.000000,0.000000,0.000000,0.000000,0.000000,0.000000,0.000000,0.000000,1770885842.446707,0.000000
10.000000,-15875.929996,-8904.510308,1790.553545,-19108.394576,7054.098791,-847.287577,-7611.998333,646.457153,2099.253487,-12153.470475,-5288.243924,3092.542659,2065.435298,1816.056885,-22844.958048,-11967.794534,0.002000,-0.008000,0.998000,192.000000,0.000000,0.000000,0.000000,0.000000,0.000000,0.000000,0.000000,0.000000,0.000000,1770885842.446730,0.000000
12.000000,-15922.466328,-8951.180750,1752.130896,-19153.433341,7003.203869,-878.267095,-7655.695993,611.163749,2148.874360,-12034.000401,-5175.211152,3191.337370,2162.821849,1923.009982,-22717.418995,-11862.182541,0.002000,-0.008000,0.998000,192.000000,0.000000,0.000000,0.000000,0.000000,0.000000,0.000000,0.000000,0.000000,0.000000,1770885842.446747,0.000000
14.000000,-15960.106666,-8982.316730,1718.491521,-19191.610121,6972.023186,-893.488633,-7689.268314,573.590466,2091.609191,-12170.726022,-5313.054361,3071.688482,2027.683202,1802.399969,-22879.133866,-11994.415461,0.002000,-0.008000,0.998000,192.000000,0.000000,0.000000,0.000000,0.000000,0.000000,0.000000,0.000000,0.000000,0.000000,1770885842.446767,0.000000
16.000000,-15846.246880,-8874.648377,1818.850853,-19080.656061,7079.244504,-823.125341,-7591.233562,672.519287,2144.538122,-12056.195683,-5197.048807,3175.780556,2153.009433,1894.064473,-22743.861108,-11879.348681,0.002000,-0.010000,1.002000,192.000000,0.000000,8.000000,127.500000,88.000000,15.500000,40.000000,0.000000,0.000000,0.000000,1770885842.446786,0.000000
18.000000,-15998.797536,-9024.226251,1693.971657,-19217.001702,6944.105857,-909.313668,-7718.660858,554.010338,2119.124188,-12109.705759,-5240.679412,3137.201445,2100.169909,1873.366758,-22806.244827,-11924.208632,0.002000,-0.010000,1.002000,192.000000,0.000000,0.000000,0.000000,0.000000,0.000000,0.000000,0.000000,0.000000,0.000000,1770885842.446808,0.000000
20.000000,-15881.808505,-8907.058407,1790.128862,-19099.498582,7051.282472,-838.279824,-7615.596964,646.255987,2100.393426,-12149.491864,-5286.187564,3098.711741,2062.127240,1828.953842,-22845.695656,-11960.753734,0.002000,-0.010000,1.002000,192.000000,0.000000,0.000000,0.000000,0.000000,0.000000,0.000000,0.000000,0.000000,0.000000,1770885842.446824,0.000000
22.000000,-15936.302058,-8959.450896,1743.346661,-19150.035876,7004.343808,-862.240894,-7661.373336,607.386304,2148.717898,-12031.966392,-5177.759251,3193.505489,2161.637206,1927.748552,-22721.531716,-11848.883253,0.002000,-0.010000,1.002000,192.000000,0.000000,0.000000,0.000000,0.000000,0.000000,0.000000,0.000000,0.000000,0.000000,1770885842.446842,0.000000
24.000000,-15976.624605,-8996.465385,1706.242765,-19194.158220,6965.518828,-892.683970,-7695.549154,572.361120,2073.213705,-12187.199257,-5324.230233,3067.598113,2020.016553,1791.313504,-22881.749020,-11989.118098,0.002000,-0.010000,1.002000,192.000000,0.000000,0.000000,0.000000,0.000000,0.000000,0.000000,0.000000,0.000000,0.000000,1770885842.446858,0.000000
26.000000,-15854.628784,-8880.325720,1806.400932,-19082.310090,7063.844152,-830.210844,-7595.927429,671.714624,2138.190226,-12057.581491,-5202.860260,3171.623131,2140.939491,1901.574660,-22751.706571,-11878.745184,0.002000,-0.010000,1.002000,192.000000,0.000000,0.000000,127.500000,88.000000,15.500000,48.000000,0.000000,0.000000,0.000000,1770885842.446875,0.000000
28.000000,-16004.072547,-9025.366190,1681.745253,-19225.160089,6944.105857,-910.565366,-7721.097198,553.138620,2115.883185,-12117.551222,-5247.228473,3126.785532,2079.651008,1859.553380,-22810.603417,-11925.236812,0.002000,-0.010000,1.002000,192.000000,0.000000,0.000000,0.000000,0.000000,0.000000,0.000000,0.000000,0.000000,0.000000,1770885842.446893,0.000000
30.000000,-15876.622901,-8899.615276,1785.099719,-19108.931018,7039.368992,-849.232179,-7617.072179,649.027604,2096.548926,-12151.078838,-5284.913514,3098.018837,2055.868752,1818.962612,-22847.327333,-11966.878112,0.002000,-0.010000,1.002000,192.000000,0.000000,0.000000,0.000000,0.000000,0.000000,0.000000,0.000000,0.000000,0.000000,1770885842.446911,0.000000
32.000000,-15925.237945,-8954.086477,1747.146457,-19150.751132,6989.301084,-891.007589,-7660.680432,617.802217,2146.326261,-12034.626250,-5173.512420,3196.835899,2154.104668,1915.119817,-22726.940838,-11861.959024,0.002000,-0.010000,1.002000,192.000000,0.000000,0.000000,0.000000,0.000000,0.000000,0.000000,0.000000,0.000000,0.000000,1770885842.446929,0.000000
34.000000,-15967.527445,-8995.951294,1709.372009,-19195.946359,6955.102915,-904.329229,-7695.504450,577.591428,2083.249638,-12189.725004,-5310.975648,3071.889647,2031.661812,1792.207574,-22882.486627,-11997.611761,0.002000,-0.010000,1.002000,192.000000,0.000000,0.000000,0.000000,0.000000,0.000000,0.000000,0.000000,0.000000,0.000000,1770885842.446946,0.000000
36.000000,-15844.659906,-8870.155677,1808.636106,-19082.824180,7057.675070,-833.228330,-7596.173298,674.642703,2141.207712,-12056.285090,-5196.668827,3174.662968,2135.597424,1891.605782,-22753.293544,-11885.115431,0.002000,-0.010000,1.006000,192.000000,0.000000,8.000000,127.500000,88.000000,15.500000,72.000000,0.000000,0.000000,0.000000,1770885842.446961,0.000000
38.000000,-15998.395204,-9017.721894,1683.265171,-19224.914220,6932.058267,-919.662526,-7725.165215,546.209579,2112.061037,-12112.455024,-5249.485999,3128.685430,2089.664589,1861.855610,-22814.112641,-11930.623583,0.002000,-0.010000,1.006000,192.000000,0.000000,0.000000,0.000000,0.000000,0.000000,0.000000,0.000000,0.000000,0.000000,1770885842.446979,0.000000
40.000000,-15871.705517,-8896.843660,1783.937428,-19101.800812,7055.171675,-846.169990,-7616.781606,644.043165,2096.392464,-12150.743562,-5291.440224,3095.560145,2056.628711,1821.510711,-22845.807415,-11964.061792,0.002000,-0.010000,1.006000,192.000000,0.000000,0.000000,0.000000,0.000000,0.000000,0.000000,0.000000,0.000000,0.000000,1770885842.446994,0.000000
42.000000,-15917.638352,-8940.407209,1750.499219,-19148.493606,7005.550802,-863.134964,-7661.216874,612.191929,2152.607102,-12026.937250,-5176.686368,3199.071073,2162.978311,1925.938061,-22720.950570,-11850.425524,0.002000,-0.010000,1.006000,192.000000,0.000000,0.000000,0.000000,0.000000,0.000000,0.000000,0.000000,0.000000,0.000000,1770885842.926589,0.000000
44.000000,-15965.582843,-8988.239943,1709.908451,-19190.716051,6969.609197,-885.039673,-7694.632732,573.277542,2086.289476,-12172.335347,-5312.495567,3076.136479,2042.077725,1806.065655,-22877.703354,-11985.899447,0.002000,-0.010000,1.006000,192.000000,0.000000,0.000000,0.000000,0.000000,0.000000,0.000000,0.000000,0.000000,0.000000,1770885842.926657,0.000000
46.000000,-15848.482054,-8874.000177,1812.212385,-19077.884445,7071.063765,-834.681193,-7593.759310,673.033377,2144.716936,-12054.072267,-5201.116824,3173.523030,2141.028898,1901.686418,-22750.968963,-11879.169867,0.002000,-0.011000,1.007000,192.000000,0.000000,8.000000,127.500000,80.000000,15.500000,64.000000,0.000000,0.000000,0.000000,1770885842.926706,0.000000
48.000000,-16003.580809,-9027.333144,1686.796747,-19229.809252,6932.997040,-915.616860,-7725.120512,550.635225,2114.363267,-12115.003123,-5245.574444,3129.847721,2104.506147,1863.844915,-22807.541228,-11931.003562,0.002000,-0.011000,1.007000,192.000000,0.000000,0.000000,0.000000,0.000000,0.000000,0.000000,0.000000,0.000000,0.000000,1770885842.926755,0.000000
50.000000,-15867.793962,-8896.553087,1786.530231,-19106.315864,7045.918053,-845.588844,-7617.765083,648.289996,2099.074674,-12155.638594,-5287.975703,3092.207383,2060.584970,1822.270670,-22852.065903,-11970.387336,0.002000,-0.011000,1.007000,192.000000,0.000000,0.000000,0.000000,0.000000,0.000000,0.000000,0.000000,0.000000,0.000000,1770885842.926808,0.000000
52.000000,-15929.708294,-8953.125352,1742.162018,-19157.948394,6998.621762,-867.202981,-7664.413174,603.765321,2154.328186,-12025.976125,-5177.423975,3196.880602,2159.737308,1922.741762,-22727.030245,-11857.399268,0.002000,-0.011000,1.007000,192.000000,0.000000,0.000000,0.000000,0.000000,0.000000,0.000000,0.000000,0.000000,0.000000,1770885842.926857,0.000000
54.000000,-15965.046402,-8991.458594,1709.640230,-19195.141696,6961.920197,-899.121272,-7696.957314,573.411652,2077.147612,-12184.114717,-5320.475140,3065.385290,2026.252690,1792.408740,-22886.644052,-11993.007301,0.002000,-0.011000,1.007000,192.000000,0.000000,0.000000,0.000000,0.000000,0.000000,0.000000,0.000000,0.000000,0.000000,1770885842.926883,0.000000
56.000000,-15849.465531,-8874.067232,1811.720647,-19080.991337,7060.156114,-840.492647,-7596.307408,675.648531,2138.011412,-12058.922596,-5199.887478,3171.824297,2140.648918,1902.848709,-22753.897042,-11887.127088,0.002000,-0.013500,1.005500,192.000000,0.000000,8.000000,127.500000,64.000000,15.500000,48.000000,0.000000,0.000000,0.000000,1770885842.926901,0.000000
58.000000,-15999.244571,-9020.247641,1688.562535,-19226.657656,6931.700639,-916.086247,-7722.773578,552.825696,2109.647049,-12110.197498,-5245.105057,3132.641689,2080.768595,1853.652519,-22815.610208,-11934.646897,0.002000,-0.013500,1.005500,192.000000,0.000000,0.000000,0.000000,0.000000,0.000000,0.000000,0.000000,0.000000,0.000000,1770885842.926919,0.000000
60.000000,-15873.516008,-8893.468546,1794.710969,-19110.093309,7041.939442,-848.226350,-7617.563917,647.060650,2100.929868,-12155.862112,-5284.153555,3088.228773,2068.095156,1809.485472,-22848.288458,-11977.696356,0.002000,-0.013500,1.005500,192.000000,0.000000,0.000000,0.000000,0.000000,0.000000,0.000000,0.000000,0.000000,0.000000,1770885842.926932,0.000000
62.000000,-15933.798663,-8947.537416,1748.375803,-19157.702524,6993.525564,-888.414787,-7664.167305,607.229842,2151.042479,-12026.154938,-5174.205324,3194.243097,2163.268884,1930.408410,-22729.131309,-11865.177675,0.002000,-0.013500,1.005500,192.000000,0.000000,0.000000,0.000000,0.000000,0.000000,0.000000,0.000000,0.000000,0.000000,1770885842.926948,0.000000
64.000000,-15972.914216,-8988.776384,1707.159186,-19201.310778,6971.710261,-898.383665,-7699.974799,568.449565,2076.141784,-12184.293530,-5319.066980,3068.291017,2028.644327,1799.471891,-22886.755811,-12002.372682,0.002000,-0.013500,1.005500,192.000000,0.000000,0.000000,0.000000,0.000000,0.000000,0.000000,0.000000,0.000000,0.000000,1770885842.926962,0.000000
66.000000,-15847.766798,-8867.473467,1811.295964,-19077.839741,7068.627425,-828.400353,-7598.587286,670.284113,2143.688755,-12056.016869,-5199.194574,3170.147916,2134.837465,1901.887584,-22753.092379,-11884.087251,0.002000,-0.013750,1.006750,192.000000,0.000000,8.000000,127.500000,72.000000,15.500000,64.000000,0.000000,0.000000,0.000000,1770885842.926975,0.000000
68.000000,-16004.005492,-9023.689809,1680.739424,-19223.774281,6944.329374,-906.162072,-7731.423704,540.599291,2109.915270,-12109.258724,-5250.782400,3122.315183,2094.000828,1861.676796,-22810.625769,-11925.527385,0.002000,-0.013750,1.006750,192.000000,0.000000,0.000000,0.000000,0.000000,0.000000,0.000000,0.000000,0.000000,0.000000,1770885842.926989,0.000000
70.000000,-15882.859037,-8903.213907,1780.182335,-19109.355701,7037.826721,-842.884283,-7627.175167,636.152999,2097.666514,-12151.257652,-5295.664703,3084.428976,2062.507220,1821.689525,-22849.674267,-11964.665289,0.002000,-0.013750,1.006750,192.000000,0.000000,0.000000,0.000000,0.000000,0.000000,0.000000,0.000000,0.000000,0.000000,1770885842.927002,0.000000
72.000000,-15926.891974,-8943.983489,1744.620710,-19152.159292,6998.130023,-869.728729,-7668.369432,609.710885,2148.784953,-12029.910032,-5180.016778,3188.878678,2153.925854,1921.512416,-22730.561820,-11852.057201,0.002000,-0.013750,1.006750,192.000000,0.000000,0.000000,0.000000,0.000000,0.000000,0.000000,0.000000,0.000000,0.000000,1770885842.927018,0.000000
74.000000,-15969.673213,-8986.451803,1712.501253,-19199.567342,6961.070831,-894.628572,-7701.673532,573.232838,2084.881316,-12184.762917,-5313.389637,3066.592284,2031.393591,1805.417455,-22884.677098,-11990.906237,0.002000,-0.013750,1.006750,192.000000,0.000000,0.000000,0.000000,0.000000,0.000000,0.000000,0.000000,0.000000,0.000000,1770885842.927032,0.000000
76.000000,-15851.834816,-8869.999214,1806.959725,-19086.266349,7060.983129,-838.570397,-7601.917696,668.540677,2137.474971,-12058.073230,-5203.664923,3165.588160,2133.272843,1904.480386,-22757.316858,-11887.596475,0.002000,-0.014875,1.006375,192.000000,0.000000,8.000000,127.500000,64.000000,15.500000,56.000000,0.000000,0.000000,0.000000,1770885842.927047,0.000000
78.000000,-15999.535143,-9021.253469,1685.634456,-19229.384569,6931.566528,-912.755837,-7726.752189,551.037556,2107.143653,-12112.544431,-5251.944691,3121.443465,2092.480909,1850.567979,-22812.548019,-11931.383542,0.002000,-0.014875,1.006375,192.000000,0.000000,0.000000,0.000000,0.000000,0.000000,0.000000,0.000000,0.000000,0.000000,1770885842.927065,0.000000
80.000000,-15873.940691,-8892.082738,1783.557449,-19103.946579,7027.343753,-845.454734,-7620.737865,650.502819,2095.230173,-12148.955423,-5289.674436,3089.838098,2051.197237,1822.762409,-22856.580956,-11973.963615,0.002000,-0.014875,1.006375,192.000000,0.000000,0.000000,0.000000,0.000000,0.000000,0.000000,0.000000,0.000000,0.000000,1770885842.927085,0.000000
82.000000,-15917.995980,-8937.367372,1748.487562,-19151.265222,6992.184459,-871.360406,-7663.273235,615.254118,2153.009433,-12013.772072,-5172.975978,3197.886431,2159.849067,1933.917634,-22734.942762,-11864.484771,0.002000,-0.014875,1.006375,192.000000,0.000000,0.000000,0.000000,0.000000,0.000000,0.000000,0.000000,0.000000,0.000000,1770885842.927109,0.000000
84.000000,-15956.440980,-8977.175829,1713.462378,-19193.733536,6948.375040,-892.527508,-7695.996189,579.558382,2088.725816,-12164.042850,-5310.729779,3075.756499,2034.522836,1815.028705,-22892.030822,-12004.786671,0.002000,-0.014875,1.006375,192.000000,0.000000,0.000000,0.000000,0.000000,0.000000,0.000000,0.000000,0.000000,0.000000,1770885842.927130,0.000000
86.000000,-15835.585098,-8852.430743,1818.761446,-19073.190579,7061.474867,-836.916368,-7591.747653,686.824404,2153.076488,-12035.140340,-5193.092548,3182.642541,2139.464276,1921.244195,-22759.261460,-11894.458460,0.002000,-0.014437,1.005187,192.000000,0.000000,8.000000,127.500000,72.000000,15.500000,48.000000,0.000000,0.000000,0.000000,1770885842.927149,0.000000
88.000000,-15988.448678,-9011.441053,1697.972619,-19223.304894,6943.502360,-919.014325,-7720.493701,562.615760,2125.248566,-12098.082852,-5232.744543,3139.727192,2109.378828,1877.837107,-22809.195257,-11937.507920,0.002000,-0.014437,1.005187,192.000000,0.000000,0.000000,0.000000,0.000000,0.000000,0.000000,0.000000,0.000000,0.000000,1770885842.927168,0.000000
90.000000,-15868.240996,-8888.171183,1791.000580,-19107.165230,7049.427277,-841.342013,-7618.145063,652.715642,2106.249584,-12145.915585,-5279.370282,3097.169470,2073.459574,1831.948976,-22847.595554,-11973.561284,0.002000,-0.014437,1.005187,192.000000,0.000000,0.000000,0.000000,0.000000,0.000000,0.000000,0.000000,0.000000,0.000000,1770885842.927187,0.000000
92.000000,-15928.993038,-8945.659869,1744.754820,-19158.104856,7011.205794,-871.606275,-7666.558941,606.916917,2146.683889,-12025.529090,-5178.943894,3189.437472,2164.364119,1920.081904,-22727.007893,-11858.650966,0.002000,-0.014437,1.005187,192.000000,0.000000,0.000000,0.000000,0.000000,0.000000,0.000000,0.000000,0.000000,0.000000,1770885842.927207,0.000000
94.000000,-15973.629471,-8989.916323,1707.874442,-19194.895827,6963.238950,-895.679104,-7698.499584,573.366949,2080.500374,-12176.135144,-5321.212747,3071.800240,2028.152588,1812.570013,-22886.778162,-11990.503906,0.002000,-0.014437,1.005187,192.000000,0.000000,0.000000,0.000000,0.000000,0.000000,0.000000,0.000000,0.000000,0.000000,1770885842.927226,0.000000
96.000000,-15853.242976,-8877.040014,1811.586536,-19084.478210,7067.621597,-832.513074,-7598.743749,671.088776,2136.245625,-12056.642718,-5206.838871,3170.952579,2141.051250,1897.126662,-22756.780417,-11883.930789,0.002000,-0.014437,1.005187,192.000000,0.000000,0.000000,0.000000,0.000000,0.000000,0.000000,0.000000,0.000000,0.000000,1770885842.927240,0.000000
98.000000,-16000.496268,-9024.717990,1690.596544,-19232.200889,6940.149598,-913.269927,-7729.479102,547.461277,2104.752017,-12111.248030,-5250.514180,3123.969212,2094.984304,1856.468839,-22809.798754,-11927.762559,0.002000,-0.008000,1.002000,192.000000,0.000000,8.000000,127.500000,96.000000,15.500000,40.000000,0.000000,0.000000,0.000000,1770885842.927253,0.000000
