Sample_index,EXG Channel 0,EXG Channel 1,EXG Channel 2,EXG Channel 3,EXG Channel 4,EXG Channel 5,EXG Channel 6,EXG Channel 7,EXG Channel 8,EXG Channel 9,EXG Channel 10,EXG Channel 11,EXG Channel 12,EXG Channel 13,EXG Channel 14,EXG Channel 15,Accel Channel 0,Accel Channel 1,Accel Channel 2,Not Used,Digital Channel 0 (D11),Digital Channel 1 (D12),Digital Channel 2 (D13),Digital Channel 3 (D17),Not Used,Digital Channel 4 (D18),Analog Channel 0,Analog Channel 1,Analog Channel 2,Timestamp,Marker Channel
210.000000,-16682.962082,-9895.407843,824.779370,-20261.096389,6520.249727,1413.859596,-7569.418260,642.813819,3332.041601,-12150.475341,-4882.760928,3649.481076,901.088226,431.209854,-24480.837522,-12954.244072,0.006000,-0.014000,1.004000,192.000000,0.000000,0.000000,0.000000,0.000000,0.000000,0.000000,0.000000,0.000000,0.000000,1770886370.635802,101.000000
212.000000,-16825.745025,-10039.151912,710.785474,-20402.985263,6405.384112,1341.708164,-7684.730909,529.043440,3289.819156,-12249.560624,-4966.959949,3575.742671,811.703600,354.789240,-24588.528226,-13042.824035,0.006000,-0.014000,1.004000,192.000000,0.000000,0.000000,0.000000,0.000000,0.000000,0.000000,0.000000,0.000000,0.000000,1770886370.635864,0.000000
214.000000,-16680.570445,-9894.647884,833.451847,-20263.465674,6519.467416,1399.733293,-7561.393984,648.535865,3297.329342,-12246.565491,-4961.282606,3579.520116,827.640394,346.116763,-24574.938366,-13038.219576,0.006000,-0.014000,1.004000,192.000000,0.000000,0.000000,0.000000,0.000000,0.000000,0.000000,0.000000,0.000000,0.000000,1770886370.635913,0.000000
216.000000,-16771.810266,-9990.514516,760.227532,-20353.163225,6438.531749,1342.624586,-7640.496807,577.032635,3327.750066,-12161.315937,-4879.430518,3651.783306,898.964810,420.637479,-24490.627586,-12966.291662,0.006000,-0.012000,1.004000,192.000000,0.000000,24.000000,127.500000,80.000000,15.500000,48.000000,0.000000,0.000000,0.000000,1770886370.635957,0.000000
218.000000,-16767.563435,-9980.299768,770.665797,-20351.442141,6447.070115,1366.272732,-7629.320935,579.826603,3272.787127,-12306.602276,-5013.719799,3534.615461,780.791137,298.909879,-24644.631105,-13096.356463,0.006000,-0.012000,1.004000,192.000000,0.000000,0.000000,0.000000,0.000000,0.000000,0.000000,0.000000,0.000000,0.000000,1770886370.636001,0.000000
220.000000,-16688.527666,-9900.124061,833.876530,-20265.857311,6513.879480,1396.894621,-7564.634986,647.328871,3346.570235,-12155.415077,-4874.691948,3652.677375,911.235918,417.664697,-24482.625661,-12965.688165,0.006000,-0.012000,1.004000,192.000000,0.000000,0.000000,0.000000,0.000000,0.000000,0.000000,0.000000,0.000000,0.000000,1770886370.636045,0.000000
222.000000,-16831.735293,-10043.555205,718.832102,-20398.917246,6391.056644,1325.056115,-7677.801869,536.151294,3290.377950,-12259.887130,-4963.942464,3576.346168,827.036897,347.390812,-24592.953872,-13049.417800,0.006000,-0.012000,1.004000,192.000000,0.000000,0.000000,0.000000,0.000000,0.000000,0.000000,0.000000,0.000000,0.000000,1770886370.636074,0.000000
224.000000,-16678.201160,-9894.849049,835.843484,-20259.196491,6531.157378,1417.815854,-7561.572797,651.083964,3309.734560,-12245.291441,-4956.320519,3586.739729,838.346879,354.476315,-24577.598223,-13039.739494,0.006000,-0.012000,1.004000,192.000000,0.000000,0.000000,0.000000,0.000000,0.000000,0.000000,0.000000,0.000000,0.000000,1770886370.636090,0.000000
226.000000,-16772.905501,-9990.179240,760.294588,-20352.157396,6458.894188,1373.872325,-7644.453066,575.400958,3343.083363,-12156.733830,-4874.937817,3654.890198,907.525528,427.633575,-24482.491551,-12949.460798,0.004000,-0.016000,1.002000,192.000000,0.000000,16.000000,127.500000,64.000000,15.500000,40.000000,0.000000,0.000000,0.000000,1770886370.636106,0.000000
228.000000,-16768.703374,-9984.703062,760.562809,-20350.346905,6460.749383,1377.158031,-7637.680487,573.434004,3280.833755,-12308.166898,-5010.903479,3531.709734,788.949524,300.452149,-24635.824518,-13080.330262,0.004000,-0.016000,1.002000,192.000000,0.000000,0.000000,0.000000,0.000000,0.000000,0.000000,0.000000,0.000000,0.000000,1770886370.636122,0.000000
230.000000,-16675.407192,-9891.049253,836.111705,-20267.421933,6533.258442,1434.758477,-7566.423126,652.380365,3342.792790,-12154.118675,-4876.949474,3650.106925,909.000744,420.950403,-24479.965804,-12949.483150,0.004000,-0.016000,1.002000,192.000000,0.000000,0.000000,0.000000,0.000000,0.000000,0.000000,0.000000,0.000000,0.000000,1770886370.636139,0.000000
232.000000,-16818.592467,-10037.877862,718.452122,-20396.525609,6416.470577,1344.368022,-7685.267351,533.312623,3301.956153,-12249.292403,-4958.622749,3578.849563,823.035934,357.694967,-24578.469941,-13035.023276,0.004000,-0.016000,1.002000,192.000000,0.000000,0.000000,0.000000,0.000000,0.000000,0.000000,0.000000,0.000000,0.000000,1770886370.636157,0.000000
234.000000,-16665.304204,-9879.918084,838.346879,-20255.307288,6533.057276,1428.075305,-7562.444516,652.335662,3314.383723,-12232.550947,-4955.046470,3587.991427,846.840542,361.427708,-24567.919918,-13029.301230,0.004000,-0.016000,1.002000,192.000000,0.000000,0.000000,0.000000,0.000000,0.000000,0.000000,0.000000,0.000000,0.000000,1770886370.636171,0.000000
236.000000,-16762.735458,-9980.746803,761.255713,-20349.743408,6455.675537,1371.033653,-7641.189711,580.877135,3348.268968,-12139.858263,-4867.762907,3664.993187,912.398209,448.621863,-24481.888054,-12953.461761,0.006000,-0.010000,1.010000,192.000000,0.000000,24.000000,127.500000,88.000000,15.500000,72.000000,0.000000,0.000000,0.000000,1770886370.636189,0.000000
238.000000,-16767.630490,-9984.188972,766.418966,-20342.590850,6455.362613,1357.153220,-7633.903043,577.434966,3279.738519,-12312.257268,-5008.198918,3531.486217,782.065187,299.938059,-24639.803128,-13094.791841,0.006000,-0.010000,1.010000,192.000000,0.000000,0.000000,0.000000,0.000000,0.000000,0.000000,0.000000,0.000000,0.000000,1770886370.636206,0.000000
240.000000,-16681.665681,-9903.812099,846.348804,-20254.368514,6522.149625,1410.775055,-7559.315271,653.967339,3348.984223,-12156.130332,-4869.931027,3659.360547,918.410828,431.790999,-24481.038687,-12958.423848,0.006000,-0.010000,1.010000,192.000000,0.000000,0.000000,0.000000,0.000000,0.000000,0.000000,0.000000,0.000000,0.000000,1770886370.636221,0.000000
242.000000,-16823.711017,-10043.711668,726.007012,-20399.744260,6398.946810,1342.289310,-7679.321787,533.983175,3306.001819,-12257.607252,-4955.515856,3577.463755,836.916368,351.548237,-24583.297918,-13038.800721,0.006000,-0.010000,1.010000,192.000000,0.000000,0.000000,0.000000,0.000000,0.000000,0.000000,0.000000,0.000000,0.000000,1770886370.636238,0.000000
244.000000,-16672.255596,-9892.636227,842.325490,-20259.442360,6521.188500,1414.887776,-7560.276396,653.274435,3313.891985,-12246.230214,-4953.504199,3582.202325,840.447943,355.906827,-24578.000555,-13033.995096,0.006000,-0.010000,1.010000,192.000000,0.000000,0.000000,0.000000,0.000000,0.000000,0.000000,0.000000,0.000000,0.000000,1770886370.636257,0.000000
246.000000,-16774.917158,-9997.197687,757.612378,-20355.241937,6449.104124,1364.953979,-7642.352002,575.356254,3337.629537,-12163.707574,-4875.004873,3652.587968,896.617877,427.164188,-24488.347708,-12950.846607,0.004000,-0.008000,1.008000,192.000000,0.000000,16.000000,127.500000,96.000000,15.500000,64.000000,0.000000,0.000000,0.000000,1770886370.636271,0.000000
248.000000,-16769.463333,-9990.246295,763.021500,-20349.072856,6453.708584,1368.552610,-7631.131426,573.523411,3277.570400,-12315.162994,-5013.406874,3526.077095,782.132242,304.162539,-24642.485338,-13084.666501,0.004000,-0.008000,1.008000,192.000000,0.000000,0.000000,0.000000,0.000000,0.000000,0.000000,0.000000,0.000000,0.000000,1770886370.636289,0.000000
250.000000,-16681.039832,-9902.225125,835.843484,-20259.129436,6530.330364,1418.866386,-7563.584454,645.428973,3346.927863,-12158.387859,-4876.010701,3655.225474,915.482749,434.473209,-24480.099914,-12944.498711,0.004000,-0.008000,1.008000,192.000000,0.000000,0.000000,0.000000,0.000000,0.000000,0.000000,0.000000,0.000000,0.000000,1770886370.636307,0.000000
252.000000,-16831.221203,-10043.912833,717.312183,-20401.599455,6418.906917,1349.017185,-7685.669683,524.930719,3295.831775,-12258.568377,-4965.954121,3577.754328,831.037859,349.983615,-24576.480636,-13025.970820,0.004000,-0.008000,1.008000,192.000000,0.000000,0.000000,0.000000,0.000000,0.000000,0.000000,0.000000,0.000000,0.000000,1770886370.636322,0.000000
254.000000,-16682.649157,-9895.787823,835.530559,-20258.123607,6539.561634,1427.360049,-7562.153943,642.120915,3303.520775,-12245.313793,-4966.155287,3579.184840,840.783219,351.861161,-24567.897566,-13023.333314,0.004000,-0.008000,1.008000,192.000000,0.000000,0.000000,0.000000,0.000000,0.000000,0.000000,0.000000,0.000000,0.000000,1770886370.636339,0.000000
0.000000,-16775.230083,-9995.901286,761.479230,-20348.134082,6459.520037,1369.580790,-7640.317993,571.891734,3339.864712,-12159.594853,-4880.548105,3650.553960,913.649906,443.927997,-24477.864740,-12941.034191,0.003000,-0.011000,1.009000,192.000000,0.000000,8.000000,127.500000,72.000000,15.500000,72.000000,0.000000,0.000000,0.000000,1770886370.636356,0.000000
2.000000,-16764.545949,-9981.774984,764.116736,-20344.848376,6457.597787,1371.771261,-7630.729095,577.390263,3282.152508,-12311.542012,-5011.976363,3529.631022,788.636600,315.405466,-24634.461061,-13083.347748,0.003000,-0.011000,1.009000,192.000000,0.000000,0.000000,0.000000,0.000000,0.000000,0.000000,0.000000,0.000000,0.000000,1770886370.636373,0.000000
4.000000,-16671.562692,-9893.753814,838.950376,-20256.983668,6539.852207,1416.675915,-7559.538789,655.442554,3348.224264,-12146.206158,-4871.920332,3660.344024,911.258270,429.913453,-24481.418667,-12953.081781,0.003000,-0.011000,1.009000,192.000000,0.000000,0.000000,0.000000,0.000000,0.000000,0.000000,0.000000,0.000000,0.000000,1770886370.636390,0.000000
6.000000,-16814.993836,-10035.597984,725.381163,-20397.263217,6416.336467,1334.130923,-7677.801869,538.811152,3308.616973,-12250.275880,-4951.917225,3584.884534,841.610234,360.064251,-24580.660412,-13039.292459,0.003000,-0.011000,1.009000,192.000000,0.000000,0.000000,0.000000,0.000000,0.000000,0.000000,0.000000,0.000000,0.000000,1770886370.636408,0.000000
8.000000,-16667.114695,-9885.148392,841.118496,-20255.396695,6538.086419,1420.006325,-7556.968338,653.810877,3321.424523,-12242.341011,-4948.899740,3588.706683,850.752097,363.908751,-24567.428180,-13035.537366,0.003000,-0.011000,1.009000,192.000000,0.000000,0.000000,0.000000,0.000000,0.000000,0.000000,0.000000,0.000000,0.000000,1770886370.636436,0.000000
10.000000,-16756.745190,-9982.266722,760.674567,-20347.508233,6447.427743,1369.469031,-7636.920528,585.302780,3350.951177,-12151.011783,-4864.879532,3662.847419,913.918127,441.648119,-24488.750039,-12951.517159,0.003000,-0.011000,1.009000,192.000000,0.000000,0.000000,127.500000,96.000000,15.500000,64.000000,0.000000,0.000000,0.000000,1770886370.636454,0.000000
12.000000,-16755.962879,-9984.099565,759.914608,-20351.352734,6450.556988,1361.020072,-7631.936089,583.760510,3285.974656,-12313.754834,-4999.973476,3537.141208,789.910649,298.239326,-24641.837137,-13089.472126,0.003000,-0.011000,1.009000,192.000000,0.000000,0.000000,0.000000,0.000000,0.000000,0.000000,0.000000,0.000000,0.000000,1770886370.636472,0.000000
14.000000,-16675.228378,-9894.714939,828.176836,-20262.437494,6522.395494,1405.544747,-7562.288053,656.403679,3341.675203,-12165.205141,-4868.254646,3653.124410,894.092130,418.357601,-24489.286481,-12954.847569,0.003000,-0.011000,1.009000,192.000000,0.000000,0.000000,0.000000,0.000000,0.000000,0.000000,0.000000,0.000000,0.000000,1770886370.636489,0.000000
16.000000,-16832.137624,-10049.992508,710.338439,-20403.097022,6401.673722,1330.554644,-7685.580276,527.322355,3293.842470,-12262.144656,-4956.789906,3578.536639,824.265280,335.276167,-24588.192950,-13030.061189,0.003000,-0.011000,1.009000,192.000000,0.000000,0.000000,0.000000,0.000000,0.000000,0.000000,0.000000,0.000000,0.000000,1770886370.636504,0.000000
18.000000,-16685.532532,-9907.343675,831.529597,-20267.757209,6521.948459,1410.260965,-7566.803106,639.282243,3300.883269,-12260.110648,-4961.573179,3575.027415,831.484894,349.849504,-24577.397058,-13032.631640,0.003000,-0.011000,1.009000,192.000000,0.000000,0.000000,0.000000,0.000000,0.000000,0.000000,0.000000,0.000000,0.000000,1770886370.636521,0.000000
20.000000,-16782.807324,-10002.651513,758.394689,-20357.097132,6444.924348,1353.040499,-7642.195540,570.058891,3330.722848,-12174.905798,-4879.542277,3645.703631,905.044485,418.849339,-24484.212635,-12951.159531,0.003500,-0.008500,1.009500,192.000000,0.000000,16.000000,127.500000,104.000000,15.500000,72.000000,0.000000,0.000000,0.000000,1770886370.636539,0.000000
22.000000,-16771.720859,-9995.051920,755.108983,-20356.471283,6449.752325,1360.081298,-7638.216929,570.304760,3271.021339,-12324.215451,-5015.954973,3523.283127,772.610399,294.238364,-24641.770082,-13090.567361,0.003500,-0.008500,1.009500,192.000000,0.000000,0.000000,0.000000,0.000000,0.000000,0.000000,0.000000,0.000000,0.000000,1770886370.636553,0.000000
24.000000,-16671.585044,-9899.788785,833.831827,-20267.310174,6522.574308,1408.115197,-7564.232655,650.145191,3341.138761,-12171.374222,-4875.898942,3647.357660,902.675200,414.557804,-24484.391449,-12956.076915,0.003500,-0.008500,1.009500,192.000000,0.000000,0.000000,0.000000,0.000000,0.000000,0.000000,0.000000,0.000000,0.000000,1770886370.636570,0.000000
26.000000,-16821.945229,-10041.990583,716.574575,-20403.097022,6395.661103,1331.515769,-7680.059395,535.212521,3303.185499,-12261.809380,-4952.811295,3579.073081,832.468370,350.475353,-24585.533093,-13035.984401,0.003500,-0.008500,1.009500,192.000000,0.000000,0.000000,0.000000,0.000000,0.000000,0.000000,0.000000,0.000000,0.000000,1770886370.636588,0.000000
28.000000,-16667.897006,-9889.283465,835.061173,-20260.001154,6528.475169,1413.121988,-7560.969300,653.117973,3315.076627,-12251.840502,-4949.078554,3587.991427,833.809475,351.280016,-24581.688593,-13034.017448,0.003500,-0.008500,1.009500,192.000000,0.000000,0.000000,0.000000,0.000000,0.000000,0.000000,0.000000,0.000000,0.000000,1770886370.636601,0.000000
30.000000,-16763.227196,-9987.117051,766.083689,-20349.676353,6452.009851,1358.717842,-7639.535682,578.597257,3345.385593,-12163.037022,-4869.595751,3657.058317,906.519700,432.372145,-24485.553740,-12956.635708,0.002750,-0.009250,1.006750,192.000000,0.000000,8.000000,127.500000,88.000000,15.500000,48.000000,0.000000,0.000000,0.000000,1770886370.636619,0.000000
32.000000,-16762.288423,-9980.210362,765.301378,-20351.173920,6451.316947,1362.785859,-7633.612470,576.630303,3290.355598,-12313.307799,-5002.029836,3533.631984,789.418911,300.608611,-24637.120919,-13093.271922,0.002750,-0.009250,1.006750,192.000000,0.000000,0.000000,0.000000,0.000000,0.000000,0.000000,0.000000,0.000000,0.000000,1770886370.636634,0.000000
34.000000,-16669.796904,-9892.300951,836.558740,-20265.566738,6518.841567,1409.478654,-7561.572797,655.643720,3343.038659,-12161.047716,-4872.546181,3653.437335,894.047426,432.148627,-24486.112533,-12958.647365,0.002750,-0.009250,1.006750,192.000000,0.000000,0.000000,0.000000,0.000000,0.000000,0.000000,0.000000,0.000000,0.000000,1770886370.636653,0.000000
36.000000,-16820.447662,-10041.208272,717.111017,-20407.343853,6403.260696,1328.833560,-7683.635674,533.759658,3299.788034,-12261.742325,-4953.794772,3574.714491,824.578205,353.470487,-24585.778962,-13040.812378,0.002750,-0.009250,1.006750,192.000000,0.000000,0.000000,0.000000,0.000000,0.000000,0.000000,0.000000,0.000000,0.000000,1770886370.636669,0.000000
38.000000,-16676.927111,-9898.604142,829.853216,-20260.358782,6521.926108,1405.611802,-7564.523228,646.948892,3304.727769,-12260.915310,-4959.293301,3575.653264,824.645260,337.757210,-24581.912110,-13035.515015,0.002750,-0.009250,1.006750,192.000000,0.000000,0.000000,0.000000,0.000000,0.000000,0.000000,0.000000,0.000000,0.000000,1770886370.636686,0.000000
40.000000,-16771.229121,-9992.056786,756.561846,-20350.413960,6439.649336,1358.874304,-7641.927319,574.104556,3336.243729,-12165.383955,-4876.502440,3648.564654,898.741293,424.616089,-24491.611062,-12947.717362,0.004375,-0.007625,1.004375,192.000000,0.000000,24.000000,127.500000,104.000000,15.500000,40.000000,0.000000,0.000000,0.000000,1770886370.636700,0.000000
42.000000,-16761.394353,-9989.240466,759.355814,-20350.302202,6448.008889,1362.383528,-7634.394781,575.065681,3278.643284,-12319.141605,-5009.271802,3525.071266,779.830012,298.932230,-24640.071349,-13082.073698,0.004375,-0.007625,1.004375,192.000000,0.000000,0.000000,0.000000,0.000000,0.000000,0.000000,0.000000,0.000000,0.000000,1770886370.636728,0.000000
44.000000,-16677.731774,-9897.933590,831.261376,-20265.477331,6524.161282,1401.387322,-7564.836152,646.635967,3340.602319,-12168.937882,-4877.687082,3643.960195,891.745197,427.946499,-24486.000775,-12954.758162,0.004375,-0.007625,1.004375,192.000000,0.000000,0.000000,0.000000,0.000000,0.000000,0.000000,0.000000,0.000000,0.000000,1770886370.636744,0.000000
46.000000,-16819.955924,-10041.767066,715.836968,-20406.606246,6404.735911,1329.302946,-7682.585142,532.440905,3295.988237,-12265.542122,-4959.382708,3571.741709,820.040801,357.583208,-24583.722601,-13042.622869,0.004375,-0.007625,1.004375,192.000000,0.000000,0.000000,0.000000,0.000000,0.000000,0.000000,0.000000,0.000000,0.000000,1770886370.636759,0.000000
48.000000,-16666.980584,-9885.751889,834.860007,-20257.475407,6534.085457,1412.540843,-7560.008175,658.594150,3306.471206,-12252.734572,-4953.772420,3585.957418,822.298327,356.398565,-24577.687630,-13041.482930,0.004375,-0.007625,1.004375,192.000000,0.000000,0.000000,0.000000,0.000000,0.000000,0.000000,0.000000,0.000000,0.000000,1770886370.636777,0.000000
50.000000,-16759.181530,-9981.462059,764.966102,-20344.535451,6460.659976,1363.702281,-7638.015764,586.621533,3345.206779,-12156.175036,-4864.141925,3665.529628,905.826796,438.161247,-24484.167932,-12956.389839,0.005188,-0.004813,1.007188,192.000000,0.000000,24.000000,127.500000,120.000000,15.500000,72.000000,0.000000,0.000000,0.000000,1770886370.636789,0.000000
52.000000,-16757.348687,-9980.970321,763.289721,-20347.351771,6456.882531,1376.710996,-7636.026458,577.211449,3289.215659,-12308.904506,-4998.632371,3537.968223,785.417948,316.120722,-24636.517422,-13081.827829,0.005188,-0.004813,1.007188,192.000000,0.000000,0.000000,0.000000,0.000000,0.000000,0.000000,0.000000,0.000000,0.000000,1770886370.636806,0.000000
54.000000,-16677.821181,-9894.781994,836.536388,-20257.654221,6535.560672,1423.739067,-7563.942082,646.613615,3343.575101,-12160.332460,-4874.669597,3653.817314,902.071703,441.581063,-24483.184455,-12948.209101,0.005188,-0.004813,1.007188,192.000000,0.000000,0.000000,0.000000,0.000000,0.000000,0.000000,0.000000,0.000000,0.000000,1770886370.636821,0.000000
56.000000,-16830.774168,-10048.092609,716.507520,-20404.058147,6412.916650,1347.899598,-7682.808659,527.031783,3295.742368,-12255.349726,-4961.081441,3578.670750,820.957222,353.358728,-24585.510741,-13028.384808,0.005188,-0.004813,1.007188,192.000000,0.000000,0.000000,0.000000,0.000000,0.000000,0.000000,0.000000,0.000000,0.000000,1770886370.636837,0.000000
58.000000,-16676.077744,-9887.942360,835.217635,-20254.547328,6532.945518,1411.423255,-7559.337623,649.407583,3308.527566,-12247.325450,-4957.616920,3586.046825,827.014545,373.899981,-24578.179369,-13031.178776,0.005188,-0.004813,1.007188,192.000000,0.000000,0.000000,0.000000,0.000000,0.000000,0.000000,0.000000,0.000000,0.000000,1770886370.636852,0.000000
60.000000,-16774.268958,-9985.999463,758.349986,-20344.177824,6447.159522,1361.757679,-7638.865130,576.071510,3334.969680,-12155.862112,-4875.071928,3664.456745,901.132929,455.997939,-24486.537216,-12947.583252,0.005594,-0.005406,1.008594,192.000000,0.000000,24.000000,127.500000,104.000000,15.500000,72.000000,0.000000,0.000000,0.000000,1770886370.636868,0.000000
62.000000,-16770.335051,-9996.549487,757.768841,-20346.189481,6450.825209,1366.764470,-7634.327726,571.288237,3274.374100,-12315.297105,-5012.937488,3537.878816,772.588047,314.220824,-24641.300695,-13076.575169,0.005594,-0.005406,1.008594,192.000000,0.000000,0.000000,0.000000,0.000000,0.000000,0.000000,0.000000,0.000000,0.000000,1770886370.636885,0.000000
64.000000,-16683.923207,-9908.193041,829.428533,-20262.392791,6519.467416,1410.529186,-7565.886684,643.439668,3337.964813,-12170.636615,-4880.101070,3652.051527,893.466281,438.518874,-24486.716030,-12948.142046,0.005594,-0.005406,1.008594,192.000000,0.000000,0.000000,0.000000,0.000000,0.000000,0.000000,0.000000,0.000000,0.000000,1770886370.636900,0.000000
66.000000,-16827.779034,-10050.439543,716.082837,-20405.622769,6401.561964,1339.204769,-7684.194468,526.405934,3297.128176,-12266.637357,-4959.650929,3573.641607,822.052458,363.148792,-24587.410639,-13032.564584,0.005594,-0.005406,1.008594,192.000000,0.000000,0.000000,0.000000,0.000000,0.000000,0.000000,0.000000,0.000000,0.000000,1770886370.636918,0.000000
68.000000,-16681.375108,-9901.688683,835.083525,-20270.394715,6524.876538,1409.076322,-7563.807972,642.076211,3309.846319,-12259.462447,-4957.862789,3579.028377,828.333298,366.769775,-24576.145360,-13035.872643,0.005594,-0.005406,1.008594,192.000000,0.000000,0.000000,0.000000,0.000000,0.000000,0.000000,0.000000,0.000000,0.000000,1770886370.636933,0.000000
70.000000,-16767.697545,-9986.647664,764.809640,-20350.793940,6453.999156,1353.040499,-7639.625089,579.290161,3341.608148,-12167.417963,-4871.227428,3652.833838,893.399226,442.832761,-24482.648013,-12958.736772,0.005594,-0.005406,1.008594,192.000000,0.000000,0.000000,0.000000,0.000000,0.000000,0.000000,0.000000,0.000000,0.000000,1770886370.636950,0.000000
72.000000,-16760.679097,-9983.429013,767.156573,-20349.877518,6454.870874,1361.467107,-7634.618298,578.977237,3289.863859,-12312.436081,-4999.951124,3539.130514,775.136146,317.752399,-24638.640838,-13090.187382,0.006000,-0.004000,1.004000,192.000000,0.000000,24.000000,127.500000,112.000000,15.500000,48.000000,0.000000,0.000000,0.000000,1770886370.636962,0.000000
74.000000,-16660.900910,-9883.784936,840.738516,-20260.068209,6528.698686,1425.370744,-7563.450344,657.722432,3351.644081,-12156.175036,-4864.343091,3658.622939,910.230089,456.959064,-24481.977461,-12956.970985,0.006000,-0.004000,1.004000,192.000000,0.000000,0.000000,0.000000,0.000000,0.000000,0.000000,0.000000,0.000000,0.000000,1770886371.115737,0.000000
76.000000,-16812.177516,-10042.303508,720.843759,-20402.337063,6416.224708,1331.135789,-7681.914590,536.307756,3308.639325,-12254.455656,-4944.474094,3580.771813,831.171969,370.033129,-24583.789657,-13033.615116,0.006000,-0.004000,1.004000,192.000000,0.000000,0.000000,0.000000,0.000000,0.000000,0.000000,0.000000,0.000000,0.000000,1770886371.115799,0.000000
78.000000,-16676.748297,-9903.365064,834.860007,-20261.744590,6532.342021,1412.540843,-7560.097582,650.547522,3306.918240,-12261.027069,-4950.263196,3578.402529,830.367307,380.672560,-24578.402886,-13034.933869,0.006000,-0.004000,1.004000,192.000000,0.000000,0.000000,0.000000,0.000000,0.000000,0.000000,0.000000,0.000000,0.000000,1770886371.115848,0.000000
80.000000,-16765.551778,-9993.397891,767.245980,-20350.279850,6453.552121,1364.529296,-7634.193615,584.967504,3339.060049,-12169.764897,-4864.097221,3654.912550,904.776264,453.203971,-24484.033821,-12948.790246,0.006000,-0.004000,1.004000,192.000000,0.000000,0.000000,0.000000,0.000000,0.000000,0.000000,0.000000,0.000000,0.000000,1770886371.115892,0.000000
82.000000,-16763.361307,-9982.937274,761.881562,-20345.183652,6450.668746,1367.658540,-7630.773798,583.447586,3284.231220,-12318.493404,-4998.095929,3537.588243,778.399501,323.943832,-24640.540736,-13087.147544,0.002000,-0.008000,1.000000,192.000000,0.000000,8.000000,127.500000,96.000000,15.500000,32.000000,0.000000,0.000000,0.000000,1770886371.115946,0.000000
84.000000,-16664.320727,-9893.954980,835.865836,-20254.077942,6524.116579,1419.939270,-7559.739954,662.617464,3342.479866,-12159.483094,-4867.338224,3665.864905,892.929839,451.438183,-24489.845275,-12952.590043,0.002000,-0.008000,1.000000,192.000000,0.000000,0.000000,0.000000,0.000000,0.000000,0.000000,0.000000,0.000000,0.000000,1770886371.116001,0.000000
86.000000,-16813.026883,-10036.335592,719.413247,-20396.771478,6390.207278,1348.950130,-7678.494773,544.153219,3304.258383,-12251.706392,-4948.832685,3587.969075,817.872681,388.741540,-24592.037450,-13031.737570,0.002000,-0.008000,1.000000,192.000000,0.000000,0.000000,0.000000,0.000000,0.000000,0.000000,0.000000,0.000000,0.000000,1770886371.116018,0.000000
88.000000,-16667.986413,-9887.830602,835.619966,-20256.246061,6515.287640,1419.246366,-7557.594187,657.834191,3311.992086,-12241.849272,-4947.491580,3590.561878,817.336239,394.463586,-24586.918901,-13033.860986,0.002000,-0.008000,1.000000,192.000000,0.000000,0.000000,0.000000,0.000000,0.000000,0.000000,0.000000,0.000000,0.000000,1770886371.116034,0.000000
90.000000,-16761.148484,-9980.880914,767.223628,-20341.562669,6445.527845,1359.254284,-7635.400609,583.782862,3341.496389,-12153.649289,-4866.041823,3662.020405,899.255383,459.797735,-24491.342842,-12949.013764,0.002000,-0.008000,1.000000,192.000000,0.000000,0.000000,0.000000,0.000000,0.000000,0.000000,0.000000,0.000000,0.000000,1770886371.116050,0.000000
92.000000,-16759.069772,-9983.138440,764.206143,-20350.704533,6461.039956,1371.190115,-7636.697011,575.088033,3290.892040,-12308.122195,-5003.661514,3540.404563,789.664780,341.892283,-24641.792433,-13089.762698,0.008000,-0.006000,0.996000,192.000000,0.000000,32.000000,127.500000,104.000000,15.500000,16.000000,0.000000,0.000000,0.000000,1770886371.116068,0.000000
94.000000,-16672.590872,-9892.300951,840.023260,-20259.196491,6537.527625,1413.278450,-7563.495048,652.872104,3353.208703,-12156.934995,-4871.249780,3660.724003,912.733485,455.617959,-24482.536254,-12955.808694,0.008000,-0.006000,0.996000,192.000000,0.000000,0.000000,0.000000,0.000000,0.000000,0.000000,0.000000,0.000000,0.000000,1770886371.116087,0.000000
96.000000,-16819.888868,-10042.057638,720.687296,-20404.661644,6415.196528,1327.313641,-7683.479212,532.262091,3310.494520,-12257.786066,-4952.185446,3584.325741,827.215711,384.494708,-24584.214340,-13036.252622,0.008000,-0.006000,0.996000,192.000000,0.000000,0.000000,0.000000,0.000000,0.000000,0.000000,0.000000,0.000000,0.000000,1770886371.116100,0.000000
98.000000,-16673.484942,-9893.150317,837.989251,-20267.377230,6530.263308,1403.778959,-7563.629158,647.820610,3318.049409,-12259.127171,-4952.945406,3579.698930,835.932891,372.737691,-24578.380534,-13045.908576,0.008000,-0.006000,0.996000,192.000000,0.000000,0.000000,0.000000,0.000000,0.000000,0.000000,0.000000,0.000000,0.000000,1770886371.116117,0.000000
100.000000,-16757.505150,-9983.004330,771.559867,-20351.084513,6463.208075,1363.009377,-7635.624127,580.698321,3349.364203,-12161.226530,-4862.644358,3657.684166,908.196081,458.322520,-24485.732554,-12960.480208,0.008000,-0.006000,0.996000,192.000000,0.000000,0.000000,0.000000,0.000000,0.000000,0.000000,0.000000,0.000000,0.000000,1770886371.116135,0.000000
102.000000,-16765.663536,-9983.831344,766.351910,-20352.336210,6455.630834,1352.347595,-7635.914700,572.651693,3289.305066,-12316.615858,-4999.973476,3535.487179,787.675475,332.661013,-24634.416358,-13091.841411,0.004000,-0.012000,0.994000,192.000000,0.000000,16.000000,127.500000,80.000000,15.500000,8.000000,0.000000,0.000000,0.000000,1770886371.116153,0.000000
104.000000,-16671.115657,-9890.915142,840.894978,-20262.996288,6533.124332,1412.205566,-7563.293882,655.129630,3350.593549,-12162.969966,-4864.007814,3655.337233,912.040581,449.985319,-24479.161141,-12957.172150,0.004000,-0.012000,0.994000,192.000000,0.000000,0.000000,0.000000,0.000000,0.000000,0.000000,0.000000,0.000000,0.000000,1770886371.116170,0.000000
106.000000,-16825.186232,-10042.325859,715.948727,-20403.678167,6406.077016,1332.968632,-7684.552095,531.546835,3307.946421,-12253.405124,-4945.748144,3584.057520,829.339126,383.243010,-24582.426200,-13035.783236,0.004000,-0.012000,0.994000,192.000000,0.000000,0.000000,0.000000,0.000000,0.000000,0.000000,0.000000,0.000000,0.000000,1770886371.116187,0.000000
108.000000,-16674.490771,-9891.630398,830.412010,-20263.845654,6527.312878,1412.004401,-7565.037318,645.831304,3304.839528,-12256.377906,-4955.448801,3584.437500,813.938774,384.047673,-24582.940290,-13037.973706,0.004000,-0.012000,0.994000,192.000000,0.000000,0.000000,0.000000,0.000000,0.000000,0.000000,0.000000,0.000000,0.000000,1770886371.116204,0.000000
110.000000,-16767.161103,-9990.290998,763.893219,-20356.113655,6444.946700,1367.949112,-7642.731982,576.607952,3333.963851,-12165.808638,-4868.478163,3655.605454,893.712150,459.462459,-24487.945376,-12955.987508,0.004000,-0.012000,0.994000,192.000000,0.000000,0.000000,0.000000,0.000000,0.000000,0.000000,0.000000,0.000000,0.000000,1770886371.116222,0.000000
112.000000,-16762.400182,-9983.071385,761.680396,-20349.475187,6440.588110,1361.288293,-7640.139179,575.847992,3284.365330,-12315.386512,-5000.129938,3535.688345,789.798890,338.248949,-24644.787567,-13090.232085,0.004000,-0.010000,0.998000,192.000000,0.000000,16.000000,127.500000,88.000000,15.500000,24.000000,0.000000,0.000000,0.000000,1770886371.116245,0.000000
114.000000,-16671.138009,-9893.664407,831.529597,-20264.672669,6527.514044,1405.500043,-7569.217094,648.759383,3346.793753,-12168.781420,-4870.221599,3654.398460,907.324363,464.402195,-24491.387545,-12957.596833,0.004000,-0.010000,0.998000,192.000000,0.000000,0.000000,0.000000,0.000000,0.000000,0.000000,0.000000,0.000000,0.000000,1770886371.116267,0.000000
116.000000,-16815.396168,-10038.302545,715.233471,-20404.795755,6405.473519,1334.846179,-7683.076880,533.938472,3302.425540,-12264.424534,-4952.386612,3576.077947,820.823112,383.667694,-24586.293052,-13038.845425,0.004000,-0.010000,0.998000,192.000000,0.000000,0.000000,0.000000,0.000000,0.000000,0.000000,0.000000,0.000000,0.000000,1770886371.116285,0.000000
118.000000,-16660.498579,-9884.231971,837.363403,-20256.491930,6522.529605,1408.137549,-7559.024699,660.561104,3311.209775,-12250.432342,-4945.725792,3584.437500,839.933853,373.587057,-24579.453418,-13040.722971,0.004000,-0.010000,0.998000,192.000000,0.000000,0.000000,0.000000,0.000000,0.000000,0.000000,0.000000,0.000000,0.000000,1770886371.116344,0.000000
120.000000,-16744.027048,-9967.693385,766.553076,-20340.310972,6458.245988,1370.854839,-7635.445313,594.534051,3353.186351,-12149.670678,-4847.556930,3670.759937,909.693648,475.712177,-24488.794743,-12951.248938,0.004000,-0.010000,0.998000,192.000000,0.000000,0.000000,0.000000,0.000000,0.000000,0.000000,0.000000,0.000000,0.000000,1770886371.116367,0.000000
122.000000,-16743.669420,-9969.369765,760.696919,-20346.882385,6459.855313,1376.107499,-7637.211101,585.436891,3302.224374,-12303.830660,-4981.577990,3548.205322,788.457786,355.012757,-24640.876012,-13081.380794,0.002000,-0.014000,1.006000,192.000000,0.000000,8.000000,127.500000,72.000000,15.500000,56.000000,0.000000,0.000000,0.000000,1770886371.116380,0.000000
124.000000,-16665.125390,-9885.193096,832.937757,-20261.476369,6540.679221,1412.831415,-7564.433821,656.895418,3361.657663,-12156.733830,-4855.044765,3662.847419,911.951174,468.693729,-24484.100876,-12948.678487,0.002000,-0.014000,1.006000,192.000000,0.000000,0.000000,0.000000,0.000000,0.000000,0.000000,0.000000,0.000000,0.000000,1770886371.116394,0.000000
126.000000,-16819.732406,-10040.917699,713.490035,-20406.181563,6404.266525,1329.794685,-7683.188639,536.419515,3305.487729,-12257.875473,-4947.469228,3581.643532,834.457676,387.042807,-24583.208511,-13033.302192,0.002000,-0.014000,1.006000,192.000000,0.000000,0.000000,0.000000,0.000000,0.000000,0.000000,0.000000,0.000000,0.000000,1770886371.116411,0.000000
128.000000,-16669.618090,-9891.473936,834.390621,-20269.008907,6526.754084,1409.098674,-7560.410507,657.342453,3305.398322,-12261.205883,-4951.447839,3581.509421,820.867815,371.485993,-24580.772171,-13041.147654,0.002000,-0.014000,1.006000,192.000000,0.000000,0.000000,0.000000,0.000000,0.000000,0.000000,0.000000,0.000000,0.000000,1770886371.116425,0.000000
130.000000,-16761.684926,-9981.752632,762.395652,-20347.508233,6441.929214,1350.850028,-7635.937051,587.448548,3334.500293,-12163.528760,-4863.136096,3661.193390,897.109615,453.360433,-24488.370060,-12957.865054,0.002000,-0.014000,1.006000,192.000000,0.000000,0.000000,0.000000,0.000000,0.000000,0.000000,0.000000,0.000000,0.000000,1770886371.116442,0.000000
132.000000,-16761.550815,-9980.322120,757.031233,-20352.291507,6441.772752,1361.802383,-7636.540548,580.430100,3279.269133,-12313.397206,-4998.028874,3539.152865,775.158498,340.484123,-24645.055788,-13092.534315,0.002000,-0.014000,1.006000,192.000000,0.000000,0.000000,127.500000,88.000000,15.500000,40.000000,0.000000,0.000000,0.000000,1770886371.116458,0.000000
134.000000,-16661.772628,-9880.521581,833.474199,-20256.380171,6521.814349,1419.536939,-7562.802143,660.538752,3344.893854,-12156.644423,-4863.493724,3663.652082,897.869575,472.806450,-24491.789876,-12956.278080,0.002000,-0.014000,1.006000,192.000000,0.000000,0.000000,0.000000,0.000000,0.000000,0.000000,0.000000,0.000000,0.000000,1770886371.116475,0.000000
136.000000,-16807.863630,-10025.338534,713.646497,-20396.056222,6406.412292,1346.692603,-7680.126450,540.733402,3307.789958,-12243.548005,-4941.590719,3590.695988,829.227368,403.046656,-24587.947081,-13028.071884,0.002000,-0.014000,1.006000,192.000000,0.000000,0.000000,0.000000,0.000000,0.000000,0.000000,0.000000,0.000000,0.000000,1770886371.116488,0.000000
138.000000,-16667.695840,-9886.087166,828.154484,-20261.968107,6526.731733,1425.884834,-7560.522265,656.358976,3317.155339,-12244.084447,-4946.351641,3590.181898,822.812417,396.072912,-24581.643889,-13025.121453,0.002000,-0.014000,1.006000,192.000000,0.000000,0.000000,0.000000,0.000000,0.000000,0.000000,0.000000,0.000000,0.000000,1770886371.116505,0.000000
140.000000,-16757.415743,-9974.488315,763.356777,-20347.262364,6440.074019,1364.328130,-7634.394781,588.342618,3340.579968,-12154.073972,-4861.906750,3664.367338,900.775302,468.492564,-24488.235949,-12946.175092,0.002000,-0.014000,1.006000,192.000000,0.000000,0.000000,0.000000,0.000000,0.000000,0.000000,0.000000,0.000000,0.000000,1770886371.116520,0.000000
142.000000,-16756.544025,-9978.712795,762.328596,-20350.346905,6446.533674,1362.115307,-7634.215967,579.871306,3286.645208,-12307.853974,-4992.373883,3544.338470,785.060321,352.464658,-24642.641800,-13082.185457,-0.003000,-0.012000,1.004000,192.000000,127.500000,96.000000,127.500000,88.000000,15.500000,40.000000,0.000000,0.000000,0.000000,1770886371.116536,0.000000
144.000000,-16662.689050,-9886.109517,844.828885,-20261.319907,6529.659811,1408.405770,-7562.824495,658.728261,3347.665471,-12160.421867,-4860.029204,3662.534495,911.370028,448.241883,-24479.652879,-12953.729982,-0.003000,-0.012000,1.004000,192.000000,0.000000,0.000000,0.000000,0.000000,0.000000,0.000000,0.000000,0.000000,0.000000,1770886371.116552,0.000000
146.000000,-16809.629418,-10026.769045,720.374372,-20403.365243,6407.909859,1341.574054,-7681.869886,540.487533,3315.523662,-12252.756924,-4936.762743,3587.834965,836.871664,402.890194,-24576.324174,-13031.379942,-0.003000,-0.012000,1.004000,192.000000,0.000000,0.000000,0.000000,0.000000,0.000000,0.000000,0.000000,0.000000,0.000000,1770886371.116573,0.000000
148.000000,-16652.340192,-9875.045404,834.412972,-20255.709619,6533.951346,1412.965526,-7560.298748,661.231656,3325.134912,-12244.799703,-4939.132028,3591.813575,834.971766,395.603525,-24573.172578,-13030.798797,-0.003000,-0.012000,1.004000,192.000000,0.000000,0.000000,0.000000,0.000000,0.000000,0.000000,0.000000,0.000000,0.000000,1770886371.116590,0.000000
150.000000,-16752.453655,-9977.796373,763.222666,-20345.138949,6451.652223,1362.562342,-7638.373391,591.360103,3351.621729,-12151.369411,-4857.749326,3671.206972,905.133892,479.199049,-24482.379792,-12945.951575,-0.003000,-0.012000,1.004000,192.000000,0.000000,0.000000,0.000000,0.000000,0.000000,0.000000,0.000000,0.000000,0.000000,1770886371.116606,0.000000
152.000000,-16759.069772,-9982.579646,757.187695,-20350.436312,6447.181874,1355.745060,-7639.066296,582.419405,3293.596601,-12307.250477,-4993.491470,3548.026508,792.235230,340.148847,-24638.819651,-13085.292349,-0.002500,-0.011000,1.005000,192.000000,127.500000,120.000000,127.500000,88.000000,15.500000,56.000000,0.000000,0.000000,0.000000,1770886371.116623,0.000000
154.000000,-16661.750276,-9890.848087,833.764772,-20263.063343,6525.055352,1410.596241,-7565.529056,661.119897,3347.509008,-12164.065202,-4862.554951,3666.468402,896.997857,460.915322,-24484.614966,-12949.617261,-0.002500,-0.011000,1.005000,192.000000,0.000000,0.000000,0.000000,0.000000,0.000000,0.000000,0.000000,0.000000,0.000000,1770886371.116642,0.000000
156.000000,-16805.248476,-10030.077103,715.814616,-20400.414813,6398.656237,1329.772333,-7684.194468,545.471972,3313.109674,-12252.466351,-4933.544091,3591.634761,837.564568,393.144833,-24582.537959,-13028.407160,-0.002500,-0.011000,1.005000,192.000000,0.000000,0.000000,0.000000,0.000000,0.000000,0.000000,0.000000,0.000000,0.000000,1770886371.116658,0.000000
158.000000,-16656.341154,-9885.617779,831.998984,-20259.308250,6521.993163,1400.046217,-7563.249178,662.818630,3321.670392,-12252.466351,-4936.203949,3590.383064,823.974708,407.762874,-24584.259043,-13035.000924,-0.002500,-0.011000,1.005000,192.000000,0.000000,0.000000,0.000000,0.000000,0.000000,0.000000,0.000000,0.000000,0.000000,1770886371.116677,0.000000
160.000000,-16756.409914,-9981.238542,761.769803,-20346.860033,6439.850502,1350.917083,-7640.183883,591.158937,3353.320462,-12155.124504,-4850.306195,3671.743413,907.749046,468.000825,-24485.374926,-12949.930185,-0.002500,-0.011000,1.005000,192.000000,0.000000,0.000000,0.000000,0.000000,0.000000,0.000000,0.000000,0.000000,0.000000,1770886371.116695,0.000000
162.000000,-16760.522635,-9986.692367,756.204218,-20352.447969,6437.838845,1359.500153,-7641.077953,580.787728,3286.712263,-12315.408863,-4996.620714,3542.259758,776.745472,342.562836,-24643.312352,-13083.884190,-0.002500,-0.011000,1.005000,192.000000,0.000000,0.000000,127.500000,88.000000,15.500000,64.000000,0.000000,0.000000,0.000000,1770886371.116711,0.000000
164.000000,-16670.869788,-9891.049253,838.033955,-20261.409314,6535.672430,1422.196796,-7564.210303,661.052842,3347.576064,-12163.439353,-4865.840657,3661.640425,900.797653,466.480907,-24486.090182,-12943.470531,-0.002500,-0.011000,1.005000,192.000000,0.000000,0.000000,0.000000,0.000000,0.000000,0.000000,0.000000,0.000000,0.000000,1770886371.116729,0.000000
166.000000,-16823.711017,-10048.047906,710.696067,-20401.599455,6407.284010,1335.807304,-7688.374244,534.139637,3307.745255,-12256.690831,-4943.356507,3587.633799,832.960109,391.088473,-24574.759552,-13024.495605,-0.002500,-0.011000,1.005000,192.000000,0.000000,0.000000,0.000000,0.000000,0.000000,0.000000,0.000000,0.000000,0.000000,1770886371.116748,0.000000
168.000000,-16677.418849,-9902.336884,827.930966,-20264.404448,6535.583023,1398.861575,-7566.892513,645.473676,3310.047485,-12264.044555,-4955.068821,3578.558991,826.165179,390.909659,-24575.050125,-13026.239041,-0.002500,-0.011000,1.005000,192.000000,0.000000,0.000000,0.000000,0.000000,0.000000,0.000000,0.000000,0.000000,0.000000,1770886371.116765,0.000000
170.000000,-16763.562472,-9988.748728,764.340253,-20348.983449,6458.201284,1363.791688,-7640.362697,581.123004,3348.872465,-12161.964138,-4859.090431,3658.935864,909.581889,470.459517,-24475.361344,-12941.481226,-0.002500,-0.011000,1.005000,192.000000,0.000000,0.000000,0.000000,0.000000,0.000000,0.000000,0.000000,0.000000,0.000000,1770886371.116782,0.000000
172.000000,-16759.583862,-9984.367786,760.741623,-20359.444065,6454.669709,1363.031729,-7644.587176,573.255190,3298.513985,-12317.107596,-4988.104700,3531.463865,785.842632,346.273225,-24631.957666,-13079.927931,-0.002500,-0.011000,1.005000,192.000000,0.000000,0.000000,127.500000,96.000000,15.500000,40.000000,0.000000,0.000000,0.000000,1770886371.116799,0.000000
174.000000,-16662.532587,-9892.569171,836.424629,-20264.225634,6528.296355,1401.812005,-7570.200571,650.212246,3361.948235,-12168.200274,-4858.375175,3652.297396,907.212604,473.007616,-24482.044516,-12949.550205,-0.002500,-0.011000,1.005000,192.000000,0.000000,0.000000,0.000000,0.000000,0.000000,0.000000,0.000000,0.000000,0.000000,1770886371.116814,0.000000
176.000000,-16815.127947,-10043.935185,711.299564,-20406.226266,6407.999266,1335.270862,-7692.844593,526.897672,3318.071761,-12256.981403,-4943.155342,3580.771813,833.407144,397.525775,-24578.961680,-13025.389674,-0.002500,-0.011000,1.005000,192.000000,0.000000,0.000000,0.000000,0.000000,0.000000,0.000000,0.000000,0.000000,0.000000,1770886371.116833,0.000000
178.000000,-16673.864922,-9898.514736,824.354687,-20266.550215,6524.116579,1411.311497,-7573.329815,643.439668,3318.541148,-12259.596558,-4960.343833,3576.994369,819.593766,388.629781,-24579.520473,-13025.568488,-0.002500,-0.011000,1.005000,192.000000,0.000000,0.000000,0.000000,0.000000,0.000000,0.000000,0.000000,0.000000,0.000000,1770886371.116850,0.000000
180.000000,-16759.561510,-9980.657396,755.868942,-20347.441178,6446.846598,1351.095897,-7644.676583,580.675969,3347.486657,-12159.639556,-4868.321701,3662.288626,892.862784,469.744261,-24488.772391,-12941.235356,-0.002500,-0.011000,1.005000,192.000000,0.000000,0.000000,0.000000,0.000000,0.000000,0.000000,0.000000,0.000000,0.000000,1770886371.116867,0.000000
182.000000,-16759.852083,-9984.010158,755.399556,-20354.638440,6448.835903,1364.216371,-7643.804865,576.831469,3293.730711,-12311.385549,-4996.508956,3540.650432,780.902896,345.446211,-24642.552393,-13079.190323,-0.002500,-0.011000,1.005000,192.000000,0.000000,0.000000,127.500000,112.000000,15.500000,32.000000,0.000000,0.000000,0.000000,1770886371.116882,0.000000
184.000000,-16658.688087,-9887.875305,837.184589,-20258.928270,6522.708419,1408.539880,-7567.339548,658.124764,3358.595474,-12161.762972,-4859.872742,3659.584064,905.245650,476.449785,-24482.357440,-12947.225624,-0.002500,-0.011000,1.005000,192.000000,0.000000,0.000000,0.000000,0.000000,0.000000,0.000000,0.000000,0.000000,0.000000,1770886371.116896,0.000000
186.000000,-16798.922932,-10022.991600,716.820445,-20395.519781,6401.561964,1331.493417,-7687.726043,541.292195,3329.918185,-12240.865796,-4927.866748,3596.395683,834.591786,420.011630,-24581.532130,-13022.394541,-0.002500,-0.011000,1.005000,192.000000,0.000000,0.000000,0.000000,0.000000,0.000000,0.000000,0.000000,0.000000,0.000000,1770886371.116912,0.000000
188.000000,-16656.855244,-9891.228067,832.200150,-20257.050724,6527.715209,1401.789654,-7569.351205,656.180162,3333.717982,-12249.448866,-4932.135932,3588.885497,828.042725,397.928107,-24578.067610,-13024.406198,-0.002500,-0.011000,1.005000,192.000000,0.000000,0.000000,0.000000,0.000000,0.000000,0.000000,0.000000,0.000000,0.000000,1770886371.116929,0.000000
190.000000,-16744.630545,-9978.019891,766.128393,-20341.339152,6461.531694,1361.578865,-7640.027421,593.125891,3370.531305,-12157.270271,-4841.119628,3667.965969,907.570232,475.086328,-24482.960937,-12938.083761,-0.002500,-0.011000,1.005000,192.000000,0.000000,0.000000,0.000000,0.000000,0.000000,0.000000,0.000000,0.000000,0.000000,1770886371.116942,0.000000
192.000000,-16754.331202,-9990.536867,761.300416,-20354.146702,6457.910712,1359.857781,-7639.289813,581.033597,3311.142720,-12315.788843,-4982.695577,3539.778714,792.570507,355.526847,-24632.516460,-13075.681099,0.000750,-0.009500,1.005500,192.000000,0.000000,16.000000,127.500000,96.000000,15.500000,56.000000,0.000000,0.000000,0.000000,1770886371.116959,0.000000
194.000000,-16660.543282,-9900.101709,840.336185,-20260.381134,6532.632593,1405.477691,-7561.550446,658.504743,3367.625578,-12170.278987,-4857.928140,3656.901855,904.195118,471.554753,-24478.110609,-12944.901043,0.000750,-0.009500,1.005500,192.000000,0.000000,0.000000,0.000000,0.000000,0.000000,0.000000,0.000000,0.000000,0.000000,1770886371.597147,0.000000
196.000000,-16812.110461,-10042.459970,721.022573,-20405.332196,6408.870984,1335.159103,-7681.311093,538.341765,3319.837549,-12262.368174,-4938.461475,3579.900095,828.847388,394.530641,-24574.066648,-13021.567526,0.000750,-0.009500,1.005500,192.000000,0.000000,0.000000,0.000000,0.000000,0.000000,0.000000,0.000000,0.000000,0.000000,1770886371.597203,0.000000
198.000000,-16665.103038,-9892.323302,834.524731,-20264.426799,6525.368276,1401.655543,-7561.952777,654.526133,3329.940537,-12260.155351,-4938.997917,3581.956456,831.529597,395.827043,-24574.267813,-13034.330372,0.000750,-0.009500,1.005500,192.000000,0.000000,0.000000,0.000000,0.000000,0.000000,0.000000,0.000000,0.000000,0.000000,1770886371.597252,0.000000
200.000000,-16757.303984,-9988.122879,762.753280,-20349.229318,6456.122572,1358.539028,-7635.937051,588.655542,3356.606168,-12164.311071,-4849.926215,3662.378032,895.053255,475.488660,-24482.826827,-12943.761104,0.000750,-0.009500,1.005500,192.000000,0.000000,0.000000,0.000000,0.000000,0.000000,0.000000,0.000000,0.000000,0.000000,1770886371.597296,0.000000
202.000000,-16756.991059,-9991.296827,753.723175,-20352.559728,6449.908787,1364.573999,-7637.747543,578.463147,3300.033903,-12315.028884,-4988.372921,3538.683479,775.247905,349.022490,-24639.825480,-13074.116477,0.000750,-0.009500,1.005500,192.000000,0.000000,0.000000,0.000000,0.000000,0.000000,0.000000,0.000000,0.000000,0.000000,1770886371.597340,0.000000
204.000000,-16649.076837,-9885.796593,839.129190,-20256.626041,6535.203044,1413.591375,-7560.790486,663.265665,3365.323349,-12166.568597,-4857.905788,3655.516047,898.137796,478.439090,-24487.498342,-12940.587156,0.002000,-0.012000,1.004000,192.000000,0.000000,8.000000,127.500000,80.000000,15.500000,48.000000,0.000000,0.000000,0.000000,1770886371.597385,0.000000
206.000000,-16806.522525,-10035.083894,717.625107,-20398.470211,6408.111025,1331.649879,-7681.266389,540.509884,3329.001764,-12254.209787,-4931.063048,3588.058482,834.100048,407.964040,-24579.721639,-13015.823128,0.002000,-0.012000,1.004000,192.000000,0.000000,0.000000,0.000000,0.000000,0.000000,0.000000,0.000000,0.000000,0.000000,1770886371.597421,0.000000
208.000000,-16657.883425,-9894.133794,838.324528,-20261.252852,6533.593718,1413.770189,-7559.628196,657.811839,3330.812255,-12257.696659,-4941.635423,3583.051691,831.775466,388.518022,-24580.168674,-13025.613192,0.002000,-0.012000,1.004000,192.000000,0.000000,0.000000,0.000000,0.000000,0.000000,0.000000,0.000000,0.000000,0.000000,1770886371.597437,0.000000
210.000000,-16747.022181,-9982.624350,770.621094,-20340.690951,6456.390793,1357.242627,-7632.807807,589.460205,3363.222285,-12159.572501,-4847.623986,3668.211838,919.260194,475.689825,-24475.540158,-12936.206214,0.002000,-0.012000,1.004000,192.000000,0.000000,0.000000,0.000000,0.000000,0.000000,0.000000,0.000000,0.000000,0.000000,1770886371.597463,0.000000
212.000000,-16754.442961,-9985.038338,760.160477,-20347.798806,6455.966110,1354.694528,-7633.321897,581.525335,3301.643229,-12315.632381,-4987.456499,3541.835075,778.958294,353.023452,-24638.014989,-13070.137867,0.002000,-0.012000,1.004000,192.000000,0.000000,0.000000,0.000000,0.000000,0.000000,0.000000,0.000000,0.000000,0.000000,1770886371.597478,0.000000
214.000000,-16662.934919,-9892.390358,839.263301,-20261.275203,6532.096151,1407.802273,-7559.471734,659.130592,3360.942407,-12164.087554,-4855.111820,3660.835762,893.645095,470.280703,-24477.998850,-12941.727095,0.002000,-0.016000,0.998000,192.000000,0.000000,8.000000,127.500000,64.000000,15.500000,24.000000,0.000000,0.000000,0.000000,1770886371.597496,0.000000
216.000000,-16815.642037,-10045.410400,715.121712,-20404.639292,6414.235403,1318.328240,-7682.562790,532.485608,3318.854072,-12263.508113,-4936.695687,3581.129441,826.299289,412.769665,-24573.507854,-13019.198241,0.002000,-0.016000,0.998000,192.000000,0.000000,0.000000,0.000000,0.000000,0.000000,0.000000,0.000000,0.000000,0.000000,1770886371.597512,0.000000
218.000000,-16670.266291,-9894.491422,830.479065,-20267.757209,6532.140855,1408.897508,-7564.098545,643.640833,3327.459494,-12263.753982,-4948.139781,3576.368520,824.712315,394.821214,-24572.792598,-13021.746340,0.002000,-0.016000,0.998000,192.000000,0.000000,0.000000,0.000000,0.000000,0.000000,0.000000,0.000000,0.000000,0.000000,1770886371.597573,0.000000
220.000000,-16758.578033,-9988.458155,760.808678,-20345.138949,6460.727031,1357.466144,-7636.808769,579.848955,3359.690709,-12168.312033,-4860.297425,3654.621977,900.149453,463.575180,-24477.015373,-12936.608545,0.002000,-0.016000,0.998000,192.000000,0.000000,0.000000,0.000000,0.000000,0.000000,0.000000,0.000000,0.000000,0.000000,1770886371.597587,0.000000
222.000000,-16760.589690,-9987.295864,754.751355,-20348.245841,6459.944720,1353.800458,-7636.495845,571.869382,3299.989200,-12318.091073,-4994.542002,3538.929348,774.331483,343.702774,-24633.566992,-13069.512018,0.002000,-0.016000,0.998000,192.000000,0.000000,0.000000,0.000000,0.000000,0.000000,0.000000,0.000000,0.000000,0.000000,1770886371.597605,0.000000
224.000000,-16661.146779,-9893.195020,836.290519,-20260.582299,6534.800712,1404.829491,-7561.036356,652.760345,3361.657663,-12170.614263,-4864.745422,3655.046660,877.238915,477.254448,-24483.340917,-12943.135255,0.006000,-0.010000,1.004000,192.000000,0.000000,24.000000,127.500000,88.000000,15.500000,48.000000,0.000000,0.000000,0.000000,1770886371.597623,0.000000
226.000000,-16819.687703,-10049.746639,718.452122,-20409.355510,6414.213051,1325.838426,-7683.993302,527.210596,3322.475055,-12266.302081,-4936.829798,3578.134308,824.734667,396.519947,-24574.156055,-13019.041779,0.006000,-0.010000,1.004000,192.000000,0.000000,0.000000,0.000000,0.000000,0.000000,0.000000,0.000000,0.000000,0.000000,1770886371.597641,0.000000
228.000000,-16672.210893,-9897.285390,830.255548,-20265.790256,6534.688954,1405.388284,-7563.249178,648.379403,3323.279717,-12267.822000,-4947.715097,3574.155697,812.754132,380.739615,-24577.911148,-13026.283744,0.006000,-0.010000,1.004000,192.000000,0.000000,0.000000,0.000000,0.000000,0.000000,0.000000,0.000000,0.000000,0.000000,1770886371.597656,0.000000
230.000000,-16748.028010,-9976.723489,768.475326,-20350.481016,6462.604578,1347.743135,-7634.573595,589.348446,3359.087212,-12163.484056,-4854.553027,3658.242960,899.903584,464.066918,-24483.340917,-12939.424865,0.006000,-0.010000,1.004000,192.000000,0.000000,0.000000,0.000000,0.000000,0.000000,0.000000,0.000000,0.000000,0.000000,1770886371.597674,0.000000
232.000000,-16753.817112,-9980.612693,758.595855,-20355.219585,6454.826171,1348.458391,-7636.562900,579.848955,3308.751083,-12313.307799,-4988.194107,3543.489104,782.311056,364.244028,-24636.964457,-13081.470201,0.006000,-0.010000,1.004000,192.000000,0.000000,0.000000,0.000000,0.000000,0.000000,0.000000,0.000000,0.000000,0.000000,1770886371.597692,0.000000
234.000000,-16661.929090,-9889.506983,833.585958,-20260.783465,6537.527625,1400.023866,-7560.879893,656.224865,3361.523552,-12169.943711,-4860.923274,3661.059280,891.275810,459.998901,-24482.804475,-12944.722229,0.004000,-0.008000,1.006000,192.000000,0.000000,16.000000,127.500000,96.000000,15.500000,56.000000,0.000000,0.000000,0.000000,1770886371.597708,0.000000
236.000000,-16810.121156,-10037.296717,713.400628,-20403.119374,6415.084769,1325.570205,-7680.528781,534.676079,3315.188386,-12259.305985,-4939.713173,3588.036130,810.965992,408.031095,-24577.665279,-13020.673456,0.004000,-0.008000,1.006000,192.000000,0.000000,0.000000,0.000000,0.000000,0.000000,0.000000,0.000000,0.000000,0.000000,1770886371.597726,0.000000
238.000000,-16668.969890,-9896.346616,832.803647,-20265.969070,6529.458646,1402.348447,-7561.438687,652.358014,3323.324421,-12258.546026,-4943.311804,3581.665883,811.413027,391.289638,-24577.039430,-13027.043703,0.004000,-0.008000,1.006000,192.000000,0.000000,0.000000,0.000000,0.000000,0.000000,0.000000,0.000000,0.000000,0.000000,1770886371.597743,0.000000
240.000000,-16761.327298,-9984.971283,762.865038,-20347.709399,6460.548217,1354.806287,-7635.668830,585.347484,3362.551732,-12165.048679,-4849.367422,3663.070937,897.176671,481.925962,-24481.373964,-12939.335458,0.004000,-0.008000,1.006000,192.000000,0.000000,0.000000,0.000000,0.000000,0.000000,0.000000,0.000000,0.000000,0.000000,1770886371.597760,0.000000
242.000000,-16770.044478,-9986.066519,753.007919,-20353.520853,6462.090488,1355.476839,-7638.954537,574.238667,3294.557726,-12318.091073,-4992.977380,3537.029450,757.701785,348.195475,-24639.892535,-13073.222407,0.004000,-0.008000,1.006000,192.000000,0.000000,0.000000,0.000000,0.000000,0.000000,0.000000,0.000000,0.000000,0.000000,1770886371.597783,0.000000
244.000000,-16671.339175,-9894.312608,836.581091,-20259.129436,6535.515968,1402.639020,-7560.589321,656.202514,3358.439011,-12169.854304,-4865.147753,3659.561713,890.962886,466.413852,-24487.855969,-12944.252842,0.004000,-0.010000,1.004000,192.000000,0.000000,16.000000,127.500000,88.000000,15.500000,48.000000,0.000000,0.000000,0.000000,1770886371.597802,0.000000
246.000000,-16824.940363,-10045.320993,715.345230,-20403.924036,6407.328714,1317.121246,-7682.316921,533.871416,3316.596546,-12262.122305,-4938.215606,3588.214944,823.773542,402.733732,-24574.468979,-13014.929058,0.004000,-0.010000,1.004000,192.000000,0.000000,0.000000,0.000000,0.000000,0.000000,0.000000,0.000000,0.000000,0.000000,1770886371.597817,0.000000
248.000000,-16677.150628,-9907.969523,826.500455,-20270.126494,6532.766704,1400.426197,-7565.305539,644.959586,3309.399284,-12272.448811,-4952.118391,3580.034206,799.723065,402.890194,-24581.822703,-13030.731741,0.004000,-0.010000,1.004000,192.000000,0.000000,0.000000,0.000000,0.000000,0.000000,0.000000,0.000000,0.000000,0.000000,1770886371.597829,0.000000
250.000000,-16760.969670,-9987.966417,762.865038,-20347.016495,6459.564741,1344.971519,-7634.685354,584.296952,3353.454572,-12170.323690,-4855.223579,3658.578236,888.504194,474.549887,-24481.977461,-12940.341287,0.004000,-0.010000,1.004000,192.000000,0.000000,0.000000,0.000000,0.000000,0.000000,0.000000,0.000000,0.000000,0.000000,1770886371.597842,0.000000
252.000000,-16761.193187,-9984.859524,754.974872,-20352.671486,6453.641528,1351.565284,-7637.836950,576.697359,3302.693761,-12317.867555,-4986.562429,3538.079982,765.927227,362.433536,-24639.154928,-13077.335128,0.004000,-0.010000,1.004000,192.000000,0.000000,0.000000,0.000000,0.000000,0.000000,0.000000,0.000000,0.000000,0.000000,1770886371.597856,0.000000
254.000000,-16673.328480,-9896.883058,830.009679,-20259.688230,6538.019364,1397.006380,-7563.986786,652.648586,3358.506067,-12169.921359,-4861.236198,3656.186599,873.148545,475.421605,-24485.911368,-12945.951575,0.004000,-0.010000,1.004000,192.000000,0.000000,0.000000,127.500000,80.000000,15.500000,24.000000,0.000000,0.000000,0.000000,1770886371.597878,0.000000
0.000000,-16824.850956,-10047.891444,711.903061,-20403.499353,6405.920554,1320.943394,-7683.903895,536.128943,3313.824929,-12268.000813,-4941.166036,3582.962284,806.227423,423.297336,-24579.676936,-13019.846442,0.004000,-0.010000,1.004000,192.000000,0.000000,0.000000,0.000000,0.000000,0.000000,0.000000,0.000000,0.000000,0.000000,1770886371.597896,0.000000
2.000000,-16671.003899,-9892.233895,826.276937,-20261.565776,6523.088398,1392.513680,-7563.472696,654.168505,3319.725790,-12268.939587,-4945.837551,3581.129441,801.019466,390.283810,-24587.410639,-13029.971782,0.004000,-0.010000,1.004000,192.000000,0.000000,0.000000,0.000000,0.000000,0.000000,0.000000,0.000000,0.000000,0.000000,1770886371.597911,0.000000
4.000000,-16753.191263,-9982.467888,761.613341,-20353.297335,6447.338336,1340.769391,-7638.686316,583.760510,3361.300035,-12160.265405,-4851.915521,3665.060242,875.316665,488.318561,-24485.441981,-12942.576461,0.004000,-0.010000,1.004000,192.000000,0.000000,0.000000,0.000000,0.000000,0.000000,0.000000,0.000000,0.000000,0.000000,1770886371.597927,0.000000
6.000000,-16772.994908,-9997.152984,752.292663,-20359.131141,6442.130380,1338.780086,-7642.106133,571.668216,3299.318647,-12331.055085,-4993.402063,3529.809836,757.232399,354.431612,-24644.273477,-13085.269998,0.004000,-0.010000,1.004000,192.000000,0.000000,0.000000,0.000000,0.000000,0.000000,0.000000,0.000000,0.000000,0.000000,1770886371.597943,0.000000
8.000000,-16671.316823,-9895.877230,832.647184,-20264.471503,6522.328439,1388.199793,-7566.713699,654.548485,3355.555636,-12176.895103,-4863.225503,3656.119544,865.973635,477.813241,-24489.867626,-12954.199368,0.002000,-0.014000,0.998000,192.000000,0.000000,8.000000,127.500000,72.000000,15.500000,24.000000,0.000000,0.000000,0.000000,1770886371.597958,0.000000
10.000000,-16816.066720,-10041.632955,717.021610,-20408.483792,6401.360798,1316.651859,-7684.686206,537.112419,3316.194214,-12263.664575,-4938.349716,3588.393758,797.085559,418.715229,-24582.984994,-13025.546137,0.002000,-0.014000,0.998000,192.000000,0.000000,0.000000,0.000000,0.000000,0.000000,0.000000,0.000000,0.000000,0.000000,1770886371.597972,0.000000
12.000000,-16677.843532,-9900.660503,826.120475,-20272.205206,6521.009686,1398.526299,-7566.937216,644.847828,3321.960964,-12269.677194,-4949.637347,3578.693101,802.517033,407.740522,-24585.086058,-13034.151558,0.002000,-0.014000,0.998000,192.000000,0.000000,0.000000,0.000000,0.000000,0.000000,0.000000,0.000000,0.000000,0.000000,1770886371.597989,0.000000
14.000000,-16766.758772,-9990.849792,758.595855,-20352.604431,6452.188665,1336.164932,-7639.468627,575.669178,3350.302976,-12173.609397,-4865.013643,3658.377070,872.612104,483.669398,-24487.274824,-12942.084723,0.002000,-0.014000,0.998000,192.000000,0.000000,0.000000,0.000000,0.000000,0.000000,0.000000,0.000000,0.000000,0.000000,1770886371.598004,0.000000
16.000000,-16771.586749,-9992.369710,753.477306,-20358.192367,6439.112894,1339.070659,-7640.630918,568.896600,3288.232182,-12328.082303,-5002.610982,3533.564929,741.921454,363.662882,-24648.877936,-13082.833658,0.002000,-0.014000,0.998000,192.000000,0.000000,0.000000,0.000000,0.000000,0.000000,0.000000,0.000000,0.000000,0.000000,1770886371.598022,0.000000
18.000000,-16672.188541,-9898.961770,834.055344,-20263.733895,6528.877500,1389.496194,-7563.696213,652.939159,3350.191218,-12179.040871,-4867.740556,3652.811486,874.623761,484.652875,-24488.951205,-12952.299470,0.003000,-0.015000,1.001000,192.000000,0.000000,16.000000,127.500000,64.000000,15.500000,48.000000,0.000000,0.000000,0.000000,1770886371.598044,0.000000
20.000000,-16824.001589,-10040.761237,711.344267,-20407.097984,6410.972048,1322.530368,-7687.502526,531.435076,3313.847281,-12270.124229,-4942.082458,3583.945761,808.037914,416.211834,-24578.693459,-13025.367323,0.003000,-0.015000,1.001000,192.000000,0.000000,0.000000,0.000000,0.000000,0.000000,0.000000,0.000000,0.000000,0.000000,1770886371.598060,0.000000
22.000000,-16671.942672,-9898.782956,828.892091,-20272.965166,6528.363410,1400.113273,-7569.373556,646.725374,3318.161168,-12268.984290,-4952.677185,3580.123613,791.184698,398.106920,-24582.582662,-13029.480044,0.003000,-0.015000,1.001000,192.000000,0.000000,0.000000,0.000000,0.000000,0.000000,0.000000,0.000000,0.000000,0.000000,1770886371.598077,0.000000
24.000000,-16760.634394,-9980.098603,760.473402,-20347.754103,6452.590996,1340.255301,-7639.714496,583.447586,3363.490506,-12171.642443,-4857.011718,3661.975701,879.250572,484.854041,-24486.134885,-12945.504540,0.003000,-0.015000,1.001000,192.000000,0.000000,0.000000,0.000000,0.000000,0.000000,0.000000,0.000000,0.000000,0.000000,1770886371.598097,0.000000
26.000000,-16769.083353,-9989.151059,750.415117,-20354.392571,6444.365554,1344.658595,-7644.609528,570.908257,3297.575211,-12324.349561,-4998.364150,3537.968223,734.433619,371.821269,-24646.978038,-13077.245721,0.003000,-0.015000,1.001000,192.000000,0.000000,0.000000,0.000000,0.000000,0.000000,0.000000,0.000000,0.000000,0.000000,1770886371.598129,0.000000
28.000000,-16674.647233,-9893.329131,828.981498,-20262.705715,6529.235128,1395.821738,-7566.780754,650.212246,3355.913264,-12171.620091,-4867.852314,3655.225474,876.367197,479.690788,-24493.220388,-12948.834950,0.002500,-0.015500,1.002500,192.000000,0.000000,8.000000,127.500000,64.000000,15.500000,48.000000,0.000000,0.000000,0.000000,1770886371.598146,0.000000
30.000000,-16816.938438,-10040.604775,711.165453,-20406.114507,6404.802967,1316.450693,-7686.407290,531.010393,3311.366238,-12263.374002,-4947.670394,3585.331569,790.491794,412.993182,-24583.364973,-13022.282782,0.002500,-0.015500,1.002500,192.000000,0.000000,0.000000,0.000000,0.000000,0.000000,0.000000,0.000000,0.000000,0.000000,1770886371.598163,0.000000
32.000000,-16667.427619,-9894.312608,835.016469,-20267.332526,6525.033000,1397.721636,-7563.539751,648.513514,3323.950270,-12268.716069,-4950.866693,3579.698930,801.086521,403.404284,-24584.147285,-13035.515015,0.002500,-0.015500,1.002500,192.000000,0.000000,0.000000,0.000000,0.000000,0.000000,0.000000,0.000000,0.000000,0.000000,1770886371.598179,0.000000
34.000000,-16751.000792,-9971.895513,767.760070,-20348.737579,6464.035089,1356.929702,-7636.853473,587.917934,3370.441898,-12163.171132,-4847.489875,3666.222533,885.285543,504.277707,-24484.793780,-12936.139159,0.002500,-0.015500,1.002500,192.000000,0.000000,0.000000,0.000000,0.000000,0.000000,0.000000,0.000000,0.000000,0.000000,1770886371.598196,0.000000
36.000000,-16763.316603,-9985.574780,753.432602,-20351.173920,6450.713450,1341.886978,-7640.563862,571.824678,3307.253517,-12315.252401,-4987.925886,3537.141208,755.913646,371.396586,-24636.249201,-13076.463410,0.002500,-0.015500,1.002500,192.000000,0.000000,0.000000,0.000000,0.000000,0.000000,0.000000,0.000000,0.000000,0.000000,1770886371.598214,0.000000
38.000000,-16672.009727,-9890.043424,831.551949,-20257.050724,6535.381858,1391.798424,-7562.332757,649.608749,3360.361261,-12168.200274,-4869.819268,3651.090402,869.818135,498.443901,-24487.833618,-12937.770836,0.002250,-0.013750,1.004250,192.000000,0.000000,8.000000,127.500000,80.000000,15.500000,56.000000,0.000000,0.000000,0.000000,1770886371.598229,0.000000
40.000000,-16823.353389,-10041.409438,714.071180,-20401.107717,6408.356894,1315.131940,-7685.870848,526.651803,3318.228223,-12263.910444,-4946.172827,3579.229543,816.777446,412.769665,-24576.033601,-13014.213802,0.002250,-0.013750,1.004250,192.000000,0.000000,0.000000,0.000000,0.000000,0.000000,0.000000,0.000000,0.000000,0.000000,1770886371.598247,0.000000
42.000000,-16678.648195,-9903.856802,826.634565,-20268.181892,6533.101980,1386.769281,-7569.887646,637.695269,3323.927918,-12266.167970,-4956.700499,3575.340340,805.020428,413.753142,-24581.733296,-13023.825052,0.002250,-0.013750,1.004250,192.000000,0.000000,0.000000,0.000000,0.000000,0.000000,0.000000,0.000000,0.000000,0.000000,1770886371.598264,0.000000
44.000000,-16763.182493,-9990.313350,759.154649,-20352.202100,6446.757191,1338.042478,-7639.379220,574.529239,3359.020157,-12172.782382,-4865.326567,3653.347928,867.202981,497.639239,-24483.318565,-12936.876766,0.002250,-0.013750,1.004250,192.000000,0.000000,0.000000,0.000000,0.000000,0.000000,0.000000,0.000000,0.000000,0.000000,1770886371.598281,0.000000
46.000000,-16779.879246,-9997.287094,746.011823,-20368.518873,6436.698906,1326.687792,-7643.514293,564.403899,3288.343941,-12332.463244,-5005.159081,3526.904109,746.145933,363.104089,-24647.067445,-13083.347748,0.002250,-0.013750,1.004250,192.000000,0.000000,0.000000,0.000000,0.000000,0.000000,0.000000,0.000000,0.000000,0.000000,1770886371.598298,0.000000
48.000000,-16673.172018,-9893.843221,829.584995,-20264.493855,6520.003858,1369.670197,-7560.835190,652.514476,3346.525532,-12179.398498,-4874.624893,3649.481076,854.395432,491.492509,-24499.791801,-12956.948633,0.003125,-0.013875,1.004125,192.000000,0.000000,16.000000,127.500000,72.000000,15.500000,48.000000,0.000000,0.000000,0.000000,1770886371.598315,0.000000
50.000000,-16821.855822,-10049.143141,711.523081,-20406.606246,6392.263638,1307.778216,-7681.467555,534.273748,3311.232127,-12267.643186,-4945.815199,3585.711549,784.948562,425.398400,-24591.836285,-13031.312887,0.003125,-0.013875,1.004125,192.000000,0.000000,0.000000,0.000000,0.000000,0.000000,0.000000,0.000000,0.000000,0.000000,1770886371.598335,0.000000
52.000000,-16677.798829,-9894.178497,826.232234,-20265.298517,6514.393570,1389.630305,-7563.651510,645.138400,3325.693706,-12268.023165,-4951.246673,3580.213020,794.828033,414.557804,-24588.371764,-13035.671477,0.003125,-0.013875,1.004125,192.000000,0.000000,0.000000,0.000000,0.000000,0.000000,0.000000,0.000000,0.000000,0.000000,1770886371.598352,0.000000
54.000000,-16751.090199,-9973.035452,760.026367,-20339.439254,6441.973918,1347.005528,-7636.093513,584.386359,3357.075555,-12154.766876,-4863.516076,3666.781326,867.068871,519.365134,-24489.286481,-12944.677525,0.003125,-0.013875,1.004125,192.000000,0.000000,0.000000,0.000000,0.000000,0.000000,0.000000,0.000000,0.000000,0.000000,1770886371.598369,0.000000
56.000000,-16759.047420,-9978.198705,751.309186,-20348.961097,6440.342240,1345.910292,-7643.313127,573.501059,3297.284639,-12304.076529,-5000.241697,3547.288900,738.725154,393.904793,-24647.939163,-13074.071774,0.003125,-0.013875,1.004125,192.000000,0.000000,0.000000,0.000000,0.000000,0.000000,0.000000,0.000000,0.000000,0.000000,1770886371.598388,0.000000
58.000000,-16657.235224,-9879.627511,833.988289,-20257.654221,6540.790980,1395.352351,-7566.646643,651.799220,3369.771346,-12156.532664,-4868.276998,3663.853248,872.410938,510.826768,-24485.643147,-12942.062371,0.004563,-0.012938,1.003062,192.000000,0.000000,24.000000,127.500000,80.000000,15.500000,40.000000,0.000000,0.000000,0.000000,1770886372.078014,0.000000
60.000000,-16810.836412,-10033.452217,712.707724,-20407.299150,6415.040066,1317.590632,-7689.625941,526.316527,3330.074648,-12254.857988,-4944.474094,3585.309218,799.544251,426.560691,-24574.066648,-13014.929058,0.004563,-0.012938,1.003062,192.000000,0.000000,0.000000,0.000000,0.000000,0.000000,0.000000,0.000000,0.000000,0.000000,1770886372.078079,0.000000
62.000000,-16668.388744,-9890.535163,828.847388,-20272.764000,6542.065029,1392.513680,-7574.313292,637.851732,3332.354526,-12268.581959,-4956.611092,3575.250933,787.854289,412.076761,-24581.174503,-13025.322619,0.004563,-0.012938,1.003062,192.000000,0.000000,0.000000,0.000000,0.000000,0.000000,0.000000,0.000000,0.000000,0.000000,1770886372.078128,0.000000
64.000000,-16751.112551,-9971.292015,762.708576,-20348.826986,6470.718261,1343.205731,-7645.213025,578.038463,3371.067747,-12166.948577,-4857.101125,3656.231303,878.714130,507.652820,-24476.747152,-12933.680467,0.004563,-0.012938,1.003062,192.000000,0.000000,0.000000,0.000000,0.000000,0.000000,0.000000,0.000000,0.000000,0.000000,1770886372.078171,0.000000
66.000000,-16755.515844,-9977.908132,752.046794,-20362.305088,6457.396621,1343.608063,-7645.570653,571.914085,3306.895889,-12321.175614,-4994.609057,3531.083886,738.993375,367.306217,-24638.216154,-13073.133001,0.004563,-0.012938,1.003062,192.000000,0.000000,0.000000,0.000000,0.000000,0.000000,0.000000,0.000000,0.000000,0.000000,1770886372.078216,0.000000
68.000000,-16660.364468,-9882.846163,831.104914,-20262.102218,6539.069896,1380.756662,-7563.472696,656.291921,3366.038605,-12175.062260,-4863.046689,3652.878541,866.152449,503.651858,-24488.280653,-12949.192578,0.004281,-0.011469,1.006531,192.000000,0.000000,16.000000,127.500000,88.000000,15.500000,72.000000,0.000000,0.000000,0.000000,1770886372.078259,0.000000
70.000000,-16806.164897,-10028.691295,710.539604,-20406.986225,6403.886545,1305.565394,-7683.367453,539.615815,3324.062028,-12254.567415,-4939.444952,3591.880630,777.237210,416.949441,-24579.676936,-13026.976648,0.004281,-0.011469,1.006531,192.000000,0.000000,0.000000,0.000000,0.000000,0.000000,0.000000,0.000000,0.000000,0.000000,1770886372.078303,0.000000
72.000000,-16665.080686,-9882.555590,824.555853,-20270.707640,6516.360523,1368.619665,-7565.082021,655.084926,3325.783113,-12261.697622,-4946.105772,3584.661017,782.400463,422.135046,-24591.836285,-13046.735590,0.004281,-0.011469,1.006531,192.000000,0.000000,0.000000,0.000000,0.000000,0.000000,0.000000,0.000000,0.000000,0.000000,1770886372.078319,0.000000
74.000000,-16745.323449,-9962.686594,764.831992,-20346.457701,6442.309194,1325.816074,-7632.159606,593.461167,3360.137744,-12163.506408,-4846.305233,3666.982492,863.202019,493.191241,-24488.571225,-12950.868958,0.004281,-0.011469,1.006531,192.000000,0.000000,0.000000,0.000000,0.000000,0.000000,0.000000,0.000000,0.000000,0.000000,1770886372.078335,0.000000
76.000000,-16756.767542,-9981.171487,754.952521,-20361.992164,6442.599767,1334.265034,-7640.608566,575.065681,3307.834662,-12320.326247,-4983.991979,3538.325851,743.039041,368.647321,-24644.541698,-13086.029957,0.004281,-0.011469,1.006531,192.000000,0.000000,0.000000,0.000000,0.000000,0.000000,0.000000,0.000000,0.000000,0.000000,1770886372.078351,0.000000
78.000000,-16658.062238,-9886.154221,834.100048,-20257.654221,6534.353678,1383.863554,-7562.757440,655.755479,3364.809259,-12173.452934,-4861.415012,3654.621977,858.597560,495.493471,-24490.672289,-12950.511330,0.005141,-0.011734,1.007266,192.000000,0.000000,24.000000,127.500000,80.000000,15.500000,64.000000,0.000000,0.000000,0.000000,1770886372.078370,0.000000
80.000000,-16802.789784,-10025.562051,708.058561,-20398.201990,6412.581374,1316.741266,-7684.373282,538.230006,3323.950270,-12254.857988,-4933.767609,3590.003084,790.692960,432.640366,-24578.715811,-13019.935849,0.005141,-0.011734,1.007266,192.000000,0.000000,0.000000,0.000000,0.000000,0.000000,0.000000,0.000000,0.000000,0.000000,1770886372.078388,0.000000
82.000000,-16666.220625,-9886.288331,820.934870,-20258.794160,6533.616070,1397.542822,-7568.323024,646.300691,3327.057162,-12255.372078,-4950.039679,3585.331569,777.393672,432.193331,-24585.890721,-13024.786177,0.005141,-0.011734,1.007266,192.000000,0.000000,0.000000,0.000000,0.000000,0.000000,0.000000,0.000000,0.000000,0.000000,1770886372.078413,0.000000
84.000000,-16762.288423,-9978.668091,751.666814,-20344.535451,6466.382023,1350.157124,-7643.491941,573.098728,3353.566331,-12165.294548,-4866.175934,3659.896989,861.659749,507.988096,-24479.742286,-12935.513310,0.005141,-0.011734,1.007266,192.000000,0.000000,0.000000,0.000000,0.000000,0.000000,0.000000,0.000000,0.000000,0.000000,1770886372.078430,0.000000
86.000000,-16771.117362,-9986.982940,742.860227,-20360.472245,6451.808685,1343.116324,-7649.884540,561.162896,3291.920220,-12324.260154,-5009.920002,3529.943947,742.726117,385.388778,-24637.925582,-13073.110649,0.005141,-0.011734,1.007266,192.000000,0.000000,0.000000,0.000000,0.000000,0.000000,0.000000,0.000000,0.000000,0.000000,1770886372.078448,0.000000
88.000000,-16662.733753,-9880.745099,826.455751,-20260.582299,6536.834721,1398.794520,-7567.563065,653.050918,3354.438049,-12174.257597,-4873.887285,3651.760954,850.081545,495.046436,-24491.096972,-12948.834950,0.005141,-0.011734,1.007266,192.000000,0.000000,0.000000,0.000000,0.000000,0.000000,0.000000,0.000000,0.000000,0.000000,1770886372.078465,0.000000
90.000000,-16809.383548,-10024.176243,708.103264,-20404.706348,6402.053702,1328.677097,-7687.413119,532.999698,3321.648040,-12250.857025,-4937.142722,3587.589096,786.960219,434.361450,-24582.493255,-13018.907668,0.006000,-0.012000,1.008000,192.000000,0.000000,24.000000,127.500000,80.000000,15.500000,64.000000,0.000000,0.000000,0.000000,1770886372.078482,0.000000
92.000000,-16663.583119,-9881.885038,819.839635,-20267.243119,6518.819215,1393.631267,-7566.579588,647.060650,3323.324421,-12260.334165,-4951.492542,3580.056558,779.315922,415.228357,-24587.880026,-13028.094235,0.006000,-0.012000,1.008000,192.000000,0.000000,0.000000,0.000000,0.000000,0.000000,0.000000,0.000000,0.000000,0.000000,1770886372.078499,0.000000
94.000000,-16748.050362,-9965.324100,757.254750,-20340.668600,6449.729973,1335.740249,-7632.427827,589.706074,3357.611997,-12160.086591,-4858.710451,3667.675396,848.181647,517.912271,-24491.544007,-12943.314069,0.006000,-0.012000,1.008000,192.000000,0.000000,0.000000,0.000000,0.000000,0.000000,0.000000,0.000000,0.000000,0.000000,1770886372.078516,0.000000
96.000000,-16749.235004,-9968.878027,750.035137,-20354.884309,6445.505493,1332.767467,-7638.619261,581.346522,3299.206889,-12314.470090,-4993.022083,3543.489104,731.974927,385.008798,-24644.698160,-13081.425498,0.006000,-0.012000,1.008000,192.000000,0.000000,0.000000,0.000000,0.000000,0.000000,0.000000,0.000000,0.000000,0.000000,1770886372.078537,0.000000
98.000000,-16648.182767,-9867.714032,834.681193,-20262.571605,6533.079628,1386.545764,-7558.890588,666.305502,3370.777174,-12164.266367,-4852.966053,3661.439259,863.537295,495.873451,-24491.633414,-12956.166322,0.006000,-0.012000,1.008000,192.000000,0.000000,0.000000,0.000000,0.000000,0.000000,0.000000,0.000000,0.000000,0.000000,1770886372.078554,0.000000
100.000000,-16798.140621,-10015.436711,711.657192,-20406.382728,6401.383150,1311.667420,-7679.679415,545.114344,3334.924976,-12251.549930,-4923.843434,3592.081796,794.559812,431.366316,-24584.549616,-13030.307058,0.004000,-0.006000,1.006000,192.000000,0.000000,16.000000,127.500000,104.000000,15.500000,56.000000,0.000000,0.000000,0.000000,1770886372.078571,0.000000
102.000000,-16662.331422,-9886.154221,824.578205,-20272.160503,6520.629706,1378.968522,-7565.707870,652.358014,3334.366183,-12264.268072,-4940.160208,3580.369482,777.818355,414.446046,-24586.740087,-13037.124340,0.004000,-0.006000,1.006000,192.000000,0.000000,0.000000,0.000000,0.000000,0.000000,0.000000,0.000000,0.000000,0.000000,1770886372.078588,0.000000
104.000000,-16742.887109,-9962.016042,760.607512,-20346.412998,6444.924348,1335.114400,-7636.428790,592.075359,3362.417622,-12164.623995,-4846.908730,3663.205047,857.882304,507.406951,-24487.386583,-12946.264499,0.004000,-0.006000,1.006000,192.000000,0.000000,0.000000,0.000000,0.000000,0.000000,0.000000,0.000000,0.000000,0.000000,1770886372.078606,0.000000
106.000000,-16756.476969,-9976.008234,750.862151,-20358.102960,6442.666822,1331.359307,-7643.581348,578.418443,3299.162185,-12313.911297,-4986.517726,3541.946833,736.512332,389.792072,-24643.133538,-13079.883227,0.004000,-0.006000,1.006000,192.000000,0.000000,0.000000,0.000000,0.000000,0.000000,0.000000,0.000000,0.000000,0.000000,1770886372.078623,0.000000
108.000000,-16656.788189,-9869.457468,833.071868,-20259.352953,6530.151550,1392.312514,-7562.399812,662.304540,3359.735413,-12164.601644,-4860.364480,3663.406213,851.422650,491.268991,-24489.688812,-12950.623089,0.004000,-0.006000,1.006000,192.000000,0.000000,0.000000,0.000000,0.000000,0.000000,0.000000,0.000000,0.000000,0.000000,1770886372.078641,0.000000
110.000000,-16801.716900,-10020.957592,706.985677,-20402.180600,6401.181984,1312.717952,-7683.479212,543.683832,3322.922089,-12249.359459,-4933.745257,3599.256706,772.208067,436.373107,-24581.263909,-13022.014561,0.002000,-0.008000,1.006000,192.000000,0.000000,8.000000,127.500000,96.000000,15.500000,56.000000,0.000000,0.000000,0.000000,1770886372.078657,0.000000
112.000000,-16648.339230,-9876.252398,824.846426,-20270.238253,6524.943593,1393.228935,-7564.433821,660.471697,3331.035773,-12253.650994,-4941.657775,3589.868973,783.115719,427.879444,-24589.802276,-13034.442131,0.002000,-0.008000,1.006000,192.000000,0.000000,0.000000,0.000000,0.000000,0.000000,0.000000,0.000000,0.000000,0.000000,1770886372.078675,0.000000
114.000000,-16736.449806,-9956.025774,763.423832,-20342.322629,6462.828095,1345.329147,-7631.444351,600.278449,3372.855887,-12154.275138,-4839.510302,3669.709405,867.962941,526.517692,-24485.956071,-12942.665868,0.002000,-0.008000,1.006000,192.000000,0.000000,0.000000,0.000000,0.000000,0.000000,0.000000,0.000000,0.000000,0.000000,1770886372.078698,0.000000
116.000000,-16741.188376,-9965.502914,750.929207,-20356.784207,6446.019583,1340.054135,-7640.966194,581.860612,3311.477996,-12303.517735,-4979.856906,3547.132438,740.133314,391.870784,-24639.937239,-13076.642224,0.002000,-0.008000,1.006000,192.000000,0.000000,0.000000,0.000000,0.000000,0.000000,0.000000,0.000000,0.000000,0.000000,1770886372.078719,0.000000
118.000000,-16639.912622,-9863.534255,836.648147,-20254.681439,6528.922204,1398.883927,-7559.024699,666.439613,3377.102718,-12161.405344,-4853.927178,3662.579198,862.464412,505.171776,-24492.236911,-12950.779551,0.002000,-0.008000,1.006000,192.000000,0.000000,0.000000,0.000000,0.000000,0.000000,0.000000,0.000000,0.000000,0.000000,1770886372.078736,0.000000
120.000000,-16796.106612,-10013.849737,714.451160,-20399.118411,6407.820452,1315.713086,-7682.495735,540.174608,3340.669375,-12241.335182,-4926.503292,3600.083721,793.330466,445.000880,-24578.246424,-13016.158404,0.002000,-0.008000,1.006000,192.000000,0.000000,0.000000,127.500000,88.000000,15.500000,56.000000,0.000000,0.000000,0.000000,1770886372.078754,0.000000
122.000000,-16655.514140,-9874.330148,821.694830,-20266.572567,6526.061180,1391.552555,-7569.462963,648.915845,3337.584834,-12251.125246,-4942.171865,3584.973941,776.164326,430.986337,-24587.477694,-13028.451863,0.002000,-0.008000,1.006000,192.000000,0.000000,0.000000,0.000000,0.000000,0.000000,0.000000,0.000000,0.000000,0.000000,1770886372.078770,0.000000
124.000000,-16738.260298,-9960.004385,761.613341,-20336.824100,6455.452020,1335.740249,-7633.500711,592.745911,3371.492430,-12154.878635,-4849.479181,3669.150611,868.275865,519.700410,-24483.944414,-12936.765008,0.002000,-0.008000,1.006000,192.000000,0.000000,0.000000,0.000000,0.000000,0.000000,0.000000,0.000000,0.000000,0.000000,1770886372.078788,0.000000
126.000000,-16750.196129,-9966.151114,749.699861,-20354.124350,6452.166313,1341.976385,-7638.865130,577.971408,3305.800653,-12308.770395,-4987.992941,3546.908921,744.938939,393.860089,-24639.266686,-13070.204922,0.002000,-0.008000,1.006000,192.000000,0.000000,0.000000,0.000000,0.000000,0.000000,0.000000,0.000000,0.000000,0.000000,1770886372.078805,0.000000
128.000000,-16651.446122,-9872.363195,834.971766,-20260.425837,6544.344907,1392.513680,-7560.589321,659.801145,3363.892837,-12164.981623,-4865.058346,3662.288626,858.284635,504.992962,-24485.196112,-12944.208138,0.002000,-0.008000,1.006000,192.000000,0.000000,0.000000,0.000000,0.000000,0.000000,0.000000,0.000000,0.000000,0.000000,1770886372.078822,0.000000
130.000000,-16806.455470,-10026.679638,711.858357,-20407.343853,6417.252888,1318.015315,-7687.167250,534.385506,3319.099941,-12249.448866,-4937.522702,3591.858279,784.702693,444.486790,-24570.535072,-13016.784253,0.002000,-0.008000,1.006000,192.000000,0.000000,0.000000,127.500000,72.000000,15.500000,56.000000,0.000000,0.000000,0.000000,1770886372.078841,0.000000
132.000000,-16659.515102,-9883.136735,827.841559,-20270.528826,6532.163207,1383.170650,-7568.859466,649.184066,3324.173787,-12259.328337,-4949.637347,3579.408357,790.692960,431.120447,-24582.403848,-13035.380904,0.002000,-0.008000,1.006000,192.000000,0.000000,0.000000,0.000000,0.000000,0.000000,0.000000,0.000000,0.000000,0.000000,1770886372.078856,0.000000
134.000000,-16741.210728,-9955.779905,763.177963,-20339.863937,6465.532656,1338.288348,-7634.908871,593.684684,3366.105660,-12153.179902,-4849.970919,3669.284722,868.700548,509.150387,-24477.305946,-12941.145950,0.002000,-0.008000,1.006000,192.000000,0.000000,0.000000,0.000000,0.000000,0.000000,0.000000,0.000000,0.000000,0.000000,1770886372.078872,0.000000
136.000000,-16744.228213,-9963.625367,752.650291,-20352.425617,6455.072040,1350.537103,-7642.642575,582.352350,3316.976525,-12309.552706,-4979.164002,3546.819514,745.520085,395.670580,-24640.496032,-13071.657785,0.002000,-0.008000,1.006000,192.000000,0.000000,0.000000,0.000000,0.000000,0.000000,0.000000,0.000000,0.000000,0.000000,1770886372.078887,0.000000
138.000000,-16641.656058,-9863.668366,837.564568,-20250.300497,6541.617995,1404.315401,-7559.136457,670.194706,3380.120204,-12155.191559,-4843.734782,3669.351777,870.868667,519.163968,-24489.889978,-12939.603679,0.002000,-0.008000,1.006000,192.000000,0.000000,0.000000,0.000000,0.000000,0.000000,0.000000,0.000000,0.000000,0.000000,1770886372.078903,0.000000
140.000000,-16798.855877,-10018.498900,714.786436,-20397.866714,6418.795159,1319.959917,-7683.166287,542.119210,3336.891930,-12243.793874,-4918.724885,3602.005971,811.837710,454.679186,-24571.764418,-13008.000017,-0.004000,-0.014000,1.000000,192.000000,127.500000,112.000000,127.500000,72.000000,15.500000,32.000000,0.000000,0.000000,0.000000,1770886372.078920,0.000000
142.000000,-16658.241052,-9879.001663,824.377039,-20265.052648,6542.065029,1390.300857,-7571.429917,649.184066,3337.942462,-12252.958089,-4940.271966,3588.684331,800.103045,436.283700,-24581.308613,-13028.407160,-0.004000,-0.014000,1.000000,192.000000,0.000000,0.000000,0.000000,0.000000,0.000000,0.000000,0.000000,0.000000,0.000000,1770886372.078935,0.000000
144.000000,-16739.668457,-9960.004385,760.540457,-20343.954306,6468.438383,1335.673193,-7637.814598,590.846013,3363.378747,-12152.710516,-4854.977710,3671.296379,870.019301,513.084294,-24476.948318,-12937.480263,-0.004000,-0.014000,1.000000,192.000000,0.000000,0.000000,0.000000,0.000000,0.000000,0.000000,0.000000,0.000000,0.000000,1770886372.078952,0.000000
146.000000,-16753.079504,-9977.818725,746.883541,-20357.879443,6453.730935,1332.566301,-7645.190673,576.227972,3307.901717,-12304.232991,-4985.735415,3552.474505,751.152724,412.367333,-24638.037340,-13074.183532,-0.004000,-0.014000,1.000000,192.000000,0.000000,0.000000,0.000000,0.000000,0.000000,0.000000,0.000000,0.000000,0.000000,1770886372.078988,0.000000
148.000000,-16649.166244,-9880.275712,832.557777,-20261.588128,6540.187483,1383.036540,-7564.724393,661.946912,3363.781078,-12172.715327,-4857.078774,3660.679300,864.207848,509.150387,-24486.403106,-12947.247976,-0.004000,-0.014000,1.000000,192.000000,0.000000,0.000000,0.000000,0.000000,0.000000,0.000000,0.000000,0.000000,0.000000,1770886372.079006,0.000000
150.000000,-16802.901543,-10030.010048,710.629011,-20409.556676,6419.018676,1306.504167,-7688.620113,538.520579,3327.727715,-12258.367212,-4928.917280,3593.802881,798.538422,453.047508,-24572.122046,-13016.896011,-0.002000,-0.010000,1.012000,192.000000,127.500000,120.000000,127.500000,88.000000,15.500000,80.000000,0.000000,0.000000,0.000000,1770886372.079024,0.000000
152.000000,-16654.418904,-9881.102727,824.622908,-20277.279052,6528.966907,1384.042368,-7570.826420,654.302615,3330.879310,-12266.592654,-4940.316670,3583.655189,793.889260,434.339098,-24582.403848,-13033.011619,-0.002000,-0.010000,1.012000,192.000000,0.000000,0.000000,0.000000,0.000000,0.000000,0.000000,0.000000,0.000000,0.000000,1770886372.079041,0.000000
154.000000,-16732.672361,-9952.538902,761.434527,-20348.201138,6456.033165,1333.549778,-7634.528891,597.216260,3375.739262,-12162.254710,-4841.410201,3666.803678,873.126194,514.738323,-24479.854045,-12942.799979,-0.002000,-0.010000,1.012000,192.000000,0.000000,0.000000,0.000000,0.000000,0.000000,0.000000,0.000000,0.000000,0.000000,1770886372.079059,0.000000
156.000000,-16750.240833,-9971.224960,745.363622,-20367.490693,6437.928252,1317.456522,-7642.955499,578.843126,3309.891022,-12317.040541,-4981.421528,3543.645566,741.407364,381.007836,-24643.826442,-13081.693719,-0.002000,-0.010000,1.012000,192.000000,0.000000,0.000000,0.000000,0.000000,0.000000,0.000000,0.000000,0.000000,0.000000,1770886372.079076,0.000000
158.000000,-16648.786265,-9872.944340,834.524731,-20266.684326,6536.141817,1383.483575,-7557.124800,666.171392,3361.814125,-12173.944673,-4855.603558,3653.772611,859.893961,496.186375,-24493.756830,-12961.486037,-0.002000,-0.010000,1.012000,192.000000,0.000000,0.000000,0.000000,0.000000,0.000000,0.000000,0.000000,0.000000,0.000000,1770886372.079092,0.000000
160.000000,-16799.638188,-10020.801129,712.394799,-20401.934731,6401.919592,1297.608173,-7680.126450,545.784896,3328.755895,-12254.388601,-4924.089304,3596.395683,792.458748,444.129162,-24581.219206,-13021.500471,0.000000,-0.010000,1.012000,192.000000,0.000000,8.000000,127.500000,88.000000,15.500000,80.000000,0.000000,0.000000,0.000000,1770886372.079110,0.000000
162.000000,-16659.626861,-9881.393299,825.852254,-20270.864102,6526.061180,1380.935476,-7564.657338,654.660243,3328.130046,-12263.016374,-4940.942519,3589.354883,792.794024,438.138895,-24589.288186,-13037.034933,0.000000,-0.010000,1.012000,192.000000,0.000000,0.000000,0.000000,0.000000,0.000000,0.000000,0.000000,0.000000,0.000000,1770886372.079127,0.000000
164.000000,-16743.088274,-9966.620501,755.734832,-20344.557803,6467.365499,1336.366097,-7636.473493,589.393150,3361.881180,-12160.421867,-4852.988404,3667.518934,875.473127,515.721800,-24482.916234,-12939.827197,0.000000,-0.010000,1.012000,192.000000,0.000000,0.000000,0.000000,0.000000,0.000000,0.000000,0.000000,0.000000,0.000000,1770886372.079144,0.000000
166.000000,-16752.721876,-9970.599111,743.329614,-20358.348830,6466.270264,1329.705278,-7644.006031,573.903391,3298.826909,-12314.805366,-4996.978342,3545.187836,734.858302,387.802766,-24640.540736,-13075.502285,0.000000,-0.010000,1.012000,192.000000,0.000000,0.000000,0.000000,0.000000,0.000000,0.000000,0.000000,0.000000,0.000000,1770886372.079162,0.000000
168.000000,-16651.312012,-9875.134811,828.310946,-20263.443323,6535.784189,1379.549668,-7563.003309,658.638854,3369.033738,-12170.480152,-4867.315873,3665.194352,864.699586,500.321448,-24485.173760,-12952.344173,0.000000,-0.010000,1.012000,192.000000,0.000000,0.000000,0.000000,0.000000,0.000000,0.000000,0.000000,0.000000,0.000000,1770886372.079179,0.000000
170.000000,-16800.219333,-10025.316182,711.031343,-20404.907513,6411.061455,1309.409894,-7684.261523,539.012318,3333.807389,-12251.125246,-4932.180635,3600.307238,808.373190,451.974625,-24574.245462,-13019.667628,0.003000,-0.008000,1.008000,192.000000,0.000000,24.000000,127.500000,104.000000,15.500000,48.000000,0.000000,0.000000,0.000000,1770886372.079196,0.000000
172.000000,-16658.956308,-9881.169782,823.102990,-20266.237291,6534.465436,1376.241610,-7568.635949,650.726336,3336.087267,-12262.882264,-4942.440086,3586.136232,787.407254,433.579139,-24587.209474,-13029.368285,0.003000,-0.008000,1.008000,192.000000,0.000000,0.000000,0.000000,0.000000,0.000000,0.000000,0.000000,0.000000,0.000000,1770886372.079215,0.000000
174.000000,-16735.332219,-9962.865408,760.160477,-20340.758007,6459.922369,1334.890882,-7634.193615,595.137548,3376.789794,-12154.230434,-4840.426724,3672.458669,876.590714,526.607099,-24481.351612,-12936.541490,0.003000,-0.008000,1.008000,192.000000,0.000000,0.000000,0.000000,0.000000,0.000000,0.000000,0.000000,0.000000,0.000000,1770886372.079234,0.000000
176.000000,-16752.990097,-9972.588417,745.430678,-20353.543204,6445.952528,1329.749981,-7641.524987,578.664312,3307.186461,-12309.239782,-4983.902572,3549.144095,743.687242,384.897040,-24643.424111,-13075.546989,0.003000,-0.008000,1.008000,192.000000,0.000000,0.000000,0.000000,0.000000,0.000000,0.000000,0.000000,0.000000,0.000000,1770886372.079251,0.000000
178.000000,-16657.883425,-9866.462334,823.952356,-20247.953564,6538.533454,1387.216316,-7559.807010,660.538752,3362.507029,-12155.906815,-4862.912579,3672.905704,851.109725,520.706239,-24494.449734,-12948.522025,0.003000,-0.008000,1.008000,192.000000,0.000000,0.000000,0.000000,0.000000,0.000000,0.000000,0.000000,0.000000,0.000000,1770886372.557939,0.000000
180.000000,-16809.361197,-10021.717551,703.945840,-20399.565446,6404.110063,1314.595498,-7686.429642,534.787838,3321.603337,-12241.424589,-4939.959042,3606.386913,782.691036,449.717098,-24582.493255,-13017.767729,0.005500,-0.010000,1.006000,192.000000,0.000000,32.000000,127.500000,80.000000,15.500000,48.000000,0.000000,0.000000,0.000000,1770886372.558002,0.000000
182.000000,-16666.891178,-9881.661520,818.185606,-20271.489951,6529.525701,1379.460261,-7572.480449,644.378441,3319.457569,-12257.540197,-4954.934711,3590.807747,787.407254,439.100020,-24591.210436,-13034.285669,0.005500,-0.010000,1.006000,192.000000,0.000000,0.000000,0.000000,0.000000,0.000000,0.000000,0.000000,0.000000,0.000000,1770886372.558051,0.000000
184.000000,-16744.809359,-9962.038393,760.786326,-20345.764797,6469.265398,1345.172685,-7638.418095,587.113272,3361.948235,-12154.878635,-4855.424745,3671.788117,865.705414,525.489512,-24483.005641,-12940.967136,0.005500,-0.010000,1.006000,192.000000,0.000000,0.000000,0.000000,0.000000,0.000000,0.000000,0.000000,0.000000,0.000000,1770886372.558095,0.000000
186.000000,-16753.034801,-9976.298806,746.816486,-20359.511120,6459.542389,1342.848103,-7648.454028,574.551591,3306.784130,-12312.458433,-4989.021121,3544.226711,741.854398,384.226487,-24637.947933,-13074.787030,0.005500,-0.010000,1.006000,192.000000,0.000000,0.000000,0.000000,0.000000,0.000000,0.000000,0.000000,0.000000,0.000000,1770886372.558139,0.000000
188.000000,-16639.554994,-9857.946319,833.608309,-20251.462788,6549.731678,1397.118139,-7564.411469,665.612598,3377.192125,-12157.940824,-4853.413088,3668.345948,875.048444,517.353477,-24486.224292,-12945.057505,0.005500,-0.010000,1.006000,192.000000,0.000000,0.000000,0.000000,0.000000,0.000000,0.000000,0.000000,0.000000,0.000000,1770886372.558187,0.000000
190.000000,-16806.522525,-10023.617449,704.996372,-20400.414813,6417.677571,1317.210652,-7690.542363,538.989966,3327.660659,-12240.731685,-4929.811350,3602.095378,799.901879,459.864790,-24574.759552,-13016.784253,0.001750,-0.011000,1.007000,192.000000,127.500000,120.000000,127.500000,80.000000,15.500000,64.000000,0.000000,0.000000,0.000000,1770886372.558231,0.000000
192.000000,-16654.128331,-9876.922950,818.409123,-20265.812608,6534.197215,1388.468014,-7572.145173,653.430897,3319.882252,-12257.137866,-4950.576121,3589.198421,779.248867,434.316747,-24589.824628,-13030.687038,0.001750,-0.011000,1.007000,192.000000,0.000000,0.000000,0.000000,0.000000,0.000000,0.000000,0.000000,0.000000,0.000000,1770886372.558247,0.000000
194.000000,-16740.003734,-9964.005347,759.020538,-20344.356638,6462.269302,1338.333051,-7642.150836,593.885850,3359.802468,-12157.918472,-4849.099201,3669.955274,875.115499,515.565338,-24481.977461,-12935.110978,0.001750,-0.011000,1.007000,192.000000,0.000000,0.000000,0.000000,0.000000,0.000000,0.000000,0.000000,0.000000,0.000000,1770886372.558262,0.000000
196.000000,-16753.258318,-9973.817763,745.900064,-20364.137931,6453.775639,1331.851045,-7652.723211,578.351388,3303.319610,-12317.174651,-4983.902572,3544.472580,738.814561,389.322685,-24641.255992,-13079.235027,0.001750,-0.011000,1.007000,192.000000,0.000000,0.000000,0.000000,0.000000,0.000000,0.000000,0.000000,0.000000,0.000000,1770886372.558278,0.000000
198.000000,-16655.603547,-9877.146468,831.015507,-20262.728067,6530.062143,1375.794575,-7568.233617,659.354110,3362.596436,-12168.267330,-4860.029204,3661.975701,864.967807,522.650841,-24490.784048,-12954.668755,0.001750,-0.011000,1.007000,192.000000,0.000000,0.000000,0.000000,0.000000,0.000000,0.000000,0.000000,0.000000,0.000000,1770886372.558292,0.000000
200.000000,-16818.257191,-10039.330726,702.627087,-20411.724795,6397.449243,1287.214611,-7690.497660,532.999698,3315.322496,-12264.379831,-4935.041658,3588.550221,790.178870,431.008688,-24579.162846,-13026.283744,0.001750,-0.011000,1.007000,192.000000,0.000000,0.000000,127.500000,72.000000,15.500000,40.000000,0.000000,0.000000,0.000000,1770886372.558309,0.000000
202.000000,-16678.335271,-9899.319398,814.743437,-20276.317927,6516.405227,1359.053118,-7571.362862,648.714679,3302.738464,-12284.831677,-4959.874446,3575.385043,762.127431,405.259479,-24601.089907,-13046.400314,0.001750,-0.011000,1.007000,192.000000,0.000000,0.000000,0.000000,0.000000,0.000000,0.000000,0.000000,0.000000,0.000000,1770886372.558325,0.000000
204.000000,-16751.067847,-9972.990748,751.309186,-20349.519890,6452.501589,1328.095952,-7640.943842,588.141452,3343.396287,-12172.491809,-4856.184704,3666.311940,849.992138,502.757788,-24494.583844,-12950.936014,0.001750,-0.011000,1.007000,192.000000,0.000000,0.000000,0.000000,0.000000,0.000000,0.000000,0.000000,0.000000,0.000000,1770886372.558342,0.000000
206.000000,-16765.976461,-9985.798298,742.592006,-20365.680202,6447.360688,1330.152313,-7652.119714,568.114289,3287.025188,-12321.667352,-4995.905458,3537.632947,740.245073,378.571496,-24648.743826,-13085.806440,0.001750,-0.011000,1.007000,192.000000,0.000000,0.000000,0.000000,0.000000,0.000000,0.000000,0.000000,0.000000,0.000000,1770886372.558358,0.000000
208.000000,-16661.012669,-9893.195020,827.327469,-20261.521073,6540.276890,1377.359197,-7569.842943,652.067441,3358.707232,-12178.035042,-4863.583131,3655.247826,865.951284,501.215518,-24490.828751,-12951.763028,0.001750,-0.011000,1.007000,192.000000,0.000000,0.000000,0.000000,0.000000,0.000000,0.000000,0.000000,0.000000,0.000000,1770886372.558376,0.000000
210.000000,-16812.982179,-10043.085819,707.857395,-20412.484755,6413.877775,1300.491548,-7694.118642,530.272785,3320.083418,-12264.916273,-4933.924071,3588.147889,795.856213,445.134991,-24578.604052,-13020.874622,0.001750,-0.011000,1.007000,192.000000,0.000000,0.000000,127.500000,72.000000,15.500000,24.000000,0.000000,0.000000,0.000000,1770886372.558401,0.000000
212.000000,-16682.447992,-9904.460300,813.804664,-20275.088581,6534.778361,1365.825697,-7579.565952,633.426086,3310.427464,-12282.261226,-4955.962891,3572.032281,783.898030,416.457703,-24589.377593,-13039.717143,0.001750,-0.011000,1.007000,192.000000,0.000000,0.000000,0.000000,0.000000,0.000000,0.000000,0.000000,0.000000,0.000000,1770886372.558417,0.000000
214.000000,-16766.222330,-9981.618521,749.431640,-20344.401341,6464.795049,1330.062906,-7645.034211,571.355292,3343.396287,-12172.491809,-4871.518001,3659.561713,862.754984,517.174663,-24480.591652,-12941.145950,0.001750,-0.011000,1.007000,192.000000,0.000000,0.000000,0.000000,0.000000,0.000000,0.000000,0.000000,0.000000,0.000000,1770886372.558434,0.000000
216.000000,-16773.352536,-9986.647664,734.567730,-20361.276908,6454.982633,1341.305833,-7653.080839,556.647844,3280.543182,-12321.600297,-5014.591517,3539.219921,729.717401,382.505403,-24648.453253,-13072.529503,0.001750,-0.011000,1.007000,192.000000,0.000000,0.000000,0.000000,0.000000,0.000000,0.000000,0.000000,0.000000,0.000000,1770886372.558450,0.000000
218.000000,-16665.997108,-9878.219352,825.405219,-20259.732933,6540.701573,1386.791633,-7569.105335,644.803124,3348.783058,-12174.883446,-4880.861030,3651.783306,859.379871,512.033762,-24491.789876,-12947.918528,0.001750,-0.011000,1.007000,192.000000,0.000000,0.000000,0.000000,0.000000,0.000000,0.000000,0.000000,0.000000,0.000000,1770886372.558467,0.000000
220.000000,-16811.059929,-10032.781664,702.627087,-20409.444917,6409.049798,1304.581917,-7693.850421,524.997774,3318.071761,-12255.036802,-4940.853112,3592.864107,796.124434,439.904683,-24581.509779,-13012.291552,-0.000125,-0.011500,1.002500,192.000000,127.500000,120.000000,127.500000,80.000000,15.500000,24.000000,0.000000,0.000000,0.000000,1770886372.558485,0.000000
222.000000,-16664.812465,-9887.987064,817.202129,-20268.673631,6526.664677,1363.434060,-7575.609693,639.014022,3325.246671,-12268.269034,-4955.471153,3579.296598,788.994228,427.991203,-24590.294014,-13041.035895,-0.000125,-0.011500,1.002500,192.000000,0.000000,0.000000,0.000000,0.000000,0.000000,0.000000,0.000000,0.000000,0.000000,1770886372.558500,0.000000
224.000000,-16745.211690,-9969.481524,758.707614,-20346.792978,6457.530732,1328.833560,-7640.139179,584.609876,3361.478849,-12160.354812,-4854.351861,3670.379957,870.220467,513.374867,-24486.045478,-12951.427752,-0.000125,-0.011500,1.002500,192.000000,0.000000,0.000000,0.000000,0.000000,0.000000,0.000000,0.000000,0.000000,0.000000,1770886372.558517,0.000000
226.000000,-16762.444885,-9984.680710,740.446239,-20359.689934,6438.889377,1315.780141,-7651.739735,566.594370,3297.061121,-12315.990009,-4995.950162,3545.299595,738.993375,395.000028,-24649.146157,-13087.192248,-0.000125,-0.011500,1.002500,192.000000,0.000000,0.000000,0.000000,0.000000,0.000000,0.000000,0.000000,0.000000,0.000000,1770886372.558534,0.000000
228.000000,-16655.916471,-9873.257264,827.126304,-20262.683363,6526.508215,1370.474860,-7565.596111,656.582493,3357.723756,-12173.519990,-4868.925198,3660.478134,849.768621,501.595497,-24499.501228,-12961.083706,-0.000125,-0.011500,1.002500,192.000000,0.000000,0.000000,0.000000,0.000000,0.000000,0.000000,0.000000,0.000000,0.000000,1770886372.558549,0.000000
230.000000,-16808.757700,-10021.024647,702.604735,-20408.573199,6401.517260,1294.411873,-7689.201258,532.798533,3316.373028,-12253.248662,-4936.181597,3595.948648,782.400463,444.352680,-24587.254177,-13028.228346,-0.000125,-0.011500,1.002500,192.000000,0.000000,0.000000,0.000000,0.000000,0.000000,0.000000,0.000000,0.000000,0.000000,1770886372.558570,0.000000
232.000000,-16670.646271,-9892.278599,816.799798,-20275.557968,6517.321648,1366.540953,-7574.581513,643.953758,3316.060104,-12272.292348,-4953.325385,3578.335473,776.387844,421.106866,-24601.313424,-13042.980497,-0.002000,-0.012000,1.000000,192.000000,127.500000,120.000000,127.500000,80.000000,15.500000,32.000000,0.000000,0.000000,0.000000,1770886372.558591,0.000000
234.000000,-16748.855024,-9969.816800,760.607512,-20349.698704,6469.041880,1331.046382,-7639.558034,589.191984,3352.448744,-12168.759068,-4849.635643,3666.155477,863.067909,507.138730,-24488.258301,-12944.096380,-0.002000,-0.012000,1.000000,192.000000,0.000000,0.000000,0.000000,0.000000,0.000000,0.000000,0.000000,0.000000,0.000000,1770886372.558603,0.000000
236.000000,-16772.369060,-9989.508687,741.832047,-20369.927033,6448.925310,1314.707257,-7655.360717,566.393204,3290.646170,-12328.663448,-4989.892839,3535.889511,740.178018,367.037996,-24641.300695,-13085.158239,-0.002000,-0.012000,1.000000,192.000000,0.000000,0.000000,0.000000,0.000000,0.000000,0.000000,0.000000,0.000000,0.000000,1770886372.558615,0.000000
238.000000,-16669.483980,-9890.199887,827.036897,-20263.890357,6539.807503,1364.059909,-7570.669957,649.139362,3353.901607,-12181.700728,-4869.707509,3651.738602,857.234103,511.519672,-24494.829714,-12959.720249,-0.002000,-0.012000,1.000000,192.000000,0.000000,0.000000,0.000000,0.000000,0.000000,0.000000,0.000000,0.000000,0.000000,1770886372.558627,0.000000
240.000000,-16816.580810,-10041.029458,705.421055,-20411.322464,6412.000228,1286.924039,-7692.106985,527.367059,3308.438159,-12266.257377,-4941.680126,3587.857316,795.632696,441.983395,-24575.206587,-13029.927078,-0.002000,-0.012000,1.000000,192.000000,0.000000,0.000000,0.000000,0.000000,0.000000,0.000000,0.000000,0.000000,0.000000,1770886372.558640,0.000000
242.000000,-16665.751239,-9892.077433,814.162292,-20275.446209,6518.640401,1364.462240,-7575.788507,643.171447,3311.455645,-12275.533351,-4953.906531,3576.077947,781.327579,419.072857,-24595.390212,-13048.680192,-0.002000,-0.012000,1.000000,192.000000,0.000000,0.000000,127.500000,72.000000,15.500000,40.000000,0.000000,0.000000,0.000000,1770886372.558656,0.000000
244.000000,-16746.776312,-9967.089888,756.226570,-20350.346905,6446.868950,1315.646030,-7641.145008,582.195888,3353.543979,-12164.422830,-4854.329509,3663.540323,863.023205,512.391390,-24489.264129,-12949.818426,-0.002000,-0.012000,1.000000,192.000000,0.000000,0.000000,0.000000,0.000000,0.000000,0.000000,0.000000,0.000000,0.000000,1770886372.558668,0.000000
246.000000,-16770.133885,-9991.676806,737.294643,-20370.999917,6433.726124,1305.945373,-7654.153723,559.911199,3286.980484,-12324.416616,-4998.989999,3536.515359,737.518160,378.482089,-24656.499881,-13087.080489,-0.002000,-0.012000,1.000000,192.000000,0.000000,0.000000,0.000000,0.000000,0.000000,0.000000,0.000000,0.000000,0.000000,1770886372.558679,0.000000
248.000000,-16667.047640,-9890.579866,823.460617,-20268.181892,6516.025247,1358.919008,-7569.574722,646.233636,3348.358375,-12189.635597,-4874.379024,3645.055431,847.287577,486.888049,-24504.329205,-12965.241130,-0.002000,-0.012000,1.000000,192.000000,0.000000,0.000000,0.000000,0.000000,0.000000,0.000000,0.000000,0.000000,0.000000,1770886372.558691,0.000000
250.000000,-16824.672142,-10041.722362,699.184918,-20413.378824,6386.474536,1280.576143,-7693.783366,521.957937,3307.231165,-12268.157276,-4945.144647,3580.548296,782.936905,432.372145,-24592.640947,-13028.384808,-0.002000,-0.012000,1.000000,192.000000,0.000000,0.000000,0.000000,0.000000,0.000000,0.000000,0.000000,0.000000,0.000000,1770886372.558703,0.000000
252.000000,-16678.581140,-9899.989951,814.050533,-20274.999174,6507.486881,1356.102688,-7576.503763,640.109258,3307.074703,-12281.814192,-4961.304958,3568.567761,768.341216,420.525720,-24604.308558,-13049.417800,-0.002000,-0.012000,1.000000,192.000000,0.000000,0.000000,127.500000,72.000000,15.500000,56.000000,0.000000,0.000000,0.000000,1770886372.558726,0.000000
254.000000,-16745.166987,-9964.117105,754.773707,-20342.724960,6457.284863,1322.731533,-7644.184845,585.146318,3352.202875,-12165.562769,-4854.083640,3666.200181,866.890057,519.409838,-24490.247606,-12947.762066,-0.002000,-0.012000,1.000000,192.000000,0.000000,0.000000,0.000000,0.000000,0.000000,0.000000,0.000000,0.000000,0.000000,1770886372.558738,0.000000
0.000000,-16764.255376,-9989.419280,737.786381,-20361.567481,6446.287804,1319.423475,-7659.495790,559.575922,3296.949362,-12318.672218,-4991.770386,3543.869083,744.938939,387.579249,-24649.257916,-13077.491591,-0.002000,-0.012000,1.000000,192.000000,0.000000,0.000000,0.000000,0.000000,0.000000,0.000000,0.000000,0.000000,0.000000,1770886372.558750,0.000000
2.000000,-16670.154532,-9896.816003,823.862949,-20262.795122,6544.389611,1376.532182,-7577.397833,639.438705,3356.695575,-12182.997129,-4873.373195,3648.274082,860.519810,504.747093,-24494.852065,-12951.137179,-0.002000,-0.012000,1.000000,192.000000,0.000000,0.000000,0.000000,0.000000,0.000000,0.000000,0.000000,0.000000,0.000000,1770886372.558761,0.000000
4.000000,-16826.035598,-10048.651403,700.861299,-20412.797679,6423.421970,1293.830728,-7702.724064,511.676134,3315.255441,-12261.764677,-4944.496446,3580.525944,789.821242,450.320596,-24575.541863,-13016.448977,-0.002000,-0.012000,1.000000,192.000000,0.000000,0.000000,0.000000,0.000000,0.000000,0.000000,0.000000,0.000000,0.000000,1770886372.558773,0.000000
6.000000,-16690.896951,-9908.438910,812.932946,-20288.231407,6538.220529,1369.312569,-7583.164583,624.239519,3309.622801,-12283.669386,-4967.228170,3559.671767,782.869850,412.903775,-24588.595282,-13042.689925,0.002000,-0.014000,1.008000,192.000000,0.000000,8.000000,127.500000,72.000000,15.500000,64.000000,0.000000,0.000000,0.000000,1770886372.558785,0.000000
8.000000,-16771.452638,-9983.585475,749.990433,-20354.101998,6458.067174,1300.849176,-7647.425848,569.120117,3344.580930,-12179.912589,-4868.321701,3646.150666,867.784127,499.159157,-24480.949280,-12948.678487,0.002000,-0.014000,1.008000,192.000000,0.000000,0.000000,0.000000,0.000000,0.000000,0.000000,0.000000,0.000000,0.000000,1770886372.558797,0.000000
10.000000,-16782.673214,-10004.685522,731.214968,-20374.039754,6432.250909,1292.981362,-7659.987528,557.653672,3286.131118,-12333.402018,-5003.259182,3526.837054,731.863169,372.022435,-24652.655381,-13094.233047,0.002000,-0.014000,1.008000,192.000000,0.000000,0.000000,0.000000,0.000000,0.000000,0.000000,0.000000,0.000000,0.000000,1770886372.558808,0.000000
12.000000,-16666.242977,-9888.367044,818.900862,-20264.896186,6521.456721,1358.136697,-7569.820591,652.648586,3354.326290,-12187.400423,-4865.706547,3644.809561,856.071813,504.233003,-24510.006548,-12971.030232,0.002000,-0.014000,1.008000,192.000000,0.000000,0.000000,0.000000,0.000000,0.000000,0.000000,0.000000,0.000000,0.000000,1770886372.558820,0.000000
14.000000,-16817.564287,-10041.968231,698.246145,-20412.931790,6388.285028,1276.105794,-7694.006883,533.893768,3310.785092,-12268.604311,-4935.443990,3582.649360,772.252771,423.677316,-24598.072421,-13033.682172,0.002000,-0.014000,1.008000,192.000000,0.000000,0.000000,0.000000,0.000000,0.000000,0.000000,0.000000,0.000000,0.000000,1770886372.558832,0.000000
16.000000,-16683.207951,-9910.964657,816.553928,-20282.710526,6506.838680,1351.721746,-7578.671882,640.980976,3311.500348,-12284.071718,-4949.614996,3570.579418,777.192506,410.445083,-24607.795430,-13056.436247,0.008000,-0.010000,1.010000,192.000000,0.000000,32.000000,127.500000,88.000000,15.500000,72.000000,0.000000,0.000000,0.000000,1770886372.558845,0.000000
18.000000,-16753.794760,-9977.036414,757.902951,-20349.743408,6443.963223,1332.409839,-7640.697973,585.772167,3348.380726,-12174.682280,-4851.043803,3659.338195,861.995025,508.390428,-24496.841371,-12952.947671,0.008000,-0.010000,1.010000,192.000000,0.000000,0.000000,0.000000,0.000000,0.000000,0.000000,0.000000,0.000000,0.000000,1770886372.558864,0.000000
20.000000,-16774.984214,-9991.810917,736.959366,-20370.172902,6428.473464,1311.935641,-7658.221741,562.392242,3293.663656,-12322.606125,-4991.412758,3532.715563,733.584253,389.590906,-24654.018838,-13088.935684,0.008000,-0.010000,1.010000,192.000000,0.000000,0.000000,0.000000,0.000000,0.000000,0.000000,0.000000,0.000000,0.000000,1770886372.558879,0.000000
22.000000,-16658.710439,-9879.292235,823.237100,-20261.833997,6517.098131,1365.579827,-7571.832248,656.895418,3353.119296,-12175.553998,-4864.365442,3648.721117,841.118496,503.316582,-24506.162048,-12963.944729,0.008000,-0.010000,1.010000,192.000000,0.000000,0.000000,0.000000,0.000000,0.000000,0.000000,0.000000,0.000000,0.000000,1770886372.558891,0.000000
24.000000,-16817.452528,-10040.738885,702.694142,-20411.769499,6403.014827,1274.764690,-7695.035064,531.300966,3317.445912,-12257.719011,-4930.526606,3590.874802,781.037007,453.271026,-24588.349412,-13026.686076,0.008000,-0.010000,1.010000,192.000000,0.000000,0.000000,0.000000,0.000000,0.000000,0.000000,0.000000,0.000000,0.000000,1770886372.558907,0.000000
26.000000,-16681.151590,-9908.595372,816.285708,-20284.968053,6527.424637,1360.237761,-7580.951760,637.963490,3317.423560,-12287.178610,-4951.939577,3564.745613,781.461690,407.248784,-24593.825590,-13048.970765,0.004000,-0.016000,1.014000,192.000000,0.000000,16.000000,127.500000,64.000000,15.500000,88.000000,0.000000,0.000000,0.000000,1770886372.558924,0.000000
28.000000,-16762.243719,-9983.093737,755.578370,-20354.414923,6467.209037,1306.526519,-7647.492903,574.506888,3349.855942,-12181.544266,-4859.626872,3648.519951,864.364310,511.273803,-24482.871530,-12948.387915,0.004000,-0.016000,1.014000,192.000000,0.000000,0.000000,0.000000,0.000000,0.000000,0.000000,0.000000,0.000000,0.000000,1770886372.558941,0.000000
30.000000,-16785.422478,-10002.450347,736.512332,-20377.303109,6453.596825,1306.973554,-7659.205217,552.915103,3288.321589,-12338.408809,-5005.650819,3524.825397,736.378221,378.817365,-24645.189899,-13092.154335,0.004000,-0.016000,1.014000,192.000000,0.000000,0.000000,0.000000,0.000000,0.000000,0.000000,0.000000,0.000000,0.000000,1770886372.558956,0.000000
32.000000,-16677.307090,-9900.548744,823.795894,-20271.534654,6543.584948,1358.248455,-7573.173353,639.841037,3343.910377,-12196.899914,-4882.068024,3639.847474,844.828885,486.128090,-24498.763621,-12966.962214,0.004000,-0.016000,1.014000,192.000000,0.000000,0.000000,0.000000,0.000000,0.000000,0.000000,0.000000,0.000000,0.000000,1770886372.558976,0.000000
34.000000,-16819.263019,-10042.817598,706.181014,-20417.290380,6414.481272,1285.627638,-7695.191526,523.835483,3315.188386,-12271.152409,-4937.679164,3576.592037,788.457786,420.883348,-24580.369840,-13036.409084,0.004000,-0.016000,1.014000,192.000000,0.000000,0.000000,0.000000,0.000000,0.000000,0.000000,0.000000,0.000000,0.000000,1770886372.558992,0.000000
36.000000,-16671.093305,-9898.313570,815.749266,-20284.811590,6524.004820,1366.406842,-7581.421147,636.957662,3317.244746,-12279.333148,-4950.106734,3568.165430,787.451957,435.926072,-24598.653567,-13052.010602,0.004000,-0.020000,1.016000,192.000000,0.000000,16.000000,127.500000,48.000000,15.500000,96.000000,0.000000,0.000000,0.000000,1770886372.559008,0.000000
38.000000,-16755.202920,-9976.187048,751.398593,-20351.263327,6456.279034,1324.296155,-7642.642575,575.892696,3352.649910,-12176.358661,-4855.089468,3656.611282,861.995025,513.620736,-24496.483743,-12951.360697,0.004000,-0.020000,1.016000,192.000000,0.000000,0.000000,0.000000,0.000000,0.000000,0.000000,0.000000,0.000000,0.000000,1770886372.559026,0.000000
40.000000,-16786.182438,-10005.870164,733.852474,-20373.346850,6420.672705,1309.141673,-7654.421944,553.205675,3283.247743,-12335.704247,-5002.879203,3527.172330,733.181922,374.011740,-24661.104341,-13092.869591,0.004000,-0.020000,1.016000,192.000000,0.000000,0.000000,0.000000,0.000000,0.000000,0.000000,0.000000,0.000000,0.000000,1770886372.559044,0.000000
42.000000,-16675.250730,-9901.420462,820.666649,-20270.506474,6511.510195,1361.332996,-7567.630120,649.184066,3343.150418,-12197.436356,-4877.240047,3640.942710,847.086411,494.711160,-24510.028900,-12965.621110,0.004000,-0.020000,1.016000,192.000000,0.000000,0.000000,0.000000,0.000000,0.000000,0.000000,0.000000,0.000000,0.000000,1770886373.039086,0.000000
44.000000,-16830.729464,-10055.401630,695.720398,-20418.072691,6392.353045,1281.045530,-7695.191526,523.455503,3304.191328,-12272.068831,-4939.109676,3584.124575,776.678416,444.911473,-24594.093811,-13031.826977,0.004000,-0.020000,1.016000,192.000000,0.000000,0.000000,0.000000,0.000000,0.000000,0.000000,0.000000,0.000000,0.000000,1770886373.039151,0.000000
46.000000,-16685.197256,-9913.311590,811.144806,-20286.331509,6515.153529,1356.594426,-7580.124745,633.962528,3306.985296,-12295.448756,-4958.421583,3558.800049,767.447146,409.640421,-24605.850828,-13050.557739,0.004000,-0.018000,1.014000,192.000000,0.000000,16.000000,127.500000,64.000000,15.500000,80.000000,0.000000,0.000000,0.000000,1770886373.039199,0.000000
48.000000,-16763.227196,-9995.990693,754.080803,-20355.152530,6456.323738,1320.362248,-7645.637708,575.378606,3345.564407,-12185.589932,-4858.442230,3650.039870,854.909522,498.846233,-24490.471124,-12945.124560,0.004000,-0.018000,1.014000,192.000000,0.000000,0.000000,0.000000,0.000000,0.000000,0.000000,0.000000,0.000000,0.000000,1770886373.039243,0.000000
50.000000,-16778.202865,-10008.842946,733.696012,-20370.396420,6444.499665,1317.456522,-7659.518142,556.290216,3287.405168,-12340.353410,-5000.308752,3523.149016,737.898140,380.516098,-24645.614582,-13085.381756,0.004000,-0.018000,1.014000,192.000000,0.000000,0.000000,0.000000,0.000000,0.000000,0.000000,0.000000,0.000000,0.000000,1770886373.039302,0.000000
52.000000,-16674.088439,-9895.318436,819.571414,-20266.036125,6527.558747,1372.173592,-7573.486277,646.121877,3345.810276,-12185.813449,-4872.836753,3643.893140,859.424574,506.401122,-24498.629510,-12958.200331,0.004000,-0.018000,1.014000,192.000000,0.000000,0.000000,0.000000,0.000000,0.000000,0.000000,0.000000,0.000000,0.000000,1770886373.039346,0.000000
54.000000,-16831.131796,-10049.903101,696.949744,-20415.725758,6409.362723,1294.322466,-7696.867907,521.130922,3307.834662,-12266.905578,-4940.696650,3577.955494,790.782367,450.544113,-24581.778000,-13028.429512,0.004000,-0.018000,1.014000,192.000000,0.000000,0.000000,0.000000,0.000000,0.000000,0.000000,0.000000,0.000000,0.000000,1770886373.039382,0.000000
56.000000,-16689.600550,-9909.109462,813.178815,-20280.140076,6516.382875,1366.943284,-7579.118917,636.577682,3308.125235,-12282.708261,-4960.142667,3565.594979,770.822259,413.574328,-24601.380480,-13052.681154,0.003000,-0.015000,1.011000,192.000000,0.000000,8.000000,127.500000,80.000000,15.500000,64.000000,0.000000,0.000000,0.000000,1770886373.039397,0.000000
58.000000,-16759.002716,-9980.389175,757.053585,-20354.347867,6457.754249,1322.351554,-7643.737810,583.849917,3354.147476,-12175.509295,-4848.853332,3657.550056,869.773432,515.721800,-24489.778219,-12953.841740,0.003000,-0.015000,1.011000,192.000000,0.000000,0.000000,0.000000,0.000000,0.000000,0.000000,0.000000,0.000000,0.000000,1770886373.039412,0.000000
60.000000,-16774.604234,-9997.935295,738.993375,-20375.671432,6444.812589,1322.642126,-7657.953520,563.509829,3293.261325,-12327.255288,-4983.656702,3531.285051,740.066259,376.135156,-24652.051884,-13093.584847,0.003000,-0.015000,1.011000,192.000000,0.000000,0.000000,0.000000,0.000000,0.000000,0.000000,0.000000,0.000000,0.000000,1770886373.039430,0.000000
62.000000,-16667.584082,-9890.959846,824.309984,-20262.593956,6531.783227,1379.303799,-7571.049937,649.944025,3354.706270,-12184.584103,-4862.264378,3646.687108,854.551894,506.177605,-24503.412784,-12965.196427,0.003000,-0.015000,1.011000,192.000000,0.000000,0.000000,0.000000,0.000000,0.000000,0.000000,0.000000,0.000000,0.000000,1770886373.039447,0.000000
64.000000,-16824.783900,-10054.418153,697.933221,-20410.383691,6393.425929,1295.574164,-7694.073939,520.236852,3311.723865,-12258.568377,-4938.170903,3588.706683,790.827071,442.341023,-24586.270700,-13024.875584,0.003000,-0.015000,1.011000,192.000000,0.000000,0.000000,0.000000,0.000000,0.000000,0.000000,0.000000,0.000000,0.000000,1770886373.039464,0.000000
66.000000,-16693.892085,-9916.217317,806.138016,-20289.080773,6502.815366,1369.111403,-7581.667016,626.921728,3305.867708,-12286.128078,-4967.518743,3566.980787,772.565695,414.311935,-24604.822648,-13050.133055,0.002500,-0.013500,1.009500,192.000000,0.000000,8.000000,127.500000,80.000000,15.500000,64.000000,0.000000,0.000000,0.000000,1770886373.039482,0.000000
68.000000,-16770.200940,-9982.132612,743.620186,-20346.792978,6443.136208,1310.527481,-7644.430714,571.690568,3346.458476,-12176.828048,-4866.041823,3653.280872,856.720013,515.431227,-24499.054193,-12949.304336,0.002500,-0.013500,1.009500,192.000000,0.000000,0.000000,0.000000,0.000000,0.000000,0.000000,0.000000,0.000000,0.000000,1770886373.039499,0.000000
70.000000,-16786.428307,-10005.512536,729.113904,-20377.012536,6434.687249,1315.623679,-7660.211046,551.082260,3279.738519,-12331.904451,-5002.186299,3527.753476,728.398648,377.699778,-24660.322030,-13092.042576,0.002500,-0.013500,1.009500,192.000000,0.000000,0.000000,0.000000,0.000000,0.000000,0.000000,0.000000,0.000000,0.000000,1770886373.039515,0.000000
72.000000,-16672.993204,-9896.033692,818.051495,-20272.696945,6528.698686,1368.776127,-7574.402699,640.600996,3349.207741,-12191.759013,-4874.826059,3640.070992,854.864818,488.877355,-24504.217446,-12962.514217,0.002500,-0.013500,1.009500,192.000000,0.000000,0.000000,0.000000,0.000000,0.000000,0.000000,0.000000,0.000000,0.000000,1770886373.039532,0.000000
74.000000,-16819.151261,-10038.056676,697.799110,-20413.088252,6400.399673,1281.000826,-7696.197354,522.203806,3312.841453,-12262.055249,-4938.081496,3586.560915,797.711408,435.411982,-24583.230863,-13032.318715,0.002500,-0.013500,1.009500,192.000000,0.000000,0.000000,0.000000,0.000000,0.000000,0.000000,0.000000,0.000000,0.000000,1770886373.039548,0.000000
76.000000,-16672.479114,-9900.325227,808.149673,-20282.643471,6518.841567,1362.160011,-7580.594132,635.571854,3312.126197,-12277.120325,-4961.439068,3573.775717,780.657027,418.111732,-24597.871256,-13052.994079,0.002500,-0.013500,1.009500,192.000000,0.000000,0.000000,127.500000,64.000000,15.500000,40.000000,0.000000,0.000000,0.000000,1770886373.039564,0.000000
78.000000,-16753.593594,-9973.169562,749.878675,-20351.039809,6450.311118,1312.628545,-7642.866092,580.206583,3351.197046,-12167.395612,-4863.516076,3665.708442,862.598522,516.861739,-24493.846237,-12960.569615,0.002500,-0.013500,1.009500,192.000000,0.000000,0.000000,0.000000,0.000000,0.000000,0.000000,0.000000,0.000000,0.000000,1770886373.039580,0.000000
80.000000,-16778.046403,-9993.397891,732.936052,-20372.698649,6432.586185,1314.215519,-7654.958386,560.849972,3289.394473,-12323.410788,-5000.755787,3537.208264,736.132352,396.855223,-24653.840024,-13096.468222,0.002500,-0.013500,1.009500,192.000000,0.000000,0.000000,0.000000,0.000000,0.000000,0.000000,0.000000,0.000000,0.000000,1770886373.039597,0.000000
82.000000,-16675.206026,-9898.313570,818.163254,-20265.209110,6520.450893,1360.416575,-7570.669957,647.731203,3346.726697,-12182.326577,-4873.216733,3650.710422,853.031975,506.714047,-24506.474973,-12967.029270,0.002500,-0.013500,1.009500,192.000000,0.000000,0.000000,0.000000,0.000000,0.000000,0.000000,0.000000,0.000000,0.000000,1770886373.039618,0.000000
84.000000,-16823.331037,-10044.382220,700.190747,-20410.830726,6400.198507,1291.752016,-7692.799889,527.322355,3308.281697,-12262.926967,-4940.584891,3590.695988,803.120530,444.375032,-24584.281395,-13028.161291,0.002500,-0.013500,1.009500,192.000000,0.000000,0.000000,0.000000,0.000000,0.000000,0.000000,0.000000,0.000000,0.000000,1770886373.039636,0.000000
86.000000,-16685.264311,-9907.902468,808.775521,-20283.470486,6523.893061,1372.218296,-7583.410452,630.900339,3306.784130,-12277.656767,-4958.220417,3577.083776,788.346027,427.566520,-24602.475715,-13043.338125,0.000250,-0.013750,1.005750,192.000000,127.500000,120.000000,127.500000,72.000000,15.500000,40.000000,0.000000,0.000000,0.000000,1770886373.039654,0.000000
88.000000,-16757.885129,-9973.169562,751.353890,-20353.297335,6469.153639,1335.539083,-7647.179979,572.025844,3342.099886,-12172.022423,-4861.571474,3656.454820,870.175763,520.974460,-24487.855969,-12945.862168,0.000250,-0.013750,1.005750,192.000000,0.000000,0.000000,0.000000,0.000000,0.000000,0.000000,0.000000,0.000000,0.000000,1770886373.039671,0.000000
90.000000,-16780.303929,-9996.527135,731.304375,-20371.268138,6447.897130,1308.538176,-7658.132334,554.278559,3282.554839,-12327.009419,-5003.616810,3531.441513,742.703765,385.321723,-24642.954724,-13084.465335,0.000250,-0.013750,1.005750,192.000000,0.000000,0.000000,0.000000,0.000000,0.000000,0.000000,0.000000,0.000000,0.000000,1770886373.039690,0.000000
92.000000,-16672.546169,-9894.580828,819.616117,-20267.220767,6528.989259,1370.452508,-7574.067423,646.300691,3341.205816,-12180.918417,-4878.715262,3651.917416,850.439173,521.622660,-24501.401127,-12963.073011,0.000250,-0.013750,1.005750,192.000000,0.000000,0.000000,0.000000,0.000000,0.000000,0.000000,0.000000,0.000000,0.000000,1770886373.039710,0.000000
94.000000,-16821.945229,-10045.991545,695.116901,-20414.585819,6402.545441,1286.298190,-7698.030197,524.550739,3309.555746,-12262.770505,-4941.613071,3587.656151,794.716274,443.480962,-24582.537959,-13026.171985,0.000250,-0.013750,1.005750,192.000000,0.000000,0.000000,0.000000,0.000000,0.000000,0.000000,0.000000,0.000000,0.000000,1770886373.039728,0.000000
96.000000,-16680.056355,-9900.884020,804.104007,-20283.269320,6515.578212,1359.701319,-7581.644664,638.611691,3300.995028,-12280.964825,-4961.193199,3572.054633,764.362605,432.863883,-24603.079212,-13051.407105,-0.000875,-0.011875,1.005875,192.000000,127.500000,120.000000,127.500000,88.000000,15.500000,56.000000,0.000000,0.000000,0.000000,1770886373.039743,0.000000
98.000000,-16754.822940,-9975.784716,751.130372,-20349.586946,6444.007926,1309.655763,-7641.301470,586.956809,3348.291319,-12160.310109,-4852.720183,3668.435355,868.789955,529.937509,-24494.852065,-12952.098304,-0.000875,-0.011875,1.005875,192.000000,0.000000,0.000000,0.000000,0.000000,0.000000,0.000000,0.000000,0.000000,0.000000,1770886373.039762,0.000000
100.000000,-16786.562417,-10007.412435,730.119733,-20380.119429,6424.651316,1304.805434,-7657.931168,561.989911,3278.375063,-12330.898622,-4996.553659,3534.190778,740.915625,385.992275,-24656.410474,-13097.295236,-0.000875,-0.011875,1.005875,192.000000,0.000000,0.000000,0.000000,0.000000,0.000000,0.000000,0.000000,0.000000,0.000000,1770886373.039779,0.000000
102.000000,-16676.770649,-9901.599276,815.168120,-20276.340279,6513.432445,1353.867513,-7572.860428,648.513514,3337.540130,-12197.883391,-4874.803707,3639.333384,839.263301,486.530422,-24511.079432,-12978.629825,-0.000875,-0.011875,1.005875,192.000000,0.000000,0.000000,0.000000,0.000000,0.000000,0.000000,0.000000,0.000000,0.000000,1770886373.039795,0.000000
