Sample_index,EXG Channel 0,EXG Channel 1,EXG Channel 2,EXG Channel 3,EXG Channel 4,EXG Channel 5,EXG Channel 6,EXG Channel 7,EXG Channel 8,EXG Channel 9,EXG Channel 10,EXG Channel 11,EXG Channel 12,EXG Channel 13,EXG Channel 14,EXG Channel 15,Accel Channel 0,Accel Channel 1,Accel Channel 2,Not Used,Digital Channel 0 (D11),Digital Channel 1 (D12),Digital Channel 2 (D13),Digital Channel 3 (D17),Not Used,Digital Channel 4 (D18),Analog Channel 0,Analog Channel 1,Analog Channel 2,Timestamp,Marker Channel
90.000000,-16299.540257,-11124.060884,-953.190142,-23108.485116,3655.605454,4415.207137,-6226.860729,954.620654,7069.566199,-8147.680241,-6187.119327,2552.211589,185.295962,2384.953485,-26188.689612,-8594.491612,-0.002000,-0.008000,1.004000,192.000000,0.000000,0.000000,0.000000,0.000000,0.000000,0.000000,0.000000,0.000000,0.000000,1770887981.109250,0.000000
92.000000,-16178.282044,-11003.540278,-843.979519,-22988.635062,3773.197982,4508.637429,-6110.899879,1061.953731,7109.866394,-8062.162466,-6101.042760,2628.274575,270.992550,2450.667614,-26089.649032,-8518.518033,-0.002000,-0.008000,1.004000,192.000000,0.000000,0.000000,0.000000,0.000000,0.000000,0.000000,0.000000,0.000000,0.000000,1770887981.109319,0.000000
94.000000,-16312.481917,-11136.533157,-959.493334,-23113.447203,3654.219646,4400.365579,-6232.314555,942.930692,7096.790623,-8078.836868,-6115.034952,2615.154101,257.872076,2441.995137,-26108.759774,-8522.049608,0.002000,-0.004000,1.004000,192.000000,0.000000,8.000000,127.500000,112.000000,15.500000,48.000000,0.000000,0.000000,0.000000,1770887981.109373,0.000000
96.000000,-16221.711483,-11050.233072,-882.603333,-23024.420205,3747.314661,4481.435356,-6151.825923,1020.491245,7071.488449,-8151.100057,-6184.325359,2553.910321,190.168642,2387.054549,-26174.026868,-8586.690853,0.002000,-0.004000,1.004000,192.000000,0.000000,0.000000,0.000000,0.000000,0.000000,0.000000,0.000000,0.000000,0.000000,1770887981.109428,0.000000
98.000000,-16229.109911,-11059.844322,-892.929839,-23038.658266,3747.582882,4474.975702,-6167.270978,1012.914003,7125.870243,-8022.376361,-6063.603588,2667.971273,305.928326,2491.951286,-26045.772558,-8472.518143,0.002000,-0.004000,1.004000,192.000000,0.000000,0.000000,0.000000,0.000000,0.000000,0.000000,0.000000,0.000000,0.000000,1770887981.109488,0.000000
100.000000,-16285.682176,-11117.221250,-948.630386,-23101.533723,3682.896934,4417.956402,-6229.006497,956.878180,7079.333911,-8150.183636,-6185.241781,2554.469115,190.973305,2387.389825,-26175.569138,-8590.736519,0.002000,-0.004000,1.004000,192.000000,0.000000,0.000000,0.000000,0.000000,0.000000,0.000000,0.000000,0.000000,0.000000,1770887981.109551,0.000000
102.000000,-16164.200445,-10994.510173,-839.755039,-22984.388230,3790.900563,4512.169005,-6112.978591,1068.368681,7125.825539,-8054.562873,-6095.164251,2636.745886,281.721387,2467.565533,-26084.530483,-8512.952448,0.002000,-0.004000,1.004000,192.000000,0.000000,0.000000,0.000000,0.000000,0.000000,0.000000,0.000000,0.000000,0.000000,1770887981.109588,0.000000
104.000000,-16294.153487,-11118.115320,-955.604131,-23117.917552,3663.294454,4407.674600,-6232.359258,960.297997,7106.178356,-8070.901998,-6105.356646,2624.541834,262.118907,2451.964015,-26107.239855,-8530.587975,0.002000,-0.006000,1.000000,192.000000,0.000000,8.000000,127.500000,104.000000,15.500000,32.000000,0.000000,0.000000,0.000000,1770887981.109606,0.000000
106.000000,-16208.456899,-11032.843415,-879.742310,-23029.516402,3737.368135,4472.271141,-6150.931853,1036.092762,7081.233809,-8140.706496,-6168.634435,2562.359281,196.002447,2381.690130,-26180.128894,-8597.844374,0.002000,-0.006000,1.000000,192.000000,0.000000,0.000000,0.000000,0.000000,0.000000,0.000000,0.000000,0.000000,0.000000,1770887981.109624,0.000000
108.000000,-16223.276105,-11048.489636,-889.152394,-23037.428920,3722.660687,4459.575350,-6162.644167,1021.809998,7138.029592,-8016.274335,-6050.483114,2673.223933,317.081847,2504.177690,-26051.785177,-8480.430660,0.002000,-0.006000,1.000000,192.000000,0.000000,0.000000,0.000000,0.000000,0.000000,0.000000,0.000000,0.000000,0.000000,1770887981.109637,0.000000
110.000000,-16299.473202,-11124.239698,-957.414622,-23107.434584,3659.628768,4407.965172,-6233.320383,947.468096,7075.467059,-8149.110752,-6185.912333,2554.513819,188.335799,2385.579334,-26182.766400,-8595.452737,0.002000,-0.006000,1.000000,192.000000,0.000000,0.000000,0.000000,0.000000,0.000000,0.000000,0.000000,0.000000,0.000000,1770887981.109649,0.000000
112.000000,-16169.050773,-10996.857106,-845.991176,-22977.950928,3778.160069,4511.677267,-6114.856138,1061.104365,7112.235679,-8059.301443,-6112.844481,2631.783799,266.186925,2469.040748,-26095.326375,-8517.646315,0.002000,-0.006000,1.000000,192.000000,0.000000,0.000000,0.000000,0.000000,0.000000,0.000000,0.000000,0.000000,0.000000,1770887981.109660,0.000000
114.000000,-16291.448926,-11120.104625,-958.152230,-23113.313092,3660.701652,4428.014687,-6233.834473,956.766421,7108.569993,-8068.063327,-6113.023295,2628.811017,250.473648,2459.183628,-26106.323434,-8518.898013,0.000000,-0.006000,0.999000,192.000000,127.500000,120.000000,127.500000,104.000000,15.500000,24.000000,0.000000,0.000000,0.000000,1770887981.109672,0.000000
116.000000,-16212.033178,-11039.101903,-884.838508,-23027.281228,3739.402144,4480.429528,-6155.759830,1026.973251,7085.704158,-8140.013592,-6176.144621,2559.811182,203.780854,2385.646389,-26179.435990,-8586.802612,0.000000,-0.006000,0.999000,192.000000,0.000000,0.000000,0.000000,0.000000,0.000000,0.000000,0.000000,0.000000,0.000000,1770887981.109684,0.000000
118.000000,-16227.165309,-11053.876406,-891.678142,-23037.451272,3725.052324,4471.891161,-6166.399260,1017.853739,7133.000449,-8012.943925,-6059.669681,2671.324035,315.159597,2512.336077,-26051.092273,-8473.479268,0.000000,-0.006000,0.999000,192.000000,0.000000,0.000000,0.000000,0.000000,0.000000,0.000000,0.000000,0.000000,0.000000,1770887981.109695,0.000000
120.000000,-16297.595656,-11120.439901,-954.441840,-23104.886485,3668.524762,4431.725077,-6230.906395,954.933578,7076.830515,-8149.915415,-6187.901638,2551.541037,194.326066,2391.949581,-26183.168731,-8592.904638,0.000000,-0.006000,0.999000,192.000000,0.000000,0.000000,0.000000,0.000000,0.000000,0.000000,0.000000,0.000000,0.000000,1770887981.109707,0.000000
122.000000,-16162.211139,-10987.357615,-840.514998,-22975.603995,3793.493365,4533.201996,-6114.476158,1072.012016,7125.020877,-8048.952585,-6104.306114,2637.461142,276.133451,2480.842469,-26089.604329,-8510.806681,0.000000,-0.006000,0.999000,192.000000,0.000000,0.000000,0.000000,0.000000,0.000000,0.000000,0.000000,0.000000,0.000000,1770887981.109718,0.000000
124.000000,-16288.610254,-11113.823785,-955.872352,-23103.411270,3681.667588,4423.924318,-6233.923880,961.080308,7123.657420,-8058.943815,-6105.758978,2631.716744,271.685454,2478.495536,-26098.634434,-8510.896088,0.000000,-0.006000,0.999000,192.000000,0.000000,0.000000,127.500000,120.000000,15.500000,24.000000,0.000000,0.000000,0.000000,1770887981.109730,0.000000
126.000000,-16205.864096,-11032.619897,-880.614028,-23023.012045,3750.779182,4482.307074,-6152.764696,1033.745829,7091.448556,-8135.364429,-6177.821002,2564.169772,211.134578,2399.370360,-26172.775170,-8585.349749,0.000000,-0.006000,0.999000,192.000000,0.000000,0.000000,0.000000,0.000000,0.000000,0.000000,0.000000,0.000000,0.000000,1770887981.109742,0.000000
128.000000,-16216.950562,-11043.304031,-887.274848,-23038.993542,3735.669403,4476.741490,-6159.067888,1028.336707,7137.046115,-8010.149957,-6055.355794,2680.063567,320.881643,2500.288487,-26044.610267,-8478.530762,0.000000,-0.006000,0.999000,192.000000,0.000000,0.000000,0.000000,0.000000,0.000000,0.000000,0.000000,0.000000,0.000000,1770887981.109753,0.000000
130.000000,-16294.756984,-11117.467119,-955.291206,-23109.669758,3657.438297,4396.699893,-6229.833511,962.041433,7074.237713,-8147.099095,-6176.010510,2559.498258,191.710912,2385.177003,-26181.782923,-8597.106766,0.000000,-0.006000,0.999000,192.000000,0.000000,0.000000,0.000000,0.000000,0.000000,0.000000,0.000000,0.000000,0.000000,1770887981.109764,0.000000
132.000000,-16170.749506,-11000.053406,-841.699641,-22984.790562,3771.119269,4493.013560,-6113.470329,1071.229705,7114.023818,-8065.895208,-6096.907687,2632.029668,267.416271,2458.535428,-26097.695660,-8528.844539,0.000000,-0.006000,0.999000,192.000000,0.000000,0.000000,0.000000,0.000000,0.000000,0.000000,0.000000,0.000000,0.000000,1770887981.109776,0.000000
134.000000,-16297.819173,-11123.211518,-960.767384,-23111.279084,3657.617111,4403.293658,-6235.399095,952.430183,7105.798376,-8078.054557,-6107.502414,2623.223081,261.247189,2455.205018,-26106.256378,-8532.979612,0.001000,-0.005000,0.999500,192.000000,0.000000,8.000000,127.500000,112.000000,15.500000,32.000000,0.000000,0.000000,0.000000,1770887981.109787,0.000000
136.000000,-16222.426739,-11045.092171,-886.358426,-23030.209307,3734.976498,4476.137993,-6159.000833,1016.177358,7070.974358,-8142.315822,-6188.236915,2556.212551,189.922773,2395.972895,-26180.397115,-8594.469261,0.001000,-0.005000,0.999500,192.000000,0.000000,0.000000,0.000000,0.000000,0.000000,0.000000,0.000000,0.000000,0.000000,1770887981.109799,0.000000
138.000000,-16225.824204,-11051.283604,-891.566383,-23036.691312,3726.169911,4474.796888,-6164.544066,1012.668134,7125.982002,-8022.912803,-6068.565675,2664.350291,322.267452,2502.456606,-26048.968857,-8477.346120,0.001000,-0.005000,0.999500,192.000000,0.000000,0.000000,0.000000,0.000000,0.000000,0.000000,0.000000,0.000000,0.000000,1770887981.109810,0.000000
140.000000,-16299.026167,-11125.625506,-957.749898,-23109.736813,3665.775498,4428.975812,-6235.376744,945.970529,7072.583684,-8149.513084,-6186.985217,2552.524513,194.683694,2394.609439,-26178.161940,-8585.394452,0.001000,-0.005000,0.999500,192.000000,0.000000,0.000000,0.000000,0.000000,0.000000,0.000000,0.000000,0.000000,0.000000,1770887981.109822,0.000000
142.000000,-16180.651329,-11007.787109,-848.047536,-22985.461114,3786.765490,4524.015429,-6120.958164,1053.683585,7110.671057,-8069.739708,-6107.502414,2620.674982,271.305474,2472.080585,-26089.514922,-8505.062283,0.001000,-0.005000,0.999500,192.000000,0.000000,0.000000,0.000000,0.000000,0.000000,0.000000,0.000000,0.000000,0.000000,1770887981.109833,0.000000
144.000000,-16298.757946,-11124.709085,-957.258160,-23105.065299,3671.005806,4422.851434,-6233.588604,951.513761,7104.233754,-8072.958359,-6111.816300,2623.178378,267.103346,2468.884286,-26099.439096,-8510.873736,0.001500,-0.008500,1.000750,192.000000,0.000000,8.000000,127.500000,80.000000,15.500000,40.000000,0.000000,0.000000,0.000000,1770887981.109845,0.000000
146.000000,-16219.163384,-11046.366220,-888.347732,-23029.404644,3750.376850,4491.158365,-6160.498400,1020.893576,7076.651702,-8147.188502,-6185.197077,2557.821877,195.734226,2413.250794,-26173.982164,-8582.868705,0.001500,-0.008500,1.000750,192.000000,0.000000,0.000000,0.000000,0.000000,0.000000,0.000000,0.000000,0.000000,0.000000,1770887981.109856,0.000000
148.000000,-16225.243059,-11054.211683,-892.505156,-23034.702007,3741.883188,4475.042757,-6167.025109,1015.931489,7130.698220,-8021.012905,-6065.704652,2669.178268,313.483216,2513.543071,-26044.230288,-8472.138163,0.001500,-0.008500,1.000750,192.000000,0.000000,0.000000,0.000000,0.000000,0.000000,0.000000,0.000000,0.000000,0.000000,1770887981.109868,0.000000
150.000000,-16303.764737,-11128.151253,-956.587607,-23114.833011,3674.425623,4421.018591,-6235.801427,943.310671,7066.235789,-8154.475171,-6194.763624,2550.266987,195.153081,2401.806700,-26180.397115,-8591.518830,0.001500,-0.008500,1.000750,192.000000,0.000000,0.000000,0.000000,0.000000,0.000000,0.000000,0.000000,0.000000,0.000000,1770887981.109879,0.000000
152.000000,-16175.130448,-10998.712301,-840.202074,-22987.003384,3782.585714,4498.445034,-6112.933888,1061.663158,7115.074350,-8066.431649,-6106.720103,2626.978174,282.995437,2475.813326,-26090.140771,-8521.356704,0.001500,-0.008500,1.000750,192.000000,0.000000,0.000000,0.000000,0.000000,0.000000,0.000000,0.000000,0.000000,0.000000,1770887981.109891,0.000000
154.000000,-16292.655920,-11119.992867,-953.458363,-23114.564790,3659.539361,4394.442367,-6230.459360,961.482639,7108.771158,-8075.417051,-6099.791062,2629.056886,271.931323,2465.106841,-26098.835599,-8531.414989,0.002750,-0.012250,1.000375,192.000000,0.000000,16.000000,127.500000,64.000000,15.500000,32.000000,0.000000,0.000000,0.000000,1770887981.109903,0.000000
156.000000,-16208.836878,-11043.840473,-888.191269,-23040.111129,3725.298193,4453.920359,-6158.240874,1028.560225,7080.876181,-8154.162246,-6169.014414,2558.984167,193.119072,2373.665854,-26181.246481,-8605.913354,0.002750,-0.012250,1.000375,192.000000,0.000000,0.000000,0.000000,0.000000,0.000000,0.000000,0.000000,0.000000,0.000000,1770887981.109915,0.000000
158.000000,-16226.092425,-11061.341889,-891.924011,-23045.922583,3716.424551,4447.080725,-6161.794801,1018.859568,7128.597156,-8032.769922,-6055.221683,2665.356119,311.225690,2498.589754,-26054.221517,-8488.969027,0.002750,-0.012250,1.000375,192.000000,0.000000,0.000000,0.000000,0.000000,0.000000,0.000000,0.000000,0.000000,0.000000,1770887981.109927,0.000000
160.000000,-16316.929915,-11144.557434,-965.371843,-23122.589066,3641.367393,4405.729998,-6234.505026,938.326232,7057.451553,-8173.384747,-6191.612028,2542.153304,183.910153,2377.063319,-26188.153170,-8604.348732,0.002750,-0.012250,1.000375,192.000000,0.000000,0.000000,0.000000,0.000000,0.000000,0.000000,0.000000,0.000000,0.000000,1770887981.109938,0.000000
162.000000,-16186.775707,-11012.458624,-853.188438,-22985.863446,3769.487592,4511.319639,-6118.164196,1051.403707,7090.956818,-8082.971940,-6120.600536,2618.126883,249.154895,2469.219562,-26100.534332,-8523.077789,0.002750,-0.012250,1.000375,192.000000,0.000000,0.000000,0.000000,0.000000,0.000000,0.000000,0.000000,0.000000,0.000000,1770887981.109953,0.000000
164.000000,-16298.646188,-11119.679942,-960.186238,-23107.456935,3654.420811,4428.752295,-6238.237767,951.781982,7099.919868,-8072.198400,-6112.933888,2628.162817,258.408518,2487.704454,-26104.334128,-8519.412103,0.002375,-0.011125,1.000188,192.000000,0.000000,8.000000,127.500000,88.000000,15.500000,32.000000,0.000000,0.000000,0.000000,1770887981.109967,0.000000
166.000000,-16210.960294,-11037.581985,-887.565421,-23023.615542,3730.148522,4501.328409,-6162.197132,1021.966460,7085.927675,-8136.794941,-6179.765604,2561.956949,193.230831,2423.152616,-26176.530263,-8585.908542,0.002375,-0.011125,1.000188,192.000000,0.000000,0.000000,0.000000,0.000000,0.000000,0.000000,0.000000,0.000000,0.000000,1770887981.109982,0.000000
168.000000,-16224.125472,-11049.987203,-889.800595,-23026.923600,3735.892920,4476.003882,-6161.079545,1018.345477,7141.739981,-8007.020713,-6056.763954,2679.437718,316.232481,2531.759743,-26048.186546,-8467.801925,0.002375,-0.011125,1.000188,192.000000,0.000000,0.000000,0.000000,0.000000,0.000000,0.000000,0.000000,0.000000,0.000000,1770887981.109998,0.000000
170.000000,-16309.307970,-11134.633259,-961.862619,-23117.291703,3660.768707,4411.608507,-6235.734372,942.170732,7071.063765,-8153.983433,-6187.253438,2556.324310,183.954857,2411.596765,-26181.514702,-8588.456641,0.002375,-0.011125,1.000188,192.000000,0.000000,0.000000,0.000000,0.000000,0.000000,0.000000,0.000000,0.000000,0.000000,1770887981.110009,0.000000
172.000000,-16191.961311,-11020.147624,-848.807496,-22994.535922,3785.893772,4509.978534,-6119.862928,1050.956673,7098.757577,-8080.759118,-6119.125321,2615.601136,270.456108,2471.924123,-26091.280710,-8520.395579,0.002375,-0.011125,1.000188,192.000000,0.000000,0.000000,0.000000,0.000000,0.000000,0.000000,0.000000,0.000000,0.000000,1770887981.110021,0.000000
174.000000,-16304.837621,-11133.135692,-956.744070,-23116.643502,3678.493640,4405.260611,-6235.913186,947.803372,7097.617638,-8084.402452,-6119.952335,2614.304735,271.573695,2471.164163,-26093.717050,-8520.999076,-0.000813,-0.011562,1.000094,192.000000,127.500000,112.000000,127.500000,80.000000,15.500000,32.000000,0.000000,0.000000,0.000000,1770887981.110032,0.000000
176.000000,-16215.028312,-11047.416752,-880.859897,-23039.574687,3747.247606,4467.957254,-6159.112592,1019.865396,7082.776080,-8153.536398,-6185.286484,2551.853961,209.860529,2405.517090,-26172.462246,-8595.273923,-0.000813,-0.011562,1.000094,192.000000,0.000000,0.000000,0.000000,0.000000,0.000000,0.000000,0.000000,0.000000,0.000000,1770887981.110044,0.000000
178.000000,-16226.271239,-11056.200988,-881.709264,-23040.178185,3727.265147,4457.116658,-6157.838542,1021.586480,7137.850778,-8027.338448,-6058.395631,2664.909084,324.569681,2517.655792,-26047.560698,-8487.985550,-0.000813,-0.011562,1.000094,192.000000,0.000000,0.000000,0.000000,0.000000,0.000000,0.000000,0.000000,0.000000,0.000000,1770887981.110068,0.000000
180.000000,-16310.425557,-11139.193015,-958.643968,-23117.626979,3658.198256,4400.097358,-6233.320383,947.557503,7066.772230,-8160.688956,-6181.777261,2550.043470,193.320238,2404.354799,-26180.285356,-8606.181575,-0.000813,-0.011562,1.000094,192.000000,0.000000,0.000000,0.000000,0.000000,0.000000,0.000000,0.000000,0.000000,0.000000,1770887981.110080,0.000000
182.000000,-16187.468611,-11016.079607,-848.047536,-22989.238559,3785.603200,4507.564546,-6116.353704,1057.684548,7100.053978,-8080.267379,-6114.185585,2616.964593,265.851649,2474.181649,-26096.198093,-8529.291574,-0.000813,-0.011562,1.000094,192.000000,0.000000,0.000000,0.000000,0.000000,0.000000,0.000000,0.000000,0.000000,0.000000,1770887981.110091,0.000000
184.000000,-16309.911467,-11135.974364,-961.527343,-23113.983645,3659.695823,4412.971963,-6235.242633,948.116296,7096.969437,-8080.580304,-6116.823091,2618.305697,272.177192,2483.368216,-26098.433268,-8524.284783,-0.000813,-0.011562,1.000094,192.000000,0.000000,0.000000,0.000000,0.000000,0.000000,0.000000,0.000000,0.000000,0.000000,1770887981.110103,0.000000
186.000000,-16222.493794,-11049.540168,-890.784072,-23037.987714,3736.205844,4484.586952,-6161.705394,1020.491245,7068.985053,-8158.364374,-6188.527487,2548.814124,196.360075,2408.467520,-26182.118199,-8591.027092,-0.002000,-0.014000,0.996000,192.000000,127.500000,120.000000,127.500000,72.000000,15.500000,16.000000,0.000000,0.000000,0.000000,1770887981.110114,0.000000
188.000000,-16217.777576,-11044.108694,-890.694665,-23033.293847,3735.267071,4483.178792,-6162.666519,1025.140408,7129.602984,-8018.621268,-6057.322747,2671.569904,316.590108,2527.982298,-26047.426587,-8469.210085,-0.002000,-0.014000,0.996000,192.000000,0.000000,0.000000,0.000000,0.000000,0.000000,0.000000,0.000000,0.000000,0.000000,1770887981.110128,0.000000
190.000000,-16301.127231,-11125.536099,-964.477773,-23108.395709,3656.074841,4415.318896,-6236.986069,951.670224,7070.080289,-8150.742430,-6180.749080,2558.559484,195.734226,2428.315869,-26183.638118,-8585.148583,-0.002000,-0.014000,0.996000,192.000000,0.000000,0.000000,0.000000,0.000000,0.000000,0.000000,0.000000,0.000000,0.000000,1770887981.110140,0.000000
192.000000,-16184.473477,-11007.921220,-851.668519,-22988.590358,3786.899601,4517.689886,-6117.717161,1059.048004,7096.947085,-8071.460792,-6114.945545,2623.670116,262.610646,2494.186460,-26096.533370,-8516.215803,-0.002000,-0.014000,0.996000,192.000000,0.000000,0.000000,0.000000,0.000000,0.000000,0.000000,0.000000,0.000000,0.000000,1770887981.110151,0.000000
194.000000,-16302.267170,-11128.531233,-956.542904,-23109.513296,3666.088422,4416.280021,-6232.538072,954.531247,7091.560315,-8075.752327,-6114.252641,2622.641936,258.922608,2489.000856,-26095.639300,-8515.791120,-0.002000,-0.014000,0.996000,192.000000,0.000000,0.000000,0.000000,0.000000,0.000000,0.000000,0.000000,0.000000,0.000000,1770887981.110163,0.000000
196.000000,-16219.386902,-11046.053296,-886.112557,-23031.483356,3741.659670,4479.177830,-6162.286539,1024.939242,7073.790678,-8151.748258,-6181.866667,2554.111487,199.891651,2420.582166,-26179.279528,-8593.821060,0.008000,-0.012000,1.000000,192.000000,0.000000,32.000000,127.500000,80.000000,15.500000,32.000000,0.000000,0.000000,0.000000,1770887981.110174,0.000000
198.000000,-16207.160498,-11029.803578,-877.998874,-23031.617466,3737.658708,4482.441185,-6157.771487,1036.293928,7135.973231,-8009.747626,-6053.880579,2679.013035,323.139170,2546.198970,-26045.034950,-8479.827163,0.008000,-0.012000,1.000000,192.000000,0.000000,0.000000,0.000000,0.000000,0.000000,0.000000,0.000000,0.000000,0.000000,1770887981.110186,0.000000
200.000000,-16292.030071,-11117.534175,-957.526381,-23115.324749,3658.555884,4404.634762,-6234.080343,958.778078,7077.501068,-8141.712325,-6176.055214,2565.510877,199.846947,2439.268224,-26178.720734,-8599.565458,0.008000,-0.012000,1.000000,192.000000,0.000000,0.000000,0.000000,0.000000,0.000000,0.000000,0.000000,0.000000,0.000000,1770887981.110198,0.000000
202.000000,-16176.002166,-11006.602467,-847.667557,-22989.372669,3775.857839,4511.721970,-6114.252641,1063.026615,7104.256106,-8073.986539,-6111.011638,2623.670116,269.047948,2496.488690,-26099.684966,-8534.387771,0.008000,-0.012000,1.000000,192.000000,0.000000,0.000000,0.000000,0.000000,0.000000,0.000000,0.000000,0.000000,0.000000,1770887981.110209,0.000000
204.000000,-16309.598542,-11137.404875,-964.366015,-23108.529819,3657.326538,4407.205213,-6233.476845,946.126991,7092.812013,-8075.975844,-6113.425626,2621.680811,256.732137,2495.862841,-26100.757849,-8525.603536,0.008000,-0.012000,1.000000,192.000000,0.000000,0.000000,0.000000,0.000000,0.000000,0.000000,0.000000,0.000000,0.000000,1770887981.110220,0.000000
206.000000,-16231.881527,-11057.430334,-898.406017,-23033.271495,3732.897786,4484.117566,-6167.069813,1009.561242,7065.744050,-8159.861941,-6197.646999,2544.790810,185.452424,2417.229404,-26184.219263,-8592.703473,0.004000,-0.012000,1.002000,192.000000,0.000000,16.000000,127.500000,80.000000,15.500000,40.000000,0.000000,0.000000,0.000000,1770887981.110232,0.000000
208.000000,-16222.314980,-11049.495465,-891.856956,-23029.829327,3736.876397,4494.891106,-6163.985272,1017.183187,7125.691429,-8020.118835,-6070.487925,2667.457183,317.975917,2550.646967,-26051.159328,-8466.550227,0.004000,-0.012000,1.002000,192.000000,0.000000,0.000000,0.000000,0.000000,0.000000,0.000000,0.000000,0.000000,0.000000,1770887981.110243,0.000000
210.000000,-16304.435289,-11126.899556,-964.969512,-23110.541476,3665.797849,4435.189597,-6238.438933,945.523494,7066.146382,-8150.205988,-6189.801537,2557.687766,191.196822,2440.095239,-26179.011307,-8575.157353,0.004000,-0.012000,1.002000,192.000000,0.000000,0.000000,0.000000,0.000000,0.000000,0.000000,0.000000,0.000000,0.000000,1770887981.589655,101.000000
212.000000,-16182.953558,-11005.082548,-853.054327,-22985.952852,3782.786880,4515.924098,-6120.287612,1055.002338,7099.986923,-8074.210057,-6116.621925,2624.541834,262.141259,2508.446873,-26099.595559,-8512.259544,0.004000,-0.012000,1.002000,192.000000,0.000000,0.000000,0.000000,0.000000,0.000000,0.000000,0.000000,0.000000,0.000000,1770887981.589717,0.000000
214.000000,-16302.535391,-11128.441826,-962.421413,-23114.564790,3660.791059,4415.587117,-6235.667316,945.948177,7095.449519,-8079.015682,-6113.962068,2617.523386,259.213180,2504.691780,-26095.527541,-8517.489853,0.004000,-0.012000,1.002000,192.000000,0.000000,0.000000,0.000000,0.000000,0.000000,0.000000,0.000000,0.000000,0.000000,1770887981.589765,0.000000
216.000000,-16223.700788,-11051.350659,-891.298162,-23036.534850,3727.354554,4477.009711,-6163.538237,1014.836254,7072.248408,-8159.012575,-6190.829717,2545.304900,192.202651,2429.947547,-26178.296051,-8596.123290,0.002000,-0.008000,1.008000,192.000000,0.000000,8.000000,127.500000,96.000000,15.500000,64.000000,0.000000,0.000000,0.000000,1770887981.589848,0.000000
218.000000,-16211.183812,-11037.313764,-885.486708,-23029.404644,3736.742286,4492.901801,-6153.837580,1031.421248,7126.876071,-8020.789387,-6060.720213,2671.860477,310.041047,2556.167848,-26049.259430,-8477.346120,0.002000,-0.008000,1.008000,192.000000,0.000000,0.000000,0.000000,0.000000,0.000000,0.000000,0.000000,0.000000,0.000000,1770887981.589906,0.000000
220.000000,-16291.761850,-11110.426320,-964.522477,-23105.579389,3647.894102,4407.294620,-6231.152264,957.951064,7075.243542,-8137.621956,-6175.339958,2573.155173,182.434938,2446.197265,-26181.671164,-8590.289484,0.002000,-0.008000,1.008000,192.000000,0.000000,0.000000,0.000000,0.000000,0.000000,0.000000,0.000000,0.000000,0.000000,1770887981.589934,0.000000
222.000000,-16165.139218,-10988.072871,-850.819153,-22985.997556,3766.894790,4507.139862,-6112.397446,1069.598027,7106.580687,-8064.732917,-6107.144786,2634.466008,261.336596,2505.362333,-26105.429364,-8529.068056,0.002000,-0.008000,1.008000,192.000000,0.000000,0.000000,0.000000,0.000000,0.000000,0.000000,0.000000,0.000000,0.000000,1770887981.589951,0.000000
224.000000,-16287.492667,-11105.799509,-960.968549,-23111.659063,3656.521875,4407.026399,-6226.816026,962.197895,7097.304713,-8069.426783,-6104.641390,2633.817808,261.850686,2497.293353,-26101.987195,-8526.028219,0.002000,-0.008000,1.008000,192.000000,0.000000,0.000000,0.000000,0.000000,0.000000,0.000000,0.000000,0.000000,0.000000,1770887981.589969,0.000000
226.000000,-16218.895163,-11036.062066,-897.623706,-23034.657304,3720.425513,4460.089440,-6160.476048,1023.396972,7067.643949,-8156.486828,-6187.566362,2554.469115,183.485470,2426.550082,-26183.638118,-8604.169918,0.008000,-0.010000,1.004000,192.000000,0.000000,32.000000,127.500000,88.000000,15.500000,48.000000,0.000000,0.000000,0.000000,1770887981.589982,0.000000
228.000000,-16206.333483,-11029.334191,-891.588735,-23026.253048,3733.143655,4481.658874,-6154.262263,1033.187036,7126.429036,-8016.497852,-6056.026346,2677.314303,310.510434,2561.442859,-26051.271087,-8481.145916,0.008000,-0.010000,1.004000,192.000000,0.000000,0.000000,0.000000,0.000000,0.000000,0.000000,0.000000,0.000000,0.000000,1770887981.589994,0.000000
230.000000,-16301.686025,-11121.646896,-973.150250,-23111.994339,3654.510218,4414.134254,-6239.198892,945.188218,7066.213437,-8143.209892,-6181.844316,2565.063842,177.986941,2447.605425,-26185.649775,-8588.367234,0.008000,-0.010000,1.004000,192.000000,0.000000,0.000000,0.000000,0.000000,0.000000,0.000000,0.000000,0.000000,0.000000,1770887981.590007,0.000000
232.000000,-16176.851532,-10998.712301,-851.981443,-22984.969376,3784.016226,4525.356534,-6117.806568,1057.125754,7103.227926,-8075.372347,-6114.520861,2621.658459,257.715614,2504.334152,-26098.477971,-8515.142919,0.008000,-0.010000,1.004000,192.000000,0.000000,0.000000,0.000000,0.000000,0.000000,0.000000,0.000000,0.000000,0.000000,1770887981.590019,0.000000
234.000000,-16292.097126,-11116.148366,-962.019081,-23109.535648,3665.730794,4424.907795,-6233.275680,951.558465,7101.037455,-8074.411222,-6105.803681,2624.295965,270.880791,2494.611143,-26093.225311,-8505.844594,0.008000,-0.010000,1.004000,192.000000,0.000000,0.000000,0.000000,0.000000,0.000000,0.000000,0.000000,0.000000,0.000000,1770887981.590032,0.000000
236.000000,-16216.280009,-11042.454665,-898.383665,-23039.127653,3729.679135,4470.907685,-6166.645130,1011.438788,7072.024890,-8159.593720,-6186.672293,2550.065821,187.374674,2427.108875,-26176.932594,-8587.920199,0.004000,-0.012000,1.004000,192.000000,0.000000,16.000000,127.500000,80.000000,15.500000,48.000000,0.000000,0.000000,0.000000,1770887981.590044,0.000000
238.000000,-16208.076919,-11031.904642,-888.839470,-23037.674789,3742.553740,4487.962066,-6158.486743,1028.292004,7126.473740,-8028.009001,-6061.167247,2666.384300,316.545405,2552.099830,-26046.621924,-8478.396652,0.004000,-0.012000,1.004000,192.000000,0.000000,0.000000,0.000000,0.000000,0.000000,0.000000,0.000000,0.000000,0.000000,1770887981.590056,0.000000
240.000000,-16282.821153,-11104.994846,-962.555523,-23113.536610,3661.953349,4410.446216,-6235.935537,954.240674,7073.567161,-8147.166150,-6174.691758,2561.554618,197.567069,2443.448000,-26171.992859,-8596.704435,0.004000,-0.012000,1.004000,192.000000,0.000000,0.000000,0.000000,0.000000,0.000000,0.000000,0.000000,0.000000,0.000000,1770887981.590068,0.000000
242.000000,-16151.884634,-10973.812458,-845.812362,-22977.101562,3781.781051,4512.280764,-6112.419797,1070.380338,7111.766292,-8062.162466,-6103.814376,2629.168645,266.119869,2502.680123,-26094.901692,-8529.492739,0.004000,-0.012000,1.004000,192.000000,0.000000,0.000000,0.000000,0.000000,0.000000,0.000000,0.000000,0.000000,0.000000,1770887981.590080,0.000000
244.000000,-16281.681214,-11102.200878,-959.091003,-23101.220799,3670.804640,4415.318896,-6231.956927,955.425317,7109.955801,-8051.947719,-6097.801757,2641.439753,279.128585,2520.114484,-26093.024146,-8517.378094,0.004000,-0.012000,1.004000,192.000000,0.000000,0.000000,0.000000,0.000000,0.000000,0.000000,0.000000,0.000000,0.000000,1770887981.590093,0.000000
246.000000,-16216.861155,-11037.403171,-895.276772,-23034.411434,3741.212635,4471.958217,-6166.712185,1013.070466,7073.142478,-8146.674412,-6186.940513,2560.302920,190.638028,2430.171064,-26178.273699,-8597.598505,0.004000,-0.014000,1.006000,192.000000,0.000000,16.000000,127.500000,72.000000,15.500000,56.000000,0.000000,0.000000,0.000000,1770887981.590105,0.000000
248.000000,-16201.617265,-11028.417769,-879.027054,-23028.130594,3749.281615,4483.826993,-6153.770525,1032.762353,7133.738057,-8021.124663,-6055.959291,2676.666102,323.787370,2540.588682,-26039.871697,-8478.642521,0.004000,-0.014000,1.006000,192.000000,0.000000,0.000000,0.000000,0.000000,0.000000,0.000000,0.000000,0.000000,0.000000,1770887981.590117,0.000000
250.000000,-16287.626778,-11109.979285,-958.800430,-23119.213953,3668.614169,4415.385951,-6240.294127,949.725622,7076.025853,-8147.859055,-6172.411880,2564.862676,206.328953,2438.508265,-26168.550690,-8589.283656,0.004000,-0.014000,1.006000,192.000000,0.000000,0.000000,0.000000,0.000000,0.000000,0.000000,0.000000,0.000000,0.000000,1770887981.590132,0.000000
252.000000,-16157.561977,-10978.774545,-844.515961,-22984.947024,3784.843240,4514.560642,-6118.633582,1062.244303,7109.888746,-8070.454963,-6106.049550,2624.653593,269.494983,2495.080530,-26091.034840,-8524.150672,0.004000,-0.014000,1.006000,192.000000,0.000000,0.000000,0.000000,0.000000,0.000000,0.000000,0.000000,0.000000,0.000000,1770887981.590145,0.000000
254.000000,-16281.502400,-11098.646951,-956.364090,-23104.886485,3672.212800,4427.768818,-6234.996764,956.766421,7105.776025,-8061.670728,-6099.142861,2633.706049,271.685454,2504.736484,-26089.201997,-8510.583164,0.004000,-0.014000,1.006000,192.000000,0.000000,0.000000,0.000000,0.000000,0.000000,0.000000,0.000000,0.000000,0.000000,1770887981.590158,0.000000
0.000000,-16211.496736,-11032.776360,-897.757816,-23026.565972,3737.099914,4482.307074,-6170.579037,1014.970364,7075.109431,-8143.701630,-6184.280656,2560.258217,196.605944,2425.030163,-26178.765437,-8584.858010,0.004000,-0.010000,1.006000,192.000000,0.000000,16.000000,127.500000,104.000000,15.500000,56.000000,0.000000,0.000000,0.000000,1770887981.590170,0.000000
2.000000,-16197.951579,-11020.929935,-884.100900,-23013.914885,3752.321452,4500.680208,-6156.050403,1031.488303,7133.134560,-8012.116910,-6055.892236,2680.376492,321.954527,2556.100792,-26042.710369,-8468.070146,0.004000,-0.010000,1.006000,192.000000,0.000000,0.000000,0.000000,0.000000,0.000000,0.000000,0.000000,0.000000,0.000000,1770887981.590182,0.000000
4.000000,-16274.774525,-11096.992921,-958.196933,-23101.533723,3662.869771,4420.817425,-6234.236805,961.303826,7084.877143,-8132.481054,-6166.622778,2577.156136,210.441674,2450.600559,-26170.584699,-8581.795821,0.004000,-0.010000,1.006000,192.000000,0.000000,0.000000,0.000000,0.000000,0.000000,0.000000,0.000000,0.000000,0.000000,1770887981.590194,0.000000
6.000000,-16151.057619,-10970.817324,-845.901769,-22984.544693,3777.400109,4529.357496,-6115.414931,1075.878868,7118.985906,-8057.982690,-6096.907687,2637.930529,274.255904,2509.944440,-26099.148524,-8530.252699,0.004000,-0.010000,1.006000,192.000000,0.000000,0.000000,0.000000,0.000000,0.000000,0.000000,0.000000,0.000000,0.000000,1770887981.590206,0.000000
8.000000,-16270.684155,-11087.381671,-952.966625,-23097.935092,3667.295416,4414.782454,-6228.268889,968.098756,7113.643839,-8051.612443,-6086.648236,2645.239549,277.273390,2520.874443,-26093.672346,-8522.228422,0.004000,-0.010000,1.006000,192.000000,0.000000,0.000000,0.000000,0.000000,0.000000,0.000000,0.000000,0.000000,0.000000,1770887981.590219,0.000000
10.000000,-16209.574486,-11027.166072,-893.220412,-23031.304542,3735.982327,4481.457708,-6166.354557,1017.004373,7083.200763,-8138.694839,-6177.530429,2564.527400,203.669095,2435.177855,-26179.167769,-8599.029016,0.001000,-0.010000,1.004000,192.000000,127.500000,120.000000,127.500000,88.000000,15.500000,40.000000,0.000000,0.000000,0.000000,1770887981.590231,0.000000
12.000000,-16201.974893,-11022.114578,-884.212659,-23026.789490,3752.500266,4495.293438,-6157.749135,1025.743905,7127.121941,-8011.267544,-6060.563750,2675.414404,307.381190,2545.818990,-26046.130186,-8480.497716,0.001000,-0.010000,1.004000,192.000000,0.000000,0.000000,0.000000,0.000000,0.000000,0.000000,0.000000,0.000000,0.000000,1770887981.590243,0.000000
14.000000,-16294.421708,-11109.711064,-965.215381,-23109.222723,3671.877524,4417.978754,-6239.936500,949.412697,7076.964626,-8136.280851,-6176.189324,2568.058976,202.395046,2447.985404,-26170.405885,-8589.685987,0.001000,-0.010000,1.004000,192.000000,0.000000,0.000000,0.000000,0.000000,0.000000,0.000000,0.000000,0.000000,0.000000,1770887981.590255,0.000000
16.000000,-16161.205311,-10979.623911,-845.231217,-22975.469884,3793.582772,4520.237985,-6116.577222,1065.686472,7113.308562,-8062.207170,-6111.704542,2633.415476,279.240343,2507.798673,-26091.571282,-8522.653106,0.001000,-0.010000,1.004000,192.000000,0.000000,0.000000,0.000000,0.000000,0.000000,0.000000,0.000000,0.000000,0.000000,1770887981.590267,0.000000
18.000000,-16277.344975,-11101.038587,-956.967587,-23108.015729,3686.875544,4433.803789,-6234.192101,957.481677,7113.241507,-8056.999213,-6093.934905,2641.484456,287.599896,2515.644135,-26079.881320,-8506.984533,0.001000,-0.010000,1.004000,192.000000,0.000000,0.000000,0.000000,0.000000,0.000000,0.000000,0.000000,0.000000,0.000000,1770887981.590279,0.000000
20.000000,-16209.775652,-11033.916299,-900.395322,-23035.417263,3749.527484,4487.984417,-6172.724804,1013.003410,7076.584646,-8149.490732,-6183.252476,2553.843266,205.434883,2439.357631,-26174.518606,-8588.903676,0.001000,-0.010000,1.004000,192.000000,0.000000,0.000000,127.500000,64.000000,15.500000,72.000000,0.000000,0.000000,0.000000,1770887981.590292,0.000000
22.000000,-16202.332521,-11022.136929,-888.235973,-23023.146155,3759.786935,4490.197240,-6161.414821,1027.375582,7129.960612,-8014.039160,-6056.361622,2675.772032,314.131417,2547.942406,-26041.123395,-8467.019614,0.001000,-0.010000,1.004000,192.000000,0.000000,0.000000,0.000000,0.000000,0.000000,0.000000,0.000000,0.000000,0.000000,1770887981.590304,0.000000
24.000000,-16285.637472,-11107.520593,-963.606055,-23115.592970,3678.828916,4429.154626,-6242.998689,947.803372,7074.818858,-8141.086476,-6174.378833,2565.779098,203.602040,2448.119515,-26168.640097,-8583.695720,0.001000,-0.010000,1.004000,192.000000,0.000000,0.000000,0.000000,0.000000,0.000000,0.000000,0.000000,0.000000,0.000000,1770887981.590316,0.000000
26.000000,-16154.164511,-10976.584074,-846.348804,-22979.426143,3786.050235,4522.875491,-6116.532518,1064.211257,7118.918850,-8066.409298,-6105.557812,2626.195863,284.738873,2514.124216,-26093.873512,-8527.212861,0.001000,-0.010000,1.004000,192.000000,0.000000,0.000000,0.000000,0.000000,0.000000,0.000000,0.000000,0.000000,0.000000,1770887981.590330,0.000000
28.000000,-16279.803667,-11100.032759,-954.531247,-23103.880656,3673.509201,4423.276117,-6228.291241,960.186238,7113.688542,-8055.054612,-6094.136071,2641.529160,287.421082,2524.696591,-26087.883245,-8514.002980,0.001000,-0.010000,1.004000,192.000000,0.000000,0.000000,0.000000,0.000000,0.000000,0.000000,0.000000,0.000000,0.000000,1770887981.590342,0.000000
30.000000,-16208.792175,-11028.820101,-895.701456,-23036.423091,3736.183493,4478.797850,-6165.482839,1020.424190,7075.154135,-8149.758953,-6182.961903,2558.090098,200.003409,2443.403297,-26180.508874,-8602.605295,0.002500,-0.011000,1.008000,192.000000,0.000000,16.000000,127.500000,80.000000,15.500000,80.000000,0.000000,0.000000,0.000000,1770887981.590355,0.000000
32.000000,-16191.849553,-11016.593697,-886.827813,-23023.973170,3749.549836,4484.296380,-6153.524656,1033.656422,7139.281289,-8009.635867,-6047.398573,2681.091747,327.967146,2560.369976,-26046.957200,-8481.838820,0.002500,-0.011000,1.008000,192.000000,0.000000,0.000000,0.000000,0.000000,0.000000,0.000000,0.000000,0.000000,0.000000,1770887981.590367,0.000000
34.000000,-16280.451868,-11108.861698,-967.227038,-23123.930171,3673.151573,4424.997202,-6241.344659,951.290244,7084.072481,-8143.746334,-6164.901693,2565.756746,200.741017,2438.955300,-26176.619670,-8594.670426,0.002500,-0.011000,1.008000,192.000000,0.000000,0.000000,0.000000,0.000000,0.000000,0.000000,0.000000,0.000000,0.000000,1770887981.590384,0.000000
36.000000,-16157.226700,-10984.429536,-847.891074,-22979.649661,3791.794633,4502.445996,-6116.040780,1067.720481,7118.293001,-8073.114821,-6097.779405,2623.625412,267.215105,2511.218490,-26101.115477,-8528.464559,0.002500,-0.011000,1.008000,192.000000,0.000000,0.000000,0.000000,0.000000,0.000000,0.000000,0.000000,0.000000,0.000000,1770887981.590402,0.000000
38.000000,-16282.597635,-11106.067730,-954.218323,-23103.813601,3678.046605,4422.538510,-6230.995802,958.956892,7113.174452,-8060.307272,-6088.704597,2637.282328,285.834108,2534.352545,-26087.235044,-8510.046722,0.002500,-0.011000,1.008000,192.000000,0.000000,0.000000,0.000000,0.000000,0.000000,0.000000,0.000000,0.000000,0.000000,1770887981.590415,0.000000
40.000000,-16221.018579,-11040.979450,-900.372970,-23042.189842,3748.678118,4480.518935,-6173.909446,1008.667172,7069.677957,-8156.956215,-6187.387548,2549.127048,199.779892,2439.625852,-26176.753780,-8591.451775,0.003250,-0.011500,1.011000,192.000000,0.000000,16.000000,127.500000,80.000000,15.500000,88.000000,0.000000,0.000000,0.000000,1770887981.590427,0.000000
42.000000,-16205.797041,-11024.997953,-883.564458,-23024.978998,3764.547856,4499.584973,-6157.525618,1022.234681,7126.719609,-8020.074131,-6062.418945,2666.630169,316.366591,2562.269874,-26038.776462,-8468.584236,0.003250,-0.011500,1.011000,192.000000,0.000000,0.000000,0.000000,0.000000,0.000000,0.000000,0.000000,0.000000,0.000000,1770887981.590439,0.000000
44.000000,-16295.472240,-11116.081311,-968.545791,-23115.861191,3677.577219,4423.857263,-6245.099753,938.013308,7070.773193,-8144.171017,-6180.212638,2558.671243,198.371732,2451.137000,-26164.840301,-8579.962978,0.003250,-0.011500,1.011000,192.000000,0.000000,0.000000,0.000000,0.000000,0.000000,0.000000,0.000000,0.000000,0.000000,1770887981.590451,0.000000
46.000000,-16160.735924,-10982.954321,-846.706432,-22985.461114,3799.863613,4527.547005,-6119.997039,1059.182115,7104.881955,-8074.634740,-6114.185585,2616.919889,269.629093,2512.805463,-26099.997890,-8527.168158,0.003250,-0.011500,1.011000,192.000000,0.000000,0.000000,0.000000,0.000000,0.000000,0.000000,0.000000,0.000000,0.000000,1770887981.590464,0.000000
48.000000,-16272.919330,-11092.902552,-950.686747,-23100.125563,3691.770576,4428.707591,-6228.045372,959.605093,7113.800301,-8054.719335,-6092.459690,2634.600119,288.941001,2538.286452,-26083.211730,-8512.058379,0.003250,-0.011500,1.011000,192.000000,0.000000,0.000000,0.000000,0.000000,0.000000,0.000000,0.000000,0.000000,0.000000,1770887981.590478,0.000000
50.000000,-16208.680416,-11028.909508,-893.935668,-23034.880821,3749.460429,4481.256542,-6167.561551,1015.193881,7079.825649,-8141.332345,-6178.469202,2556.033737,202.663267,2467.297312,-26180.263004,-8597.732615,0.002625,-0.011750,1.010500,192.000000,0.000000,8.000000,127.500000,80.000000,15.500000,72.000000,0.000000,0.000000,0.000000,1770887981.590492,0.000000
52.000000,-16183.780573,-11009.865822,-878.512964,-23018.273475,3760.301025,4497.349798,-6151.200074,1035.332803,7139.102476,-8009.635867,-6048.650271,2675.727329,325.441399,2567.790755,-26041.950410,-8478.977797,0.002625,-0.011750,1.010500,192.000000,0.000000,0.000000,0.000000,0.000000,0.000000,0.000000,0.000000,0.000000,0.000000,1770887981.590504,0.000000
54.000000,-16280.228350,-11104.950142,-966.154154,-23110.675587,3676.683149,4425.533643,-6239.310651,949.166828,7088.431071,-8134.380953,-6162.353595,2570.316502,212.542738,2466.000911,-26172.953984,-8586.534391,0.002625,-0.011750,1.010500,192.000000,0.000000,0.000000,0.000000,0.000000,0.000000,0.000000,0.000000,0.000000,0.000000,1770887981.590516,0.000000
56.000000,-16154.857416,-10975.734708,-847.846371,-22981.661318,3798.947191,4527.569357,-6116.152539,1064.702995,7108.994676,-8069.158562,-6106.027199,2620.697334,257.402689,2513.699533,-26102.076602,-8526.654068,0.002625,-0.011750,1.010500,192.000000,0.000000,0.000000,0.000000,0.000000,0.000000,0.000000,0.000000,0.000000,0.000000,1770887981.590528,0.000000
58.000000,-16275.869760,-11093.304884,-953.570122,-23097.577464,3683.545134,4424.125484,-6226.883081,959.560389,7111.363961,-8052.081830,-6087.676416,2637.505846,284.470652,2546.333080,-26085.558663,-8507.230402,0.002625,-0.011750,1.010500,192.000000,0.000000,0.000000,0.000000,0.000000,0.000000,0.000000,0.000000,0.000000,0.000000,1770887981.590543,0.000000
60.000000,-16215.497698,-11033.849243,-901.825834,-23036.825423,3744.967728,4479.513106,-6169.126173,1011.192919,7067.621597,-8148.842531,-6185.286484,2549.708194,189.431034,2458.803649,-26178.586624,-8595.318627,0.000313,-0.014875,1.006250,192.000000,127.500000,120.000000,127.500000,56.000000,15.500000,40.000000,0.000000,0.000000,0.000000,1770887981.590555,0.000000
62.000000,-16203.383053,-11021.645191,-886.067854,-23018.005254,3756.367118,4499.562621,-6151.580054,1029.186073,7125.691429,-8019.269469,-6061.837800,2669.446489,318.691172,2577.983150,-26041.838651,-8470.841762,0.000313,-0.014875,1.006250,192.000000,0.000000,0.000000,0.000000,0.000000,0.000000,0.000000,0.000000,0.000000,0.000000,1770887981.590568,0.000000
64.000000,-16293.482935,-11109.398140,-974.267837,-23104.931188,3671.810469,4425.108960,-6240.785866,944.294148,7068.001576,-8144.305127,-6180.369101,2560.973473,203.892613,2463.229294,-26168.640097,-8575.693795,0.000313,-0.014875,1.006250,192.000000,0.000000,0.000000,0.000000,0.000000,0.000000,0.000000,0.000000,0.000000,0.000000,1770887981.590590,0.000000
66.000000,-16156.399686,-10978.260455,-854.395432,-22979.292033,3799.327171,4533.649031,-6118.097141,1065.306492,7103.786719,-8071.304330,-6117.538347,2621.099665,259.704919,2533.614937,-26101.048422,-8518.205108,0.000313,-0.014875,1.006250,192.000000,0.000000,0.000000,0.000000,0.000000,0.000000,0.000000,0.000000,0.000000,0.000000,1770887981.590602,0.000000
68.000000,-16268.940719,-11093.640160,-955.157096,-23096.661043,3689.803623,4430.205158,-6226.525453,965.148326,7113.509728,-8055.009908,-6088.346969,2640.232759,267.528029,2550.155228,-26084.396372,-8505.352855,0.000313,-0.014875,1.006250,192.000000,0.000000,0.000000,0.000000,0.000000,0.000000,0.000000,0.000000,0.000000,0.000000,1770887981.590615,0.000000
70.000000,-16208.009864,-11031.234089,-897.735464,-23037.272458,3738.686888,4472.964045,-6168.813249,1019.083085,7081.658492,-8146.897930,-6175.049385,2556.324310,197.388255,2461.262341,-26180.508874,-8599.252534,0.000313,-0.014875,1.006250,192.000000,0.000000,0.000000,0.000000,0.000000,0.000000,0.000000,0.000000,0.000000,0.000000,1770887981.590627,0.000000
72.000000,-16184.428773,-11004.255534,-879.652903,-23013.579609,3762.893827,4494.220554,-6148.584920,1042.619472,7138.990717,-8009.769977,-6047.532683,2683.058701,329.665879,2581.470022,-26043.470328,-8482.867000,0.004000,-0.014000,1.008000,192.000000,0.000000,16.000000,127.500000,72.000000,15.500000,64.000000,0.000000,0.000000,0.000000,1770887981.590639,0.000000
74.000000,-16277.412030,-11095.718872,-963.315483,-23105.020595,3682.159326,4425.667754,-6237.991898,957.124049,7083.714853,-8124.702647,-6164.454659,2579.838345,212.095703,2487.123309,-26168.170711,-8588.747214,0.004000,-0.014000,1.008000,192.000000,0.000000,0.000000,0.000000,0.000000,0.000000,0.000000,0.000000,0.000000,0.000000,1770887982.070454,0.000000
76.000000,-16146.095532,-10966.346975,-844.873589,-22973.413524,3804.557479,4533.291403,-6114.520861,1073.710748,7116.728379,-8059.614367,-6104.306114,2630.912081,271.998378,2533.905510,-26100.310814,-8530.990306,0.004000,-0.014000,1.008000,192.000000,0.000000,0.000000,0.000000,0.000000,0.000000,0.000000,0.000000,0.000000,0.000000,1770887982.070515,0.000000
78.000000,-16264.716240,-11082.888971,-950.217360,-23093.755316,3686.629675,4438.743524,-6224.156168,971.228000,7122.204557,-8041.151827,-6080.121527,2651.408631,291.757320,2565.063842,-26080.730686,-8511.387826,0.004000,-0.014000,1.008000,192.000000,0.000000,0.000000,0.000000,0.000000,0.000000,0.000000,0.000000,0.000000,0.000000,1770887982.070563,0.000000
80.000000,-16210.557963,-11029.423598,-902.742255,-23037.317161,3733.613042,4482.083557,-6172.143659,1014.277460,7074.662396,-8144.752162,-6178.290388,2558.224208,183.217249,2471.052405,-26183.034621,-8596.302104,0.004000,-0.014000,1.008000,192.000000,0.000000,0.000000,0.000000,0.000000,0.000000,0.000000,0.000000,0.000000,0.000000,1770887982.070607,0.000000
82.000000,-16187.446259,-11012.078644,-881.821022,-23016.865315,3752.477914,4492.298304,-6150.328356,1037.880902,7130.809978,-8011.088730,-6050.281948,2676.308474,312.075056,2594.009351,-26044.945543,-8474.976835,0.006000,-0.012000,1.004000,192.000000,0.000000,24.000000,127.500000,80.000000,15.500000,48.000000,0.000000,0.000000,0.000000,1770887982.070656,0.000000
84.000000,-16284.586940,-11105.643047,-969.953951,-23115.749433,3670.983454,4427.500597,-6240.539997,950.217360,7070.437917,-8138.292508,-6166.622778,2567.321368,194.594287,2477.892039,-26171.299955,-8582.041691,0.006000,-0.012000,1.004000,192.000000,0.000000,0.000000,0.000000,0.000000,0.000000,0.000000,0.000000,0.000000,0.000000,1770887982.070699,0.000000
86.000000,-16154.566843,-10970.839676,-846.997004,-22981.951890,3799.796557,4541.025107,-6117.225423,1066.491135,7102.982056,-8069.247969,-6111.212803,2620.674982,254.251093,2534.307842,-26101.406050,-8520.686152,0.006000,-0.012000,1.004000,192.000000,0.000000,0.000000,0.000000,0.000000,0.000000,0.000000,0.000000,0.000000,0.000000,1770887982.070723,0.000000
88.000000,-16273.522827,-11091.203820,-953.167791,-23097.868037,3691.256486,4445.873731,-6230.079380,961.884971,7112.861528,-8049.377268,-6090.895068,2643.205541,287.599896,2555.139667,-26079.590747,-8500.770748,0.006000,-0.012000,1.004000,192.000000,0.000000,0.000000,0.000000,0.000000,0.000000,0.000000,0.000000,0.000000,0.000000,1770887982.070740,0.000000
90.000000,-16213.888373,-11032.664601,-903.949249,-23032.757405,3744.632452,4475.422737,-6172.814211,1013.159873,7071.354338,-8147.367316,-6185.085319,2556.503124,193.208479,2474.896905,-26176.351449,-8587.517868,0.006000,-0.012000,1.004000,192.000000,0.000000,0.000000,0.000000,0.000000,0.000000,0.000000,0.000000,0.000000,0.000000,1770887982.070766,0.000000
92.000000,-16189.346157,-11010.759891,-879.518793,-23017.334702,3759.742231,4487.179755,-6150.261301,1040.563111,7126.674906,-8015.581431,-6054.372317,2675.906143,319.808760,2592.087101,-26047.717160,-8478.731928,0.004000,-0.018000,1.000000,192.000000,0.000000,16.000000,127.500000,56.000000,15.500000,32.000000,0.000000,0.000000,0.000000,1770887982.070791,0.000000
94.000000,-16287.827943,-11106.380654,-966.690596,-23117.246999,3673.844477,4417.196443,-6241.456418,953.257198,7079.736242,-8137.353735,-6160.341938,2567.164906,198.774063,2475.410995,-26169.109484,-8591.742348,0.004000,-0.018000,1.000000,192.000000,0.000000,0.000000,0.000000,0.000000,0.000000,0.000000,0.000000,0.000000,0.000000,1770887982.070804,0.000000
96.000000,-16152.443427,-10974.483010,-848.248702,-22982.376573,3799.707150,4523.791912,-6118.253603,1068.279274,7109.218193,-8074.724147,-6106.831861,2619.333877,262.342425,2530.731562,-26100.489628,-8534.834806,0.004000,-0.018000,1.000000,192.000000,0.000000,0.000000,0.000000,0.000000,0.000000,0.000000,0.000000,0.000000,0.000000,1770887982.070819,0.000000
98.000000,-16271.332356,-11088.365148,-954.710061,-23098.248017,3690.541231,4435.703687,-6229.118255,965.908285,7112.526251,-8052.506513,-6088.816355,2643.719631,286.079977,2565.399118,-26081.177721,-8510.493757,0.004000,-0.018000,1.000000,192.000000,0.000000,0.000000,0.000000,0.000000,0.000000,0.000000,0.000000,0.000000,0.000000,1770887982.070840,0.000000
100.000000,-16205.126489,-11026.294354,-902.541089,-23034.634952,3751.114458,4496.634543,-6173.596522,1015.730323,7080.920885,-8144.975680,-6179.698548,2555.385537,205.546642,2480.060158,-26177.357278,-8593.932819,0.004000,-0.018000,1.000000,192.000000,0.000000,0.000000,0.000000,0.000000,0.000000,0.000000,0.000000,0.000000,0.000000,1770887982.070856,0.000000
102.000000,-16191.782497,-11008.681179,-888.839470,-23014.406623,3764.749022,4503.742397,-6158.196170,1030.460123,7138.677792,-8008.585335,-6054.126448,2673.201582,320.434609,2613.187148,-26041.257506,-8468.941864,0.004000,-0.018000,1.000000,192.000000,0.000000,16.000000,127.500000,56.000000,15.500000,32.000000,0.000000,0.000000,0.000000,1770887982.070873,0.000000
104.000000,-16286.866818,-11104.391349,-975.653645,-23109.803869,3667.071899,4423.119655,-6248.027831,946.529322,7079.177449,-8133.732752,-6171.093127,2563.521572,202.305639,2497.561574,-26171.031734,-8575.582036,0.004000,-0.018000,1.000000,192.000000,0.000000,0.000000,0.000000,0.000000,0.000000,0.000000,0.000000,0.000000,0.000000,1770887982.070890,0.000000
106.000000,-16161.540587,-10980.585036,-858.083470,-22988.590358,3794.588601,4533.425514,-6124.668553,1059.852667,7102.825594,-8075.662920,-6114.498510,2613.634183,252.306491,2537.437086,-26109.787954,-8527.302268,0.004000,-0.018000,1.000000,192.000000,0.000000,0.000000,0.000000,0.000000,0.000000,0.000000,0.000000,0.000000,0.000000,1770887982.070905,0.000000
108.000000,-16270.862969,-11090.153288,-954.240674,-23102.338386,3688.149594,4442.789190,-6231.845168,959.292169,7112.772121,-8053.422934,-6087.922286,2635.829465,281.408463,2546.601301,-26081.580053,-8500.904858,0.004000,-0.018000,1.000000,192.000000,0.000000,0.000000,0.000000,0.000000,0.000000,0.000000,0.000000,0.000000,0.000000,1770887982.070921,0.000000
110.000000,-16208.389844,-11035.413865,-905.580927,-23042.167490,3748.745173,4481.055377,-6182.447813,1002.989829,7074.170658,-8153.804619,-6188.795708,2547.987109,195.756578,2490.677236,-26180.464170,-8587.584923,0.004000,-0.018000,1.000000,192.000000,0.000000,0.000000,0.000000,0.000000,0.000000,0.000000,0.000000,0.000000,0.000000,1770887982.070939,0.000000
112.000000,-16186.105154,-11004.590810,-881.575153,-23011.187972,3773.600313,4516.639354,-6157.302100,1034.148161,7140.711801,-8010.351123,-6054.506428,2672.329864,330.984632,2615.265860,-26036.295418,-8465.276178,0.004000,-0.018000,1.000000,192.000000,0.000000,0.000000,127.500000,72.000000,15.500000,40.000000,0.000000,0.000000,0.000000,1770887982.070956,0.000000
114.000000,-16279.446039,-11099.608076,-972.300884,-23114.341273,3679.074786,4433.535568,-6248.497218,946.529322,7082.261989,-8127.138987,-6165.125211,2572.171697,203.982020,2506.345809,-26161.420484,-8572.139868,0.004000,-0.018000,1.000000,192.000000,0.000000,0.000000,0.000000,0.000000,0.000000,0.000000,0.000000,0.000000,0.000000,1770887982.070987,0.000000
116.000000,-16149.448293,-10968.559798,-851.489705,-22980.655489,3783.993874,4534.140770,-6122.187510,1066.558190,7107.675923,-8071.818420,-6109.894050,2617.702200,260.889561,2555.631406,-26105.630530,-8530.520920,0.004000,-0.018000,1.000000,192.000000,0.000000,0.000000,0.000000,0.000000,0.000000,0.000000,0.000000,0.000000,0.000000,1770887982.071005,0.000000
118.000000,-16259.955318,-11075.758764,-957.012291,-23096.906912,3671.698710,4437.245958,-6229.140607,969.417509,7113.733246,-8041.040068,-6082.267294,2648.838180,282.101367,2574.451575,-26086.184512,-8510.314943,0.004000,-0.018000,1.000000,192.000000,0.000000,0.000000,0.000000,0.000000,0.000000,0.000000,0.000000,0.000000,0.000000,1770887982.071019,0.000000
120.000000,-16209.149803,-11026.473168,-907.614935,-23041.116958,3733.657746,4474.752185,-6177.619836,1013.629259,7078.506896,-8138.761895,-6182.179592,2562.426336,191.487395,2492.979466,-26186.946176,-8605.801595,0.004000,-0.018000,1.000000,192.000000,0.000000,0.000000,0.000000,0.000000,0.000000,0.000000,0.000000,0.000000,0.000000,1770887982.071035,0.000000
122.000000,-16183.266483,-11005.060197,-882.290409,-23014.808955,3770.091089,4496.545136,-6151.423592,1038.976138,7139.683621,-8008.384169,-6054.797000,2680.018864,326.424876,2614.483549,-26045.057302,-8479.760108,-0.004000,-0.012000,1.006000,192.000000,127.500000,112.000000,127.500000,80.000000,15.500000,56.000000,0.000000,0.000000,0.000000,1770887982.071056,0.000000
124.000000,-16283.089373,-11108.928753,-971.607980,-23121.784404,3691.882335,4431.300393,-6247.737258,944.875293,7076.942274,-8132.525758,-6169.997891,2570.338854,204.563165,2498.813271,-26164.572080,-8578.666577,-0.004000,-0.012000,1.006000,192.000000,0.000000,0.000000,0.000000,0.000000,0.000000,0.000000,0.000000,0.000000,0.000000,1770887982.071072,0.000000
126.000000,-16163.529892,-10980.786202,-854.194266,-22985.483466,3803.238726,4528.552834,-6123.640373,1062.087841,7103.272629,-8084.983597,-6116.264298,2612.091912,266.522201,2541.415696,-26105.272902,-8530.230347,-0.004000,-0.012000,1.006000,192.000000,0.000000,0.000000,0.000000,0.000000,0.000000,0.000000,0.000000,0.000000,0.000000,1770887982.071089,0.000000
128.000000,-16269.812437,-11088.767480,-953.167791,-23097.622168,3696.822071,4444.666737,-6226.838377,968.232866,7111.632182,-8051.813609,-6083.116660,2646.848875,288.829242,2572.372862,-26083.882282,-8499.876678,-0.004000,-0.012000,1.006000,192.000000,0.000000,0.000000,0.000000,0.000000,0.000000,0.000000,0.000000,0.000000,0.000000,1770887982.071105,0.000000
130.000000,-16216.101195,-11035.324459,-909.648944,-23036.736016,3743.090182,4476.696786,-6179.296217,1008.398951,7073.142478,-8155.078668,-6183.967731,2551.697499,193.633162,2486.408053,-26181.984089,-8591.921162,-0.004000,-0.012000,1.006000,192.000000,0.000000,0.000000,0.000000,0.000000,0.000000,0.000000,0.000000,0.000000,0.000000,1770887982.071121,0.000000
132.000000,-16185.345195,-11003.406167,-884.816156,-23011.411489,3772.035691,4516.684057,-6153.412897,1036.517446,7134.699182,-8011.200489,-6052.740640,2675.436756,313.840844,2606.593383,-26042.173927,-8464.247997,0.002000,-0.014000,1.006000,192.000000,0.000000,8.000000,127.500000,72.000000,15.500000,56.000000,0.000000,0.000000,0.000000,1770887982.071137,0.000000
134.000000,-16286.017452,-11099.809241,-976.525364,-23109.580351,3677.510163,4433.513216,-6246.798485,946.551674,7076.092908,-8131.788150,-6169.707319,2572.708139,194.326066,2497.338056,-26166.963716,-8566.529580,0.002000,-0.014000,1.006000,192.000000,0.000000,0.000000,0.000000,0.000000,0.000000,0.000000,0.000000,0.000000,0.000000,1770887982.071154,0.000000
136.000000,-16159.148950,-10970.794972,-853.657824,-22980.990765,3796.488499,4528.306964,-6120.600536,1063.853629,7103.317333,-8072.667786,-6118.834748,2621.211424,264.130564,2560.995824,-26105.854047,-8527.302268,0.002000,-0.014000,1.006000,192.000000,0.000000,0.000000,0.000000,0.000000,0.000000,0.000000,0.000000,0.000000,0.000000,1770887982.071170,0.000000
138.000000,-16271.421763,-11087.918113,-955.738241,-23102.114868,3689.714216,4443.660908,-6228.827683,961.259122,7107.541812,-8048.930234,-6087.944637,2645.843046,285.856460,2578.072557,-26078.920195,-8503.899992,0.002000,-0.014000,1.006000,192.000000,0.000000,0.000000,0.000000,0.000000,0.000000,0.000000,0.000000,0.000000,0.000000,1770887982.071186,0.000000
140.000000,-16219.789233,-11031.703476,-909.850110,-23041.631048,3734.574167,4480.407176,-6179.922066,1007.795454,7068.515667,-8151.055354,-6189.130984,2551.049298,193.767273,2486.743329,-26184.331022,-8603.767586,0.002000,-0.014000,1.006000,192.000000,0.000000,0.000000,0.000000,0.000000,0.000000,0.000000,0.000000,0.000000,0.000000,1770887982.071203,0.000000
142.000000,-16190.150820,-11003.182650,-886.961923,-23008.930446,3763.452621,4499.383807,-6152.384717,1040.786629,7125.289097,-8011.289896,-6058.686204,2679.415367,314.891376,2614.170625,-26049.527651,-8477.927265,0.002000,-0.012000,1.007000,192.000000,0.000000,8.000000,127.500000,88.000000,15.500000,64.000000,0.000000,0.000000,0.000000,1770887982.071220,0.000000
144.000000,-16286.844467,-11104.033721,-976.726529,-23112.061395,3675.140879,4421.622088,-6246.865540,951.916093,7074.349472,-8134.582118,-6168.097993,2572.685787,197.947049,2504.512966,-26168.818911,-8579.538295,0.002000,-0.012000,1.007000,192.000000,0.000000,0.000000,0.000000,0.000000,0.000000,0.000000,0.000000,0.000000,0.000000,1770887982.071238,0.000000
146.000000,-16157.316107,-10977.254626,-856.965882,-22982.667146,3798.701322,4525.937680,-6124.020353,1064.144202,7109.039379,-8077.071080,-6114.386751,2617.545738,255.279273,2552.926845,-26110.458506,-8532.465521,0.002000,-0.012000,1.007000,192.000000,0.000000,0.000000,0.000000,0.000000,0.000000,0.000000,0.000000,0.000000,0.000000,1770887982.071254,0.000000
148.000000,-16268.069001,-11085.548828,-958.889837,-23098.002147,3692.932867,4440.151684,-6232.448665,964.656587,7118.181243,-8048.438495,-6086.447070,2643.429058,287.644599,2585.493336,-26080.395410,-8505.866945,0.002000,-0.012000,1.007000,192.000000,0.000000,0.000000,0.000000,0.000000,0.000000,0.000000,0.000000,0.000000,0.000000,1770887982.071272,0.000000
150.000000,-16211.317922,-11032.463435,-914.387514,-23048.001295,3733.724801,4487.112699,-6183.341883,1011.818768,7080.250332,-8148.261386,-6186.471127,2553.440935,190.816842,2490.207850,-26186.342679,-8597.799670,0.002000,-0.012000,1.007000,192.000000,0.000000,0.000000,0.000000,0.000000,0.000000,0.000000,0.000000,0.000000,0.000000,1770887982.071289,0.000000
152.000000,-16185.121678,-11002.065063,-887.744235,-23009.422184,3762.357385,4510.649086,-6151.870626,1041.613643,7132.911042,-8015.514376,-6057.389803,2674.654445,312.209167,2614.930584,-26050.041741,-8472.160515,0.002000,-0.011000,1.007500,192.000000,0.000000,8.000000,127.500000,88.000000,15.500000,64.000000,0.000000,0.000000,0.000000,1770887982.071306,0.000000
154.000000,-16289.929007,-11108.124090,-977.218268,-23105.981720,3675.856134,4434.608452,-6247.960776,945.054107,7081.949065,-8133.799807,-6166.622778,2573.021063,211.581613,2510.011495,-26166.226109,-8565.926083,0.002000,-0.011000,1.007500,192.000000,0.000000,0.000000,0.000000,0.000000,0.000000,0.000000,0.000000,0.000000,0.000000,1770887982.071327,0.000000
156.000000,-16158.009012,-10973.901865,-856.652958,-22982.823608,3808.759607,4555.576093,-6125.763789,1061.037309,7110.626353,-8070.924350,-6121.405199,2619.155064,262.767108,2562.426336,-26107.798649,-8515.120568,0.002000,-0.011000,1.007500,192.000000,0.000000,0.000000,0.000000,0.000000,0.000000,0.000000,0.000000,0.000000,0.000000,1770887982.071345,0.000000
158.000000,-16262.391658,-11079.156229,-959.113355,-23092.168342,3694.206917,4447.773629,-6232.068686,966.109451,7115.499033,-8044.839864,-6091.207992,2643.853741,291.667913,2597.652685,-26077.087352,-8493.953466,0.002000,-0.011000,1.007500,192.000000,0.000000,0.000000,0.000000,0.000000,0.000000,0.000000,0.000000,0.000000,0.000000,1770887982.071361,0.000000
160.000000,-16204.411233,-11023.478034,-910.498310,-23039.217060,3739.648013,4485.883353,-6179.542086,1014.277460,7081.680844,-8143.500464,-6183.788918,2554.223246,190.883898,2513.207795,-26184.174560,-8595.296275,0.002000,-0.011000,1.007500,192.000000,0.000000,0.000000,0.000000,0.000000,0.000000,0.000000,0.000000,0.000000,0.000000,1770887982.071380,0.000000
162.000000,-16172.180017,-10987.804650,-882.268057,-23008.505763,3766.760679,4516.661706,-6149.858969,1047.425097,7142.701106,-8002.729178,-6049.119657,2680.041215,324.212053,2623.066619,-26044.900840,-8473.211047,0.003000,-0.012500,1.008750,192.000000,0.000000,16.000000,127.500000,72.000000,15.500000,72.000000,0.000000,0.000000,0.000000,1770887982.071397,0.000000
164.000000,-16279.289577,-11092.768442,-976.458308,-23113.223685,3666.244884,4429.400495,-6248.921901,950.574988,7083.625446,-8121.931031,-6164.968749,2578.296075,217.862453,2515.174748,-26168.215414,-8576.900789,0.003000,-0.012500,1.008750,192.000000,0.000000,0.000000,0.000000,0.000000,0.000000,0.000000,0.000000,0.000000,0.000000,1770887982.071414,0.000000
166.000000,-16153.426904,-10963.754173,-860.050423,-22977.906224,3789.045368,4536.085372,-6123.662725,1065.731176,7109.575821,-8066.342243,-6118.298306,2623.290136,263.817640,2575.189182,-26113.297178,-8534.231309,0.003000,-0.012500,1.008750,192.000000,0.000000,0.000000,0.000000,0.000000,0.000000,0.000000,0.000000,0.000000,0.000000,1770887982.071431,0.000000
168.000000,-16262.749286,-11072.763630,-962.130840,-23091.833066,3695.279800,4451.863998,-6229.788808,968.031701,7117.465987,-8039.140170,-6088.592838,2648.413497,284.023617,2596.445691,-26088.620852,-8502.044797,0.003000,-0.012500,1.008750,192.000000,0.000000,0.000000,0.000000,0.000000,0.000000,0.000000,0.000000,0.000000,0.000000,1770887982.071451,0.000000
170.000000,-16200.387919,-11015.587868,-914.141645,-23036.266629,3744.475990,4496.589839,-6181.844316,1016.378524,7084.452460,-8133.062200,-6181.307874,2559.677072,195.868337,2512.291373,-26187.482618,-8591.854106,0.003000,-0.012500,1.008750,192.000000,0.000000,0.000000,0.000000,0.000000,0.000000,0.000000,0.000000,0.000000,0.000000,1770887982.071469,0.000000
172.000000,-16170.794209,-10985.636531,-883.855031,-23003.521324,3777.511868,4519.343915,-6150.060135,1047.849780,7147.707897,-7998.527050,-6049.298471,2685.115061,329.867045,2640.322166,-26042.263334,-8471.668776,0.004500,-0.012250,1.007375,192.000000,0.000000,24.000000,127.500000,80.000000,15.500000,56.000000,0.000000,0.000000,0.000000,1770887982.071487,0.000000
174.000000,-16285.190437,-11101.150346,-977.508840,-23114.341273,3674.649140,4438.005917,-6250.978261,944.785886,7088.296960,-8120.656982,-6165.862818,2577.312598,218.622413,2533.793751,-26164.750894,-8570.754060,0.004500,-0.012250,1.007375,192.000000,0.000000,0.000000,0.000000,0.000000,0.000000,0.000000,0.000000,0.000000,0.000000,1770887982.071504,0.000000
176.000000,-16152.331668,-10965.832885,-856.004757,-22983.672975,3801.830566,4544.869607,-6126.791969,1061.372585,7115.253164,-8074.858257,-6120.801702,2613.343610,265.337558,2562.538095,-26109.340919,-8527.391675,0.004500,-0.012250,1.007375,192.000000,0.000000,0.000000,0.000000,0.000000,0.000000,0.000000,0.000000,0.000000,0.000000,1770887982.071521,0.000000
178.000000,-16265.185626,-11075.848171,-957.884009,-23095.766973,3694.609248,4448.108905,-6231.375781,966.176506,7123.277440,-8042.403524,-6086.916457,2647.050041,290.840899,2598.345589,-26077.959070,-8496.121585,0.004500,-0.012250,1.007375,192.000000,0.000000,0.000000,0.000000,0.000000,0.000000,0.000000,0.000000,0.000000,0.000000,1770887982.071539,0.000000
180.000000,-16214.782442,-11029.222432,-919.126084,-23054.773874,3736.004679,4489.504336,-6185.442947,1007.683695,7074.125954,-8147.009688,-6189.220391,2552.412755,192.582630,2509.989144,-26186.096810,-8597.106766,0.004500,-0.012250,1.007375,192.000000,0.000000,0.000000,0.000000,0.000000,0.000000,0.000000,0.000000,0.000000,0.000000,1770887982.071556,0.000000
182.000000,-16184.339366,-10997.214734,-889.040636,-23015.613617,3763.854952,4502.043665,-6150.618929,1045.055812,7128.328935,-8017.570736,-6061.636634,2671.324035,308.476425,2623.066619,-26050.332314,-8480.430660,0.003250,-0.011125,1.005688,192.000000,0.000000,8.000000,127.500000,88.000000,15.500000,48.000000,0.000000,0.000000,0.000000,1770887982.071573,0.000000
184.000000,-16284.899865,-11095.048320,-984.035550,-23114.363624,3667.004844,4421.532681,-6249.301881,953.234846,7076.562295,-8133.151607,-6167.293330,2573.892781,208.050037,2522.729638,-26170.517644,-8582.667539,0.003250,-0.011125,1.005688,192.000000,0.000000,0.000000,0.000000,0.000000,0.000000,0.000000,0.000000,0.000000,0.000000,1770887982.071591,0.000000
186.000000,-16153.985698,-10961.429591,-862.956150,-22982.108352,3789.380644,4531.905595,-6125.383809,1068.860420,7100.746882,-8071.796068,-6120.444074,2617.501034,254.809887,2565.332063,-26116.337015,-8537.025277,0.003250,-0.011125,1.005688,192.000000,0.000000,0.000000,0.000000,0.000000,0.000000,0.000000,0.000000,0.000000,0.000000,1770887982.071612,0.000000
188.000000,-16257.138998,-11069.120296,-958.107526,-23095.230531,3683.634541,4442.275100,-6228.693572,975.206611,7116.281344,-8039.050763,-6081.395576,2652.213294,288.829242,2597.496223,-26084.910462,-8502.536536,0.003250,-0.011125,1.005688,192.000000,0.000000,0.000000,0.000000,0.000000,0.000000,0.000000,0.000000,0.000000,0.000000,1770887982.071629,0.000000
190.000000,-16209.283913,-11025.288525,-918.790808,-23048.917717,3736.071734,4482.240019,-6184.951208,1014.746847,7079.602132,-8150.697726,-6180.011473,2555.340833,187.888764,2503.328324,-26193.919920,-8605.198098,0.003250,-0.011125,1.005688,192.000000,0.000000,0.000000,0.000000,0.000000,0.000000,0.000000,0.000000,0.000000,0.000000,1770887982.071646,0.000000
192.000000,-16178.013823,-10994.644284,-886.000798,-23018.340530,3770.962807,4514.381828,-6151.960033,1048.140353,7132.687525,-8017.146053,-6051.064259,2672.978064,309.370495,2629.883901,-26053.953296,-8480.967102,0.003250,-0.011125,1.005688,192.000000,0.000000,0.000000,127.500000,72.000000,15.500000,32.000000,0.000000,0.000000,0.000000,1770887982.071664,0.000000
194.000000,-16284.586940,-11099.161041,-979.989884,-23116.263523,3672.346911,4423.589042,-6250.754744,953.391308,7079.669187,-8133.352772,-6160.654862,2571.076461,207.267726,2524.853054,-26168.148359,-8579.203019,0.003250,-0.011125,1.005688,192.000000,0.000000,0.000000,0.000000,0.000000,0.000000,0.000000,0.000000,0.000000,0.000000,1770887982.552425,0.000000
196.000000,-16158.388991,-10969.587978,-860.944493,-22986.690460,3799.975371,4537.180607,-6132.134036,1063.764222,7109.039379,-8081.697891,-6119.192376,2609.879090,264.644654,2561.621673,-26113.006605,-8530.833844,0.003250,-0.011125,1.005688,192.000000,0.000000,0.000000,0.000000,0.000000,0.000000,0.000000,0.000000,0.000000,0.000000,1770887982.552494,0.000000
198.000000,-16267.264338,-11080.698500,-958.040471,-23101.623130,3709.897841,4449.204141,-6239.198892,962.846096,7120.327010,-8046.069210,-6085.955332,2641.417401,298.529899,2597.317409,-26075.858006,-8493.908762,0.003250,-0.011125,1.005688,192.000000,0.000000,0.000000,0.000000,0.000000,0.000000,0.000000,0.000000,0.000000,0.000000,1770887982.552549,0.000000
200.000000,-16216.168251,-11032.329325,-919.014325,-23053.879804,3746.219426,4487.269162,-6196.194136,1000.888765,7080.138574,-8154.162246,-6189.600371,2542.577987,195.130729,2513.990106,-26174.920937,-8593.798708,0.003250,-0.011125,1.005688,192.000000,0.000000,0.000000,0.000000,0.000000,0.000000,0.000000,0.000000,0.000000,0.000000,1770887982.552604,0.000000
202.000000,-16179.377279,-10995.761871,-887.274848,-23018.921676,3775.433156,4507.788063,-6162.219484,1035.511617,7138.163702,-8018.576565,-6064.721175,2664.082070,318.892338,2626.307622,-26044.878488,-8469.612416,0.003250,-0.011125,1.005688,192.000000,0.000000,0.000000,0.000000,0.000000,0.000000,0.000000,0.000000,0.000000,0.000000,1770887982.552659,0.000000
204.000000,-16278.641376,-11093.170773,-981.688616,-23124.891296,3673.866829,4432.529739,-6258.510799,945.769363,7077.970454,-8132.481054,-6171.473106,2564.974435,207.155968,2519.600394,-26164.885004,-8576.923141,0.002000,-0.014000,1.000000,192.000000,0.000000,8.000000,127.500000,72.000000,15.500000,32.000000,0.000000,0.000000,0.000000,1770887982.552715,0.000000
206.000000,-16139.881747,-10953.874702,-857.301159,-22983.896492,3796.913182,4536.107723,-6129.295365,1070.693263,7115.811958,-8073.472449,-6119.751170,2610.974325,261.671872,2569.802412,-26111.285521,-8532.018487,0.002000,-0.014000,1.000000,192.000000,0.000000,0.000000,0.000000,0.000000,0.000000,0.000000,0.000000,0.000000,0.000000,1770887982.552734,0.000000
208.000000,-16246.588975,-11061.006613,-953.436011,-23091.900121,3694.788062,4449.315900,-6230.414656,980.727491,7131.838159,-8034.245137,-6076.813469,2649.978119,298.149919,2611.778988,-26075.880358,-8499.049663,0.002000,-0.014000,1.000000,192.000000,0.000000,0.000000,0.000000,0.000000,0.000000,0.000000,0.000000,0.000000,0.000000,1770887982.552751,0.000000
210.000000,-16201.416099,-11023.209813,-916.868558,-23051.063484,3737.301080,4478.484926,-6189.287447,1013.651611,7088.296960,-8143.299299,-6178.357444,2555.229074,197.611773,2519.600394,-26185.739182,-8600.101900,0.002000,-0.014000,1.000000,192.000000,0.000000,0.000000,0.000000,0.000000,0.000000,0.000000,0.000000,0.000000,0.000000,1770887982.552768,0.000000
212.000000,-16176.493904,-10990.598618,-885.486708,-23011.992635,3769.979330,4515.074732,-6152.094144,1048.922664,7139.884787,-8013.726236,-6057.546265,2668.172439,320.367553,2622.597232,-26051.159328,-8476.116774,0.002000,-0.014000,1.000000,192.000000,0.000000,0.000000,0.000000,0.000000,0.000000,0.000000,0.000000,0.000000,0.000000,1770887982.552786,0.000000
214.000000,-16280.027184,-11095.920038,-983.789680,-23117.917552,3675.073823,4438.520007,-6254.353375,948.608035,7083.334873,-8127.451912,-6167.315682,2568.438955,208.720590,2525.344792,-26165.622612,-8576.632568,0.002000,-0.014000,1.000000,192.000000,0.000000,0.000000,127.500000,80.000000,15.500000,32.000000,0.000000,0.000000,0.000000,1770887982.552803,0.000000
216.000000,-16156.958480,-10965.452905,-864.610179,-22978.934405,3791.548764,4535.079543,-6130.748228,1064.658292,7107.787682,-8079.038033,-6129.004792,2607.263935,248.573750,2574.563333,-26117.007568,-8530.140940,0.002000,-0.014000,1.000000,192.000000,0.000000,0.000000,0.000000,0.000000,0.000000,0.000000,0.000000,0.000000,0.000000,1770887982.552821,0.000000
218.000000,-16266.817304,-11075.088212,-961.460288,-23092.771839,3702.722931,4448.622995,-6233.722715,970.512744,7115.431978,-8042.537635,-6088.883411,2644.300776,285.320018,2597.585630,-26077.981422,-8489.684283,0.002000,-0.014000,1.000000,192.000000,0.000000,0.000000,0.000000,0.000000,0.000000,0.000000,0.000000,0.000000,0.000000,1770887982.552841,0.000000
220.000000,-16218.112852,-11031.234089,-921.741238,-23051.085836,3750.399202,4485.838650,-6195.590639,1006.297887,7075.176486,-8152.217645,-6193.154298,2545.483714,188.313447,2516.113522,-26182.788751,-8589.842449,0.002000,-0.014000,1.000000,192.000000,0.000000,0.000000,0.000000,0.000000,0.000000,0.000000,0.000000,0.000000,0.000000,1770887982.552853,0.000000
222.000000,-16181.992433,-10995.247781,-886.045502,-23010.606827,3786.005531,4522.786084,-6157.503266,1043.200617,7136.777894,-8018.643620,-6061.904855,2666.697224,324.882606,2632.454351,-26041.391616,-8464.136239,0.002000,-0.014000,1.000000,192.000000,0.000000,0.000000,0.000000,0.000000,0.000000,0.000000,0.000000,0.000000,0.000000,1770887982.552866,0.000000
224.000000,-16291.761850,-11106.045378,-984.929619,-23122.678473,3679.030082,4433.714382,-6258.801372,941.388421,7081.077347,-8133.866863,-6169.148525,2564.192124,205.859566,2526.887062,-26160.660524,-8568.496533,0.002000,-0.012000,1.000000,192.000000,0.000000,8.000000,127.500000,80.000000,15.500000,32.000000,0.000000,0.000000,0.000000,1770887982.552885,0.000000
226.000000,-16165.608605,-10979.825077,-867.337092,-22983.918844,3791.816985,4519.522729,-6131.664649,1058.824487,7098.176431,-8091.957342,-6131.150559,2600.558412,252.127677,2563.968606,-26112.939550,-8534.655992,0.002000,-0.012000,1.000000,192.000000,0.000000,0.000000,0.000000,0.000000,0.000000,0.000000,0.000000,0.000000,0.000000,1770887982.552903,0.000000
228.000000,-16269.611272,-11081.100831,-961.415584,-23093.800019,3694.318675,4444.532626,-6229.878215,969.372805,7111.900403,-8051.478332,-6090.269219,2640.590386,286.325846,2606.392217,-26080.685983,-8497.686207,0.002000,-0.012000,1.000000,192.000000,0.000000,0.000000,0.000000,0.000000,0.000000,0.000000,0.000000,0.000000,0.000000,1770887982.552922,0.000000
230.000000,-16221.867945,-11034.788017,-925.138703,-23053.812749,3727.756885,4476.339159,-6192.997836,1002.989829,7072.404870,-8159.079630,-6194.495403,2543.315595,181.742034,2498.433292,-26195.417487,-8599.297237,0.002000,-0.012000,1.000000,192.000000,0.000000,0.000000,0.000000,0.000000,0.000000,0.000000,0.000000,0.000000,0.000000,1770887982.552940,0.000000
232.000000,-16176.158628,-10988.676368,-887.364255,-23003.007234,3764.547856,4507.519842,-6153.167028,1046.642786,7134.520368,-8015.380265,-6062.642463,2673.581561,317.484178,2637.885825,-26056.009657,-8479.402480,0.002000,-0.012000,1.000000,192.000000,0.000000,0.000000,0.000000,0.000000,0.000000,0.000000,0.000000,0.000000,0.000000,1770887982.552958,0.000000
234.000000,-16282.888208,-11094.936561,-986.069558,-23117.626979,3673.688015,4437.044792,-6259.136648,946.998709,7081.457327,-8127.809540,-6164.588769,2576.262066,206.127787,2534.240786,-26169.333001,-8573.793897,0.006000,-0.012000,1.000000,192.000000,0.000000,24.000000,127.500000,80.000000,15.500000,32.000000,0.000000,0.000000,0.000000,1770887982.552976,0.000000
236.000000,-16146.699029,-10957.875664,-861.145659,-22982.644794,3795.773243,4541.762715,-6134.056286,1067.206391,7108.860565,-8080.446193,-6121.159330,2613.500072,251.635939,2572.126993,-26116.135849,-8535.058324,0.006000,-0.012000,1.000000,192.000000,0.000000,0.000000,0.000000,0.000000,0.000000,0.000000,0.000000,0.000000,0.000000,1770887982.552993,0.000000
238.000000,-16247.170120,-11064.761706,-958.889837,-23091.922473,3697.157347,4455.484981,-6235.488502,973.440823,7124.462083,-8039.453094,-6077.685187,2655.811924,289.879774,2621.054962,-26076.215634,-8497.529745,0.006000,-0.012000,1.000000,192.000000,0.000000,0.000000,0.000000,0.000000,0.000000,0.000000,0.000000,0.000000,0.000000,1770887982.553011,0.000000
240.000000,-16210.468556,-11027.590755,-924.199930,-23053.790397,3726.795760,4478.239057,-6198.272848,1002.833367,7082.306693,-8152.552921,-6185.487650,2553.485638,187.464081,2512.559594,-26188.264929,-8595.788013,0.006000,-0.012000,1.000000,192.000000,0.000000,0.000000,0.000000,0.000000,0.000000,0.000000,0.000000,0.000000,0.000000,1770887982.553029,0.000000
242.000000,-16172.135314,-10983.736632,-887.833642,-23010.651530,3767.587694,4515.253546,-6158.285577,1045.391088,7133.738057,-8019.537690,-6057.814486,2671.704015,310.599841,2636.790590,-26052.299267,-8471.221742,0.006000,-0.012000,1.000000,192.000000,0.000000,0.000000,0.000000,0.000000,0.000000,0.000000,0.000000,0.000000,0.000000,1770887982.553046,0.000000
244.000000,-16282.821153,-11095.718872,-985.264896,-23126.165345,3668.971797,4441.828065,-6261.885913,942.483657,7081.814954,-8131.765799,-6163.448830,2568.953045,206.284250,2529.524568,-26165.130873,-8568.943568,0.004000,-0.016000,0.998000,192.000000,0.000000,16.000000,127.500000,64.000000,15.500000,24.000000,0.000000,0.000000,0.000000,1770887982.553064,0.000000
246.000000,-16154.142160,-10969.096240,-867.337092,-22987.226902,3806.144453,4541.405087,-6136.917309,1059.763260,7104.032588,-8089.856278,-6127.864853,2600.267839,247.389108,2573.557505,-26117.074623,-8530.275050,0.004000,-0.016000,0.998000,192.000000,0.000000,0.000000,0.000000,0.000000,0.000000,0.000000,0.000000,0.000000,0.000000,1770887982.553080,0.000000
248.000000,-16254.032106,-11066.885122,-959.023948,-23092.034232,3701.828861,4453.763897,-6233.588604,973.932561,7116.080179,-8041.755324,-6085.485945,2649.732250,280.223820,2620.965555,-26073.622832,-8491.204201,0.004000,-0.016000,0.998000,192.000000,0.000000,0.000000,0.000000,0.000000,0.000000,0.000000,0.000000,0.000000,0.000000,1770887982.553098,0.000000
250.000000,-16210.692073,-11023.567441,-922.881177,-23051.130539,3725.432304,4476.607380,-6195.858860,1009.225966,7083.960722,-8146.540302,-6184.548877,2555.497295,186.972342,2522.729638,-26187.169693,-8593.776356,0.004000,-0.016000,0.998000,192.000000,0.000000,0.000000,0.000000,0.000000,0.000000,0.000000,0.000000,0.000000,0.000000,1770887982.553120,0.000000
252.000000,-16176.248035,-10993.392586,-883.787976,-23015.613617,3769.062909,4510.716142,-6154.306967,1046.553379,7131.636993,-8024.700943,-6056.987471,2668.641826,308.208204,2640.232759,-26055.897898,-8479.737756,0.004000,-0.016000,0.998000,192.000000,0.000000,0.000000,0.000000,0.000000,0.000000,0.000000,0.000000,0.000000,0.000000,1770887982.553138,0.000000
254.000000,-16278.976653,-11094.042491,-982.537983,-23124.936000,3665.060242,4426.047734,-6259.762497,946.350508,7086.352359,-8133.956269,-6157.950301,2572.171697,210.084046,2535.827760,-26163.946231,-8577.683100,0.004000,-0.016000,0.998000,192.000000,0.000000,0.000000,127.500000,72.000000,15.500000,32.000000,0.000000,0.000000,0.000000,1770887982.553156,0.000000
0.000000,-16152.354020,-10965.609368,-866.778298,-22992.166637,3786.407862,4532.576148,-6135.330336,1060.478516,7106.446577,-8090.191554,-6122.925117,2607.442749,238.068430,2573.691615,-26122.886076,-8541.182702,0.004000,-0.016000,0.998000,192.000000,0.000000,0.000000,0.000000,0.000000,0.000000,0.000000,0.000000,0.000000,0.000000,1770887982.553175,0.000000
2.000000,-16255.887300,-11072.920093,-961.706157,-23096.035194,3698.476100,4446.521931,-6236.203758,963.740166,7119.879975,-8047.455018,-6082.423756,2646.781820,284.247134,2623.983040,-26081.535349,-8500.971913,0.004000,-0.016000,0.998000,192.000000,0.000000,0.000000,0.000000,0.000000,0.000000,0.000000,0.000000,0.000000,0.000000,1770887982.553193,0.000000
4.000000,-16211.921419,-11026.003781,-926.926843,-23054.751522,3740.251510,4489.258467,-6201.424444,996.329009,7077.813992,-8162.633558,-6193.578982,2541.773324,181.138537,2512.626649,-26192.869388,-8600.124252,0.004000,-0.016000,0.998000,192.000000,0.000000,0.000000,0.000000,0.000000,0.000000,0.000000,0.000000,0.000000,0.000000,1770887982.553206,0.000000
6.000000,-16169.520160,-10978.238103,-889.867650,-23009.310425,3783.748005,4531.167988,-6161.079545,1035.981004,7140.488284,-8016.542556,-6063.245960,2666.250189,304.520166,2650.693375,-26047.985381,-8474.552152,0.004000,-0.016000,0.998000,192.000000,0.000000,0.000000,0.000000,0.000000,0.000000,0.000000,0.000000,0.000000,0.000000,1770887982.553221,0.000000
8.000000,-16272.852275,-11085.191200,-986.896573,-23117.984607,3677.376053,4445.851379,-6263.897570,941.097849,7089.794527,-8125.931993,-6167.919179,2576.083252,204.339648,2548.858827,-26163.208623,-8567.535408,-0.002000,-0.022000,1.000000,192.000000,127.500000,120.000000,127.500000,40.000000,15.500000,32.000000,0.000000,0.000000,0.000000,1770887982.553237,0.000000
10.000000,-16147.526043,-10959.619100,-869.035824,-22984.567044,3801.875270,4541.539197,-6138.347821,1059.875019,7112.906231,-8080.289731,-6130.457655,2612.248374,247.970253,2582.274685,-26119.242742,-8532.197300,-0.002000,-0.022000,1.000000,192.000000,0.000000,0.000000,0.000000,0.000000,0.000000,0.000000,0.000000,0.000000,0.000000,1770887982.553254,0.000000
12.000000,-16249.338239,-11061.118372,-960.342701,-23089.419078,3698.878431,4461.587007,-6237.567215,969.350454,7124.506786,-8042.381172,-6085.508297,2652.883846,286.370550,2631.828503,-26073.265204,-8486.867963,-0.002000,-0.022000,1.000000,192.000000,0.000000,0.000000,0.000000,0.000000,0.000000,0.000000,0.000000,0.000000,0.000000,1770887982.553267,0.000000
14.000000,-16219.409254,-11027.523700,-928.290299,-23055.019743,3737.748115,4495.092272,-6202.430272,996.932506,7080.183277,-8156.933863,-6193.444871,2547.718888,179.171584,2519.287469,-26189.427220,-8589.551877,-0.002000,-0.022000,1.000000,192.000000,0.000000,0.000000,0.000000,0.000000,0.000000,0.000000,0.000000,0.000000,0.000000,1770887982.553280,0.000000
16.000000,-16165.966233,-10979.601560,-883.855031,-23008.438707,3780.328188,4526.474121,-6153.949339,1047.983891,7141.985851,-8018.174233,-6064.989396,2670.944055,313.013829,2641.931491,-26047.605401,-8469.187733,-0.002000,-0.022000,1.000000,192.000000,0.000000,0.000000,0.000000,0.000000,0.000000,0.000000,0.000000,0.000000,0.000000,1770887982.553298,0.000000
18.000000,-16275.020394,-11086.152325,-985.801337,-23124.265447,3665.596684,4426.181844,-6261.505933,950.619692,7087.827574,-8130.357639,-6165.616949,2578.519592,201.143348,2547.294205,-26163.610955,-8570.575246,0.000000,-0.017000,1.003000,192.000000,0.000000,8.000000,127.500000,80.000000,15.500000,56.000000,0.000000,0.000000,0.000000,1770887982.553312,0.000000
20.000000,-16143.279212,-10956.199283,-868.879362,-22991.004347,3788.441871,4533.291403,-6137.029068,1064.233609,7108.793510,-8088.045786,-6127.462521,2612.449540,244.572788,2588.823746,-26123.176649,-8538.321678,0.000000,-0.017000,1.003000,192.000000,0.000000,0.000000,0.000000,0.000000,0.000000,0.000000,0.000000,0.000000,0.000000,1770887982.553329,0.000000
22.000000,-16249.561757,-11067.689784,-961.616750,-23102.316034,3696.017408,4457.630748,-6238.595395,965.416547,7124.730304,-8045.264547,-6083.988379,2647.161799,291.220879,2619.512691,-26078.271994,-8495.272219,0.000000,-0.017000,1.003000,192.000000,0.000000,0.000000,0.000000,0.000000,0.000000,0.000000,0.000000,0.000000,0.000000,1770887982.553342,0.000000
24.000000,-16213.977780,-11028.574232,-932.425372,-23058.327801,3741.324394,4488.342045,-6202.653790,995.390236,7078.641007,-8162.678261,-6197.356426,2542.086249,179.573915,2508.178652,-26191.304766,-8596.235048,0.000000,-0.017000,1.003000,192.000000,0.000000,0.000000,0.000000,0.000000,0.000000,0.000000,0.000000,0.000000,0.000000,1770887982.553359,0.000000
26.000000,-16168.983718,-10980.562685,-889.308857,-23012.931408,3770.828697,4513.621868,-6161.124249,1039.177303,7136.912005,-8023.426893,-6068.185695,2668.015977,304.587222,2629.235700,-26047.359532,-8471.132335,0.000000,-0.017000,1.003000,192.000000,0.000000,0.000000,0.000000,0.000000,0.000000,0.000000,0.000000,0.000000,0.000000,1770887982.553379,0.000000
28.000000,-16273.768696,-11085.079442,-988.640009,-23126.567677,3676.504335,4446.253711,-6266.780945,939.309709,7088.341664,-8132.972793,-6171.093127,2574.809203,207.424189,2549.462324,-26162.068684,-8567.088374,0.001000,-0.014500,1.003500,192.000000,0.000000,8.000000,127.500000,80.000000,15.500000,48.000000,0.000000,0.000000,0.000000,1770887982.553392,0.000000
30.000000,-16149.336535,-10961.720164,-876.389548,-22993.261873,3796.510851,4537.605290,-6146.416801,1049.682623,7109.017027,-8090.973865,-6136.134998,2601.407778,240.594177,2586.230944,-26118.594541,-8534.521882,0.001000,-0.014500,1.003500,192.000000,0.000000,0.000000,0.000000,0.000000,0.000000,0.000000,0.000000,0.000000,0.000000,1770887982.553406,0.000000
32.000000,-16250.388771,-11063.644119,-964.120145,-23096.169304,3705.919231,4469.030138,-6240.092962,963.918980,7125.020877,-8045.488065,-6090.537440,2645.574825,288.404559,2629.369811,-26075.098047,-8484.878657,0.001000,-0.014500,1.003500,192.000000,0.000000,0.000000,0.000000,0.000000,0.000000,0.000000,0.000000,0.000000,0.000000,1770887982.553423,0.000000
34.000000,-16217.911687,-11027.367237,-931.397191,-23059.892423,3739.983289,4497.148633,-6205.917145,992.596268,7080.630312,-8161.515970,-6196.127080,2543.874388,188.469909,2515.398266,-26186.543845,-8591.272961,0.001000,-0.014500,1.003500,192.000000,0.000000,0.000000,0.000000,0.000000,0.000000,0.000000,0.000000,0.000000,0.000000,1770887982.553440,0.000000
36.000000,-16170.347174,-10984.496592,-889.644133,-23011.277379,3783.256267,4524.350706,-6158.844371,1038.283233,7137.895481,-8025.237384,-6065.525838,2663.769145,303.849614,2646.200674,-26050.242907,-8469.254788,0.001000,-0.014500,1.003500,192.000000,0.000000,0.000000,0.000000,0.000000,0.000000,0.000000,0.000000,0.000000,0.000000,1770887982.553455,0.000000
38.000000,-16284.497533,-11096.478831,-993.222117,-23127.797023,3672.190448,4437.000088,-6264.255198,941.075497,7084.854792,-8134.582118,-6163.851161,2570.428261,201.076293,2536.230092,-26163.476844,-8564.249702,0.001500,-0.015250,1.006750,192.000000,0.000000,8.000000,127.500000,64.000000,15.500000,72.000000,0.000000,0.000000,0.000000,1770887982.553473,0.000000
40.000000,-16154.946823,-10967.844542,-875.249609,-22999.699175,3787.592505,4528.463427,-6140.135961,1058.064527,7094.622504,-8103.513194,-6135.352687,2599.574935,229.708878,2581.648836,-26127.356425,-8542.121475,0.001500,-0.015250,1.006750,192.000000,0.000000,0.000000,0.000000,0.000000,0.000000,0.000000,0.000000,0.000000,0.000000,1770887982.553489,0.000000
42.000000,-16260.424705,-11070.237883,-963.382538,-23102.204275,3690.898858,4446.186655,-6233.834473,971.630331,7109.732283,-8056.306309,-6085.620056,2644.993680,280.983780,2612.449540,-26080.306003,-8498.535573,0.001500,-0.015250,1.006750,192.000000,0.000000,0.000000,0.000000,0.000000,0.000000,0.000000,0.000000,0.000000,0.000000,1770887982.553504,0.000000
44.000000,-16225.399521,-11039.861863,-933.341793,-23068.251976,3725.655821,4484.989284,-6203.860784,993.467986,7061.385460,-8170.970758,-6197.602296,2539.024060,172.242543,2505.339981,-26196.043336,-8601.420653,0.001500,-0.015250,1.006750,192.000000,0.000000,0.000000,0.000000,0.000000,0.000000,0.000000,0.000000,0.000000,0.000000,1770887982.553521,0.000000
46.000000,-16170.794209,-10987.447022,-884.816156,-23016.731205,3772.818002,4517.779293,-6156.653900,1037.925606,7128.194824,-8032.412294,-6067.291625,2656.348366,300.921536,2637.259977,-26053.975648,-8476.027367,0.001500,-0.015250,1.006750,192.000000,0.000000,0.000000,0.000000,0.000000,0.000000,0.000000,0.000000,0.000000,0.000000,1770887982.553538,0.000000
48.000000,-16289.012586,-11102.491451,-990.271686,-23133.966104,3676.683149,4425.935975,-6266.937407,933.878235,7076.472888,-8143.478113,-6169.506153,2563.253351,206.083084,2538.129990,-26159.453530,-8571.893999,0.002750,-0.013625,1.006375,192.000000,0.000000,16.000000,127.500000,80.000000,15.500000,56.000000,0.000000,0.000000,0.000000,1770887982.553555,0.000000
50.000000,-16156.332631,-10971.063193,-872.925028,-22997.016966,3790.587639,4531.145636,-6139.241891,1053.147144,7093.683731,-8106.217755,-6140.001850,2596.535098,231.206445,2574.786851,-26123.288408,-8541.920309,0.002750,-0.013625,1.006375,192.000000,0.000000,0.000000,0.000000,0.000000,0.000000,0.000000,0.000000,0.000000,0.000000,1770887982.553572,0.000000
52.000000,-16262.235196,-11070.550808,-966.690596,-23098.963272,3687.121414,4447.594815,-6234.661488,963.874276,7115.163757,-8054.406411,-6089.621018,2639.003413,282.749567,2625.793532,-26076.215634,-8494.333445,0.002750,-0.013625,1.006375,192.000000,0.000000,0.000000,0.000000,0.000000,0.000000,0.000000,0.000000,0.000000,0.000000,1770887982.553590,0.000000
54.000000,-16227.366475,-11040.264194,-939.466171,-23071.917662,3723.219481,4488.431452,-6207.817043,983.633218,7060.670204,-8172.401270,-6205.671275,2530.418638,172.935447,2514.951231,-26196.378612,-8599.185479,0.002750,-0.013625,1.006375,192.000000,0.000000,0.000000,0.000000,0.000000,0.000000,0.000000,0.000000,0.000000,0.000000,1770887982.553608,0.000000
56.000000,-16183.557055,-10995.672464,-894.136833,-23016.910019,3783.502136,4525.200072,-6159.291406,1026.325050,7122.070446,-8037.575547,-6080.121527,2649.821657,293.411349,2637.908177,-26057.350762,-8473.412213,0.002750,-0.013625,1.006375,192.000000,0.000000,0.000000,0.000000,0.000000,0.000000,0.000000,0.000000,0.000000,0.000000,1770887982.553624,0.000000
58.000000,-16292.700624,-11100.300980,-995.345532,-23126.075938,3661.908646,4424.259594,-6266.423317,931.218377,7067.263969,-8141.645270,-6179.497383,2561.286397,200.048113,2542.086249,-26162.135740,-8569.502362,0.005375,-0.012813,1.004188,192.000000,0.000000,32.000000,127.500000,80.000000,15.500000,40.000000,0.000000,0.000000,0.000000,1770887983.031806,0.000000
60.000000,-16153.002221,-10964.357670,-881.575153,-22992.412507,3785.647903,4536.755924,-6140.940623,1056.276388,7086.620580,-8097.098243,-6142.952280,2596.356284,225.774971,2585.493336,-26133.369044,-8537.539367,0.005375,-0.012813,1.004188,192.000000,0.000000,0.000000,0.000000,0.000000,0.000000,0.000000,0.000000,0.000000,0.000000,1770887983.031908,0.000000
62.000000,-16257.697792,-11061.833627,-968.009349,-23097.979796,3687.546097,4468.158420,-6235.197930,970.177468,7109.017027,-8045.890396,-6089.442204,2646.223026,273.942980,2625.145331,-26079.680154,-8491.070091,0.005375,-0.012813,1.004188,192.000000,0.000000,0.000000,0.000000,0.000000,0.000000,0.000000,0.000000,0.000000,0.000000,1770887983.031961,0.000000
64.000000,-16220.370379,-11029.021267,-937.946253,-23063.066371,3714.994039,4473.835763,-6204.084301,998.385370,7063.352414,-8167.997976,-6199.055159,2538.308804,174.634179,2522.997859,-26199.105525,-8603.767586,0.005375,-0.012813,1.004188,192.000000,0.000000,0.000000,0.000000,0.000000,0.000000,0.000000,0.000000,0.000000,0.000000,1770887983.032026,0.000000
66.000000,-16171.889445,-10982.931970,-888.437139,-23014.294864,3769.174667,4516.326429,-6155.312795,1046.173399,7124.707952,-8032.456998,-6065.168210,2659.812887,292.517280,2640.523331,-26057.618983,-8479.536591,0.005375,-0.012813,1.004188,192.000000,0.000000,0.000000,0.000000,0.000000,0.000000,0.000000,0.000000,0.000000,0.000000,1770887983.032080,0.000000
68.000000,-16280.630682,-11093.483698,-989.936410,-23133.317904,3669.351777,4429.132274,-6262.489410,942.774229,7079.333911,-8136.169092,-6159.380813,2565.466173,209.659363,2543.092077,-26163.454493,-8571.514019,0.004687,-0.012406,1.006094,192.000000,0.000000,16.000000,127.500000,80.000000,15.500000,64.000000,0.000000,0.000000,0.000000,1770887983.032160,0.000000
70.000000,-16153.315145,-10966.726955,-873.260304,-22997.933388,3794.275677,4531.637374,-6142.594652,1056.611664,7095.963609,-8104.384912,-6132.648126,2594.009351,236.190884,2578.966627,-26127.334073,-8546.390658,0.004687,-0.012406,1.006094,192.000000,0.000000,0.000000,0.000000,0.000000,0.000000,0.000000,0.000000,0.000000,0.000000,1770887983.032224,0.000000
72.000000,-16256.848425,-11069.254407,-965.885933,-23099.857342,3701.292420,4458.480115,-6237.433104,964.969512,7110.089911,-8052.372402,-6088.749300,2641.752677,289.343332,2628.386334,-26075.299212,-8494.825184,0.004687,-0.012406,1.006094,192.000000,0.000000,0.000000,0.000000,0.000000,0.000000,0.000000,0.000000,0.000000,0.000000,1770887983.032278,0.000000
74.000000,-16226.293591,-11040.130084,-944.271796,-23069.369563,3725.387600,4480.317769,-6206.878270,992.618620,7058.569140,-8173.474154,-6203.324342,2534.486656,165.358205,2522.908452,-26194.277548,-8600.660694,0.004687,-0.012406,1.006094,192.000000,0.000000,0.000000,0.000000,0.000000,0.000000,0.000000,0.000000,0.000000,0.000000,1770887983.032341,0.000000
76.000000,-16169.475456,-10986.172972,-889.152394,-23015.390100,3768.302949,4512.370171,-6155.402202,1047.268635,7119.656458,-8034.558062,-6067.358681,2658.672948,295.601820,2642.087953,-26058.647163,-8480.073032,0.004687,-0.012406,1.006094,192.000000,0.000000,0.000000,0.000000,0.000000,0.000000,0.000000,0.000000,0.000000,0.000000,1770887983.032396,0.000000
78.000000,-16282.843504,-11093.886029,-988.841175,-23129.004017,3667.273065,4436.329536,-6262.981148,941.500180,7075.154135,-8135.856168,-6158.710260,2566.606112,205.032552,2558.000691,-26162.873347,-8572.162220,0.005344,-0.008203,1.004047,192.000000,0.000000,24.000000,127.500000,112.000000,15.500000,40.000000,0.000000,0.000000,0.000000,1770887983.032415,0.000000
80.000000,-16159.171302,-10973.477182,-873.662636,-23001.174390,3791.325246,4533.492569,-6143.086391,1049.839085,7093.907248,-8105.033112,-6136.179702,2590.321313,235.118000,2590.500127,-26129.457489,-8544.021373,0.005344,-0.008203,1.004047,192.000000,0.000000,0.000000,0.000000,0.000000,0.000000,0.000000,0.000000,0.000000,0.000000,1770887983.032432,0.000000
82.000000,-16262.346955,-11075.848171,-963.047262,-23100.505543,3688.931905,4453.898007,-6234.393267,962.801392,7105.396045,-8060.016699,-6090.828012,2636.097686,282.324884,2623.379543,-26078.473160,-8495.585143,0.005344,-0.008203,1.004047,192.000000,0.000000,0.000000,0.000000,0.000000,0.000000,0.000000,0.000000,0.000000,0.000000,1770887983.032449,0.000000
84.000000,-16231.859175,-11039.705400,-939.644985,-23069.436618,3714.547004,4478.507278,-6202.899659,990.159928,7054.478771,-8175.597569,-6202.519679,2534.240786,178.322217,2522.662583,-26200.089002,-8604.840470,0.005344,-0.008203,1.004047,192.000000,0.000000,0.000000,0.000000,0.000000,0.000000,0.000000,0.000000,0.000000,0.000000,1770887983.032466,0.000000
86.000000,-16173.834047,-10984.161315,-891.901659,-23016.306521,3762.089165,4521.623793,-6151.557702,1041.479533,7110.961629,-8034.759228,-6074.980626,2655.230779,292.316114,2649.419326,-26064.838596,-8480.318902,0.005344,-0.008203,1.004047,192.000000,0.000000,0.000000,0.000000,0.000000,0.000000,0.000000,0.000000,0.000000,0.000000,1770887983.032484,0.000000
88.000000,-16288.051461,-11102.759672,-997.737169,-23130.032197,3650.196332,4426.785341,-6262.109430,934.727601,7065.676995,-8141.578214,-6170.735499,2561.979301,197.611773,2556.190199,-26170.092961,-8570.262321,0.005344,-0.008203,1.004047,192.000000,0.000000,0.000000,0.000000,0.000000,0.000000,0.000000,0.000000,0.000000,0.000000,1770887983.032501,0.000000
90.000000,-16156.444389,-10970.236179,-872.790917,-22998.670995,3779.478822,4537.426476,-6138.012545,1056.209332,7089.280437,-8110.039903,-6139.197187,2588.779043,232.793419,2581.313560,-26134.017245,-8546.725934,0.008000,-0.004000,1.008000,192.000000,0.000000,32.000000,127.500000,112.000000,15.500000,64.000000,0.000000,0.000000,0.000000,1770887983.032526,0.000000
92.000000,-16251.685173,-11057.989127,-961.549695,-23097.085726,3693.111681,4468.024310,-6231.219319,975.765404,7106.848908,-8050.696021,-6078.512201,2649.352270,272.914800,2637.192921,-26077.981422,-8494.489908,0.008000,-0.004000,1.008000,192.000000,0.000000,0.000000,0.000000,0.000000,0.000000,0.000000,0.000000,0.000000,0.000000,1770887983.032543,0.000000
94.000000,-16218.202259,-11027.277831,-932.559482,-23068.363734,3708.444978,4482.687054,-6206.788863,996.329009,7066.638120,-8162.097116,-6189.868592,2544.634348,170.409700,2542.175656,-26195.238673,-8600.995970,0.008000,-0.004000,1.008000,192.000000,0.000000,0.000000,0.000000,0.000000,0.000000,0.000000,0.000000,0.000000,0.000000,1770887983.032559,0.000000
96.000000,-16163.351078,-10975.712356,-887.185441,-23015.993597,3758.065851,4531.235043,-6156.855065,1044.072335,7122.495129,-8021.929326,-6066.442259,2658.427079,301.815605,2656.929512,-26062.446959,-8481.056509,0.008000,-0.004000,1.008000,192.000000,0.000000,0.000000,0.000000,0.000000,0.000000,0.000000,0.000000,0.000000,0.000000,1770887983.032575,0.000000
98.000000,-16277.635548,-11091.516744,-992.417454,-23132.379130,3649.816352,4430.585138,-6265.082212,944.741183,7077.702234,-8124.255612,-6158.777315,2571.434089,212.274517,2581.090043,-26163.678010,-8571.312853,0.008000,-0.004000,1.008000,192.000000,0.000000,0.000000,0.000000,0.000000,0.000000,0.000000,0.000000,0.000000,0.000000,1770887983.032592,0.000000
100.000000,-16142.742770,-10955.573434,-879.965827,-22996.324062,3785.513793,4538.342898,-6140.247719,1066.401728,7096.187126,-8097.947609,-6127.909556,2598.636162,233.665137,2596.244525,-26135.738329,-8548.067039,0.008000,-0.010000,1.000000,192.000000,0.000000,32.000000,127.500000,88.000000,15.500000,32.000000,0.000000,0.000000,0.000000,1770887983.032608,0.000000
102.000000,-16245.493739,-11056.022174,-970.065709,-23090.357851,3709.182585,4462.637539,-6232.202796,978.000579,7108.972324,-8038.491969,-6077.573428,2653.755564,284.694169,2647.877055,-26079.858968,-8487.985550,0.008000,-0.010000,1.000000,192.000000,0.000000,0.000000,0.000000,0.000000,0.000000,0.000000,0.000000,0.000000,0.000000,1770887983.032620,0.000000
104.000000,-16226.293591,-11038.207834,-946.618729,-23069.257804,3729.857949,4483.223496,-6209.381665,991.165756,7058.971472,-8164.645215,-6199.211621,2539.918129,172.287246,2535.783057,-26196.512723,-8594.871592,0.008000,-0.010000,1.000000,192.000000,0.000000,0.000000,0.000000,0.000000,0.000000,0.000000,0.000000,0.000000,0.000000,1770887983.032632,0.000000
106.000000,-16176.024518,-10988.095222,-894.785034,-23014.674844,3771.141621,4525.714162,-6155.402202,1043.602949,7116.706028,-8035.116856,-6072.454878,2652.839142,294.595992,2654.113192,-26064.078637,-8477.860210,0.008000,-0.010000,1.000000,192.000000,0.000000,0.000000,0.000000,0.000000,0.000000,0.000000,0.000000,0.000000,0.000000,1770887983.032645,0.000000
108.000000,-16283.648167,-11097.372901,-998.072445,-23139.218764,3658.242960,4445.449048,-6262.735279,944.741183,7070.862600,-8142.606395,-6163.828810,2565.622636,199.489319,2560.749955,-26166.203757,-8572.229275,0.008000,-0.010000,1.000000,192.000000,0.000000,0.000000,0.000000,0.000000,0.000000,0.000000,0.000000,0.000000,0.000000,1770887983.032656,0.000000
110.000000,-16151.281136,-10961.362536,-879.652903,-22999.587417,3775.209639,4534.788970,-6139.085429,1059.964426,7089.772176,-8103.267324,-6137.096123,2592.422377,231.541721,2600.826633,-26137.370007,-8541.070943,0.004000,-0.010000,1.004000,192.000000,0.000000,16.000000,127.500000,88.000000,15.500000,48.000000,0.000000,0.000000,0.000000,1770887983.032668,0.000000
112.000000,-16245.806664,-11054.815180,-961.192067,-23096.079897,3686.696730,4468.225475,-6228.425351,976.815936,7106.915964,-8044.348126,-6082.870791,2646.200674,288.248096,2638.489322,-26082.317660,-8491.405367,0.004000,-0.010000,1.004000,192.000000,0.000000,0.000000,0.000000,0.000000,0.000000,0.000000,0.000000,0.000000,0.000000,1770887983.032681,0.000000
114.000000,-16222.784367,-11036.777322,-943.355375,-23073.929319,3719.173815,4481.614170,-6207.459415,995.703160,7059.373803,-8168.065032,-6193.266057,2538.107638,168.666264,2545.193141,-26196.959757,-8602.046502,0.004000,-0.010000,1.004000,192.000000,0.000000,0.000000,0.000000,0.000000,0.000000,0.000000,0.000000,0.000000,0.000000,1770887983.032693,0.000000
116.000000,-16172.291776,-10984.228371,-893.980371,-23013.691367,3761.910351,4521.713200,-6154.798705,1048.028594,7116.750731,-8036.547367,-6066.822239,2654.314358,291.354989,2648.592311,-26063.653954,-8483.671663,0.004000,-0.010000,1.004000,192.000000,0.000000,0.000000,0.000000,0.000000,0.000000,0.000000,0.000000,0.000000,0.000000,1770887983.032705,0.000000
118.000000,-16289.079641,-11099.563372,-1002.185166,-23133.899049,3671.050509,4440.889292,-6264.769288,939.421468,7070.236751,-8140.751200,-6162.554760,2566.024967,195.398950,2568.841287,-26161.688705,-8568.764754,0.004000,-0.010000,1.004000,192.000000,0.000000,0.000000,0.000000,0.000000,0.000000,0.000000,0.000000,0.000000,0.000000,1770887983.032717,0.000000
120.000000,-16163.596948,-10971.309062,-884.257362,-23003.990710,3786.005531,4543.841427,-6142.661708,1053.549475,7087.782870,-8111.202194,-6140.270071,2584.062825,221.930471,2589.918982,-26130.686835,-8546.278899,-0.002000,-0.010000,1.008000,192.000000,127.500000,120.000000,127.500000,88.000000,15.500000,64.000000,0.000000,0.000000,0.000000,1770887983.032729,0.000000
122.000000,-16265.185626,-11068.427392,-972.412643,-23097.108078,3689.870678,4466.616150,-6231.174616,969.126936,7100.903344,-8051.321870,-6086.268256,2641.931491,283.576582,2647.161799,-26078.182587,-8486.398576,-0.002000,-0.010000,1.008000,192.000000,0.000000,0.000000,0.000000,0.000000,0.000000,0.000000,0.000000,0.000000,0.000000,1770887983.032743,0.000000
124.000000,-16231.613306,-11038.565461,-947.333985,-23068.654307,3711.641277,4486.844478,-6207.437063,991.299867,7051.707155,-8171.507200,-6201.670313,2535.358374,160.798450,2543.896740,-26199.083173,-8598.380816,-0.002000,-0.010000,1.008000,192.000000,0.000000,0.000000,0.000000,0.000000,0.000000,0.000000,0.000000,0.000000,0.000000,1770887983.032755,0.000000
126.000000,-16167.754372,-10979.109821,-889.353560,-23009.444536,3767.878266,4530.363325,-6151.222426,1046.173399,7118.360057,-8032.121722,-6070.152649,2653.532047,299.692190,2656.102497,-26060.234137,-8475.714442,-0.002000,-0.010000,1.008000,192.000000,0.000000,0.000000,0.000000,0.000000,0.000000,0.000000,0.000000,0.000000,0.000000,1770887983.032769,0.000000
128.000000,-16284.385775,-11094.869506,-993.803262,-23132.513241,3661.305149,4452.109868,-6260.678918,944.405907,7075.534114,-8128.100112,-6161.101897,2569.847115,201.433921,2581.157098,-26164.952059,-8560.516961,-0.002000,-0.010000,1.008000,192.000000,0.000000,0.000000,0.000000,0.000000,0.000000,0.000000,0.000000,0.000000,0.000000,1770887983.032805,0.000000
130.000000,-16159.528930,-10967.173990,-881.128118,-22998.648643,3763.005586,4532.687906,-6137.587862,1062.445469,7090.152155,-8103.401435,-6137.185530,2592.422377,225.283232,2595.283400,-26136.364178,-8544.669574,-0.004000,-0.008000,1.002000,192.000000,127.500000,112.000000,127.500000,96.000000,15.500000,40.000000,0.000000,0.000000,0.000000,1770887983.032824,0.000000
132.000000,-16251.461655,-11057.050354,-967.875238,-23086.558054,3678.851268,4462.794001,-6223.910299,982.850907,7105.351341,-8043.476408,-6082.937847,2654.761392,274.546477,2662.696262,-26088.866721,-8489.930152,-0.004000,-0.008000,1.002000,192.000000,0.000000,0.000000,0.000000,0.000000,0.000000,0.000000,0.000000,0.000000,0.000000,1770887983.032842,0.000000
134.000000,-16229.065207,-11037.671392,-943.690651,-23071.470627,3702.119434,4476.763842,-6205.872441,993.758558,7055.842227,-8164.600511,-6194.920086,2543.315595,162.720700,2548.478848,-26209.186162,-8602.404130,-0.004000,-0.008000,1.002000,192.000000,0.000000,0.000000,0.000000,0.000000,0.000000,0.000000,0.000000,0.000000,0.000000,1770887983.032858,0.000000
136.000000,-16169.006070,-10979.668615,-890.359389,-23013.423146,3760.792763,4527.703467,-6150.373060,1049.772030,7117.913022,-8032.546405,-6063.469477,2657.845933,294.014847,2664.864381,-26065.710314,-8485.862134,-0.004000,-0.008000,1.002000,192.000000,0.000000,0.000000,0.000000,0.000000,0.000000,0.000000,0.000000,0.000000,0.000000,1770887983.032876,0.000000
138.000000,-16281.122420,-11093.506049,-993.512689,-23132.557944,3651.358622,4438.140027,-6260.276587,947.982186,7074.662396,-8130.603508,-6150.350708,2573.848078,205.814863,2575.747976,-26163.298030,-8568.183609,-0.004000,-0.008000,1.002000,192.000000,0.000000,0.000000,0.000000,0.000000,0.000000,0.000000,0.000000,0.000000,0.000000,1770887983.032893,0.000000
140.000000,-16155.863244,-10967.352804,-883.519755,-23001.867295,3778.696511,4546.680098,-6140.672402,1060.523219,7092.789661,-8101.255667,-6133.743362,2594.590496,227.339593,2607.912136,-26135.783033,-8549.765772,-0.002000,-0.012000,1.008000,192.000000,127.500000,120.000000,127.500000,80.000000,15.500000,64.000000,0.000000,0.000000,0.000000,1770887983.032911,0.000000
142.000000,-16260.536463,-11069.612035,-969.797488,-23093.867075,3695.369207,4471.354720,-6231.688706,972.300884,7107.899440,-8041.956489,-6083.049605,2648.391145,279.240343,2651.699203,-26075.567433,-8485.906838,-0.002000,-0.012000,1.008000,192.000000,0.000000,0.000000,0.000000,0.000000,0.000000,0.000000,0.000000,0.000000,0.000000,1770887983.032928,0.000000
144.000000,-16242.900937,-11047.059124,-951.111430,-23068.028458,3719.196167,4494.064092,-6210.901584,986.650704,7055.395193,-8169.830819,-6205.335999,2535.291318,168.509801,2557.576008,-26195.775115,-8595.497441,-0.002000,-0.012000,1.008000,192.000000,0.000000,0.000000,0.000000,0.000000,0.000000,0.000000,0.000000,0.000000,0.000000,1770887983.032946,0.000000
146.000000,-16181.031308,-10985.524772,-896.461415,-23007.857562,3770.716938,4545.875436,-6156.050403,1044.161742,7112.705065,-8035.362725,-6080.523858,2654.493172,282.146070,2680.622361,-26061.977573,-8472.182867,-0.002000,-0.012000,1.008000,192.000000,0.000000,0.000000,0.000000,0.000000,0.000000,0.000000,0.000000,0.000000,0.000000,1770887983.032962,0.000000
148.000000,-16292.074775,-11100.323331,-999.949992,-23128.467575,3649.995166,4448.824161,-6266.333910,941.410773,7073.656568,-8130.379990,-6162.085374,2571.791717,202.193880,2587.884973,-26162.605126,-8555.756039,-0.002000,-0.012000,1.008000,192.000000,0.000000,0.000000,0.000000,0.000000,0.000000,0.000000,0.000000,0.000000,0.000000,1770887983.032980,0.000000
150.000000,-16161.160607,-10975.332376,-883.966790,-23002.940178,3775.522563,4562.549837,-6145.545083,1054.242379,7093.102585,-8106.530679,-6138.772504,2588.421415,225.372639,2619.423284,-26136.386530,-8535.907690,0.002000,-0.006000,1.002000,192.000000,0.000000,8.000000,127.500000,104.000000,15.500000,40.000000,0.000000,0.000000,0.000000,1770887983.033000,0.000000
152.000000,-16251.841635,-11061.073668,-967.942294,-23095.454049,3695.659780,4488.252638,-6230.258194,978.067634,7118.829443,-8038.670783,-6076.612303,2650.894541,289.320980,2674.766204,-26075.321564,-8478.419003,0.002000,-0.006000,1.002000,192.000000,0.000000,0.000000,0.000000,0.000000,0.000000,0.000000,0.000000,0.000000,0.000000,1770887983.033018,0.000000
154.000000,-16237.178890,-11041.314726,-955.894703,-23068.900176,3706.545080,4487.850307,-6207.325304,994.071483,7059.731431,-8164.891084,-6197.736406,2542.063897,163.480659,2557.061917,-26200.737202,-8591.876458,0.002000,-0.006000,1.002000,192.000000,0.000000,0.000000,0.000000,0.000000,0.000000,0.000000,0.000000,0.000000,0.000000,1770887983.033040,0.000000
156.000000,-16177.969119,-10988.654016,-900.127101,-23011.970283,3747.471124,4531.659726,-6147.556740,1051.940149,7122.159853,-8030.177120,-6070.107945,2660.617549,282.257829,2683.952771,-26071.611175,-8474.462745,0.002000,-0.006000,1.002000,192.000000,0.000000,0.000000,0.000000,0.000000,0.000000,0.000000,0.000000,0.000000,0.000000,1770887983.033058,0.000000
158.000000,-16297.215676,-11107.386483,-1007.259012,-23132.602648,3631.331459,4432.194463,-6260.857732,941.768401,7070.728489,-8135.297374,-6164.611121,2568.617769,193.052017,2592.645895,-26172.842225,-8566.686042,0.002000,-0.006000,1.002000,192.000000,0.000000,0.000000,0.000000,0.000000,0.000000,0.000000,0.000000,0.000000,0.000000,1770887983.033076,0.000000
160.000000,-16173.051736,-10979.445097,-891.476976,-23002.604902,3755.696566,4539.460485,-6141.454714,1054.175324,7081.278513,-8112.543298,-6148.562568,2584.867488,213.637974,2606.503976,-26149.551707,-8548.469370,0.002000,-0.008000,1.001000,192.000000,0.000000,8.000000,127.500000,88.000000,15.500000,32.000000,0.000000,0.000000,0.000000,1770887983.033092,0.000000
162.000000,-16273.165199,-11079.111526,-972.233829,-23097.711575,3673.598608,4457.228417,-6228.648869,969.484564,7098.377597,-8052.215940,-6090.246867,2641.976195,259.615512,2662.048061,-26087.279747,-8491.360663,0.002000,-0.008000,1.001000,192.000000,0.000000,0.000000,0.000000,0.000000,0.000000,0.000000,0.000000,0.000000,0.000000,1770887983.033110,0.000000
164.000000,-16252.422780,-11063.219436,-956.341738,-23082.355926,3698.163175,4476.003882,-6211.907412,980.749843,7049.919015,-8182.683072,-6203.324342,2524.316612,151.656586,2544.991975,-26203.777040,-8603.924048,0.002000,-0.008000,1.001000,192.000000,0.000000,0.000000,0.000000,0.000000,0.000000,0.000000,0.000000,0.000000,0.000000,1770887983.033128,0.000000
166.000000,-16188.385032,-10995.672464,-900.618839,-23015.770080,3767.610045,4529.670421,-6151.624757,1043.111210,7107.385350,-8045.957452,-6080.210934,2643.004375,274.725291,2663.746794,-26068.169006,-8484.252809,0.002000,-0.008000,1.001000,192.000000,0.000000,0.000000,0.000000,0.000000,0.000000,0.000000,0.000000,0.000000,0.000000,1770887983.033146,0.000000
168.000000,-16309.687949,-11113.108529,-1006.655515,-23132.043854,3657.617111,4438.251786,-6264.948102,935.666375,7066.369899,-8139.275985,-6170.556685,2563.007481,185.675941,2600.089026,-26161.867519,-8560.002871,0.002000,-0.008000,1.001000,192.000000,0.000000,0.000000,0.000000,0.000000,0.000000,0.000000,0.000000,0.000000,0.000000,1770887983.033163,0.000000
170.000000,-16173.811695,-10988.609313,-887.341903,-23006.337643,3774.784955,4548.021203,-6143.913405,1047.179228,7082.306693,-8117.170109,-6154.865760,2578.988979,221.148160,2608.381523,-26134.240763,-8539.394562,0.003000,-0.006000,1.005500,192.000000,0.000000,16.000000,127.500000,112.000000,15.500000,72.000000,0.000000,0.000000,0.000000,1770887983.033181,0.000000
172.000000,-16267.621966,-11084.341834,-972.099718,-23100.952578,3687.322579,4471.019443,-6230.682877,965.908285,7102.445615,-8061.044879,-6092.258524,2632.163779,277.899239,2664.462050,-26074.315736,-8480.855343,0.003000,-0.006000,1.005500,192.000000,0.000000,0.000000,0.000000,0.000000,0.000000,0.000000,0.000000,0.000000,0.000000,1770887983.033198,0.000000
174.000000,-16252.467484,-11063.331194,-954.106564,-23080.277214,3707.103873,4479.736624,-6214.723732,977.575895,7049.896663,-8186.929904,-6211.415674,2515.577080,157.222170,2546.623653,-26196.959757,-8590.848278,0.003000,-0.006000,1.005500,192.000000,0.000000,0.000000,0.000000,0.000000,0.000000,0.000000,0.000000,0.000000,0.000000,1770887983.033215,0.000000
176.000000,-16186.194561,-11000.791013,-895.723807,-23016.194763,3772.728595,4536.845331,-6154.754001,1037.880902,7114.202632,-8045.532768,-6083.250771,2640.143352,285.923515,2682.008169,-26057.082541,-8469.120678,0.003000,-0.006000,1.005500,192.000000,0.000000,0.000000,0.000000,0.000000,0.000000,0.000000,0.000000,0.000000,0.000000,1770887983.033233,0.000000
178.000000,-16304.614103,-11119.925811,-1004.375637,-23140.045779,3657.237131,4438.922338,-6268.502029,931.799523,7067.241617,-8144.416886,-6173.082432,2556.011385,193.141424,2588.421415,-26155.318458,-8551.375097,0.003000,-0.006000,1.005500,192.000000,0.000000,0.000000,0.000000,0.000000,0.000000,0.000000,0.000000,0.000000,0.000000,1770887983.513421,0.000000
180.000000,-16171.554169,-10987.156449,-887.766586,-23008.438707,3763.206752,4530.989174,-6142.125266,1051.671928,7079.758594,-8121.975734,-6147.668498,2569.914170,205.904270,2605.118168,-26141.236859,-8546.591824,0.002500,-0.009000,1.005750,192.000000,0.000000,8.000000,127.500000,80.000000,15.500000,56.000000,0.000000,0.000000,0.000000,1770887983.513465,0.000000
182.000000,-16262.279899,-11071.064898,-970.624503,-23101.600778,3666.513105,4460.648234,-6226.704267,977.307675,7102.512670,-8059.592016,-6082.289646,2630.576805,271.394881,2662.003358,-26082.340012,-8493.282913,0.002500,-0.009000,1.005750,192.000000,0.000000,0.000000,0.000000,0.000000,0.000000,0.000000,0.000000,0.000000,0.000000,1770887983.513523,0.000000
184.000000,-16242.208033,-11055.664546,-957.213456,-23076.835045,3683.545134,4468.694862,-6211.482729,988.036512,7052.131838,-8178.436241,-6197.959924,2525.098923,154.271740,2545.751935,-26212.717737,-8605.913354,0.002500,-0.009000,1.005750,192.000000,0.000000,0.000000,0.000000,0.000000,0.000000,0.000000,0.000000,0.000000,0.000000,1770887983.513578,0.000000
186.000000,-16180.763087,-10991.045653,-901.222336,-23013.199629,3755.182475,4520.439150,-6151.200074,1045.100515,7113.666190,-8041.062420,-6074.511239,2646.714764,275.105271,2680.912933,-26071.208843,-8486.711500,0.002500,-0.009000,1.005750,192.000000,0.000000,0.000000,0.000000,0.000000,0.000000,0.000000,0.000000,0.000000,0.000000,1770887983.513643,0.000000
188.000000,-16302.468336,-11111.342741,-1009.449483,-23131.820337,3634.416000,4422.985545,-6267.496201,937.812142,7062.525399,-8140.304165,-6166.667481,2563.096888,179.931543,2592.489432,-26173.155150,-8572.296330,0.002500,-0.009000,1.005750,192.000000,0.000000,0.000000,0.000000,0.000000,0.000000,0.000000,0.000000,0.000000,0.000000,1770887983.513698,0.000000
190.000000,-16173.968157,-10982.060251,-889.621781,-23004.370690,3770.873400,4543.282633,-6144.427496,1052.923626,7078.372786,-8118.399455,-6147.623795,2577.871392,212.118055,2617.389276,-26145.908373,-8552.112705,0.002250,-0.014500,1.003875,192.000000,0.000000,8.000000,127.500000,48.000000,15.500000,40.000000,0.000000,0.000000,0.000000,1770887983.513753,0.000000
192.000000,-16259.530635,-11069.097944,-970.356282,-23094.761144,3691.100024,4476.406214,-6228.358296,980.503974,7106.871260,-8052.908844,-6080.166230,2634.734229,276.178154,2675.101480,-26074.651012,-8484.543381,0.002250,-0.014500,1.003875,192.000000,0.000000,0.000000,0.000000,0.000000,0.000000,0.000000,0.000000,0.000000,0.000000,1770887983.513785,0.000000
194.000000,-16239.771693,-11050.948328,-959.694500,-23075.002202,3709.137882,4484.229324,-6215.684857,989.042340,7053.048259,-8176.178715,-6198.608124,2524.584833,155.098755,2560.682900,-26200.714851,-8585.774432,0.002250,-0.014500,1.003875,192.000000,0.000000,0.000000,0.000000,0.000000,0.000000,0.000000,0.000000,0.000000,0.000000,1770887983.513803,0.000000
196.000000,-16174.571654,-10985.770641,-899.635363,-23012.998463,3777.444813,4544.690793,-6154.664594,1043.737059,7113.353266,-8038.871949,-6074.824163,2644.926625,294.417178,2689.808928,-26059.675343,-8462.795134,0.002250,-0.014500,1.003875,192.000000,0.000000,0.000000,0.000000,0.000000,0.000000,0.000000,0.000000,0.000000,0.000000,1770887983.513821,0.000000
198.000000,-16294.935798,-11101.619733,-1008.801283,-23130.993322,3666.267236,4445.605510,-6268.502029,935.442857,7071.175524,-8133.106903,-6165.885170,2562.985130,208.407665,2607.800377,-26154.714960,-8545.429533,0.002250,-0.014500,1.003875,192.000000,0.000000,0.000000,0.000000,0.000000,0.000000,0.000000,0.000000,0.000000,0.000000,1770887983.513838,0.000000
200.000000,-16165.988584,-10976.271150,-890.471147,-23009.377481,3790.721749,4554.190285,-6146.282690,1048.632091,7086.911152,-8106.441272,-6147.199112,2578.810165,230.222968,2629.883901,-26130.530373,-8532.510225,0.002250,-0.014500,1.003875,192.000000,0.000000,0.000000,127.500000,56.000000,15.500000,48.000000,0.000000,0.000000,0.000000,1770887983.513855,0.000000
202.000000,-16256.155521,-11066.326328,-966.310616,-23102.092517,3700.018370,4472.539362,-6227.955965,976.793584,7107.988847,-8050.003117,-6081.350873,2634.935395,278.122756,2680.801175,-26070.225366,-8477.524934,0.002250,-0.014500,1.003875,192.000000,0.000000,0.000000,0.000000,0.000000,0.000000,0.000000,0.000000,0.000000,0.000000,1770887983.513872,0.000000
204.000000,-16240.375190,-11049.182540,-951.357299,-23077.527950,3709.093178,4475.758013,-6211.438025,992.082178,7060.580797,-8178.860924,-6194.227182,2528.250519,174.209496,2567.947217,-26192.288243,-8594.513964,0.002250,-0.014500,1.003875,192.000000,0.000000,0.000000,0.000000,0.000000,0.000000,0.000000,0.000000,0.000000,0.000000,1770887983.513891,0.000000
206.000000,-16169.855436,-10978.662786,-888.951229,-23010.360957,3766.380699,4529.379848,-6147.802609,1058.846838,7123.188033,-8039.430742,-6067.515143,2653.576750,295.825338,2688.311361,-26062.849291,-8478.955445,0.002250,-0.014500,1.003875,192.000000,0.000000,0.000000,0.000000,0.000000,0.000000,0.000000,0.000000,0.000000,0.000000,1770887983.513908,0.000000
208.000000,-16289.347862,-11099.831593,-1002.274573,-23130.792157,3647.000032,4431.926242,-6262.377651,946.596378,7078.328082,-8130.111769,-6151.982385,2576.753804,205.211366,2612.069561,-26160.325248,-8562.416859,0.002250,-0.014500,1.003875,192.000000,0.000000,0.000000,0.000000,0.000000,0.000000,0.000000,0.000000,0.000000,0.000000,1770887983.513925,0.000000
210.000000,-16168.156703,-10979.534504,-889.867650,-23004.795373,3760.010452,4535.683040,-6142.035859,1057.282216,7081.859658,-8116.007819,-6143.309908,2580.978284,212.386276,2625.257090,-26144.567268,-8549.363440,0.002125,-0.014250,1.007937,192.000000,0.000000,8.000000,127.500000,72.000000,15.500000,80.000000,0.000000,0.000000,0.000000,1770887983.513942,0.000000
212.000000,-16264.582129,-11075.535247,-971.205648,-23091.587197,3675.453803,4455.641443,-6225.363162,976.882991,7105.328990,-8055.702812,-6078.802774,2637.572901,276.602838,2684.198640,-26083.278785,-8489.080785,0.002125,-0.014250,1.007937,192.000000,0.000000,0.000000,0.000000,0.000000,0.000000,0.000000,0.000000,0.000000,0.000000,1770887983.513972,0.000000
214.000000,-16243.683248,-11052.915281,-958.398099,-23078.064391,3694.430434,4478.730795,-6211.639191,986.024855,7050.991899,-8183.666549,-6200.195098,2522.908452,153.042394,2560.504086,-26206.414545,-8596.749138,0.002125,-0.014250,1.007937,192.000000,0.000000,0.000000,0.000000,0.000000,0.000000,0.000000,0.000000,0.000000,0.000000,1770887983.513988,0.000000
216.000000,-16170.727154,-10983.468411,-893.958019,-23014.719548,3768.101784,4541.092162,-6148.406106,1051.202542,7120.438769,-8044.884568,-6071.806678,2643.898445,287.219916,2692.111157,-26066.559680,-8472.182867,0.002125,-0.014250,1.007937,192.000000,0.000000,0.000000,0.000000,0.000000,0.000000,0.000000,0.000000,0.000000,0.000000,1770887983.514005,0.000000
218.000000,-16291.091298,-11103.631390,-1003.950954,-23138.481157,3656.633634,4436.374239,-6267.384442,940.494351,7079.803297,-8136.705534,-6155.916292,2564.952083,207.133616,2611.488415,-26156.212527,-8553.565568,0.002125,-0.014250,1.007937,192.000000,0.000000,0.000000,0.000000,0.000000,0.000000,0.000000,0.000000,0.000000,0.000000,1770887983.514028,0.000000
220.000000,-16164.826294,-10979.422746,-888.593601,-23007.902266,3776.573095,4537.068848,-6147.489685,1053.214199,7092.208516,-8116.141929,-6141.566472,2583.101700,215.560224,2622.887805,-26137.593524,-8535.259489,0.004063,-0.012125,1.006969,192.000000,0.000000,24.000000,127.500000,88.000000,15.500000,56.000000,0.000000,0.000000,0.000000,1770887983.514043,0.000000
222.000000,-16251.931042,-11066.214569,-963.159020,-23096.459877,3700.040722,4477.009711,-6227.061895,979.341683,7119.656458,-8052.282995,-6074.533591,2642.847913,292.673742,2690.367721,-26067.900785,-8473.792192,0.004063,-0.012125,1.006969,192.000000,0.000000,0.000000,0.000000,0.000000,0.000000,0.000000,0.000000,0.000000,0.000000,1770887983.514057,0.000000
224.000000,-16242.722123,-11046.053296,-954.061860,-23079.047868,3713.183548,4488.409101,-6211.370970,991.970419,7065.185257,-8168.512066,-6194.338941,2533.592586,161.692519,2575.636217,-26192.802333,-8588.702510,0.004063,-0.012125,1.006969,192.000000,0.000000,0.000000,0.000000,0.000000,0.000000,0.000000,0.000000,0.000000,0.000000,1770887983.514074,0.000000
226.000000,-16168.626090,-10974.684176,-890.158223,-23012.931408,3763.989063,4533.760790,-6146.237987,1059.919722,7122.919813,-8033.708696,-6065.078803,2651.207465,286.638771,2689.116024,-26059.965916,-8472.607550,0.004063,-0.012125,1.006969,192.000000,0.000000,0.000000,0.000000,0.000000,0.000000,0.000000,0.000000,0.000000,0.000000,1770887983.514092,0.000000
228.000000,-16286.531542,-11096.881163,-999.413550,-23131.149784,3639.914529,4428.037039,-6258.130820,952.541942,7083.446632,-8125.104979,-6146.908539,2574.161002,202.663267,2623.536005,-26162.314554,-8558.617062,0.004063,-0.012125,1.006969,192.000000,0.000000,0.000000,0.000000,0.000000,0.000000,0.000000,0.000000,0.000000,0.000000,1770887983.514107,0.000000
230.000000,-16161.048849,-10968.470391,-886.514889,-23003.610731,3756.076545,4530.408028,-6137.252586,1063.987740,7090.800356,-8114.331438,-6134.883301,2586.633275,218.130674,2635.047154,-26148.858803,-8546.591824,0.004063,-0.012125,1.006969,192.000000,0.000000,0.000000,0.000000,0.000000,0.000000,0.000000,0.000000,0.000000,0.000000,1770887983.514124,0.000000
232.000000,-16250.813454,-11058.503218,-966.623541,-23091.833066,3670.089384,4455.306167,-6221.026924,988.662361,7107.899440,-8049.332565,-6073.594817,2649.508732,267.706843,2687.976085,-26086.273919,-8489.483117,0.002000,-0.010000,1.008000,192.000000,0.000000,8.000000,127.500000,88.000000,15.500000,64.000000,0.000000,0.000000,0.000000,1770887983.514142,0.000000
234.000000,-16227.500585,-11042.141741,-951.334948,-23077.952633,3682.092271,4469.723042,-6206.297124,1001.849890,7059.239693,-8168.713232,-6188.572191,2545.349603,152.684766,2579.167793,-26215.668168,-8602.538240,0.002000,-0.010000,1.008000,192.000000,0.000000,0.000000,0.000000,0.000000,0.000000,0.000000,0.000000,0.000000,0.000000,1770887983.514156,0.000000
236.000000,-16175.443372,-10984.138964,-891.074644,-23010.472716,3740.720897,4514.560642,-6145.008641,1059.048004,7121.332839,-8038.693135,-6061.100192,2658.292968,283.062492,2687.909029,-26070.091256,-8486.622094,0.002000,-0.010000,1.008000,192.000000,0.000000,0.000000,0.000000,0.000000,0.000000,0.000000,0.000000,0.000000,0.000000,1770887983.514173,0.000000
