Sample_index,EXG Channel 0,EXG Channel 1,EXG Channel 2,EXG Channel 3,EXG Channel 4,EXG Channel 5,EXG Channel 6,EXG Channel 7,EXG Channel 8,EXG Channel 9,EXG Channel 10,EXG Channel 11,EXG Channel 12,EXG Channel 13,EXG Channel 14,EXG Channel 15,Accel Channel 0,Accel Channel 1,Accel Channel 2,Not Used,Digital Channel 0 (D11),Digital Channel 1 (D12),Digital Channel 2 (D13),Digital Channel 3 (D17),Not Used,Digital Channel 4 (D18),Analog Channel 0,Analog Channel 1,Analog Channel 2,Timestamp,Marker Channel
90.000000,10306.724645,5977.035281,-377.140984,-6113.917364,-1500.718474,269.606742,-16857.059819,-2654.001433,1084.551344,-602.580679,1230.977622,-300.250983,163.123031,1290.790891,-6173.037728,5715.989258,0.008000,-0.016000,1.004000,192.000000,0.000000,0.000000,0.000000,0.000000,0.000000,0.000000,0.000000,0.000000,0.000000,1773140366.516377,101.000000
92.000000,10239.222376,5909.533013,-444.062107,-6176.971635,-1592.092406,213.705029,-16940.253012,-2729.460922,1080.975065,-629.715697,1217.499520,-324.100295,153.511781,1235.827951,-6195.277714,5710.133101,0.008000,-0.016000,1.004000,192.000000,0.000000,0.000000,0.000000,0.000000,0.000000,0.000000,0.000000,0.000000,0.000000,1773140366.516463,0.000000
94.000000,10297.426319,5965.993520,-385.522888,-6137.029068,-1524.098399,258.810849,-16876.774058,-2670.273503,1056.902237,-660.650511,1183.591924,-355.146868,117.480769,1199.707532,-6229.833511,5692.162298,0.012000,-0.016000,1.008000,192.000000,0.000000,48.000000,127.500000,64.000000,15.500000,64.000000,0.000000,0.000000,0.000000,1773140366.516541,0.000000
96.000000,10271.252426,5938.545577,-402.376104,-6147.310871,-1537.397687,254.295797,-16899.058747,-2698.280239,1104.354990,-598.132682,1251.429469,-284.895335,188.827537,1276.619885,-6149.501342,5726.114598,0.012000,-0.016000,1.008000,192.000000,0.000000,0.000000,0.000000,0.000000,0.000000,0.000000,0.000000,0.000000,0.000000,1773140366.516619,0.000000
98.000000,10226.034847,5901.464033,-436.730735,-6171.741327,-1552.619225,238.470762,-16938.420169,-2741.732030,1045.435792,-677.615485,1157.820363,-380.404339,101.186347,1202.456796,-6221.049276,5697.414958,0.012000,-0.016000,1.008000,192.000000,0.000000,0.000000,0.000000,0.000000,0.000000,0.000000,0.000000,0.000000,0.000000,1773140366.516688,0.000000
100.000000,10294.073557,5961.500819,-368.982597,-6118.477120,-1501.456082,298.440492,-16861.776037,-2667.077204,1082.651446,-609.777940,1218.393590,-318.601765,164.285322,1265.488716,-6163.113554,5729.847339,0.012000,-0.016000,1.008000,192.000000,0.000000,0.000000,0.000000,0.000000,0.000000,0.000000,0.000000,0.000000,0.000000,1773140366.516747,0.000000
102.000000,10241.457551,5911.768187,-433.623842,-6172.277769,-1574.345121,234.894482,-16942.175262,-2731.830207,1089.021693,-634.320156,1215.331401,-318.579414,159.971435,1251.921207,-6176.658711,5722.515967,0.012000,-0.016000,1.008000,192.000000,0.000000,0.000000,0.000000,0.000000,0.000000,0.000000,0.000000,0.000000,0.000000,1773140366.516796,0.000000
104.000000,10305.852926,5963.199551,-377.789185,-6127.663687,-1490.436672,284.425948,-16876.952872,-2673.402747,1073.688397,-659.041185,1188.509308,-356.733842,133.372859,1240.521817,-6206.788863,5709.149624,0.008000,-0.014000,1.006000,192.000000,0.000000,32.000000,127.500000,72.000000,15.500000,56.000000,0.000000,0.000000,0.000000,1773140366.516838,0.000000
106.000000,10287.211572,5952.426011,-392.384874,-6146.617966,-1507.021666,267.706843,-16895.750689,-2689.451300,1128.360764,-596.903336,1260.973663,-288.136338,208.586479,1304.403103,-6133.788065,5739.570348,0.008000,-0.014000,1.006000,192.000000,0.000000,0.000000,0.000000,0.000000,0.000000,0.000000,0.000000,0.000000,0.000000,1773140366.516855,0.000000
108.000000,10250.688821,5922.675839,-431.075744,-6166.287502,-1556.754298,243.857532,-16932.876937,-2723.336544,1067.116984,-658.884723,1175.277075,-357.225580,123.761609,1207.642401,-6217.160072,5702.801729,0.008000,-0.014000,1.006000,192.000000,0.000000,0.000000,0.000000,0.000000,0.000000,0.000000,0.000000,0.000000,0.000000,1773140366.516865,0.000000
110.000000,10315.263011,5975.783584,-367.395624,-6114.006771,-1494.258820,273.652407,-16857.372744,-2655.275483,1101.091635,-613.175406,1233.972756,-303.246117,185.988866,1276.396367,-6160.945435,5727.701572,0.008000,-0.014000,1.006000,192.000000,0.000000,0.000000,0.000000,0.000000,0.000000,0.000000,0.000000,0.000000,0.000000,1773140366.516876,0.000000
112.000000,10250.308842,5918.652525,-439.524703,-6171.920141,-1567.885467,200.964534,-16939.917736,-2727.426914,1094.967257,-631.995574,1221.142855,-320.389905,157.356281,1248.747259,-6186.672293,5708.926107,0.008000,-0.014000,1.006000,192.000000,0.000000,0.000000,0.000000,0.000000,0.000000,0.000000,0.000000,0.000000,0.000000,1773140366.516886,0.000000
114.000000,10306.411720,5962.841924,-384.360598,-6134.592728,-1530.066315,250.183076,-16875.879988,-2669.714709,1061.596103,-667.221924,1183.502517,-358.186705,110.439969,1201.853299,-6229.878215,5689.971827,0.009000,-0.012000,1.008000,192.000000,0.000000,40.000000,127.500000,88.000000,15.500000,72.000000,0.000000,0.000000,0.000000,1773140366.516897,0.000000
116.000000,10291.793679,5951.040203,-396.743464,-6152.608234,-1547.746545,242.941110,-16894.387233,-2685.070358,1114.212109,-599.205565,1260.683091,-288.449262,188.894592,1287.102853,-6157.302100,5723.588851,0.009000,-0.012000,1.008000,192.000000,0.000000,0.000000,0.000000,0.000000,0.000000,0.000000,0.000000,0.000000,0.000000,1773140366.516908,0.000000
118.000000,10262.043507,5923.055818,-431.343964,-6170.936664,-1558.028347,230.714706,-16933.301620,-2723.984745,1061.841972,-674.195668,1178.786299,-363.685234,111.490501,1203.552032,-6233.745066,5692.028188,0.009000,-0.012000,1.008000,192.000000,0.000000,0.000000,0.000000,0.000000,0.000000,0.000000,0.000000,0.000000,0.000000,1773140366.516918,0.000000
120.000000,10334.820787,5994.290828,-363.372310,-6117.158367,-1507.379294,292.629038,-16855.517549,-2652.123887,1109.026505,-608.995629,1244.500428,-312.589146,180.378578,1261.018367,-6170.288464,5726.695743,0.009000,-0.012000,1.008000,192.000000,0.000000,0.000000,0.000000,0.000000,0.000000,0.000000,0.000000,0.000000,0.000000,1773140366.516929,0.000000
122.000000,10259.361298,5927.101484,-434.003822,-6164.767583,-1595.445167,231.988756,-16939.180128,-2720.989611,1104.556156,-627.592281,1228.585986,-321.149864,163.503011,1256.726832,-6187.342845,5724.169996,0.009000,-0.012000,1.008000,192.000000,0.000000,0.000000,0.000000,0.000000,0.000000,0.000000,0.000000,0.000000,0.000000,1773140366.516955,0.000000
124.000000,10317.297020,5967.938121,-376.336321,-6122.388675,-1504.987658,275.507602,-16877.176389,-2663.947959,1077.108214,-655.241389,1192.823195,-341.288786,123.962775,1222.796884,-6221.473959,5706.154490,0.005500,-0.012000,1.010000,192.000000,0.000000,8.000000,127.500000,80.000000,15.500000,80.000000,0.000000,0.000000,0.000000,1773140366.516965,0.000000
126.000000,10299.303865,5963.177200,-394.888269,-6148.763734,-1515.269460,267.192753,-16898.589361,-2686.344407,1123.175159,-589.996647,1265.309902,-279.396806,200.629258,1285.448824,-6143.399315,5736.642270,0.005500,-0.012000,1.010000,192.000000,0.000000,0.000000,0.000000,0.000000,0.000000,0.000000,0.000000,0.000000,0.000000,1773140366.516975,0.000000
128.000000,10261.641176,5924.888661,-434.361450,-6166.801592,-1556.687243,245.042174,-16935.469739,-2724.834111,1067.228743,-674.508592,1176.998160,-367.887362,117.391362,1210.391666,-6222.859767,5698.219621,0.005500,-0.012000,1.010000,192.000000,0.000000,0.000000,0.000000,0.000000,0.000000,0.000000,0.000000,0.000000,0.000000,1773140366.516986,0.000000
130.000000,10343.649726,5996.391892,-367.149754,-6111.391617,-1479.998407,291.019713,-16856.188101,-2649.195808,1102.365685,-613.577737,1239.828913,-301.927364,185.385369,1268.237980,-6166.354557,5727.455703,0.005500,-0.012000,1.010000,192.000000,0.000000,0.000000,0.000000,0.000000,0.000000,0.000000,0.000000,0.000000,0.000000,1773140366.516996,0.000000
132.000000,10271.900627,5934.634022,-434.272043,-6180.749080,-1561.336405,232.547549,-16938.688390,-2720.363762,1103.751493,-613.331868,1226.931957,-310.979821,167.682787,1268.975588,-6183.565400,5718.000915,0.005500,-0.012000,1.010000,192.000000,0.000000,0.000000,0.000000,0.000000,0.000000,0.000000,0.000000,0.000000,0.000000,1773140366.517006,0.000000
134.000000,10314.748921,5974.487182,-385.880516,-6125.272051,-1517.079951,282.056663,-16878.718660,-2672.061643,1075.767109,-647.015947,1189.448081,-355.862123,123.940423,1239.180713,-6220.065799,5699.381912,0.006750,-0.015000,1.006000,192.000000,0.000000,32.000000,127.500000,56.000000,15.500000,40.000000,0.000000,0.000000,0.000000,1773140366.517016,0.000000
136.000000,10305.987037,5964.272435,-400.051522,-6127.529577,-1536.682431,258.587332,-16895.147192,-2679.840050,1121.051743,-591.717731,1260.616036,-270.411404,196.941220,1287.505184,-6152.429420,5738.296299,0.006750,-0.015000,1.006000,192.000000,0.000000,0.000000,0.000000,0.000000,0.000000,0.000000,0.000000,0.000000,0.000000,1773140366.517026,0.000000
138.000000,10267.519685,5931.974164,-434.987299,-6167.181571,-1575.105080,231.362907,-16935.089759,-2720.810797,1065.530010,-663.444479,1177.422843,-352.822286,126.466170,1214.079704,-6234.639136,5699.136042,0.006750,-0.015000,1.006000,192.000000,0.000000,0.000000,0.000000,0.000000,0.000000,0.000000,0.000000,0.000000,0.000000,1773140366.517036,0.000000
140.000000,10338.039438,6000.571668,-369.317874,-6125.629678,-1488.872050,300.116873,-16859.451456,-2653.442640,1106.657220,-604.279411,1238.845436,-305.794216,180.065653,1291.841423,-6169.863781,5726.807502,0.006750,-0.015000,1.006000,192.000000,0.000000,0.000000,0.000000,0.000000,0.000000,0.000000,0.000000,0.000000,0.000000,1773140366.517047,0.000000
142.000000,10269.173714,5932.376496,-441.491656,-6156.408031,-1575.216839,231.899349,-16941.147082,-2729.304460,1097.537708,-629.492179,1217.767741,-312.611498,158.473868,1251.742393,-6188.147508,5722.806540,0.006750,-0.015000,1.006000,192.000000,0.000000,0.000000,0.000000,0.000000,0.000000,0.000000,0.000000,0.000000,0.000000,1773140366.517057,0.000000
144.000000,10329.948107,5993.217944,-381.477223,-6129.429475,-1508.541585,288.292800,-16873.220131,-2662.830372,1072.928437,-653.028566,1188.084625,-347.234350,119.537129,1241.997032,-6225.273755,5706.422711,0.009375,-0.016500,1.005000,192.000000,0.000000,48.000000,127.500000,56.000000,15.500000,48.000000,0.000000,0.000000,0.000000,1773140366.517067,0.000000
146.000000,10319.889822,5984.456060,-394.843566,-6137.364344,-1511.067332,268.623265,-16891.079174,-2675.324997,1130.171255,-579.133699,1270.920190,-272.199544,209.033514,1322.150388,-6144.494551,5731.747238,0.009375,-0.016500,1.005000,192.000000,0.000000,0.000000,0.000000,0.000000,0.000000,0.000000,0.000000,0.000000,0.000000,1773140366.517078,0.000000
148.000000,10289.379691,5946.502798,-428.885273,-6153.904635,-1575.708577,241.041212,-16930.172375,-2714.507605,1078.069339,-656.940121,1184.173069,-351.145905,124.186292,1189.939820,-6227.017191,5702.377045,0.009375,-0.016500,1.005000,192.000000,0.000000,0.000000,0.000000,0.000000,0.000000,0.000000,0.000000,0.000000,0.000000,1773140366.517095,0.000000
150.000000,10354.736192,6015.770854,-364.914580,-6113.067998,-1488.581477,296.808815,-16855.294032,-2645.217198,1121.610537,-597.931516,1250.445992,-296.227669,190.973305,1275.547001,-6167.360385,5727.276889,0.009375,-0.016500,1.005000,192.000000,0.000000,0.000000,0.000000,0.000000,0.000000,0.000000,0.000000,0.000000,0.000000,1773140366.517105,0.000000
152.000000,10289.133822,5950.213188,-433.310918,-6171.003720,-1576.468536,238.604872,-16937.459044,-2716.631021,1107.216013,-615.991725,1232.676355,-316.455998,170.454403,1282.878373,-6181.106708,5714.536394,0.009375,-0.016500,1.005000,192.000000,0.000000,0.000000,0.000000,0.000000,0.000000,0.000000,0.000000,0.000000,0.000000,1773140366.517115,0.000000
154.000000,10348.611814,6001.286924,-381.298409,-6119.728818,-1508.407475,274.658236,-16872.817799,-2656.147201,1079.544554,-652.223903,1198.612296,-341.691117,128.634289,1227.647212,-6223.150340,5699.694836,0.010688,-0.013250,1.004500,192.000000,0.000000,48.000000,127.500000,88.000000,15.500000,48.000000,0.000000,0.000000,0.000000,1773140366.517125,0.000000
156.000000,10333.636145,5997.464776,-396.274077,-6134.190397,-1520.008030,264.935227,-16892.755555,-2673.916837,1135.893301,-578.865478,1272.328350,-265.784593,198.103511,1303.486681,-6149.881321,5731.858996,0.010688,-0.013250,1.004500,192.000000,0.000000,0.000000,0.000000,0.000000,0.000000,0.000000,0.000000,0.000000,0.000000,1773140366.517136,0.000000
158.000000,10305.249429,5963.490124,-426.963023,-6157.682080,-1567.237266,236.392049,-16930.530003,-2707.466806,1075.163612,-663.355072,1184.977732,-351.078850,117.860749,1204.624916,-6233.320383,5697.347903,0.010688,-0.013250,1.004500,192.000000,0.000000,0.000000,0.000000,0.000000,0.000000,0.000000,0.000000,0.000000,0.000000,1773140366.517146,0.000000
160.000000,10366.448506,6026.052657,-360.086603,-6106.720103,-1491.353094,298.641658,-16854.645831,-2639.204578,1117.475464,-597.573888,1252.390594,-286.191736,185.742996,1268.685015,-6166.712185,5726.047543,0.010688,-0.013250,1.004500,192.000000,0.000000,0.000000,0.000000,0.000000,0.000000,0.000000,0.000000,0.000000,0.000000,1773140366.517156,0.000000
162.000000,10305.428243,5971.045014,-428.080610,-6179.407976,-1559.749432,241.443544,-16938.956611,-2713.188852,1115.910842,-604.972315,1237.303166,-305.257774,169.314464,1269.333216,-6178.200981,5721.599546,0.010688,-0.013250,1.004500,192.000000,0.000000,0.000000,0.000000,0.000000,0.000000,0.000000,0.000000,0.000000,0.000000,1773140366.517166,0.000000
164.000000,10357.306642,6016.575517,-379.711435,-6106.116606,-1500.696123,283.755396,-16875.008270,-2658.360023,1096.375417,-644.154923,1197.472357,-346.452039,133.194045,1223.400381,-6215.595450,5704.567516,0.008344,-0.012625,1.005250,192.000000,0.000000,24.000000,127.500000,80.000000,15.500000,56.000000,0.000000,0.000000,0.000000,1773140366.517176,0.000000
166.000000,10351.539892,6015.837910,-391.580211,-6127.440170,-1532.748524,273.518297,-16890.229808,-2665.199657,1139.983671,-571.422347,1276.172850,-262.342425,202.037418,1295.060074,-6143.153446,5738.430409,0.008344,-0.012625,1.005250,192.000000,0.000000,0.000000,0.000000,0.000000,0.000000,0.000000,0.000000,0.000000,0.000000,1773140366.517186,0.000000
168.000000,10316.604116,5980.365691,-424.146703,-6152.943510,-1569.137164,238.336651,-16928.898326,-2700.180137,1083.903144,-644.825476,1194.790148,-348.150772,128.991917,1218.527701,-6228.134779,5700.834775,0.008344,-0.012625,1.005250,192.000000,0.000000,0.000000,0.000000,0.000000,0.000000,0.000000,0.000000,0.000000,0.000000,1773140366.517196,0.000000
170.000000,10391.057776,6048.091477,-354.073984,-6104.551983,-1499.310315,289.231573,-16850.019020,-2626.866415,1129.634813,-597.439778,1265.645178,-278.413329,187.821709,1277.983341,-6168.701490,5722.046581,0.008344,-0.012625,1.005250,192.000000,0.000000,0.000000,0.000000,0.000000,0.000000,0.000000,0.000000,0.000000,0.000000,1773140366.517206,0.000000
172.000000,10322.952011,5984.321950,-428.170017,-6162.040670,-1566.566714,238.202541,-16933.480434,-2701.409483,1129.053668,-610.403789,1252.345890,-296.786463,166.542848,1284.286533,-6189.175688,5718.135025,0.008344,-0.012625,1.005250,192.000000,0.000000,0.000000,0.000000,0.000000,0.000000,0.000000,0.000000,0.000000,0.000000,1773140366.517217,0.000000
174.000000,10377.154991,6038.815503,-376.649246,-6118.030085,-1515.157701,282.727216,-16869.129761,-2640.925663,1095.973086,-634.074287,1211.799826,-333.130399,127.606109,1242.958157,-6219.685819,5698.778415,0.008172,-0.011312,1.006625,192.000000,0.000000,32.000000,127.500000,88.000000,15.500000,64.000000,0.000000,0.000000,0.000000,1773140366.517227,0.000000
176.000000,10368.035480,6029.584233,-392.764854,-6122.478082,-1537.956481,268.936189,-16888.575779,-2658.963520,1150.064307,-567.108460,1285.918210,-256.307454,206.552471,1289.583896,-6153.234083,5735.658793,0.008172,-0.011312,1.006625,192.000000,0.000000,0.000000,0.000000,0.000000,0.000000,0.000000,0.000000,0.000000,0.000000,1773140366.517237,0.000000
178.000000,10327.623526,5991.608619,-425.823084,-6156.877417,-1545.489019,245.064526,-16930.485300,-2702.169442,1094.408464,-645.250159,1199.640477,-344.172161,130.109504,1207.776512,-6230.101732,5697.660827,0.008172,-0.011312,1.006625,192.000000,0.000000,0.000000,0.000000,0.000000,0.000000,0.000000,0.000000,0.000000,0.000000,1773140366.517247,0.000000
180.000000,10398.612666,6058.216817,-356.309158,-6106.340123,-1492.716550,297.635829,-16851.941270,-2629.235700,1133.076982,-589.527260,1263.320597,-283.800099,193.387293,1287.259315,-6164.164086,5725.488749,0.008172,-0.011312,1.006625,192.000000,0.000000,0.000000,0.000000,0.000000,0.000000,0.000000,0.000000,0.000000,0.000000,1773140366.517257,0.000000
182.000000,10328.472892,5989.865183,-427.320650,-6165.929874,-1566.477307,237.375526,-16935.805015,-2704.359913,1128.047839,-604.055894,1249.037832,-300.362742,177.428147,1275.926980,-6177.865705,5716.525700,0.008172,-0.011312,1.006625,192.000000,0.000000,0.000000,0.000000,0.000000,0.000000,0.000000,0.000000,0.000000,0.000000,1773140366.517267,0.000000
184.000000,10378.563151,6037.787323,-378.683255,-6114.118530,-1502.372504,285.655294,-16874.471828,-2652.660328,1096.509528,-643.372612,1205.451930,-337.466638,130.958871,1223.579195,-6217.428293,5703.047598,0.008172,-0.011312,1.006625,192.000000,0.000000,0.000000,0.000000,0.000000,0.000000,0.000000,0.000000,0.000000,0.000000,1773140366.517278,0.000000
186.000000,10371.120020,6032.177035,-393.055426,-6129.362420,-1529.552225,277.183983,-16893.426108,-2663.188000,1155.182857,-570.148298,1282.140765,-269.986721,214.442636,1295.820033,-6147.109705,5735.167055,0.008000,-0.010000,1.006000,192.000000,0.000000,32.000000,127.500000,88.000000,15.500000,56.000000,0.000000,0.000000,0.000000,1773140366.517288,0.000000
188.000000,10340.386372,6003.611505,-425.286642,-6154.686946,-1559.704728,242.203503,-16930.686466,-2697.274410,1097.470653,-643.841999,1201.674485,-338.427763,125.281528,1220.829930,-6227.888909,5696.543240,0.008000,-0.010000,1.006000,192.000000,0.000000,0.000000,0.000000,0.000000,0.000000,0.000000,0.000000,0.000000,0.000000,1773140366.517298,0.000000
190.000000,10408.782710,6069.392689,-359.259589,-6102.808547,-1491.397797,304.698980,-16853.081209,-2626.374677,1136.809723,-588.275562,1266.829820,-283.733044,202.015066,1267.433318,-6172.903618,5724.080589,0.008000,-0.010000,1.006000,192.000000,0.000000,0.000000,0.000000,0.000000,0.000000,0.000000,0.000000,0.000000,0.000000,1773140366.517308,0.000000
192.000000,10336.474816,6006.383122,-431.165151,-6157.682080,-1570.500621,240.080087,-16935.089759,-2698.280239,1129.567758,-597.193908,1249.574274,-296.138262,166.833421,1264.013501,-6191.388511,5718.135025,0.008000,-0.010000,1.006000,192.000000,0.000000,0.000000,0.000000,0.000000,0.000000,0.000000,0.000000,0.000000,0.000000,1773140366.517319,0.000000
194.000000,10397.919762,6062.754221,-378.482089,-6117.560699,-1513.146044,288.024579,-16872.571930,-2641.104477,1106.366647,-626.340583,1215.420808,-330.761114,138.513760,1242.488771,-6230.951098,5702.645266,0.008000,-0.010000,1.006000,192.000000,0.000000,0.000000,0.000000,0.000000,0.000000,0.000000,0.000000,0.000000,0.000000,1773140366.517329,0.000000
196.000000,10385.447488,6051.824218,-390.172051,-6124.869719,-1534.089629,273.786518,-16890.140401,-2655.275483,1156.970996,-568.986007,1289.047454,-261.046023,198.707008,1295.350646,-6154.038746,5736.709325,0.006000,-0.010000,1.006000,192.000000,0.000000,24.000000,127.500000,88.000000,15.500000,56.000000,0.000000,0.000000,0.000000,1773140366.517339,0.000000
198.000000,10346.555453,6015.256764,-425.152531,-6151.580054,-1578.569600,242.941110,-16927.132538,-2694.949829,1103.237403,-637.628214,1206.435407,-341.624062,120.028868,1240.834742,-6239.645927,5696.923220,0.006000,-0.010000,1.006000,192.000000,0.000000,0.000000,0.000000,0.000000,0.000000,0.000000,0.000000,0.000000,0.000000,1773140366.517349,0.000000
200.000000,10410.190870,6071.605512,-355.325682,-6107.725931,-1494.951724,292.941963,-16851.293069,-2626.911119,1137.323813,-580.497155,1266.226323,-275.887582,179.775081,1271.970722,-6174.289426,5722.895947,0.006000,-0.010000,1.006000,192.000000,0.000000,0.000000,0.000000,0.000000,0.000000,0.000000,0.000000,0.000000,0.000000,1773140366.517359,0.000000
202.000000,10344.275575,6011.725189,-426.873616,-6158.889074,-1569.338330,239.521294,-16936.564974,-2700.738931,1128.807798,-603.787673,1247.584969,-299.222803,166.319330,1251.742393,-6184.437118,5711.273040,0.006000,-0.010000,1.006000,192.000000,0.000000,0.000000,0.000000,0.000000,0.000000,0.000000,0.000000,0.000000,0.000000,1773140366.517370,0.000000
204.000000,10403.641808,6066.464611,-375.822231,-6117.381885,-1500.226736,291.220879,-16874.315366,-2640.389221,1109.987630,-629.067496,1216.203119,-328.570643,137.396173,1240.611224,-6222.435084,5698.286676,0.006000,-0.010000,1.006000,192.000000,0.000000,0.000000,0.000000,0.000000,0.000000,0.000000,0.000000,0.000000,0.000000,1773140366.517380,0.000000
206.000000,10397.875058,6064.162381,-389.233278,-6122.589841,-1531.072143,279.016826,-16889.067517,-2649.844009,1162.827154,-557.988949,1292.109643,-252.239436,205.725456,1302.950240,-6151.758868,5738.117485,0.008000,-0.010000,1.012000,192.000000,0.000000,32.000000,127.500000,88.000000,15.500000,80.000000,0.000000,0.000000,0.000000,1773140366.517390,0.000000
208.000000,10356.166703,6023.862186,-422.671488,-6142.259376,-1552.328652,248.327881,-16925.947896,-2688.691341,1111.261679,-621.713772,1210.056390,-327.631870,124.610975,1253.329367,-6236.159055,5702.354694,0.008000,-0.010000,1.012000,192.000000,0.000000,0.000000,0.000000,0.000000,0.000000,0.000000,0.000000,0.000000,0.000000,1773140366.517401,0.000000
210.000000,10420.807948,6080.590913,-354.476315,-6101.087463,-1496.561050,302.419102,-16848.297936,-2618.395104,1143.470543,-582.240591,1270.406100,-276.491079,177.718720,1276.776347,-6173.194191,5723.410037,0.008000,-0.010000,1.012000,192.000000,0.000000,0.000000,0.000000,0.000000,0.000000,0.000000,0.000000,0.000000,0.000000,1773140366.996551,0.000000
212.000000,10347.762447,6016.419055,-425.174883,-6159.246702,-1578.524897,240.370660,-16936.006181,-2695.396864,1140.922444,-599.026751,1256.212742,-295.355951,160.396118,1254.066974,-6192.237877,5716.548051,0.008000,-0.010000,1.012000,192.000000,0.000000,0.000000,0.000000,0.000000,0.000000,0.000000,0.000000,0.000000,0.000000,1773140366.996606,0.000000
214.000000,10410.749663,6075.539419,-369.407281,-6111.771597,-1506.440521,291.824376,-16873.086020,-2638.176398,1114.279165,-624.530092,1218.550052,-326.156655,127.963737,1230.664698,-6225.720790,5702.891136,0.008000,-0.010000,1.012000,192.000000,0.000000,0.000000,0.000000,0.000000,0.000000,0.000000,0.000000,0.000000,0.000000,1773140366.996652,0.000000
216.000000,10396.958637,6061.457820,-386.171089,-6127.820149,-1514.151873,282.146070,-16892.174410,-2654.426116,1168.750366,-555.664367,1292.713141,-250.764221,217.191901,1322.955051,-6146.930891,5736.150531,0.006000,-0.012000,1.006000,192.000000,0.000000,24.000000,127.500000,80.000000,15.500000,56.000000,0.000000,0.000000,0.000000,1773140366.996695,0.000000
218.000000,10360.122962,6025.404456,-418.424656,-6151.334185,-1561.895199,246.875018,-16926.484338,-2687.707864,1114.167406,-628.352240,1207.843567,-345.647376,122.040525,1233.659832,-6228.313592,5696.923220,0.006000,-0.012000,1.006000,192.000000,0.000000,0.000000,0.000000,0.000000,0.000000,0.000000,0.000000,0.000000,0.000000,1773140366.996745,0.000000
220.000000,10425.546518,6085.888277,-353.694004,-6106.943620,-1476.332721,297.121739,-16849.192005,-2617.523386,1148.320871,-582.508812,1270.853134,-268.779727,181.339703,1288.935696,-6168.679138,5721.711304,0.006000,-0.012000,1.006000,192.000000,0.000000,0.000000,0.000000,0.000000,0.000000,0.000000,0.000000,0.000000,0.000000,1773140366.996760,0.000000
222.000000,10353.819770,6019.615354,-422.224453,-6153.725821,-1575.842688,247.612625,-16934.016876,-2692.871117,1140.006022,-595.875155,1255.139858,-295.288896,162.765403,1251.071841,-6188.728653,5716.033961,0.006000,-0.012000,1.006000,192.000000,0.000000,0.000000,0.000000,0.000000,0.000000,0.000000,0.000000,0.000000,0.000000,1773140366.996783,0.000000
224.000000,10411.151995,6076.880524,-371.687159,-6111.548079,-1501.679599,297.859347,-16871.789619,-2636.030631,1113.608612,-628.396944,1220.025268,-328.682402,134.512798,1242.555826,-6226.123122,5705.014551,0.006000,-0.012000,1.006000,192.000000,0.000000,0.000000,0.000000,0.000000,0.000000,0.000000,0.000000,0.000000,0.000000,1773140366.996795,0.000000
226.000000,10396.980989,6063.357718,-387.087510,-6119.460597,-1517.057600,290.840899,-16890.721546,-2649.575788,1168.862125,-556.200809,1290.612077,-252.440602,199.578726,1310.549833,-6153.502304,5741.179674,0.010000,-0.014000,1.006000,192.000000,0.000000,40.000000,127.500000,72.000000,15.500000,56.000000,0.000000,0.000000,0.000000,1773140366.996806,0.000000
228.000000,10369.711860,6036.826198,-417.441179,-6155.089278,-1564.264484,256.508619,-16928.205422,-2682.589314,1110.568775,-623.434856,1210.101093,-330.269376,130.556539,1226.328460,-6229.587642,5706.825043,0.010000,-0.014000,1.006000,192.000000,0.000000,0.000000,0.000000,0.000000,0.000000,0.000000,0.000000,0.000000,0.000000,1773140366.996817,0.000000
230.000000,10429.323963,6085.530649,-355.482144,-6107.211841,-1487.262724,306.442416,-16852.343601,-2618.596270,1156.009871,-573.121080,1277.782175,-275.038216,189.721607,1289.159213,-6169.640263,5729.914395,0.010000,-0.014000,1.006000,192.000000,0.000000,0.000000,0.000000,0.000000,0.000000,0.000000,0.000000,0.000000,0.000000,1773140366.996828,0.000000
232.000000,10354.155046,6017.067256,-428.080610,-6158.911426,-1573.205182,249.534875,-16932.631067,-2694.323980,1140.318947,-601.686609,1255.363376,-304.989553,175.461194,1263.857038,-6191.902601,5723.588851,0.010000,-0.014000,1.006000,192.000000,0.000000,0.000000,0.000000,0.000000,0.000000,0.000000,0.000000,0.000000,0.000000,1773140366.996838,0.000000
234.000000,10406.256963,6063.335367,-373.475298,-6119.840577,-1506.418169,288.382207,-16866.648718,-2632.811979,1111.664010,-636.734144,1219.444122,-336.416106,128.164903,1223.266271,-6228.335944,5700.790072,0.010000,-0.014000,1.006000,192.000000,0.000000,0.000000,0.000000,0.000000,0.000000,0.000000,0.000000,0.000000,0.000000,1773140366.996849,0.000000
236.000000,10389.046119,6053.031212,-388.987409,-6135.576205,-1523.159626,269.807907,-16890.945064,-2651.922721,1156.546313,-571.310588,1291.528498,-257.447393,182.949028,1309.745170,-6152.764696,5732.641307,0.014000,-0.008000,1.004000,192.000000,0.000000,56.000000,127.500000,96.000000,15.500000,48.000000,0.000000,0.000000,0.000000,1773140366.996860,0.000000
238.000000,10359.117134,6020.844700,-419.654002,-6143.175798,-1551.255769,254.251093,-16928.160718,-2688.736044,1102.700961,-644.065516,1202.859128,-343.456905,116.564347,1205.183709,-6226.905433,5699.717188,0.014000,-0.008000,1.004000,192.000000,0.000000,0.000000,0.000000,0.000000,0.000000,0.000000,0.000000,0.000000,0.000000,1773140366.996871,0.000000
240.000000,10428.564004,6087.788175,-354.319853,-6094.270181,-1492.291867,316.098370,-16852.634174,-2619.602098,1154.422898,-576.876173,1276.306960,-273.317131,187.978171,1290.455614,-6170.042595,5734.988241,0.014000,-0.008000,1.004000,192.000000,0.000000,0.000000,0.000000,0.000000,0.000000,0.000000,0.000000,0.000000,0.000000,1773140366.996882,0.000000
242.000000,10355.272633,6021.671715,-426.895967,-6154.217560,-1569.047757,247.366756,-16934.419207,-2693.809890,1146.264511,-595.137548,1257.576198,-298.015809,171.549639,1278.408024,-6191.500269,5726.047543,0.014000,-0.008000,1.004000,192.000000,0.000000,0.000000,0.000000,0.000000,0.000000,0.000000,0.000000,0.000000,0.000000,1773140366.996893,0.000000
244.000000,10409.117986,6071.493753,-377.811537,-6114.029123,-1500.271440,303.670800,-16869.442686,-2634.577767,1118.593051,-627.435819,1218.103018,-330.649356,132.411734,1248.881370,-6226.905433,5707.339133,0.014000,-0.008000,1.004000,192.000000,0.000000,0.000000,0.000000,0.000000,0.000000,0.000000,0.000000,0.000000,0.000000,1773140366.996904,0.000000
246.000000,10394.567000,6057.702727,-391.222583,-6131.798760,-1530.982736,285.655294,-16890.229808,-2654.381413,1161.195476,-569.544800,1286.700521,-259.861381,203.803206,1320.295193,-6156.922121,5738.810389,0.010000,-0.010000,1.006000,192.000000,0.000000,40.000000,127.500000,88.000000,15.500000,56.000000,0.000000,0.000000,0.000000,1773140366.996915,0.000000
248.000000,10359.698279,6022.632840,-423.006764,-6147.824961,-1566.253789,251.479477,-16926.305524,-2687.752567,1107.193662,-629.961566,1204.244936,-343.836885,111.825778,1211.241032,-6236.784904,5701.147699,0.010000,-0.010000,1.006000,192.000000,0.000000,0.000000,0.000000,0.000000,0.000000,0.000000,0.000000,0.000000,0.000000,1773140366.996926,0.000000
250.000000,10430.106274,6087.519954,-354.453964,-6106.317771,-1470.476564,312.253870,-16850.644869,-2618.350401,1155.272264,-582.017074,1275.815222,-273.138317,182.501993,1276.686940,-6174.222371,5727.835682,0.010000,-0.010000,1.006000,192.000000,0.000000,0.000000,0.000000,0.000000,0.000000,0.000000,0.000000,0.000000,0.000000,1773140366.996939,0.000000
252.000000,10362.983985,6028.488997,-424.593738,-6159.201999,-1565.136202,248.283177,-16936.922602,-2695.061588,1151.159543,-589.035522,1257.933826,-295.132434,166.386386,1273.937675,-6178.580961,5716.883328,0.010000,-0.010000,1.006000,192.000000,0.000000,0.000000,0.000000,0.000000,0.000000,0.000000,0.000000,0.000000,0.000000,1773140366.996950,0.000000
254.000000,10411.464919,6075.360605,-372.402414,-6108.418835,-1490.481376,291.712617,-16872.594282,-2638.444619,1120.962336,-624.194816,1214.660849,-332.571606,135.943310,1241.706460,-6220.982220,5698.532545,0.010000,-0.010000,1.006000,192.000000,0.000000,0.000000,0.000000,0.000000,0.000000,0.000000,0.000000,0.000000,0.000000,1773140366.996961,0.000000
0.000000,10395.103442,6062.329538,-390.619086,-6123.349801,-1530.759219,277.452204,-16892.174410,-2655.051965,1171.253761,-557.296045,1288.667475,-258.229704,220.879939,1298.837519,-6148.964900,5735.681145,0.007000,-0.011000,1.004000,192.000000,0.000000,16.000000,127.500000,80.000000,15.500000,40.000000,0.000000,0.000000,0.000000,1773140366.996972,0.000000
2.000000,10353.216273,6021.045866,-426.538339,-6151.937682,-1560.241170,244.550436,-16928.317181,-2694.458091,1110.077037,-640.623348,1201.786244,-339.567702,128.500179,1222.774532,-6235.689668,5698.510194,0.007000,-0.011000,1.004000,192.000000,0.000000,0.000000,0.000000,0.000000,0.000000,0.000000,0.000000,0.000000,0.000000,1773140366.996983,0.000000
4.000000,10421.769073,6088.257562,-361.830039,-6116.823091,-1478.456137,301.457977,-16853.371782,-2624.765351,1144.632834,-591.427158,1262.895913,-288.024579,174.857697,1280.889068,-6175.898752,5723.432389,0.007000,-0.011000,1.004000,192.000000,0.000000,0.000000,0.000000,0.000000,0.000000,0.000000,0.000000,0.000000,0.000000,1773140366.996994,0.000000
6.000000,10342.018049,6010.652305,-437.356584,-6144.919234,-1593.008827,248.216122,-16939.850681,-2705.656315,1136.116819,-589.326094,1244.791000,-306.263603,154.964644,1270.070823,-6197.155261,5717.084493,0.007000,-0.011000,1.004000,192.000000,0.000000,0.000000,0.000000,0.000000,0.000000,0.000000,0.000000,0.000000,0.000000,1773140366.997005,0.000000
8.000000,10406.033445,6069.258579,-375.576362,-6111.704542,-1498.907983,290.349160,-16872.236654,-2642.266767,1112.267508,-639.572816,1208.536471,-333.711545,128.231958,1240.298300,-6232.873348,5702.444101,0.007000,-0.011000,1.004000,192.000000,0.000000,0.000000,0.000000,0.000000,0.000000,0.000000,0.000000,0.000000,0.000000,1773140366.997015,0.000000
10.000000,10397.986817,6063.491829,-384.807633,-6133.363382,-1522.958460,280.939076,-16889.000462,-2652.503866,1172.796032,-559.464164,1291.506146,-259.928436,198.125863,1310.236908,-6154.888112,5735.792903,0.006500,-0.011500,1.004000,192.000000,0.000000,24.000000,127.500000,80.000000,15.500000,48.000000,0.000000,0.000000,0.000000,1773140366.997025,0.000000
12.000000,10359.675927,6031.215910,-423.766723,-6142.684059,-1561.716385,247.366756,-16925.970248,-2687.707864,1118.034258,-631.012098,1206.815387,-340.774696,122.331097,1251.228303,-6232.113389,5700.030112,0.006500,-0.011500,1.004000,192.000000,0.000000,0.000000,0.000000,0.000000,0.000000,0.000000,0.000000,0.000000,0.000000,1773140366.997036,0.000000
14.000000,10431.425027,6099.388730,-358.030243,-6096.080672,-1481.652436,307.515300,-16852.053029,-2617.210462,1155.048746,-568.538972,1272.417757,-270.478460,187.531136,1258.984358,-6173.775336,5728.305069,0.006500,-0.011500,1.004000,192.000000,0.000000,0.000000,0.000000,0.000000,0.000000,0.000000,0.000000,0.000000,0.000000,1773140366.997048,0.000000
16.000000,10356.077296,6028.846625,-426.873616,-6150.820094,-1576.602647,244.326919,-16935.112111,-2694.323980,1148.410278,-586.956809,1254.715175,-290.684437,160.396118,1267.030986,-6188.281618,5722.180691,0.006500,-0.011500,1.004000,192.000000,0.000000,0.000000,0.000000,0.000000,0.000000,0.000000,0.000000,0.000000,0.000000,1773140366.997059,0.000000
18.000000,10400.780785,6067.291625,-377.565667,-6116.934850,-1512.430789,300.385094,-16872.817799,-2644.367831,1115.553214,-627.033487,1213.230337,-334.739725,125.750914,1227.803675,-6232.515720,5707.987333,0.006500,-0.011500,1.004000,192.000000,0.000000,0.000000,0.000000,0.000000,0.000000,0.000000,0.000000,0.000000,0.000000,1773140366.997069,0.000000
20.000000,10374.048099,6042.078858,-394.932973,-6127.127245,-1523.986640,264.018806,-16894.677805,-2669.826468,1158.088584,-574.462184,1277.670417,-269.874963,195.533060,1290.232097,-6156.966824,5735.099999,0.008250,-0.012750,1.003000,192.000000,0.000000,40.000000,127.500000,72.000000,15.500000,40.000000,0.000000,0.000000,0.000000,1773140366.997080,0.000000
22.000000,10335.848968,6008.350075,-426.113656,-6156.296272,-1559.235341,238.895445,-16931.513480,-2704.248155,1103.729141,-647.507685,1193.180823,-352.576417,124.208644,1218.013611,-6232.046334,5699.426615,0.008250,-0.012750,1.003000,192.000000,0.000000,0.000000,0.000000,0.000000,0.000000,0.000000,0.000000,0.000000,0.000000,1773140366.997091,0.000000
24.000000,10405.340541,6068.185695,-360.667749,-6112.196280,-1478.679654,292.271410,-16856.813950,-2632.610814,1142.576473,-599.563193,1258.425565,-294.975972,180.624447,1258.649082,-6169.550856,5721.353676,0.008250,-0.012750,1.003000,192.000000,0.000000,0.000000,0.000000,0.000000,0.000000,0.000000,0.000000,0.000000,0.000000,1773140366.997102,0.000000
26.000000,10333.837311,6009.311200,-436.082534,-6160.766621,-1580.000112,232.167570,-16938.420169,-2703.532899,1134.529845,-606.760455,1245.796829,-312.186815,152.528304,1261.375995,-6191.790842,5714.469339,0.008250,-0.012750,1.003000,192.000000,0.000000,0.000000,0.000000,0.000000,0.000000,0.000000,0.000000,0.000000,0.000000,1773140366.997114,0.000000
28.000000,10384.396956,6050.304300,-382.773624,-6100.975704,-1508.496882,286.594067,-16873.868331,-2647.474724,1101.650429,-626.184121,1202.903831,-338.919501,116.430237,1219.645288,-6238.237767,5703.025246,0.008250,-0.012750,1.003000,192.000000,0.000000,0.000000,0.000000,0.000000,0.000000,0.000000,0.000000,0.000000,0.000000,1773140366.997125,0.000000
30.000000,10356.636090,6025.605622,-397.570479,-6124.087408,-1537.107114,274.814698,-16896.331834,-2670.921704,1152.366537,-579.133699,1275.189373,-272.467765,196.695351,1332.499246,-6161.303063,5737.961023,0.008125,-0.013375,1.004500,192.000000,0.000000,32.000000,127.500000,72.000000,15.500000,56.000000,0.000000,0.000000,0.000000,1773140366.997136,0.000000
32.000000,10319.979229,5986.355959,-425.085476,-6152.362365,-1569.472440,251.323015,-16933.860413,-2708.785559,1092.083882,-657.655377,1188.084625,-356.935007,117.436065,1227.848378,-6240.338831,5702.667618,0.008125,-0.013375,1.004500,192.000000,0.000000,0.000000,0.000000,0.000000,0.000000,0.000000,0.000000,0.000000,0.000000,1773140366.997147,0.000000
34.000000,10391.415404,6052.517122,-355.996234,-6104.730797,-1464.620407,308.118797,-16855.316383,-2633.393125,1141.257720,-599.183214,1258.671434,-296.294724,186.972342,1261.241884,-6168.477973,5727.388647,0.008125,-0.013375,1.004500,192.000000,0.000000,0.000000,0.000000,0.000000,0.000000,0.000000,0.000000,0.000000,0.000000,1773140366.997158,0.000000
36.000000,10314.592459,5981.527982,-426.471284,-6170.288464,-1565.717347,261.403651,-16940.632992,-2710.059608,1134.172217,-612.571909,1244.120448,-313.460864,176.444671,1269.467326,-6186.918162,5720.280793,0.008125,-0.013375,1.004500,192.000000,0.000000,0.000000,0.000000,0.000000,0.000000,0.000000,0.000000,0.000000,0.000000,1773140366.997168,0.000000
38.000000,10367.029651,6027.863148,-373.743519,-6116.823091,-1499.846756,296.160614,-16873.242482,-2650.782782,1109.093560,-641.428011,1207.240070,-351.168257,141.531246,1252.725870,-6221.205738,5705.796862,0.008125,-0.013375,1.004500,192.000000,0.000000,0.000000,0.000000,0.000000,0.000000,0.000000,0.000000,0.000000,0.000000,1773140366.997180,0.000000
40.000000,10343.426209,6010.585250,-389.702665,-6124.445036,-1515.694143,280.335579,-16893.515515,-2671.525201,1159.742613,-581.324170,1280.196164,-275.462899,209.055866,1340.523522,-6150.127190,5738.631575,0.009063,-0.012688,1.007250,192.000000,0.000000,40.000000,127.500000,80.000000,15.500000,72.000000,0.000000,0.000000,0.000000,1773140366.997190,0.000000
42.000000,10290.229057,5970.195648,-427.968851,-6134.324507,-1564.108022,247.210294,-16932.206384,-2712.630059,1094.117891,-651.285130,1189.470433,-361.003025,129.416600,1203.082645,-6232.493369,5705.729807,0.009063,-0.012688,1.007250,192.000000,0.000000,0.000000,0.000000,0.000000,0.000000,0.000000,0.000000,0.000000,0.000000,1773140366.997201,0.000000
44.000000,10362.626357,6032.087628,-359.170182,-6106.228364,-1481.719492,307.738818,-16858.490331,-2645.239549,1123.085752,-596.925687,1246.355623,-290.527974,182.971380,1273.110661,-6172.367176,5733.803598,0.009063,-0.012688,1.007250,192.000000,0.000000,0.000000,0.000000,0.000000,0.000000,0.000000,0.000000,0.000000,0.000000,1773140366.997212,0.000000
46.000000,10282.920037,5955.667014,-436.350755,-6151.960033,-1563.325711,241.912930,-16944.231623,-2728.589204,1126.594976,-619.411542,1231.044678,-325.083771,170.476755,1275.390539,-6189.443909,5726.785150,0.009063,-0.012688,1.007250,192.000000,0.000000,0.000000,0.000000,0.000000,0.000000,0.000000,0.000000,0.000000,0.000000,1773140366.997223,0.000000
48.000000,10339.984040,6002.851546,-382.326589,-6114.185585,-1500.941992,286.974047,-16877.154038,-2667.457183,1095.570754,-659.622331,1189.425729,-364.087565,124.499217,1197.561764,-6228.827683,5707.450891,0.009063,-0.012688,1.007250,192.000000,0.000000,0.000000,0.000000,0.000000,0.000000,0.000000,0.000000,0.000000,0.000000,1773140366.997233,0.000000
50.000000,10323.242584,5994.179069,-396.542298,-6128.468350,-1530.245129,278.234515,-16894.476640,-2680.264733,1144.364613,-589.907240,1264.952274,-290.438567,197.611773,1288.175736,-6158.933778,5739.257424,0.010531,-0.009344,1.004625,192.000000,0.000000,48.000000,127.500000,104.000000,15.500000,40.000000,0.000000,0.000000,0.000000,1773140366.997244,0.000000
52.000000,10290.854906,5964.138325,-427.454761,-6146.908539,-1567.393728,252.507657,-16931.401721,-2711.579527,1089.781653,-655.576665,1183.815442,-362.634702,126.466170,1224.674430,-6239.087133,5706.065083,0.010531,-0.009344,1.004625,192.000000,0.000000,0.000000,0.000000,0.000000,0.000000,0.000000,0.000000,0.000000,0.000000,1773140366.997255,0.000000
54.000000,10361.397011,6030.746523,-359.304292,-6100.796890,-1483.842907,316.478350,-16854.869348,-2640.657442,1135.982708,-597.573888,1250.200123,-299.155748,193.834328,1286.588763,-6174.714109,5738.497464,0.010531,-0.009344,1.004625,192.000000,0.000000,0.000000,0.000000,0.000000,0.000000,0.000000,0.000000,0.000000,0.000000,1773140366.997266,0.000000
56.000000,10285.401080,5965.859409,-434.227340,-6158.352632,-1557.603664,253.200561,-16942.488187,-2721.213129,1124.739781,-616.550519,1230.932919,-314.846672,179.350398,1295.887088,-6189.578019,5726.785150,0.010531,-0.009344,1.004625,192.000000,0.000000,0.000000,0.000000,0.000000,0.000000,0.000000,0.000000,0.000000,0.000000,1773140366.997276,0.000000
58.000000,10345.706087,6009.825290,-381.901906,-6110.408140,-1499.913812,299.446320,-16874.985918,-2660.997529,1091.390978,-650.413412,1187.883459,-362.679406,128.008440,1213.677372,-6227.710095,5709.574307,0.010531,-0.009344,1.004625,192.000000,0.000000,0.000000,0.000000,0.000000,0.000000,0.000000,0.000000,0.000000,0.000000,1773140366.997288,0.000000
60.000000,10327.958802,5995.766043,-396.743464,-6136.671440,-1503.803015,282.570753,-16897.337663,-2678.610704,1152.701813,-593.237650,1270.540210,-284.917687,214.219119,1309.096969,-6152.965862,5740.084438,0.009266,-0.009672,1.004312,192.000000,0.000000,32.000000,127.500000,88.000000,15.500000,48.000000,0.000000,0.000000,0.000000,1773140366.997299,0.000000
62.000000,10285.177563,5956.806953,-427.097133,-6157.682080,-1552.015728,251.323015,-16935.045056,-2718.396809,1091.882717,-667.937180,1183.457814,-367.775603,123.471036,1230.508236,-6230.548767,5702.421749,0.009266,-0.009672,1.004312,192.000000,0.000000,0.000000,0.000000,0.000000,0.000000,0.000000,0.000000,0.000000,0.000000,1773140366.997310,0.000000
64.000000,10344.789665,6012.775721,-361.852391,-6107.658876,-1471.840021,309.549309,-16858.892662,-2650.872189,1122.906938,-611.275507,1241.214721,-308.968164,187.642895,1275.390539,-6160.498400,5731.791941,0.009266,-0.009672,1.004312,192.000000,0.000000,0.000000,0.000000,0.000000,0.000000,0.000000,0.000000,0.000000,0.000000,1773140366.997321,0.000000
66.000000,10266.536208,5938.545577,-440.508180,-6157.480914,-1576.513240,252.239436,-16943.695181,-2729.349164,1113.899185,-624.999478,1220.293489,-329.285899,175.036511,1286.499356,-6185.465298,5731.456665,0.009266,-0.009672,1.004312,192.000000,0.000000,0.000000,0.000000,0.000000,0.000000,0.000000,0.000000,0.000000,0.000000,1773140366.997332,0.000000
68.000000,10323.063770,5990.535735,-389.725016,-6116.443111,-1513.838948,302.039123,-16878.070459,-2670.854648,1079.276333,-657.342453,1179.769776,-367.686196,133.171693,1244.902759,-6229.900566,5713.083531,0.009266,-0.009672,1.004312,192.000000,0.000000,0.000000,0.000000,0.000000,0.000000,0.000000,0.000000,0.000000,0.000000,1773140366.997343,0.000000
70.000000,10306.009389,5976.744709,-402.554918,-6125.584975,-1509.815634,280.268524,-16896.533000,-2686.210297,1130.260662,-595.741045,1257.397384,-293.701922,193.431997,1298.301077,-6157.413859,5749.025136,0.009266,-0.009672,1.004312,192.000000,0.000000,0.000000,0.000000,0.000000,0.000000,0.000000,0.000000,0.000000,0.000000,1773140366.997354,0.000000
72.000000,10268.503161,5942.524188,-438.004784,-6156.430382,-1558.251865,262.096555,-16933.100454,-2719.626155,1074.336597,-678.666017,1174.003026,-385.567592,122.286394,1210.101093,-6236.919014,5711.116578,0.004000,-0.010000,1.004000,192.000000,0.000000,16.000000,127.500000,88.000000,15.500000,48.000000,0.000000,0.000000,0.000000,1773140366.997365,0.000000
74.000000,10328.718761,6011.144043,-375.017568,-6097.041797,-1491.867184,299.356913,-16854.511720,-2648.078221,1108.445359,-610.426141,1235.917358,-304.408408,173.851868,1272.663626,-6176.748118,5733.490674,0.004000,-0.010000,1.004000,192.000000,0.000000,0.000000,0.000000,0.000000,0.000000,0.000000,0.000000,0.000000,0.000000,1773140367.477554,0.000000
76.000000,10262.557597,5940.736048,-440.239959,-6151.781219,-1577.787289,249.043137,-16940.253012,-2725.012925,1093.402635,-627.301708,1213.230337,-326.938966,147.633272,1249.238998,-6198.451662,5729.556767,0.004000,-0.010000,1.004000,192.000000,0.000000,0.000000,0.000000,0.000000,0.000000,0.000000,0.000000,0.000000,0.000000,1773140367.477613,0.000000
78.000000,10324.494281,5992.726206,-376.068100,-6117.940678,-1478.702006,293.791329,-16874.494180,-2664.059718,1083.947847,-658.460040,1187.145852,-368.356749,129.818932,1238.487809,-6228.358296,5710.378970,0.004000,-0.010000,1.004000,192.000000,0.000000,0.000000,0.000000,0.000000,0.000000,0.000000,0.000000,0.000000,0.000000,1773140367.477670,0.000000
80.000000,10313.363113,5992.078005,-391.423749,-6120.198205,-1507.178129,279.910896,-16895.236599,-2678.208372,1144.208150,-586.710940,1268.528553,-288.784538,207.871223,1317.903557,-6148.115533,5742.632537,0.004000,-0.010000,1.004000,192.000000,0.000000,0.000000,0.000000,0.000000,0.000000,0.000000,0.000000,0.000000,0.000000,1773140367.477722,0.000000
82.000000,10267.944368,5946.927482,-429.377011,-6159.939606,-1555.681414,260.151954,-16936.676733,-2718.597975,1074.984798,-657.007177,1178.987465,-367.037996,120.878234,1224.920300,-6226.659563,5709.730769,0.002000,-0.014000,1.006000,192.000000,0.000000,8.000000,127.500000,72.000000,15.500000,56.000000,0.000000,0.000000,0.000000,1773140367.477775,0.000000
84.000000,10334.865491,6009.042979,-369.831964,-6106.742454,-1480.534849,307.403541,-16862.401886,-2652.056831,1112.535729,-605.687571,1241.572349,-310.599841,183.261953,1279.190335,-6165.102859,5737.692802,0.002000,-0.014000,1.006000,192.000000,0.000000,0.000000,0.000000,0.000000,0.000000,0.000000,0.000000,0.000000,0.000000,1773140367.477821,0.000000
86.000000,10253.125161,5935.662202,-441.916340,-6165.415784,-1563.526876,244.706898,-16944.678658,-2731.941966,1095.168423,-631.615595,1213.811483,-336.751382,156.909246,1256.503315,-6184.414766,5724.147645,0.002000,-0.014000,1.006000,192.000000,0.000000,0.000000,0.000000,0.000000,0.000000,0.000000,0.000000,0.000000,0.000000,1773140367.477845,0.000000
88.000000,10305.651761,5982.444403,-386.551069,-6115.549042,-1526.758257,285.342370,-16874.538884,-2668.261846,1070.961484,-665.903171,1179.389796,-378.258571,126.197949,1218.393590,-6235.242633,5704.120482,0.002000,-0.014000,1.006000,192.000000,0.000000,0.000000,0.000000,0.000000,0.000000,0.000000,0.000000,0.000000,0.000000,1773140367.477869,0.000000
90.000000,10302.477813,5985.350130,-402.443159,-6125.540271,-1531.765048,270.813736,-16893.180238,-2678.297779,1121.364668,-599.518490,1255.229265,-289.320980,195.957744,1310.907461,-6169.752022,5735.927014,0.002000,-0.014000,1.006000,192.000000,0.000000,0.000000,0.000000,0.000000,0.000000,0.000000,0.000000,0.000000,0.000000,1773140367.477901,0.000000
92.000000,10271.386537,5962.886627,-432.953290,-6140.180664,-1555.368490,260.643692,-16929.412416,-2708.718504,1072.414347,-651.575703,1175.947628,-361.427708,106.662525,1261.085422,-6248.988956,5704.276944,0.004000,-0.014000,1.008000,192.000000,0.000000,16.000000,127.500000,72.000000,15.500000,64.000000,0.000000,0.000000,0.000000,1773140367.477925,0.000000
94.000000,10340.431075,6023.661020,-368.312045,-6080.836783,-1486.346303,318.087675,-16854.779941,-2640.322166,1117.833092,-584.878097,1242.377012,-291.265582,182.747863,1286.432300,-6185.688816,5741.202026,0.004000,-0.014000,1.008000,192.000000,0.000000,0.000000,0.000000,0.000000,0.000000,0.000000,0.000000,0.000000,0.000000,1773140367.477949,0.000000
96.000000,10247.425466,5934.365801,-442.586892,-6138.236062,-1559.190638,255.972178,-16942.890518,-2730.824379,1101.762188,-609.062685,1216.896023,-324.077943,167.638083,1275.971684,-6196.976447,5738.005726,0.004000,-0.014000,1.008000,192.000000,0.000000,0.000000,0.000000,0.000000,0.000000,0.000000,0.000000,0.000000,0.000000,1773140367.477973,0.000000
98.000000,10300.577915,5990.647494,-383.868859,-6118.343010,-1479.618428,306.598879,-16882.093773,-2679.393015,1064.747699,-659.108240,1170.829078,-363.528772,120.766475,1230.172960,-6221.451607,5719.252613,0.004000,-0.014000,1.008000,192.000000,0.000000,0.000000,0.000000,0.000000,0.000000,0.000000,0.000000,0.000000,0.000000,1773140367.477997,0.000000
100.000000,10284.484659,5970.776793,-395.670580,-6122.612193,-1514.196576,291.913783,-16901.651550,-2695.709788,1115.843787,-595.159900,1243.047564,-298.686361,199.086988,1296.244716,-6146.886187,5749.114543,0.004000,-0.014000,1.008000,192.000000,0.000000,0.000000,0.000000,0.000000,0.000000,0.000000,0.000000,0.000000,0.000000,1773140367.478020,0.000000
102.000000,10259.763629,5948.805028,-429.265252,-6149.657804,-1551.054603,253.669948,-16937.593155,-2722.978917,1061.819620,-663.533886,1163.229485,-379.845545,117.391362,1222.752180,-6226.279584,5710.155453,0.004000,-0.012000,1.004000,192.000000,0.000000,16.000000,127.500000,80.000000,15.500000,48.000000,0.000000,0.000000,0.000000,1773140367.478044,0.000000
104.000000,10332.183281,6013.781549,-368.826135,-6092.482041,-1486.055730,314.690210,-16856.545729,-2645.373660,1104.310287,-604.011190,1231.894044,-309.392847,174.812993,1281.336103,-6173.998853,5736.418752,0.004000,-0.012000,1.004000,192.000000,0.000000,0.000000,0.000000,0.000000,0.000000,0.000000,0.000000,0.000000,0.000000,1773140367.478067,0.000000
106.000000,10260.456533,5950.928444,-442.989223,-6154.731650,-1573.719272,249.981910,-16941.884690,-2721.749571,1096.643638,-623.434856,1215.040829,-321.172216,148.952025,1254.357547,-6200.239801,5728.863863,0.004000,-0.012000,1.004000,192.000000,0.000000,0.000000,0.000000,0.000000,0.000000,0.000000,0.000000,0.000000,0.000000,1773140367.478091,0.000000
108.000000,10315.799453,5999.141157,-384.897040,-6111.413969,-1517.102303,296.428835,-16874.807104,-2663.590332,1068.480440,-652.760345,1178.093395,-365.652188,107.333077,1245.103925,-6237.589566,5714.916374,0.004000,-0.012000,1.004000,192.000000,0.000000,0.000000,0.000000,0.000000,0.000000,0.000000,0.000000,0.000000,0.000000,1773140367.478114,0.000000
110.000000,10298.387444,5983.025549,-396.989333,-6122.299269,-1520.253899,284.291838,-16895.013081,-2680.644713,1116.112008,-591.427158,1253.307015,-286.370550,185.765348,1302.682019,-6161.683042,5748.645156,0.004000,-0.012000,1.004000,192.000000,0.000000,0.000000,0.000000,0.000000,0.000000,0.000000,0.000000,0.000000,0.000000,1773140367.478138,0.000000
112.000000,10269.263121,5952.627176,-426.024249,-6162.375946,-1563.996263,260.934265,-16932.429902,-2716.988649,1065.999397,-655.420203,1173.108956,-370.301350,108.070684,1223.221567,-6239.310651,5710.893060,0.002000,-0.008000,0.998000,192.000000,0.000000,8.000000,127.500000,96.000000,15.500000,24.000000,0.000000,0.000000,0.000000,1773140367.478163,0.000000
114.000000,10335.759561,6018.274250,-367.820307,-6095.633637,-1483.217059,317.014792,-16859.451456,-2652.973253,1112.938060,-595.137548,1234.956233,-306.308306,178.612790,1332.834522,-6177.418670,5739.816217,0.002000,-0.008000,0.998000,192.000000,0.000000,0.000000,0.000000,0.000000,0.000000,0.000000,0.000000,0.000000,0.000000,1773140367.478186,0.000000
116.000000,10270.492467,5957.142229,-438.898854,-6155.044574,-1579.731891,258.497925,-16940.923565,-2723.560062,1097.627115,-617.310478,1211.732770,-329.844693,157.736261,1261.241884,-6197.401130,5730.674354,0.002000,-0.008000,0.998000,192.000000,0.000000,0.000000,0.000000,0.000000,0.000000,0.000000,0.000000,0.000000,0.000000,1773140367.478210,0.000000
118.000000,10324.807206,6008.506537,-387.556897,-6116.957202,-1498.013913,307.872928,-16871.811971,-2658.650596,1073.978969,-647.708851,1182.496689,-358.700795,124.722734,1254.916341,-6237.075476,5713.061179,0.002000,-0.008000,0.998000,192.000000,0.000000,0.000000,0.000000,0.000000,0.000000,0.000000,0.000000,0.000000,0.000000,1773140367.478233,0.000000
120.000000,10303.595400,5984.277247,-405.192423,-6123.640373,-1529.909853,276.602838,-16893.381404,-2680.264733,1119.353011,-582.575867,1255.139858,-287.577544,183.910153,1314.573147,-6163.001795,5746.901720,0.002000,-0.008000,0.998000,192.000000,0.000000,0.000000,0.000000,0.000000,0.000000,0.000000,0.000000,0.000000,0.000000,1773140367.478257,0.000000
122.000000,10262.758763,5947.173351,-435.255520,-6143.600481,-1557.357795,249.825448,-16929.837099,-2720.363762,1061.551399,-665.612598,1167.230447,-369.451984,103.823853,1207.195366,-6246.887892,5708.054389,0.004000,-0.012000,1.000000,192.000000,0.000000,16.000000,127.500000,80.000000,15.500000,32.000000,0.000000,0.000000,0.000000,1773140367.478283,0.000000
124.000000,10329.478720,6012.574555,-362.232371,-6109.134091,-1469.649550,316.076018,-16859.071476,-2655.946035,1106.321944,-605.061722,1228.742448,-308.096446,187.709950,1293.271934,-6169.841429,5739.391534,0.004000,-0.012000,1.000000,192.000000,0.000000,0.000000,0.000000,0.000000,0.000000,0.000000,0.000000,0.000000,0.000000,1773140367.478316,0.000000
126.000000,10265.172752,5949.989671,-432.908587,-6159.470220,-1553.602702,265.605779,-16944.857472,-2728.924481,1106.299592,-629.402772,1210.838701,-330.738763,168.621560,1257.151515,-6182.470165,5733.580081,0.004000,-0.012000,1.000000,192.000000,0.000000,0.000000,0.000000,0.000000,0.000000,0.000000,0.000000,0.000000,0.000000,1773140367.478340,0.000000
128.000000,10324.091950,6005.489052,-377.588019,-6121.762827,-1491.666018,310.353972,-16877.399907,-2666.250189,1079.812775,-644.333737,1180.596790,-361.271246,138.871388,1247.227341,-6218.724694,5717.263307,0.004000,-0.012000,1.000000,192.000000,0.000000,0.000000,0.000000,0.000000,0.000000,0.000000,0.000000,0.000000,0.000000,1773140367.478364,0.000000
130.000000,10304.109490,5984.254895,-398.621011,-6117.136016,-1524.098399,288.471614,-16894.387233,-2682.097576,1129.768923,-587.694417,1256.525666,-290.304457,198.483491,1305.900670,-6154.664594,5749.762744,0.004000,-0.012000,1.000000,192.000000,0.000000,0.000000,0.000000,0.000000,0.000000,0.000000,0.000000,0.000000,0.000000,1773140367.478387,0.000000
132.000000,10271.051260,5954.370612,-433.534435,-6151.200074,-1575.261542,246.651500,-16931.334666,-2714.775826,1068.771013,-663.131555,1171.276113,-369.675502,110.439969,1215.644326,-6244.004517,5713.038828,0.006000,-0.012000,1.014000,192.000000,0.000000,24.000000,127.500000,80.000000,15.500000,88.000000,0.000000,0.000000,0.000000,1773140367.478410,0.000000
134.000000,10340.229909,6021.179977,-370.234295,-6098.226440,-1491.084873,309.415198,-16854.690534,-2640.925663,1113.005115,-600.703132,1238.398402,-299.423969,171.169659,1282.699559,-6188.683950,5737.893967,0.006000,-0.012000,1.014000,192.000000,0.000000,0.000000,0.000000,0.000000,0.000000,0.000000,0.000000,0.000000,0.000000,1773140367.478433,0.000000
136.000000,10270.604225,5958.148057,-438.898854,-6145.969766,-1565.627940,251.680643,-16937.615506,-2715.021695,1106.165481,-616.215243,1217.007782,-316.947736,151.388365,1286.789928,-6201.491499,5735.703496,0.006000,-0.012000,1.014000,192.000000,0.000000,0.000000,0.000000,0.000000,0.000000,0.000000,0.000000,0.000000,0.000000,1773140367.478457,0.000000
138.000000,10327.020028,6009.288849,-381.276057,-6109.916402,-1499.913812,308.923460,-16873.600110,-2658.561189,1083.746682,-634.186045,1186.654113,-357.069118,129.215435,1230.709401,-6232.158093,5719.654944,0.006000,-0.012000,1.014000,192.000000,0.000000,0.000000,0.000000,0.000000,0.000000,0.000000,0.000000,0.000000,0.000000,1773140367.478481,0.000000
140.000000,10309.585668,5986.601828,-395.134138,-6126.367286,-1508.608640,298.172271,-16894.744860,-2678.275428,1136.921482,-579.491327,1261.778326,-275.574657,218.868282,1315.891900,-6152.898807,5750.969738,0.006000,-0.012000,1.014000,192.000000,0.000000,0.000000,0.000000,0.000000,0.000000,0.000000,0.000000,0.000000,0.000000,1773140367.478518,0.000000
142.000000,10257.349641,5944.334679,-430.427543,-6153.994042,-1546.271330,273.004207,-16934.888594,-2720.609632,1074.157783,-667.937180,1174.159488,-370.077833,109.590603,1227.870730,-6228.939441,5714.067008,0.006000,-0.011000,1.013000,192.000000,0.000000,24.000000,127.500000,88.000000,15.500000,80.000000,0.000000,0.000000,0.000000,1773140367.478542,0.000000
144.000000,10311.798491,6003.566802,-374.659941,-6096.170079,-1502.551318,318.869986,-16863.005383,-2657.711823,1092.195641,-610.314382,1224.875596,-312.253870,160.887857,1290.813242,-6171.249589,5741.134970,0.006000,-0.011000,1.013000,192.000000,0.000000,0.000000,0.000000,0.000000,0.000000,0.000000,0.000000,0.000000,0.000000,1773140367.478566,0.000000
146.000000,10240.451722,5930.431894,-444.531494,-6170.891961,-1559.212990,260.330768,-16948.299640,-2734.445361,1079.343388,-629.492179,1199.685180,-335.745553,143.386441,1267.656835,-6195.590639,5731.791941,0.006000,-0.011000,1.013000,192.000000,0.000000,0.000000,0.000000,0.000000,0.000000,0.000000,0.000000,0.000000,0.000000,1773140367.478590,0.000000
148.000000,10301.226115,5983.874915,-386.908697,-6116.398408,-1502.976001,306.196547,-16878.964529,-2667.770108,1067.564019,-659.331758,1176.282904,-372.625932,123.381629,1247.674375,-6226.927784,5713.597621,0.006000,-0.011000,1.013000,192.000000,0.000000,0.000000,0.000000,0.000000,0.000000,0.000000,0.000000,0.000000,0.000000,1773140367.478614,0.000000
150.000000,10296.353435,5979.046938,-398.732769,-6120.578184,-1523.293736,304.006076,-16895.661282,-2678.007207,1122.392848,-593.192946,1256.168038,-289.052759,202.529157,1296.378827,-6163.538237,5751.193255,0.006000,-0.011000,1.013000,192.000000,0.000000,0.000000,0.000000,0.000000,0.000000,0.000000,0.000000,0.000000,0.000000,1773140367.478637,0.000000
152.000000,10256.321461,5945.407563,-431.478075,-6144.293385,-1546.718365,270.523163,-16932.295791,-2712.719466,1067.988702,-650.972206,1177.199325,-373.698816,114.597394,1225.903776,-6239.556520,5717.330362,0.006000,-0.011000,1.013000,192.000000,0.000000,0.000000,127.500000,72.000000,15.500000,48.000000,0.000000,0.000000,0.000000,1773140367.478649,0.000000
154.000000,10325.030723,6008.081854,-368.803784,-6100.998056,-1486.212192,316.992440,-16859.160883,-2646.826523,1100.331676,-615.969374,1233.592776,-304.117835,173.181316,1297.719931,-6177.686891,5739.592700,0.006000,-0.011000,1.013000,192.000000,0.000000,0.000000,0.000000,0.000000,0.000000,0.000000,0.000000,0.000000,0.000000,1773140367.478663,0.000000
156.000000,10255.852074,5951.151961,-441.491656,-6152.004737,-1567.818411,256.598026,-16940.856509,-2718.866196,1093.469690,-613.153054,1213.744427,-324.077943,155.344624,1272.998902,-6199.904525,5731.255499,0.006000,-0.011000,1.013000,192.000000,0.000000,0.000000,0.000000,0.000000,0.000000,0.000000,0.000000,0.000000,0.000000,1773140367.478676,0.000000
158.000000,10308.177508,5998.135328,-387.065159,-6116.756036,-1486.793338,311.583318,-16876.796410,-2659.164686,1070.425042,-651.061612,1181.066177,-359.483106,124.767438,1236.364393,-6234.393267,5712.055351,0.006000,-0.011000,1.013000,192.000000,0.000000,0.000000,0.000000,0.000000,0.000000,0.000000,0.000000,0.000000,0.000000,1773140367.478686,0.000000
160.000000,10303.975380,5987.518249,-396.609354,-6119.527652,-1529.306356,291.444396,-16892.487334,-2670.027634,1128.986612,-584.676931,1260.146649,-282.838974,194.840156,1330.576996,-6160.431345,5745.381802,0.006000,-0.011000,1.013000,192.000000,0.000000,0.000000,0.000000,0.000000,0.000000,0.000000,0.000000,0.000000,0.000000,1773140367.478697,0.000000
162.000000,10269.732507,5952.895397,-426.650098,-6160.744269,-1558.676548,269.092651,-16930.150024,-2706.013942,1082.785557,-659.197647,1182.362578,-369.317874,119.335964,1225.970832,-6237.880139,5704.008723,0.004000,-0.016500,1.006500,192.000000,0.000000,8.000000,127.500000,40.000000,15.500000,32.000000,0.000000,0.000000,0.000000,1773140367.478708,0.000000
164.000000,10320.403912,6002.337456,-371.463641,-6093.554925,-1479.305503,323.854425,-16856.501026,-2645.217198,1116.603746,-607.095731,1240.566521,-304.877794,180.445633,1283.079539,-6174.065909,5734.429447,0.004000,-0.016500,1.006500,192.000000,0.000000,0.000000,0.000000,0.000000,0.000000,0.000000,0.000000,0.000000,0.000000,1773140367.478719,0.000000
166.000000,10244.855016,5926.676801,-440.754049,-6166.488667,-1572.288760,259.771974,-16939.850681,-2723.336544,1095.704865,-637.874083,1211.509253,-331.141094,152.438897,1252.502352,-6195.233011,5726.181653,0.004000,-0.016500,1.006500,192.000000,0.000000,0.000000,0.000000,0.000000,0.000000,0.000000,0.000000,0.000000,0.000000,1773140367.478730,0.000000
168.000000,10288.284455,5962.014909,-386.573420,-6112.956239,-1514.867129,299.133396,-16877.019927,-2673.380396,1069.173344,-670.686444,1174.695930,-373.095318,111.021115,1240.924149,-6236.851959,5707.182670,0.004000,-0.016500,1.006500,192.000000,0.000000,0.000000,0.000000,0.000000,0.000000,0.000000,0.000000,0.000000,0.000000,1773140367.478742,0.000000
170.000000,10272.571179,5943.530016,-400.230336,-6132.379905,-1530.490998,288.449262,-16899.237561,-2692.915820,1114.636792,-617.042257,1243.427544,-320.836940,178.813956,1271.300169,-6166.533371,5744.353622,0.004000,-0.016500,1.006500,192.000000,0.000000,0.000000,0.000000,0.000000,0.000000,0.000000,0.000000,0.000000,0.000000,1773140367.478753,0.000000
172.000000,10246.553748,5919.680705,-426.493636,-6159.939606,-1564.711519,273.272428,-16934.463910,-2723.045972,1066.848763,-692.479395,1167.073985,-387.154566,104.114426,1206.368352,-6242.149322,5710.669543,0.007000,-0.018250,1.000250,192.000000,0.000000,40.000000,127.500000,48.000000,15.500000,8.000000,0.000000,0.000000,0.000000,1773140367.478764,0.000000
174.000000,10323.019066,5989.306389,-358.991368,-6115.727856,-1475.259838,335.700850,-16858.624441,-2647.675889,1125.633851,-621.467903,1242.578178,-324.793199,182.457290,1300.759769,-6174.244723,5743.012517,0.007000,-0.018250,1.000250,192.000000,0.000000,0.000000,0.000000,0.000000,0.000000,0.000000,0.000000,0.000000,0.000000,1773140367.478774,0.000000
176.000000,10246.419638,5926.296821,-435.389630,-6155.513961,-1558.922417,269.204410,-16939.247184,-2719.380286,1109.250022,-635.080115,1220.204082,-332.504551,169.202706,1283.548925,-6193.154298,5731.188444,0.007000,-0.018250,1.000250,192.000000,0.000000,0.000000,0.000000,0.000000,0.000000,0.000000,0.000000,0.000000,0.000000,1773140367.478786,0.000000
178.000000,10309.339799,5973.950741,-382.483051,-6117.560699,-1488.827346,300.988591,-16875.544712,-2662.025709,1084.238420,-666.350206,1186.184726,-363.349958,135.473923,1225.836721,-6225.787845,5707.070912,0.007000,-0.018250,1.000250,192.000000,0.000000,0.000000,0.000000,0.000000,0.000000,0.000000,0.000000,0.000000,0.000000,1773140367.478796,0.000000
180.000000,10287.636255,5960.383232,-396.050560,-6131.798760,-1515.045943,284.180079,-16895.616579,-2680.555306,1137.524979,-611.610784,1258.269102,-298.954582,192.269706,1286.611114,-6158.307929,5738.139837,0.007000,-0.018250,1.000250,192.000000,0.000000,0.000000,0.000000,0.000000,0.000000,0.000000,0.000000,0.000000,0.000000,1773140367.478807,0.000000
182.000000,10263.295205,5934.745781,-425.107828,-6165.818115,-1558.430679,254.675776,-16930.440596,-2710.707809,1079.611609,-670.529982,1180.753253,-381.119595,114.217414,1217.611279,-6237.991898,5695.783281,0.007500,-0.015125,1.000125,192.000000,0.000000,32.000000,127.500000,80.000000,15.500000,32.000000,0.000000,0.000000,0.000000,1773140367.478818,0.000000
184.000000,10316.581764,5977.258799,-366.300388,-6103.032065,-1481.607733,308.029390,-16858.780904,-2649.665195,1118.771865,-629.425124,1242.421716,-314.109065,176.824650,1274.988207,-6179.653845,5725.667563,0.007500,-0.015125,1.000125,192.000000,0.000000,0.000000,0.000000,0.000000,0.000000,0.000000,0.000000,0.000000,0.000000,1773140367.478829,0.000000
186.000000,10256.299109,5929.895452,-433.959119,-6164.767583,-1561.671682,256.352157,-16941.817634,-2722.397771,1114.793255,-646.457153,1223.042753,-346.005004,156.037528,1266.718062,-6202.184403,5726.427522,0.007500,-0.015125,1.000125,192.000000,0.000000,0.000000,0.000000,0.000000,0.000000,0.000000,0.000000,0.000000,0.000000,1773140367.478841,0.000000
188.000000,10302.500165,5969.972130,-379.778490,-6115.794911,-1501.813710,307.872928,-16875.030622,-2663.165648,1084.998379,-671.893438,1185.760043,-367.194458,139.519589,1239.650099,-6230.593470,5714.379932,0.007500,-0.015125,1.000125,192.000000,0.000000,0.000000,0.000000,0.000000,0.000000,0.000000,0.000000,0.000000,0.000000,1773140367.478852,0.000000
190.000000,10299.460328,5969.256874,-392.228412,-6132.715181,-1498.125672,293.880736,-16894.387233,-2675.123832,1141.056554,-605.285240,1263.030024,-293.053722,203.244412,1295.618867,-6158.196170,5747.102886,0.007500,-0.015125,1.000125,192.000000,0.000000,0.000000,0.000000,0.000000,0.000000,0.000000,0.000000,0.000000,0.000000,1773140367.478863,0.000000
192.000000,10257.684917,5929.940156,-426.270119,-6145.098048,-1564.622112,270.433756,-16931.736998,-2714.798178,1081.600914,-679.336569,1179.188630,-376.671598,112.004591,1219.600584,-6233.722715,5713.463511,0.005750,-0.012563,1.000062,192.000000,0.000000,16.000000,127.500000,88.000000,15.500000,32.000000,0.000000,0.000000,0.000000,1773140367.478873,0.000000
194.000000,10318.101682,5990.625142,-369.407281,-6102.272105,-1495.868146,323.206225,-16861.574872,-2653.956730,1122.258737,-622.004345,1240.834742,-318.288841,180.803261,1279.257390,-6179.340920,5743.347793,0.005750,-0.012563,1.000062,192.000000,0.000000,0.000000,0.000000,0.000000,0.000000,0.000000,0.000000,0.000000,0.000000,1773140367.957820,0.000000
196.000000,10244.899719,5924.329868,-440.731697,-6162.957092,-1560.934074,266.298683,-16943.985754,-2729.840902,1105.293763,-645.451325,1210.548128,-338.673632,147.365051,1287.818109,-6197.646999,5734.876482,0.005750,-0.012563,1.000062,192.000000,0.000000,0.000000,0.000000,0.000000,0.000000,0.000000,0.000000,0.000000,0.000000,1773140367.957891,0.000000
198.000000,10303.483642,5977.325854,-383.131252,-6119.170024,-1495.331704,318.467655,-16877.399907,-2669.044157,1084.528993,-673.860392,1179.635665,-374.972865,123.202815,1238.756029,-6226.637212,5714.536394,0.005750,-0.012563,1.000062,192.000000,0.000000,0.000000,0.000000,0.000000,0.000000,0.000000,0.000000,0.000000,0.000000,1773140367.957945,0.000000
200.000000,10293.470060,5970.754441,-397.838700,-6120.868757,-1522.623184,291.667913,-16892.599093,-2678.498945,1139.670746,-605.218185,1254.871637,-305.950678,206.574822,1292.981362,-6154.619891,5746.320575,0.005750,-0.012563,1.000062,192.000000,0.000000,0.000000,0.000000,0.000000,0.000000,0.000000,0.000000,0.000000,0.000000,1773140367.957999,0.000000
202.000000,10261.082382,5938.143246,-421.196273,-6151.289481,-1546.360737,271.707806,-16927.534870,-2710.864271,1090.809833,-677.615485,1181.692026,-369.273170,125.236824,1210.682238,-6234.840302,5707.339133,0.004875,-0.012281,0.999031,192.000000,0.000000,16.000000,127.500000,80.000000,15.500000,24.000000,0.000000,0.000000,0.000000,1773140367.958052,0.000000
204.000000,10327.578822,5995.922505,-357.247932,-6110.497547,-1463.033433,328.034202,-16854.154093,-2641.395049,1128.114894,-612.773074,1247.115582,-311.873890,183.843098,1291.170870,-6168.433269,5736.463456,0.004875,-0.012281,0.999031,192.000000,0.000000,0.000000,0.000000,0.000000,0.000000,0.000000,0.000000,0.000000,0.000000,1773140367.958080,0.000000
206.000000,10261.596472,5936.176292,-428.058258,-6157.346804,-1571.484097,258.788497,-16935.447387,-2713.613536,1118.727162,-634.320156,1225.859073,-326.894263,157.266874,1263.298245,-6196.596467,5728.930918,0.004875,-0.012281,0.999031,192.000000,0.000000,0.000000,0.000000,0.000000,0.000000,0.000000,0.000000,0.000000,0.000000,1773140367.958104,0.000000
208.000000,10312.334932,5980.857430,-379.510269,-6109.491719,-1499.913812,308.185853,-16872.571930,-2661.802192,1094.408464,-661.388118,1192.934953,-360.198362,136.725621,1222.662773,-6233.946232,5713.776435,0.004875,-0.012281,0.999031,192.000000,0.000000,0.000000,0.000000,0.000000,0.000000,0.000000,0.000000,0.000000,0.000000,1773140367.958126,0.000000
210.000000,10280.461345,5956.941063,-398.799825,-6124.087408,-1526.087704,291.556155,-16893.716680,-2683.461032,1135.848598,-604.659391,1259.856076,-299.379265,188.760482,1295.127129,-6166.131039,5748.980433,0.004875,-0.012281,0.999031,192.000000,0.000000,0.000000,0.000000,0.000000,0.000000,0.000000,0.000000,0.000000,0.000000,1773140367.958150,0.000000
212.000000,10249.437123,5923.234632,-429.444066,-6154.016394,-1552.529818,267.058643,-16929.255954,-2719.626155,1071.810850,-685.460947,1172.259590,-384.561763,103.332115,1213.945593,-6241.769343,5709.775473,0.004875,-0.012281,0.999031,192.000000,0.000000,0.000000,0.000000,0.000000,0.000000,0.000000,0.000000,0.000000,0.000000,1773140367.958172,0.000000
214.000000,10316.201784,5990.803956,-364.601656,-6103.009713,-1478.724358,320.881643,-16854.802293,-2645.619529,1124.337450,-621.602013,1242.667585,-318.288841,176.712892,1285.627638,-6178.044519,5739.190369,0.002000,-0.018000,1.002000,192.000000,0.000000,8.000000,127.500000,56.000000,15.500000,40.000000,0.000000,0.000000,0.000000,1773140367.958194,0.000000
216.000000,10242.955118,5932.711772,-436.171941,-6150.641280,-1571.081766,275.373492,-16936.363809,-2715.759303,1100.309324,-636.935310,1218.885329,-333.689193,158.742089,1282.766614,-6195.300066,5733.356563,0.002000,-0.018000,1.002000,192.000000,0.000000,0.000000,0.000000,0.000000,0.000000,0.000000,0.000000,0.000000,0.000000,1773140367.958217,0.000000
218.000000,10312.133767,5985.037206,-376.761005,-6116.979553,-1499.623239,321.932175,-16871.297881,-2657.197733,1090.496908,-661.790450,1193.113767,-369.250818,127.941385,1229.345945,-6226.793674,5716.995086,0.002000,-0.018000,1.002000,192.000000,0.000000,0.000000,0.000000,0.000000,0.000000,0.000000,0.000000,0.000000,0.000000,1773140367.958249,0.000000
220.000000,10292.285418,5972.520229,-395.156490,-6118.521824,-1534.603719,293.701922,-16887.882875,-2667.546590,1139.871912,-597.685647,1267.455669,-293.187832,190.213345,1295.149481,-6162.420650,5749.047488,0.002000,-0.018000,1.002000,192.000000,0.000000,0.000000,0.000000,0.000000,0.000000,0.000000,0.000000,0.000000,0.000000,1773140367.958272,0.000000
222.000000,10267.854961,5957.432801,-423.878482,-6146.081525,-1560.129411,264.398785,-16923.243335,-2694.703960,1082.159708,-663.578589,1190.006875,-363.282903,109.344734,1211.732770,-6246.440857,5703.204060,0.002000,-0.018000,1.002000,192.000000,0.000000,0.000000,0.000000,0.000000,0.000000,0.000000,0.000000,0.000000,0.000000,1773140367.958295,0.000000
224.000000,10338.374715,6017.760160,-365.585132,-6094.270181,-1478.567896,319.853463,-16850.689572,-2626.777008,1128.316060,-600.926650,1259.006710,-296.965277,172.041377,1282.699559,-6183.051310,5733.334212,0.008000,-0.006000,1.008000,192.000000,0.000000,32.000000,127.500000,104.000000,15.500000,64.000000,0.000000,0.000000,0.000000,1773140367.958318,0.000000
226.000000,10263.541074,5943.082981,-437.267177,-6146.282690,-1574.613342,260.420175,-16931.714646,-2702.080035,1119.263604,-620.484426,1236.453800,-321.887472,156.126935,1300.379789,-6205.626572,5723.857072,0.008000,-0.006000,1.008000,192.000000,0.000000,0.000000,0.000000,0.000000,0.000000,0.000000,0.000000,0.000000,0.000000,1773140367.958351,0.000000
228.000000,10317.676999,5994.357883,-377.610371,-6103.456748,-1507.021666,313.751437,-16866.156979,-2646.468895,1085.870097,-666.841944,1199.573421,-358.656092,115.916147,1214.504387,-6242.484598,5716.369237,0.008000,-0.006000,1.008000,192.000000,0.000000,0.000000,0.000000,0.000000,0.000000,0.000000,0.000000,0.000000,0.000000,1773140367.958374,0.000000
230.000000,10302.209592,5980.700967,-393.882441,-6126.993135,-1524.679545,299.111044,-16890.118049,-2664.819677,1137.480275,-595.495176,1272.663626,-292.070245,196.203613,1300.737417,-6160.408993,5744.934767,0.008000,-0.006000,1.008000,192.000000,0.000000,0.000000,0.000000,0.000000,0.000000,0.000000,0.000000,0.000000,0.000000,1773140367.958396,0.000000
232.000000,10273.822877,5954.594130,-426.292470,-6146.886187,-1558.788307,269.874963,-16925.366750,-2698.056721,1081.489155,-666.193743,1190.073930,-374.011740,106.327248,1205.139006,-6242.126971,5707.227374,0.008000,-0.006000,1.008000,192.000000,0.000000,0.000000,0.000000,0.000000,0.000000,0.000000,0.000000,0.000000,0.000000,1773140367.958419,0.000000
234.000000,10338.531177,6009.937049,-361.114783,-6094.583105,-1474.790451,321.708658,-16849.437874,-2629.079238,1128.316060,-610.761417,1254.849285,-307.269431,179.752729,1284.197126,-6179.542086,5735.390572,0.010000,-0.010000,1.004000,192.000000,0.000000,40.000000,127.500000,88.000000,15.500000,48.000000,0.000000,0.000000,0.000000,1773140367.958442,0.000000
236.000000,10261.015327,5950.928444,-431.522778,-6144.919234,-1573.808679,264.912875,-16933.391027,-2706.639791,1116.939022,-628.039316,1231.961099,-324.256757,151.343662,1285.582934,-6195.590639,5727.455703,0.010000,-0.010000,1.004000,192.000000,0.000000,0.000000,0.000000,0.000000,0.000000,0.000000,0.000000,0.000000,0.000000,1773140367.958464,0.000000
238.000000,10321.677962,6008.551241,-371.933028,-6109.312905,-1487.463890,315.360763,-16866.581662,-2652.123887,1092.016827,-663.578589,1196.444177,-367.507382,119.917109,1228.496579,-6227.508930,5712.412979,0.010000,-0.010000,1.004000,192.000000,0.000000,0.000000,0.000000,0.000000,0.000000,0.000000,0.000000,0.000000,0.000000,1773140367.958487,0.000000
240.000000,10314.056017,5992.502688,-386.171089,-6130.234138,-1514.509501,303.894318,-16888.620483,-2664.886733,1149.863142,-591.494214,1275.189373,-299.423969,204.339648,1326.911310,-6151.892978,5739.860921,0.010000,-0.010000,1.004000,192.000000,0.000000,0.000000,0.000000,0.000000,0.000000,0.000000,0.000000,0.000000,0.000000,1773140367.958521,0.000000
242.000000,10280.371938,5948.357993,-420.033982,-6139.979498,-1558.475382,275.328788,-16923.779777,-2698.771977,1095.950734,-666.864296,1190.409206,-370.055481,117.816045,1231.178788,-6237.924843,5704.768682,0.010000,-0.010000,1.004000,192.000000,0.000000,0.000000,0.000000,0.000000,0.000000,0.000000,0.000000,0.000000,0.000000,1773140367.958543,0.000000
244.000000,10342.822712,6015.167357,-357.314987,-6097.466480,-1479.864297,325.776675,-16847.694438,-2625.324145,1137.502627,-612.214281,1258.559675,-305.660105,190.481566,1274.988207,-6176.166973,5730.741409,0.008000,-0.014000,1.002000,192.000000,0.000000,32.000000,127.500000,72.000000,15.500000,40.000000,0.000000,0.000000,0.000000,1773140367.958566,0.000000
246.000000,10274.851057,5951.509589,-430.136970,-6152.205903,-1559.682376,253.066451,-16932.787530,-2701.901222,1128.561929,-624.552444,1238.979547,-319.138207,171.370825,1252.614111,-6199.546897,5720.906642,0.008000,-0.014000,1.002000,192.000000,0.000000,0.000000,0.000000,0.000000,0.000000,0.000000,0.000000,0.000000,0.000000,1773140367.958576,0.000000
248.000000,10327.578822,5998.939991,-372.625932,-6098.807585,-1501.746655,304.833091,-16865.687593,-2644.189017,1093.268525,-664.919694,1199.640477,-360.041900,116.653754,1226.574329,-6232.158093,5706.109787,0.008000,-0.014000,1.002000,192.000000,0.000000,0.000000,0.000000,0.000000,0.000000,0.000000,0.000000,0.000000,0.000000,1773140367.958587,0.000000
250.000000,10307.328142,5984.456060,-390.596734,-6121.449902,-1507.200480,296.764111,-16890.922712,-2668.395957,1147.359746,-592.589449,1271.724853,-294.774806,194.817805,1302.905536,-6157.592673,5741.067915,0.008000,-0.014000,1.002000,192.000000,0.000000,0.000000,0.000000,0.000000,0.000000,0.000000,0.000000,0.000000,0.000000,1773140367.958601,0.000000
252.000000,10277.846191,5955.957586,-423.923185,-6149.031955,-1552.060431,280.715559,-16927.490166,-2700.694227,1093.000304,-668.406566,1182.988427,-373.899981,120.945289,1214.794959,-6236.673145,5705.752159,0.008000,-0.014000,1.002000,192.000000,0.000000,0.000000,0.000000,0.000000,0.000000,0.000000,0.000000,0.000000,0.000000,1773140367.958612,0.000000
254.000000,10348.835331,6024.555090,-358.253760,-6088.302265,-1483.865259,333.912710,-16851.784808,-2627.827540,1138.620214,-612.191929,1254.134030,-306.442416,201.568031,1287.683998,-6174.647054,5736.463456,0.004000,-0.010000,1.000000,192.000000,0.000000,16.000000,127.500000,88.000000,15.500000,32.000000,0.000000,0.000000,0.000000,1773140367.958623,0.000000
0.000000,10280.684862,5958.013947,-430.092267,-6149.166065,-1570.992359,263.147087,-16937.012009,-2704.851652,1130.864159,-623.412505,1236.006765,-324.904957,154.785830,1262.940617,-6197.870517,5724.125293,0.004000,-0.010000,1.000000,192.000000,0.000000,0.000000,0.000000,0.000000,0.000000,0.000000,0.000000,0.000000,0.000000,1773140367.958633,0.000000
2.000000,10337.771218,6008.998276,-373.162374,-6111.637486,-1498.125672,313.304402,-16869.442686,-2646.066564,1105.182005,-655.800182,1203.172052,-361.740632,129.148379,1260.169001,-6235.756723,5708.188499,0.004000,-0.010000,1.000000,192.000000,0.000000,0.000000,0.000000,0.000000,0.000000,0.000000,0.000000,0.000000,0.000000,1773140367.958643,0.000000
4.000000,10322.549680,5990.714549,-388.249801,-6123.863891,-1512.207271,294.841861,-16889.022814,-2661.757488,1148.723203,-604.435874,1276.821050,-291.176175,209.994639,1292.780196,-6155.044574,5735.390572,0.004000,-0.010000,1.000000,192.000000,0.000000,0.000000,0.000000,0.000000,0.000000,0.000000,0.000000,0.000000,0.000000,1773140367.958654,0.000000
6.000000,10278.561446,5959.377403,-423.811427,-6140.292423,-1551.233417,271.573695,-16926.305524,-2695.776844,1095.190775,-666.216095,1195.281886,-372.737691,124.298051,1201.898003,-6234.549729,5701.058293,0.004000,-0.010000,1.000000,192.000000,0.000000,0.000000,0.000000,0.000000,0.000000,0.000000,0.000000,0.000000,0.000000,1773140367.958664,0.000000
8.000000,10353.305680,6025.627974,-359.863086,-6095.588934,-1471.840021,329.755286,-16851.605994,-2626.933471,1141.548293,-610.761417,1263.410004,-306.934155,190.794491,1298.725760,-6176.614008,5728.483883,0.004000,-0.010000,1.002000,192.000000,0.000000,16.000000,127.500000,88.000000,15.500000,40.000000,0.000000,0.000000,0.000000,1773140367.958674,0.000000
10.000000,10278.583798,5953.856522,-432.059220,-6143.600481,-1548.327690,272.132489,-16937.146120,-2706.125701,1124.918595,-625.021830,1237.683146,-329.576472,158.071537,1281.269047,-6195.210659,5726.025191,0.004000,-0.010000,1.002000,192.000000,0.000000,0.000000,0.000000,0.000000,0.000000,0.000000,0.000000,0.000000,0.000000,1773140367.958685,0.000000
12.000000,10332.362095,6004.259706,-376.425728,-6105.356646,-1512.631954,319.361725,-16869.532093,-2642.780857,1099.459958,-656.135458,1204.624916,-359.214885,127.561406,1244.053393,-6232.761590,5707.048560,0.004000,-0.010000,1.002000,192.000000,0.000000,0.000000,0.000000,0.000000,0.000000,0.000000,0.000000,0.000000,0.000000,1773140367.958695,0.000000
14.000000,10313.094892,5993.106186,-397.391665,-6109.737588,-1513.302507,300.698018,-16889.894532,-2659.701128,1144.565778,-594.109368,1277.290437,-281.073187,204.809034,1281.000826,-6165.192266,5742.788999,0.004000,-0.010000,1.002000,192.000000,0.000000,0.000000,0.000000,0.000000,0.000000,0.000000,0.000000,0.000000,0.000000,1773140367.958706,0.000000
16.000000,10284.305845,5965.188857,-429.712287,-6141.633527,-1562.990435,265.069337,-16926.037303,-2696.112120,1085.646580,-664.226790,1189.761006,-365.518077,105.768455,1211.822177,-6238.885968,5702.645266,0.004000,-0.010000,1.002000,192.000000,0.000000,0.000000,0.000000,0.000000,0.000000,0.000000,0.000000,0.000000,0.000000,1773140367.958716,0.000000
18.000000,10352.255148,6019.883575,-361.874743,-6089.665722,-1495.309352,323.876777,-16852.812988,-2630.397991,1130.148903,-618.852749,1258.939655,-308.811701,185.161851,1281.179640,-6180.078528,5730.316726,0.006000,-0.012000,1.000000,192.000000,0.000000,24.000000,127.500000,80.000000,15.500000,32.000000,0.000000,0.000000,0.000000,1773140367.958726,0.000000
20.000000,10276.013348,5951.040203,-434.160284,-6150.060135,-1570.947656,260.286064,-16938.263707,-2710.640754,1122.079923,-630.341545,1236.923186,-327.743629,163.704176,1256.570370,-6198.339903,5721.599546,0.006000,-0.012000,1.000000,192.000000,0.000000,0.000000,0.000000,0.000000,0.000000,0.000000,0.000000,0.000000,0.000000,1773140367.958736,0.000000
22.000000,10339.380543,6005.936087,-375.151679,-6110.631658,-1490.749596,323.854425,-16869.509741,-2646.357137,1100.577545,-663.220961,1201.003933,-375.330493,132.791714,1222.841587,-6230.437008,5708.590830,0.006000,-0.012000,1.000000,192.000000,0.000000,0.000000,0.000000,0.000000,0.000000,0.000000,0.000000,0.000000,0.000000,1773140367.958746,0.000000
24.000000,10328.227023,5999.007046,-394.351827,-6122.992173,-1509.346248,297.680533,-16892.085003,-2660.483439,1158.401508,-590.130757,1281.805489,-286.527012,218.443599,1324.407914,-6160.878379,5738.408057,0.006000,-0.012000,1.000000,192.000000,0.000000,0.000000,0.000000,0.000000,0.000000,0.000000,0.000000,0.000000,0.000000,1773140367.958757,0.000000
26.000000,10297.895705,5969.770964,-423.789075,-6134.570376,-1560.688205,274.747643,-16927.087835,-2691.641771,1098.007095,-665.299674,1198.120558,-373.072967,123.113408,1213.766779,-6242.082267,5706.869746,0.006000,-0.012000,1.000000,192.000000,0.000000,0.000000,0.000000,0.000000,0.000000,0.000000,0.000000,0.000000,0.000000,1773140367.958768,0.000000
28.000000,10365.777953,6032.557015,-359.907789,-6087.855230,-1471.169468,327.788332,-16850.533110,-2622.038439,1135.893301,-608.660353,1266.628655,-300.496852,191.308581,1283.034835,-6174.937627,5735.412924,0.006000,-0.012000,1.001000,192.000000,0.000000,24.000000,127.500000,80.000000,15.500000,40.000000,0.000000,0.000000,0.000000,1773140367.958778,0.000000
30.000000,10294.319426,5969.122764,-430.025212,-6157.793839,-1555.748469,274.591181,-16936.341457,-2698.593163,1129.366592,-623.993650,1244.075745,-323.541501,167.414566,1283.481870,-6192.662560,5725.332287,0.006000,-0.012000,1.001000,192.000000,0.000000,0.000000,0.000000,0.000000,0.000000,0.000000,0.000000,0.000000,0.000000,1773140367.958789,0.000000
32.000000,10349.885863,6015.882613,-376.470432,-6088.794004,-1482.032416,312.611498,-16869.554444,-2643.250244,1103.572679,-652.179200,1207.061256,-358.119650,136.859731,1265.354605,-6225.743142,5711.697723,0.006000,-0.012000,1.001000,192.000000,0.000000,0.000000,0.000000,0.000000,0.000000,0.000000,0.000000,0.000000,0.000000,1773140367.958799,0.000000
34.000000,10334.440808,6003.946782,-389.702665,-6115.593745,-1526.624146,306.822396,-16891.459154,-2662.808020,1153.484124,-597.462129,1279.592667,-293.076073,206.686581,1274.317655,-6157.480914,5739.592700,0.006000,-0.012000,1.001000,192.000000,0.000000,0.000000,0.000000,0.000000,0.000000,0.000000,0.000000,0.000000,0.000000,1773140367.958810,0.000000
36.000000,10299.505031,5973.838982,-426.337174,-6134.346859,-1550.585216,268.489154,-16927.423111,-2697.408521,1102.589202,-665.254970,1197.271192,-379.219696,128.053144,1207.754160,-6237.433104,5700.767720,0.006000,-0.012000,1.001000,192.000000,0.000000,0.000000,0.000000,0.000000,0.000000,0.000000,0.000000,0.000000,0.000000,1773140367.958820,0.000000
38.000000,10372.103497,6034.188692,-361.941798,-6101.310980,-1483.552335,326.089600,-16852.745933,-2624.698296,1141.592996,-602.245403,1263.208838,-299.759245,190.034531,1298.748112,-6175.831696,5728.483883,0.006000,-0.011000,1.001500,192.000000,0.000000,24.000000,127.500000,88.000000,15.500000,40.000000,0.000000,0.000000,0.000000,1773140367.958830,0.000000
40.000000,10295.168793,5960.115011,-434.495560,-6136.693792,-1564.085670,261.247189,-16936.386160,-2701.968277,1126.974955,-628.352240,1242.488771,-330.537597,156.328101,1253.642291,-6195.724749,5722.851243,0.006000,-0.011000,1.001500,192.000000,0.000000,0.000000,0.000000,0.000000,0.000000,0.000000,0.000000,0.000000,0.000000,1773140367.958840,0.000000
42.000000,10353.015107,6019.525948,-374.682292,-6101.042760,-1491.956591,307.716466,-16865.307613,-2639.897482,1098.565888,-661.924560,1206.033076,-353.738708,126.063839,1211.576308,-6226.637212,5705.126310,0.006000,-0.011000,1.001500,192.000000,0.000000,0.000000,0.000000,0.000000,0.000000,0.000000,0.000000,0.000000,0.000000,1773140367.958850,0.000000
44.000000,10335.379581,6005.444349,-392.317819,-6108.485890,-1528.144065,301.681495,-16886.631177,-2658.784706,1149.460810,-598.244440,1280.151460,-287.242268,199.511671,1295.574164,-6161.772449,5738.251595,0.006000,-0.011000,1.001500,192.000000,0.000000,0.000000,0.000000,0.000000,0.000000,0.000000,0.000000,0.000000,0.000000,1773140367.958861,0.000000
46.000000,10306.970514,5973.794278,-419.966927,-6129.273013,-1546.919530,278.636846,-16919.510593,-2686.724387,1096.442473,-662.103374,1199.685180,-367.954417,124.901548,1211.799826,-6238.438933,5704.388702,0.006000,-0.011000,1.001500,192.000000,0.000000,0.000000,0.000000,0.000000,0.000000,0.000000,0.000000,0.000000,0.000000,1773140367.958871,0.000000
48.000000,10377.020881,6043.688183,-356.175048,-6099.634600,-1470.185992,323.787370,-16848.409694,-2621.546700,1141.727107,-612.326039,1265.488716,-307.180024,185.944162,1301.206803,-6174.691758,5728.327421,0.007000,-0.011500,1.003750,192.000000,0.000000,32.000000,127.500000,80.000000,15.500000,56.000000,0.000000,0.000000,0.000000,1773140367.958881,0.000000
50.000000,10301.941371,5971.939084,-428.080610,-6138.548987,-1565.359719,248.596102,-16929.635934,-2696.268582,1137.122647,-621.959641,1249.440163,-319.361725,182.122014,1271.635446,-6192.573153,5714.894022,0.007000,-0.011500,1.003750,192.000000,0.000000,0.000000,0.000000,0.000000,0.000000,0.000000,0.000000,0.000000,0.000000,1773140367.958892,0.000000
52.000000,10348.477703,6014.496805,-375.308141,-6097.466480,-1496.762216,308.163501,-16865.017040,-2646.223026,1109.674705,-663.735052,1207.910622,-363.081737,124.745086,1223.780361,-6229.028848,5704.902793,0.007000,-0.011500,1.003750,192.000000,0.000000,0.000000,0.000000,0.000000,0.000000,0.000000,0.000000,0.000000,0.000000,1773140367.958902,0.000000
54.000000,10335.290174,6003.902078,-394.865918,-6115.034952,-1513.347210,300.988591,-16890.542733,-2664.350291,1144.096392,-593.639981,1276.016387,-292.539631,202.596212,1308.337010,-6155.558664,5739.950328,0.007000,-0.011500,1.003750,192.000000,0.000000,0.000000,0.000000,0.000000,0.000000,0.000000,0.000000,0.000000,0.000000,1773140367.958912,0.000000
56.000000,10311.083235,5978.689310,-425.510159,-6131.441132,-1546.248978,274.434718,-16924.852660,-2692.200564,1093.268525,-670.373520,1194.164299,-374.794051,121.012344,1220.114675,-6235.667316,5704.589868,0.007000,-0.011500,1.003750,192.000000,0.000000,0.000000,0.000000,0.000000,0.000000,0.000000,0.000000,0.000000,0.000000,1773140367.958922,0.000000
58.000000,10380.463049,6040.961270,-360.041900,-6079.696844,-1477.718529,325.463751,-16848.409694,-2620.138540,1135.446267,-617.310478,1262.739451,-306.420065,189.296924,1275.882277,-6173.730633,5735.278813,0.006500,-0.009750,1.004875,192.000000,0.000000,24.000000,127.500000,96.000000,15.500000,56.000000,0.000000,0.000000,0.000000,1773140368.438727,0.000000
60.000000,10314.212479,5984.232543,-423.118523,-6144.002812,-1572.802850,259.369643,-16930.887631,-2694.703960,1138.016717,-618.875100,1249.238998,-324.480274,170.543810,1270.964893,-6192.729615,5726.360467,0.006500,-0.009750,1.004875,192.000000,0.000000,0.000000,0.000000,0.000000,0.000000,0.000000,0.000000,0.000000,0.000000,1773140368.438787,0.000000
62.000000,10361.642881,6025.270346,-373.564705,-6090.358626,-1497.231602,313.147940,-16864.346488,-2635.471837,1109.495891,-655.643720,1212.313916,-364.556952,137.083249,1237.929015,-6229.185311,5708.657886,0.006500,-0.009750,1.004875,192.000000,0.000000,0.000000,0.000000,0.000000,0.000000,0.000000,0.000000,0.000000,0.000000,1773140368.438829,0.000000
64.000000,10352.277500,6028.779570,-382.728920,-6115.437283,-1520.879748,298.887527,-16885.223017,-2649.218160,1158.602674,-594.668161,1287.594591,-278.010998,212.118055,1296.982324,-6161.660691,5739.749162,0.006500,-0.009750,1.004875,192.000000,0.000000,0.000000,0.000000,0.000000,0.000000,0.000000,0.000000,0.000000,0.000000,1773140368.438871,0.000000
66.000000,10321.856776,5989.172279,-413.440217,-6138.593690,-1544.259673,279.039178,-16919.465890,-2685.897372,1106.590164,-657.454211,1205.921317,-357.359690,131.383554,1246.489733,-6233.968584,5704.791034,0.006500,-0.009750,1.004875,192.000000,0.000000,0.000000,0.000000,0.000000,0.000000,0.000000,0.000000,0.000000,0.000000,1773140368.438913,0.000000
68.000000,10385.425137,6047.398573,-354.006929,-6088.995169,-1466.386195,319.987574,-16844.900470,-2618.305697,1145.102220,-614.404752,1270.204934,-302.508509,189.453386,1277.357492,-6173.820039,5729.020325,0.007250,-0.011875,1.003437,192.000000,0.000000,32.000000,127.500000,72.000000,15.500000,40.000000,0.000000,0.000000,0.000000,1773140368.438955,0.000000
70.000000,10310.457386,5974.241313,-427.343002,-6136.045591,-1585.409234,256.262750,-16929.926506,-2694.614553,1129.858330,-628.016964,1249.775439,-325.441399,161.938389,1249.261349,-6198.652828,5716.749217,0.007250,-0.011875,1.003437,192.000000,0.000000,0.000000,0.000000,0.000000,0.000000,0.000000,0.000000,0.000000,0.000000,1773140368.438992,0.000000
72.000000,10363.296910,6029.405419,-375.710473,-6095.007789,-1519.292774,305.369533,-16864.771171,-2637.371735,1101.181042,-663.310368,1215.420808,-363.171144,133.708135,1213.498558,-6237.969546,5701.505327,0.007250,-0.011875,1.003437,192.000000,0.000000,0.000000,0.000000,0.000000,0.000000,0.000000,0.000000,0.000000,0.000000,1773140368.439010,0.000000
74.000000,10345.124941,6015.055599,-396.028208,-6117.426588,-1514.308335,279.732082,-16890.185105,-2659.298797,1145.772773,-602.290106,1282.654856,-297.613477,202.015066,1293.271934,-6162.487705,5733.669488,0.007250,-0.011875,1.003437,192.000000,0.000000,0.000000,0.000000,0.000000,0.000000,0.000000,0.000000,0.000000,0.000000,1773140368.439020,0.000000
76.000000,10315.151252,5985.372482,-420.548072,-6138.750152,-1573.831031,262.364776,-16922.371617,-2689.786576,1091.480385,-673.838040,1195.639514,-371.173068,116.541996,1211.151625,-6239.914148,5699.203098,0.007250,-0.011875,1.003437,192.000000,0.000000,0.000000,0.000000,0.000000,0.000000,0.000000,0.000000,0.000000,0.000000,1773140368.439031,0.000000
78.000000,10386.542724,6050.058430,-352.844638,-6081.105003,-1484.133480,321.127513,-16844.475787,-2616.517558,1148.924368,-610.426141,1269.400271,-303.201414,190.995656,1281.157289,-6177.195153,5731.769589,0.007625,-0.009938,1.004719,192.000000,0.000000,32.000000,127.500000,96.000000,15.500000,56.000000,0.000000,0.000000,0.000000,1773140368.439041,0.000000
80.000000,10316.000618,5983.383177,-424.683145,-6143.578129,-1563.817449,251.680643,-16929.926506,-2692.714655,1133.166389,-633.403734,1248.411983,-332.951585,169.269761,1262.582989,-6193.802499,5720.437255,0.007625,-0.009938,1.004719,192.000000,0.000000,0.000000,0.000000,0.000000,0.000000,0.000000,0.000000,0.000000,0.000000,1773140368.439051,0.000000
82.000000,10373.936340,6039.240186,-366.814478,-6091.990303,-1489.497899,302.642620,-16861.843093,-2629.101590,1108.154787,-648.714679,1218.035962,-346.899074,132.970528,1245.282739,-6226.257232,5702.399397,0.007625,-0.009938,1.004719,192.000000,0.000000,0.000000,0.000000,0.000000,0.000000,0.000000,0.000000,0.000000,0.000000,1773140368.439061,0.000000
84.000000,10363.587482,6025.247994,-383.086548,-6107.882393,-1517.437579,300.318039,-16883.658395,-2647.765296,1153.841752,-593.170594,1286.722873,-285.878812,228.703049,1301.452673,-6157.346804,5736.754028,0.007625,-0.009938,1.004719,192.000000,0.000000,0.000000,0.000000,0.000000,0.000000,0.000000,0.000000,0.000000,0.000000,1773140368.439072,0.000000
86.000000,10331.356267,5996.056616,-411.674429,-6136.537330,-1546.785420,264.242323,-16918.862393,-2683.259867,1108.668877,-665.210267,1208.827044,-366.568609,128.187254,1203.149701,-6237.544863,5705.506290,0.007625,-0.009938,1.004719,192.000000,0.000000,0.000000,0.000000,0.000000,0.000000,0.000000,0.000000,0.000000,0.000000,1773140368.439082,0.000000
88.000000,10396.377492,6058.306224,-351.727051,-6092.951428,-1490.324913,325.106123,-16845.123988,-2614.058866,1145.973938,-602.178347,1274.652931,-303.380227,194.750749,1277.648065,-6172.054252,5733.110694,0.007625,-0.009938,1.004719,192.000000,0.000000,0.000000,0.000000,0.000000,0.000000,0.000000,0.000000,0.000000,0.000000,1773140368.439092,0.000000
90.000000,10315.732398,5988.099395,-427.231244,-6141.298251,-1574.434528,256.285102,-16930.351189,-2695.396864,1137.256758,-618.383362,1251.541227,-323.876777,171.415528,1271.546039,-6195.680046,5722.471264,0.020000,-0.006000,1.008000,192.000000,0.000000,80.000000,127.500000,104.000000,15.500000,64.000000,0.000000,0.000000,0.000000,1773140368.439110,0.000000
92.000000,10370.963558,6037.586157,-372.044786,-6086.961161,-1498.684466,305.950678,-16861.060782,-2634.130732,1099.638772,-665.590246,1210.659887,-356.331510,133.015231,1211.911584,-6229.252366,5711.563612,0.020000,-0.006000,1.008000,192.000000,0.000000,0.000000,0.000000,0.000000,0.000000,0.000000,0.000000,0.000000,0.000000,1773140368.439120,0.000000
94.000000,10357.574863,6026.454988,-386.975752,-6112.330390,-1504.004181,292.874908,-16884.753631,-2654.560227,1148.253816,-600.054932,1281.112585,-289.924477,207.155968,1290.053283,-6158.039708,5739.190369,0.020000,-0.006000,1.008000,192.000000,0.000000,0.000000,0.000000,0.000000,0.000000,0.000000,0.000000,0.000000,0.000000,1773140368.439130,0.000000
96.000000,10320.806244,5995.229601,-421.330383,-6132.558719,-1555.279083,262.141259,-16920.270553,-2687.886678,1091.636847,-664.427956,1194.141948,-367.194458,120.945289,1211.621012,-6235.801427,5701.617086,0.020000,-0.006000,1.008000,192.000000,0.000000,0.000000,0.000000,0.000000,0.000000,0.000000,0.000000,0.000000,0.000000,1773140368.439140,0.000000
98.000000,10390.498983,6062.016614,-356.957359,-6089.531611,-1491.196631,316.433646,-16845.034581,-2616.472854,1133.524017,-608.079208,1261.778326,-309.236385,191.777967,1297.295248,-6174.602351,5731.769589,0.020000,-0.006000,1.008000,192.000000,0.000000,0.000000,0.000000,0.000000,0.000000,0.000000,0.000000,0.000000,0.000000,1773140368.439151,0.000000
100.000000,10321.163871,5995.989561,-430.718116,-6132.312850,-1583.554039,249.646634,-16926.216117,-2686.590277,1128.137246,-618.740990,1246.243864,-317.484178,176.869354,1274.652931,-6201.178575,5722.046581,0.014000,-0.012000,1.004000,192.000000,0.000000,56.000000,127.500000,80.000000,15.500000,48.000000,0.000000,0.000000,0.000000,1773140368.439161,0.000000
102.000000,10377.602026,6047.800904,-371.016606,-6091.789137,-1519.292774,307.045914,-16860.636098,-2630.219177,1094.095539,-665.254970,1209.654058,-349.603635,129.573063,1214.929070,-6240.115314,5709.060217,0.014000,-0.012000,1.004000,192.000000,0.000000,0.000000,0.000000,0.000000,0.000000,0.000000,0.000000,0.000000,0.000000,1773140368.439171,0.000000
104.000000,10369.242474,6039.329593,-382.840679,-6115.481986,-1518.264594,289.991533,-16883.211360,-2646.401840,1150.332528,-588.029693,1286.387597,-281.877849,204.451407,1291.304981,-6161.615987,5738.072781,0.014000,-0.012000,1.004000,192.000000,0.000000,0.000000,0.000000,0.000000,0.000000,0.000000,0.000000,0.000000,0.000000,1773140368.439181,0.000000
106.000000,10335.826616,6010.004104,-418.022325,-6133.452789,-1555.100269,266.589256,-16915.531983,-2676.956675,1097.582411,-662.237485,1204.826081,-363.126440,114.887967,1211.375142,-6238.282470,5698.599601,0.014000,-0.012000,1.004000,192.000000,0.000000,0.000000,0.000000,0.000000,0.000000,0.000000,0.000000,0.000000,0.000000,1773140368.439192,0.000000
108.000000,10398.903239,6069.191524,-357.091469,-6075.628826,-1497.209251,316.791274,-16840.251308,-2608.560337,1137.614386,-599.607897,1269.333216,-292.830204,191.755616,1275.994036,-6181.509040,5731.255499,0.014000,-0.012000,1.004000,192.000000,0.000000,0.000000,0.000000,0.000000,0.000000,0.000000,0.000000,0.000000,0.000000,1773140368.439202,0.000000
110.000000,10327.131787,6002.940953,-427.052430,-6137.520806,-1562.699862,254.988701,-16926.260820,-2688.601934,1127.466694,-620.037391,1247.920245,-322.178045,169.292113,1264.907570,-6202.631438,5726.449874,0.008000,-0.014000,1.010000,192.000000,0.000000,32.000000,127.500000,72.000000,15.500000,72.000000,0.000000,0.000000,0.000000,1773140368.439212,0.000000
112.000000,10381.602988,6052.181846,-368.334397,-6103.635562,-1496.002256,309.303440,-16858.713848,-2634.309546,1104.042066,-654.928464,1214.973773,-362.187667,138.737278,1258.090288,-6226.480749,5711.116578,0.008000,-0.014000,1.010000,192.000000,0.000000,0.000000,0.000000,0.000000,0.000000,0.000000,0.000000,0.000000,0.000000,1773140368.439222,0.000000
114.000000,10354.937357,6028.086666,-392.451929,-6103.881431,-1529.708687,281.274352,-16882.518456,-2654.671985,1148.611444,-589.370798,1283.481870,-283.621285,204.339648,1300.782120,-6160.967786,5738.251595,0.008000,-0.014000,1.010000,192.000000,0.000000,0.000000,0.000000,0.000000,0.000000,0.000000,0.000000,0.000000,0.000000,1773140368.439233,0.000000
116.000000,10324.404874,6001.018703,-421.419790,-6137.409048,-1560.531743,276.781652,-16916.806032,-2688.870154,1088.284086,-678.978941,1195.840680,-369.183763,124.700382,1189.626895,-6246.329099,5704.768682,0.008000,-0.014000,1.010000,192.000000,0.000000,0.000000,0.000000,0.000000,0.000000,0.000000,0.000000,0.000000,0.000000,1773140368.439250,0.000000
118.000000,10387.146221,6060.809620,-360.131307,-6077.104041,-1490.391969,320.568719,-16843.738180,-2621.725514,1129.746572,-605.553461,1261.286588,-306.084789,173.695406,1296.870565,-6180.726729,5731.277851,0.008000,-0.014000,1.010000,192.000000,0.000000,0.000000,0.000000,0.000000,0.000000,0.000000,0.000000,0.000000,0.000000,1773140368.439260,0.000000
120.000000,10317.676999,5993.307351,-432.372145,-6124.266222,-1571.864077,249.825448,-16926.372579,-2695.106291,1122.906938,-631.257967,1239.985375,-320.144036,157.244522,1243.516951,-6204.933668,5725.622860,0.004000,-0.014000,1.008000,192.000000,0.000000,16.000000,127.500000,72.000000,15.500000,64.000000,0.000000,0.000000,0.000000,1773140368.439270,0.000000
122.000000,10378.250227,6048.449105,-370.323702,-6088.369320,-1515.805902,305.190719,-16856.009287,-2629.235700,1096.531879,-666.529020,1211.576308,-360.019548,126.265004,1231.514064,-6238.975375,5708.389665,0.004000,-0.014000,1.008000,192.000000,0.000000,0.000000,0.000000,0.000000,0.000000,0.000000,0.000000,0.000000,0.000000,1773140368.439282,0.000000
124.000000,10370.896503,6040.983622,-385.344074,-6107.815338,-1533.799056,293.880736,-16879.232750,-2645.328956,1154.422898,-575.602123,1291.617905,-286.571716,219.762351,1306.928850,-6166.086336,5737.715153,0.004000,-0.014000,1.008000,192.000000,0.000000,0.000000,0.000000,0.000000,0.000000,0.000000,0.000000,0.000000,0.000000,1773140368.439292,0.000000
126.000000,10336.139540,6004.997314,-418.826988,-6123.327449,-1567.796060,264.354082,-16914.034416,-2677.113137,1098.677647,-666.551371,1205.340171,-359.818382,120.185330,1208.514119,-6241.590529,5705.707455,0.004000,-0.014000,1.008000,192.000000,0.000000,0.000000,0.000000,0.000000,0.000000,0.000000,0.000000,0.000000,0.000000,1773140368.439302,0.000000
128.000000,10402.680683,6076.522896,-355.258626,-6080.635617,-1483.150003,318.646469,-16839.625459,-2607.129825,1139.313118,-612.549557,1273.088309,-292.964315,188.782834,1290.947353,-6177.128098,5733.177749,0.004000,-0.014000,1.008000,192.000000,0.000000,0.000000,0.000000,0.000000,0.000000,0.000000,0.000000,0.000000,0.000000,1773140368.439313,0.000000
130.000000,10329.434017,6006.137253,-428.661755,-6139.510112,-1561.112888,276.736948,-16923.690370,-2685.942076,1130.841807,-616.058781,1250.736564,-319.451132,166.855772,1261.666568,-6199.077511,5730.674354,0.006000,-0.010000,1.008000,192.000000,0.000000,24.000000,127.500000,88.000000,15.500000,64.000000,0.000000,0.000000,0.000000,1773140368.439323,0.000000
132.000000,10389.180230,6055.311090,-371.508345,-6082.133184,-1501.657248,306.643582,-16854.310555,-2624.407723,1104.824377,-658.370633,1214.169111,-350.832981,147.141534,1235.917358,-6229.319421,5714.022304,0.006000,-0.010000,1.008000,192.000000,0.000000,0.000000,0.000000,0.000000,0.000000,0.000000,0.000000,0.000000,0.000000,1773140368.439333,0.000000
134.000000,10377.087936,6050.013727,-382.505403,-6104.596687,-1514.285983,291.109120,-16875.120029,-2637.751715,1160.480220,-587.783824,1294.009542,-278.547439,218.868282,1320.608118,-6156.542141,5743.258386,0.006000,-0.010000,1.008000,192.000000,0.000000,0.000000,0.000000,0.000000,0.000000,0.000000,0.000000,0.000000,0.000000,1773140368.439343,0.000000
136.000000,10348.053020,6023.996296,-410.176862,-6124.243870,-1559.280045,269.606742,-16908.044148,-2667.546590,1109.808816,-655.084926,1213.140930,-354.521019,126.488522,1217.968907,-6235.533206,5705.506290,0.006000,-0.010000,1.008000,192.000000,0.000000,0.000000,0.000000,0.000000,0.000000,0.000000,0.000000,0.000000,0.000000,1773140368.439354,0.000000
138.000000,10408.045102,6079.160402,-349.715394,-6072.767803,-1485.251067,321.328678,-16834.931592,-2603.262973,1144.476371,-594.087016,1281.984303,-296.317076,193.946087,1278.229210,-6174.647054,5733.580081,0.006000,-0.010000,1.008000,192.000000,0.000000,0.000000,0.000000,0.000000,0.000000,0.000000,0.000000,0.000000,0.000000,1773140368.439364,0.000000
140.000000,10326.617697,6003.544450,-427.991203,-6135.844426,-1554.988510,264.041157,-16924.472681,-2689.160727,1130.819455,-623.613670,1253.016442,-313.349106,170.275589,1267.187448,-6198.183441,5724.572328,0.008000,-0.014000,1.006000,192.000000,0.000000,32.000000,127.500000,72.000000,15.500000,56.000000,0.000000,0.000000,0.000000,1773140368.439374,0.000000
142.000000,10390.610741,6061.927207,-370.189592,-6086.558829,-1487.642704,323.250928,-16858.065648,-2626.598194,1106.970144,-642.366784,1220.405247,-352.777583,133.194045,1254.558713,-6227.084247,5715.542223,0.008000,-0.014000,1.006000,192.000000,0.000000,0.000000,0.000000,0.000000,0.000000,0.000000,0.000000,0.000000,0.000000,1773140368.439385,0.000000
144.000000,10377.110288,6050.997204,-388.696836,-6090.671550,-1537.598853,306.487120,-16881.512628,-2644.837218,1158.580322,-595.383417,1291.193222,-282.950733,221.148160,1286.477004,-6163.247664,5756.267101,0.008000,-0.014000,1.006000,192.000000,0.000000,0.000000,0.000000,0.000000,0.000000,0.000000,0.000000,0.000000,0.000000,1773140368.439395,0.000000
146.000000,10344.521444,6021.135273,-417.061200,-6123.238042,-1552.373356,278.636846,-16915.263762,-2679.057739,1111.105217,-650.502819,1210.458721,-358.052594,138.469057,1222.394553,-6243.490427,5719.431426,0.008000,-0.014000,1.006000,192.000000,0.000000,0.000000,0.000000,0.000000,0.000000,0.000000,0.000000,0.000000,0.000000,1773140368.439406,0.000000
148.000000,10415.510585,6086.178849,-346.429687,-6085.284780,-1472.532925,332.169274,-16840.765398,-2608.582688,1152.210075,-609.822644,1274.898800,-302.016771,194.527232,1291.014408,-6170.020243,5742.587834,0.008000,-0.014000,1.006000,192.000000,0.000000,0.000000,0.000000,0.000000,0.000000,0.000000,0.000000,0.000000,0.000000,1773140368.439417,0.000000
150.000000,10342.263918,6014.787378,-424.258462,-6121.852234,-1557.916589,269.673797,-16924.807957,-2684.690378,1146.353918,-611.431970,1256.905646,-317.439475,187.240563,1288.823937,-6187.052272,5730.562595,0.006000,-0.016000,1.012000,192.000000,0.000000,24.000000,127.500000,64.000000,15.500000,80.000000,0.000000,0.000000,0.000000,1773140368.439427,0.000000
152.000000,10396.243381,6069.146820,-370.658978,-6084.502469,-1471.974131,329.397658,-16856.366915,-2621.501997,1114.413275,-647.753554,1219.064143,-351.727051,149.935502,1248.546094,-6225.720790,5722.158339,0.006000,-0.016000,1.012000,192.000000,0.000000,0.000000,0.000000,0.000000,0.000000,0.000000,0.000000,0.000000,0.000000,1773140368.439438,0.000000
154.000000,10391.661273,6069.146820,-385.947572,-6097.824108,-1521.863225,303.849614,-16875.187084,-2634.086029,1165.285845,-579.714844,1292.176699,-267.036291,207.848872,1307.577051,-6156.408031,5757.474096,0.006000,-0.016000,1.012000,192.000000,0.000000,0.000000,0.000000,0.000000,0.000000,0.000000,0.000000,0.000000,0.000000,1773140368.439450,0.000000
156.000000,10361.911102,6040.737753,-414.513101,-6104.797853,-1551.099306,284.045969,-16906.926561,-2663.500925,1122.236386,-626.385287,1220.047619,-343.970995,142.827647,1241.393535,-6239.847093,5721.197214,0.006000,-0.016000,1.012000,192.000000,0.000000,0.000000,0.000000,0.000000,0.000000,0.000000,0.000000,0.000000,0.000000,1773140368.439468,0.000000
158.000000,10426.418236,6097.131204,-349.715394,-6071.426698,-1480.199573,340.685289,-16839.156072,-2601.273668,1162.380119,-593.371760,1280.419681,-282.213125,210.329915,1305.543042,-6180.100880,5748.220473,0.006000,-0.016000,1.012000,192.000000,0.000000,0.000000,0.000000,0.000000,0.000000,0.000000,0.000000,0.000000,0.000000,1773140368.439478,0.000000
160.000000,10348.947090,6027.438465,-417.754104,-6128.043667,-1555.502600,269.651445,-16923.511556,-2681.359968,1149.371403,-612.393095,1255.788059,-311.918594,184.044264,1289.226268,-6191.544973,5729.623822,0.007000,-0.014000,1.013000,192.000000,0.000000,32.000000,127.500000,80.000000,15.500000,88.000000,0.000000,0.000000,0.000000,1773140368.439489,0.000000
162.000000,10403.395939,6077.774594,-364.713414,-6082.200239,-1485.184012,324.100295,-16855.137569,-2622.507825,1119.464769,-634.074287,1221.321669,-341.713469,151.745993,1252.681166,-6218.277659,5716.860976,0.007000,-0.014000,1.013000,192.000000,0.000000,0.000000,0.000000,0.000000,0.000000,0.000000,0.000000,0.000000,0.000000,1773140368.439499,0.000000
164.000000,10383.838163,6061.480172,-384.718226,-6099.724007,-1506.507576,310.599841,-16877.757535,-2639.942186,1166.917523,-573.791632,1290.746187,-277.899239,213.906194,1312.293269,-6151.311833,5748.779267,0.007000,-0.014000,1.013000,192.000000,0.000000,0.000000,0.000000,0.000000,0.000000,0.000000,0.000000,0.000000,0.000000,1773140368.439509,0.000000
166.000000,10363.833352,6038.435523,-418.089380,-6126.121417,-1537.934129,284.962390,-16912.425090,-2669.580599,1115.240290,-646.658319,1213.431503,-359.080775,142.917054,1241.348832,-6231.688706,5711.988296,0.007000,-0.014000,1.013000,192.000000,0.000000,0.000000,0.000000,0.000000,0.000000,0.000000,0.000000,0.000000,0.000000,1773140368.439520,0.000000
168.000000,10423.110178,6093.264352,-355.303330,-6076.791117,-1463.413413,340.797048,-16841.570060,-2605.945183,1159.429688,-590.689551,1279.369149,-285.677646,210.352267,1298.748112,-6172.076603,5745.091229,0.007000,-0.014000,1.013000,192.000000,0.000000,0.000000,0.000000,0.000000,0.000000,0.000000,0.000000,0.000000,0.000000,1773140368.439531,0.000000
170.000000,10347.628337,6024.979773,-423.073819,-6138.325469,-1563.549228,279.665027,-16923.355093,-2684.086881,1139.558988,-604.100597,1251.652986,-310.242213,172.421357,1295.752978,-6193.824851,5732.864825,0.006500,-0.013000,1.010500,192.000000,0.000000,24.000000,127.500000,80.000000,15.500000,64.000000,0.000000,0.000000,0.000000,1773140368.439543,0.000000
172.000000,10408.670951,6079.026291,-362.366481,-6077.551076,-1499.131501,321.887472,-16855.182273,-2621.636107,1123.376325,-638.857560,1221.925166,-352.419955,149.309653,1246.445030,-6227.575985,5719.073799,0.006500,-0.013000,1.010500,192.000000,0.000000,0.000000,0.000000,0.000000,0.000000,0.000000,0.000000,0.000000,0.000000,1773140368.439554,0.000000
174.000000,10398.925590,6068.811544,-378.012702,-6089.352797,-1513.950707,306.732989,-16877.936349,-2636.298852,1176.484069,-575.400958,1296.110606,-268.287989,220.634070,1299.373960,-6160.453696,5751.483828,0.006500,-0.013000,1.010500,192.000000,0.000000,0.000000,0.000000,0.000000,0.000000,0.000000,0.000000,0.000000,0.000000,1773140368.439574,0.000000
176.000000,10362.872227,6033.898119,-406.377066,-6128.133074,-1536.637728,300.295687,-16913.117994,-2671.994587,1126.974955,-648.602921,1215.689029,-358.030243,146.828609,1243.025213,-6233.521549,5714.692857,0.006500,-0.013000,1.010500,192.000000,0.000000,0.000000,0.000000,0.000000,0.000000,0.000000,0.000000,0.000000,0.000000,1773140368.439584,0.000000
178.000000,10425.233594,6090.962123,-346.340280,-6068.655082,-1456.484372,340.394716,-16837.926726,-2604.782892,1166.559895,-592.120062,1278.922114,-289.209222,202.618563,1316.540100,-6167.606255,5751.059145,0.006500,-0.013000,1.010500,192.000000,0.000000,0.000000,0.000000,0.000000,0.000000,0.000000,0.000000,0.000000,0.000000,1773140368.919545,0.000000
180.000000,10362.604006,6031.461779,-413.976659,-6123.036876,-1550.451106,272.534820,-16919.130614,-2676.241419,1152.746517,-605.285240,1257.956178,-312.879719,187.240563,1271.300169,-6191.947304,5736.910491,0.007250,-0.011500,1.010250,192.000000,0.000000,32.000000,127.500000,88.000000,15.500000,72.000000,0.000000,0.000000,0.000000,1773140368.919618,0.000000
182.000000,10412.493099,6077.439317,-360.779507,-6081.932018,-1481.272457,329.934100,-16853.260023,-2618.618622,1133.322851,-638.991670,1229.703573,-337.019603,167.883953,1260.884256,-6226.190177,5719.923165,0.007250,-0.011500,1.010250,192.000000,0.000000,0.000000,0.000000,0.000000,0.000000,0.000000,0.000000,0.000000,0.000000,1773140368.919667,0.000000
184.000000,10388.822602,6062.240131,-380.516098,-6104.127300,-1514.576556,315.628983,-16878.472791,-2642.758506,1176.506421,-578.239629,1294.523632,-272.534820,223.852721,1321.815112,-6153.658766,5758.077593,0.007250,-0.011500,1.010250,192.000000,0.000000,0.000000,0.000000,0.000000,0.000000,0.000000,0.000000,0.000000,0.000000,1773140368.919715,0.000000
186.000000,10349.528235,6023.705724,-414.714267,-6118.298306,-1556.195504,284.962390,-16914.883782,-2682.164631,1112.625135,-650.122839,1205.384875,-359.125478,140.167789,1240.857093,-6235.957889,5722.471264,0.007250,-0.011500,1.010250,192.000000,0.000000,0.000000,0.000000,0.000000,0.000000,0.000000,0.000000,0.000000,0.000000,1773140368.919768,0.000000
188.000000,10409.207393,6082.222591,-353.246969,-6085.351835,-1481.585381,345.043879,-16844.542842,-2617.210462,1149.729031,-594.578754,1267.120393,-299.736893,192.537927,1300.290382,-6169.327339,5751.059145,0.007250,-0.011500,1.010250,192.000000,0.000000,0.000000,0.000000,0.000000,0.000000,0.000000,0.000000,0.000000,0.000000,1773140368.919791,0.000000
190.000000,10335.066656,6012.529851,-424.593738,-6136.492626,-1536.995356,274.680588,-16928.384236,-2695.575678,1138.374345,-626.586452,1244.500428,-324.927309,167.369862,1261.510105,-6186.918162,5736.642270,0.007625,-0.008750,1.005125,192.000000,0.000000,32.000000,127.500000,104.000000,15.500000,32.000000,0.000000,0.000000,0.000000,1773140368.919815,0.000000
192.000000,10399.573791,6068.476268,-368.692025,-6086.380015,-1494.191765,320.926347,-16857.506854,-2628.676907,1111.082865,-647.172409,1210.346962,-355.772716,140.145438,1235.850303,-6227.374819,5722.180691,0.007625,-0.008750,1.005125,192.000000,0.000000,0.000000,0.000000,0.000000,0.000000,0.000000,0.000000,0.000000,0.000000,1773140368.919839,0.000000
194.000000,10380.485401,6059.446163,-386.506365,-6097.757053,-1502.908945,306.263603,-16877.690479,-2645.284253,1165.285845,-582.732330,1286.342893,-277.340445,220.544663,1312.717952,-6160.073717,5752.646119,0.007625,-0.008750,1.005125,192.000000,0.000000,0.000000,0.000000,0.000000,0.000000,0.000000,0.000000,0.000000,0.000000,1773140368.919862,0.000000
196.000000,10355.674965,6034.143988,-411.897947,-6127.596632,-1547.679490,276.625189,-16908.602942,-2669.938227,1110.635830,-641.517418,1207.307125,-356.286807,131.495313,1244.321614,-6242.641061,5710.803653,0.007625,-0.008750,1.005125,192.000000,0.000000,0.000000,0.000000,0.000000,0.000000,0.000000,0.000000,0.000000,0.000000,1773140368.919885,0.000000
198.000000,10427.535823,6096.237134,-344.462734,-6064.072974,-1478.478489,339.277129,-16833.769302,-2597.317409,1162.313063,-588.074397,1279.950294,-284.403596,194.638991,1302.659667,-6177.083394,5741.693764,0.007625,-0.008750,1.005125,192.000000,0.000000,0.000000,0.000000,0.000000,0.000000,0.000000,0.000000,0.000000,0.000000,1773140368.919908,0.000000
200.000000,10352.053982,6026.589099,-412.970831,-6123.260394,-1551.568693,278.078053,-16917.767157,-2676.308474,1151.472467,-601.664257,1264.102908,-308.409370,174.745938,1299.262202,-6194.853031,5733.781246,0.007812,-0.010375,1.002563,192.000000,0.000000,32.000000,127.500000,80.000000,15.500000,32.000000,0.000000,0.000000,0.000000,1773140368.919931,0.000000
202.000000,10405.497003,6072.410175,-357.359690,-6078.579256,-1487.575649,334.002117,-16853.662354,-2620.652630,1124.851540,-642.478543,1229.681221,-343.903940,150.829572,1241.192370,-6226.033715,5721.219566,0.007812,-0.010375,1.002563,192.000000,0.000000,0.000000,0.000000,0.000000,0.000000,0.000000,0.000000,0.000000,0.000000,1773140368.919955,0.000000
204.000000,10380.507753,6048.851436,-376.559839,-6102.115643,-1502.417207,306.353010,-16879.903302,-2643.496113,1168.728014,-572.472879,1295.685923,-278.726253,217.214253,1312.874414,-6153.681118,5753.160209,0.007812,-0.010375,1.002563,192.000000,0.000000,0.000000,0.000000,0.000000,0.000000,0.000000,0.000000,0.000000,0.000000,1773140368.919978,0.000000
206.000000,10340.051095,6011.121692,-413.104941,-6128.691867,-1528.948728,281.542573,-16914.704968,-2682.119928,1111.708714,-655.174333,1210.749294,-362.254722,144.593435,1245.908588,-6231.554595,5713.441159,0.007812,-0.010375,1.002563,192.000000,0.000000,0.000000,0.000000,0.000000,0.000000,0.000000,0.000000,0.000000,0.000000,1773140368.920001,0.000000
208.000000,10389.917837,6064.609416,-358.969016,-6072.499582,-1468.174335,339.277129,-16844.654601,-2621.166721,1141.615348,-605.866385,1264.304073,-307.157672,196.628296,1302.592612,-6166.756888,5752.355546,0.007812,-0.010375,1.002563,192.000000,0.000000,0.000000,0.000000,0.000000,0.000000,0.000000,0.000000,0.000000,0.000000,1773140368.920024,0.000000
210.000000,10319.040456,5994.760215,-426.203063,-6127.149597,-1568.220743,272.803041,-16927.646628,-2695.530974,1133.032278,-619.389191,1241.393535,-327.520112,162.743051,1273.043605,-6193.109595,5741.961985,0.009906,-0.011187,1.005281,192.000000,0.000000,48.000000,127.500000,80.000000,15.500000,64.000000,0.000000,0.000000,0.000000,1773140368.920048,0.000000
212.000000,10380.217180,6046.973890,-365.674539,-6087.005864,-1488.089739,321.127513,-16859.652622,-2631.895558,1106.210185,-662.997444,1211.621012,-360.935969,142.380612,1259.833724,-6224.357334,5728.483883,0.009906,-0.011187,1.005281,192.000000,0.000000,0.000000,0.000000,0.000000,0.000000,0.000000,0.000000,0.000000,0.000000,1773140368.920071,0.000000
214.000000,10354.087991,6028.131369,-389.322685,-6102.294457,-1508.966268,302.128530,-16880.663261,-2652.257997,1161.821325,-587.627362,1284.957085,-286.303495,231.608776,1307.152367,-6157.682080,5753.517837,0.009906,-0.011187,1.005281,192.000000,0.000000,0.000000,0.000000,0.000000,0.000000,0.000000,0.000000,0.000000,0.000000,1773140368.920094,0.000000
216.000000,10329.858700,6002.270401,-412.054409,-6123.014524,-1544.349080,280.424986,-16911.039282,-2679.393015,1094.631981,-662.103374,1198.433482,-364.914580,127.583757,1228.831855,-6238.595395,5714.335229,0.009906,-0.011187,1.005281,192.000000,0.000000,0.000000,0.000000,0.000000,0.000000,0.000000,0.000000,0.000000,0.000000,1773140368.920118,0.000000
218.000000,10389.448451,6058.395631,-348.262530,-6078.914533,-1457.981939,338.338356,-16839.848976,-2612.047209,1155.451078,-608.392132,1275.256428,-298.664009,202.909136,1306.057132,-6173.775336,5745.605319,0.009906,-0.011187,1.005281,192.000000,0.000000,0.000000,0.000000,0.000000,0.000000,0.000000,0.000000,0.000000,0.000000,1773140368.920143,0.000000
220.000000,10317.162909,5997.397721,-417.441179,-6143.354612,-1533.016745,279.732082,-16925.120881,-2689.160727,1135.647432,-618.115141,1249.686032,-324.055591,188.492261,1280.509088,-6190.449737,5734.295337,0.009953,-0.012594,1.005641,192.000000,0.000000,40.000000,127.500000,72.000000,15.500000,56.000000,0.000000,0.000000,0.000000,1773140368.920167,0.000000
222.000000,10374.383375,6042.168265,-365.138097,-6067.448088,-1462.273474,326.670745,-16856.188101,-2626.352325,1123.398676,-641.763287,1220.628765,-355.325682,164.710005,1255.609245,-6217.584755,5723.678258,0.009953,-0.012594,1.005641,192.000000,0.000000,0.000000,0.000000,0.000000,0.000000,0.000000,0.000000,0.000000,0.000000,1773140368.920191,0.000000
224.000000,10349.260014,6030.679468,-380.940781,-6095.588934,-1495.085835,326.223710,-16879.456267,-2646.960634,1164.838811,-587.672065,1291.304981,-279.061530,230.915872,1318.417647,-6150.551874,5762.480886,0.009953,-0.012594,1.005641,192.000000,0.000000,0.000000,0.000000,0.000000,0.000000,0.000000,0.000000,0.000000,0.000000,1773140368.920214,0.000000
226.000000,10313.430168,5992.078005,-410.959174,-6129.541234,-1529.909853,310.488082,-16915.420224,-2684.668027,1102.768016,-644.646662,1203.239108,-365.674539,146.314519,1258.090288,-6226.436046,5725.712267,0.009953,-0.012594,1.005641,192.000000,0.000000,0.000000,0.000000,0.000000,0.000000,0.000000,0.000000,0.000000,0.000000,1773140368.920237,0.000000
228.000000,10363.386317,6038.636689,-356.845600,-6072.700748,-1470.856544,342.093449,-16844.185215,-2623.200729,1144.074040,-611.275507,1265.287550,-308.051742,213.481511,1309.096969,-6164.454659,5764.581950,0.009953,-0.012594,1.005641,192.000000,0.000000,0.000000,0.000000,0.000000,0.000000,0.000000,0.000000,0.000000,0.000000,1773140368.920260,0.000000
230.000000,10289.849077,5972.631988,-430.874578,-6122.701600,-1553.066260,272.490117,-16926.618448,-2697.877908,1119.665935,-629.849807,1235.269157,-328.570643,183.083139,1287.683998,-6189.645075,5750.567406,0.009953,-0.012594,1.005641,192.000000,0.000000,0.000000,0.000000,0.000000,0.000000,0.000000,0.000000,0.000000,0.000000,1773140368.920283,0.000000
232.000000,10348.500055,6029.785398,-371.575400,-6089.665722,-1482.144175,328.347126,-16858.512683,-2636.701183,1100.264621,-649.117011,1203.619087,-360.131307,159.524400,1242.220550,-6225.921956,5732.127217,0.006000,-0.012000,1.004000,192.000000,0.000000,24.000000,127.500000,80.000000,15.500000,48.000000,0.000000,0.000000,0.000000,1773140368.920307,0.000000
234.000000,10326.438883,6012.507500,-388.830947,-6096.438300,-1493.454158,308.387018,-16882.652567,-2657.041270,1142.755287,-583.224068,1274.138841,-294.350123,213.727380,1319.267013,-6154.530484,5760.849209,0.006000,-0.012000,1.004000,192.000000,0.000000,0.000000,0.000000,0.000000,0.000000,0.000000,0.000000,0.000000,0.000000,1773140368.920330,0.000000
236.000000,10291.659569,5974.822459,-412.702610,-6125.383809,-1539.163475,280.961428,-16914.973189,-2689.406596,1095.816624,-669.278284,1195.840680,-369.407281,140.681880,1247.897893,-6235.957889,5720.146682,0.006000,-0.012000,1.004000,192.000000,0.000000,0.000000,0.000000,0.000000,0.000000,0.000000,0.000000,0.000000,0.000000,1773140368.920353,0.000000
238.000000,10363.878055,6045.297509,-344.038051,-6084.770690,-1456.484372,335.633795,-16838.932555,-2615.802302,1136.250929,-606.447531,1265.555771,-299.736893,217.571881,1301.855004,-6163.962920,5744.979470,0.006000,-0.012000,1.004000,192.000000,0.000000,0.000000,0.000000,0.000000,0.000000,0.000000,0.000000,0.000000,0.000000,1773140368.920376,0.000000
240.000000,10294.319426,5975.202438,-416.211834,-6130.547062,-1545.489019,276.781652,-16923.645666,-2693.139338,1125.387982,-624.597147,1242.734640,-324.279109,186.838232,1270.003768,-6184.995912,5736.038773,0.006000,-0.012000,1.004000,192.000000,0.000000,0.000000,0.000000,0.000000,0.000000,0.000000,0.000000,0.000000,0.000000,1773140368.920400,0.000000
242.000000,10361.732288,6037.921433,-358.521981,-6079.339216,-1464.508648,338.181894,-16853.572947,-2625.793532,1116.246118,-648.044127,1219.600584,-351.056498,172.399005,1261.264236,-6216.735389,5724.617031,0.004000,-0.010000,1.014000,192.000000,0.000000,16.000000,127.500000,88.000000,15.500000,88.000000,0.000000,0.000000,0.000000,1773140368.920422,0.000000
244.000000,10330.484549,6018.296602,-390.932011,-6103.568507,-1492.358922,321.529844,-16881.132648,-2652.190942,1162.491877,-578.261981,1287.125204,-284.224782,236.034421,1325.279632,-6150.730687,5763.956101,0.004000,-0.010000,1.014000,192.000000,0.000000,0.000000,0.000000,0.000000,0.000000,0.000000,0.000000,0.000000,0.000000,1773140368.920441,0.000000
246.000000,10299.594438,5990.468680,-419.005802,-6118.678286,-1536.436562,307.269431,-16912.335683,-2686.478518,1089.289914,-655.174333,1193.158471,-360.734804,126.823798,1251.831800,-6239.064782,5734.250633,0.004000,-0.010000,1.014000,192.000000,0.000000,0.000000,0.000000,0.000000,0.000000,0.000000,0.000000,0.000000,0.000000,1773140368.920452,0.000000
