Sample_index,EXG Channel 0,EXG Channel 1,EXG Channel 2,EXG Channel 3,EXG Channel 4,EXG Channel 5,EXG Channel 6,EXG Channel 7,EXG Channel 8,EXG Channel 9,EXG Channel 10,EXG Channel 11,EXG Channel 12,EXG Channel 13,EXG Channel 14,EXG Channel 15,Accel Channel 0,Accel Channel 1,Accel Channel 2,Not Used,Digital Channel 0 (D11),Digital Channel 1 (D12),Digital Channel 2 (D13),Digital Channel 3 (D17),Not Used,Digital Channel 4 (D18),Analog Channel 0,Analog Channel 1,Analog Channel 2,Timestamp,Marker Channel
210.000000,9211.869146,8519.501510,-1465.782698,-6931.812397,-5136.140303,2666.741927,-14355.541987,-1366.675063,119.850054,-483.647047,-196.985924,-1638.382869,-1202.412093,-845.834714,-12596.079719,416.010668,0.010000,-0.018000,1.006000,192.000000,0.000000,0.000000,0.000000,0.000000,0.000000,0.000000,0.000000,0.000000,0.000000,1773142206.746920,101.000000
212.000000,9193.652474,8491.762995,-1490.816652,-7019.677105,-5167.142173,2651.676852,-14394.366967,-1399.129796,154.271740,-392.898964,-159.971435,-1637.131171,-1161.709566,-736.914663,-12562.708564,426.717153,0.010000,-0.018000,1.006000,192.000000,0.000000,0.000000,0.000000,0.000000,0.000000,0.000000,0.000000,0.000000,0.000000,1773142206.746971,0.000000
214.000000,9190.523230,8488.924323,-1499.064445,-6939.277880,-5175.524077,2616.361095,-14393.472897,-1400.917935,113.435103,-460.580046,-220.321145,-1660.131116,-1210.950459,-897.199022,-12612.910582,404.186595,0.010000,-0.018000,1.006000,192.000000,0.000000,0.000000,0.000000,0.000000,0.000000,0.000000,0.000000,0.000000,0.000000,1773142206.747016,0.000000
216.000000,9228.588251,8536.913519,-1460.708852,-6992.117404,-5114.526166,2679.862401,-14363.298042,-1366.384490,153.668243,-383.868859,-157.713909,-1609.973801,-1154.132325,-749.543399,-12556.360669,435.300223,0.012000,-0.016000,1.002000,192.000000,0.000000,48.000000,127.500000,64.000000,15.500000,40.000000,0.000000,0.000000,0.000000,1773142206.747054,0.000000
218.000000,9173.647663,8471.668776,-1523.003164,-6960.668500,-5189.225696,2616.741075,-14414.550592,-1419.291069,138.804333,-414.960136,-189.073406,-1647.435325,-1178.182802,-798.069036,-12583.227466,415.071895,0.012000,-0.016000,1.002000,192.000000,0.000000,0.000000,0.000000,0.000000,0.000000,0.000000,0.000000,0.000000,0.000000,1773142206.747099,0.000000
220.000000,9236.768989,8530.409161,-1459.188933,-6996.766567,-5122.841015,2687.931381,-14360.593481,-1364.663406,132.903473,-399.336266,-194.840156,-1639.522808,-1184.038959,-799.276030,-12590.536486,409.349848,0.012000,-0.016000,1.002000,192.000000,0.000000,0.000000,0.000000,0.000000,0.000000,0.000000,0.000000,0.000000,0.000000,1773142206.747144,0.000000
222.000000,9202.883745,8488.499640,-1490.168451,-6996.990084,-5157.419164,2654.224951,-14393.092918,-1402.571965,170.655569,-403.694857,-154.674072,-1605.861080,-1155.048746,-707.186843,-12558.573491,415.049543,0.012000,-0.016000,1.002000,192.000000,0.000000,0.000000,0.000000,0.000000,0.000000,0.000000,0.000000,0.000000,0.000000,1773142206.747171,0.000000
224.000000,9190.277361,8489.192544,-1501.344323,-6967.642244,-5157.776792,2671.234628,-14396.959769,-1408.964563,111.088170,-469.721910,-224.500921,-1712.545957,-1216.538395,-861.592694,-12605.713320,410.556842,0.012000,-0.016000,1.002000,192.000000,0.000000,0.000000,0.000000,0.000000,0.000000,0.000000,0.000000,0.000000,0.000000,1773142206.747184,0.000000
226.000000,9231.203405,8524.329486,-1470.029529,-6924.771598,-5121.164634,2708.673800,-14361.375792,-1368.574961,157.579798,-404.834796,-161.670168,-1582.190583,-1153.595883,-763.468535,-12555.019564,447.370165,0.014000,-0.020000,0.998000,192.000000,0.000000,56.000000,127.500000,48.000000,15.500000,24.000000,0.000000,0.000000,0.000000,1773142206.747195,0.000000
228.000000,9187.125765,8482.509373,-1515.895309,-7000.096977,-5176.261684,2638.221102,-14416.003456,-1417.301764,146.158057,-434.048526,-196.762406,-1662.679215,-1187.257610,-825.405219,-12586.982559,427.454761,0.014000,-0.020000,0.998000,192.000000,0.000000,0.000000,0.000000,0.000000,0.000000,0.000000,0.000000,0.000000,0.000000,1773142206.747206,0.000000
230.000000,9238.020687,8530.163292,-1462.496991,-6939.814322,-5125.791445,2659.812887,-14357.240719,-1363.143487,139.720755,-428.035906,-191.442691,-1646.317738,-1178.227505,-749.744564,-12593.509268,413.328458,0.014000,-0.020000,0.998000,192.000000,0.000000,0.000000,0.000000,0.000000,0.000000,0.000000,0.000000,0.000000,0.000000,1773142206.747218,0.000000
232.000000,9208.806957,8504.727007,-1488.335608,-6992.430328,-5167.633911,2638.914006,-14391.572999,-1391.820775,166.207572,-391.580211,-153.712947,-1591.958295,-1155.585188,-807.300306,-12563.289709,429.511121,0.014000,-0.020000,0.998000,192.000000,0.000000,0.000000,0.000000,0.000000,0.000000,0.000000,0.000000,0.000000,0.000000,1773142206.747229,0.000000
234.000000,9201.274419,8489.058434,-1492.448329,-6967.083450,-5158.939082,2623.692468,-14394.098746,-1401.275563,117.994859,-451.840514,-213.302697,-1672.156354,-1208.849395,-840.291481,-12607.099129,401.303220,0.014000,-0.020000,0.998000,192.000000,0.000000,0.000000,0.000000,0.000000,0.000000,0.000000,0.000000,0.000000,0.000000,1773142206.747240,0.000000
236.000000,9247.721344,8539.819245,-1459.323044,-6964.088316,-5117.454245,2664.216180,-14360.884054,-1363.501115,171.862563,-391.088473,-148.482638,-1615.740551,-1135.222749,-792.995190,-12559.288747,424.571386,0.010000,-0.014000,1.002000,192.000000,0.000000,40.000000,127.500000,72.000000,15.500000,40.000000,0.000000,0.000000,0.000000,1773142206.747252,0.000000
238.000000,9197.385215,8486.420928,-1509.592117,-6984.026073,-5190.656208,2618.417456,-14413.365950,-1410.953869,153.087098,-420.033982,-179.618618,-1645.222502,-1170.560857,-807.322658,-12589.195381,408.411075,0.010000,-0.014000,1.002000,192.000000,0.000000,0.000000,0.000000,0.000000,0.000000,0.000000,0.000000,0.000000,0.000000,1773142206.747263,0.000000
240.000000,9243.385106,8527.950469,-1450.047070,-6953.940624,-5115.867271,2657.354195,-14358.604176,-1362.987025,149.220246,-435.166113,-181.697331,-1647.904712,-1185.491822,-827.059248,-12582.713375,409.908642,0.010000,-0.014000,1.002000,192.000000,0.000000,0.000000,0.000000,0.000000,0.000000,0.000000,0.000000,0.000000,0.000000,1773142206.747275,0.000000
242.000000,9209.388102,8499.541402,-1484.200535,-6989.703416,-5158.961434,2642.579692,-14394.746947,-1400.359142,174.969456,-399.000990,-152.014214,-1620.412066,-1145.772773,-776.611361,-12548.872834,428.795866,0.010000,-0.014000,1.002000,192.000000,0.000000,0.000000,0.000000,0.000000,0.000000,0.000000,0.000000,0.000000,0.000000,1773142206.747301,0.000000
244.000000,9203.040207,8493.171155,-1492.627143,-6981.232104,-5158.804972,2654.694337,-14395.775127,-1406.997610,136.010365,-447.481924,-210.396971,-1679.331264,-1205.094302,-798.292553,-12609.982504,401.884365,0.010000,-0.014000,1.002000,192.000000,0.000000,0.000000,0.000000,0.000000,0.000000,0.000000,0.000000,0.000000,0.000000,1773142206.747313,0.000000
246.000000,9229.795245,8517.869832,-1465.223904,-6952.130133,-5131.871120,2688.780748,-14364.214464,-1377.001569,157.825668,-412.836720,-166.520496,-1629.173950,-1158.781488,-801.198280,-12564.452000,451.460535,0.010000,-0.016000,1.002000,192.000000,0.000000,40.000000,127.500000,64.000000,15.500000,40.000000,0.000000,0.000000,0.000000,1773142206.747324,0.000000
248.000000,9195.619428,8485.303341,-1511.201443,-7022.560480,-5183.101318,2635.650651,-14417.813947,-1420.542767,146.627444,-436.328404,-190.570973,-1661.248703,-1187.458776,-798.918402,-12584.926198,417.843511,0.010000,-0.016000,1.002000,192.000000,0.000000,0.000000,0.000000,0.000000,0.000000,0.000000,0.000000,0.000000,0.000000,1773142206.747336,0.000000
250.000000,9239.495902,8528.285745,-1464.575704,-6927.967897,-5125.255004,2671.011111,-14358.380658,-1364.953979,147.901493,-412.657906,-190.749787,-1658.231218,-1175.724110,-832.624833,-12591.654073,418.134084,0.010000,-0.016000,1.002000,192.000000,0.000000,0.000000,0.000000,0.000000,0.000000,0.000000,0.000000,0.000000,0.000000,1773142206.747347,0.000000
252.000000,9214.640762,8503.475309,-1489.207326,-6993.905544,-5152.077097,2641.439753,-14395.149278,-1395.933496,174.790642,-385.612295,-155.523438,-1612.186624,-1146.532732,-771.045777,-12560.920425,433.802656,0.010000,-0.016000,1.002000,192.000000,0.000000,0.000000,0.000000,0.000000,0.000000,0.000000,0.000000,0.000000,0.000000,1773142206.747359,0.000000
254.000000,9210.349227,8499.474347,-1495.801091,-6953.068906,-5141.772943,2617.791607,-14395.641016,-1401.633191,132.881121,-448.241883,-209.815825,-1680.426500,-1193.538450,-839.442115,-12604.103995,396.899926,0.010000,-0.016000,1.002000,192.000000,0.000000,0.000000,0.000000,0.000000,0.000000,0.000000,0.000000,0.000000,0.000000,1773142206.747370,0.000000
0.000000,9258.494885,8546.345955,-1447.141343,-6995.827794,-5102.947963,2675.682625,-14361.442847,-1361.109479,181.563220,-396.877575,-147.074479,-1631.431476,-1147.784430,-777.639541,-12551.666802,419.698706,0.012000,-0.010000,1.000000,192.000000,0.000000,48.000000,127.500000,88.000000,15.500000,32.000000,0.000000,0.000000,0.000000,1773142206.747383,0.000000
2.000000,9197.854602,8481.145916,-1506.529928,-6999.448776,-5174.272379,2632.610814,-14419.825604,-1420.699229,167.325159,-418.357601,-173.024854,-1645.870703,-1166.403433,-723.861244,-12576.678404,396.609354,0.012000,-0.010000,1.000000,192.000000,0.000000,0.000000,0.000000,0.000000,0.000000,0.000000,0.000000,0.000000,0.000000,1773142206.747398,0.000000
4.000000,9250.470609,8536.466484,-1459.591265,-6939.836674,-5113.721503,2677.381358,-14360.504074,-1361.914141,157.780964,-428.102962,-186.413549,-1671.798727,-1173.958322,-883.407996,-12590.201210,420.860996,0.012000,-0.010000,1.000000,192.000000,0.000000,0.000000,0.000000,0.000000,0.000000,0.000000,0.000000,0.000000,0.000000,1773142206.747413,0.000000
6.000000,9226.062504,8511.566640,-1486.100434,-6993.592619,-5148.232597,2650.447506,-14391.997682,-1387.082206,192.515575,-370.301350,-141.017156,-1621.373191,-1137.413220,-785.529707,-12560.831018,429.421714,0.012000,-0.010000,1.000000,192.000000,0.000000,0.000000,0.000000,0.000000,0.000000,0.000000,0.000000,0.000000,0.000000,1773142206.747424,0.000000
8.000000,9210.259820,8492.545306,-1498.930335,-6962.054308,-5158.290882,2635.963575,-14392.511772,-1394.458281,143.140571,-456.087346,-201.925659,-1665.719052,-1182.161412,-835.083525,-12617.738559,408.791054,0.012000,-0.010000,1.000000,192.000000,0.000000,0.000000,0.000000,0.000000,0.000000,0.000000,0.000000,0.000000,0.000000,1773142206.747435,0.000000
10.000000,9240.814655,8519.166233,-1464.441593,-6946.296328,-5123.265698,2680.264733,-14362.716897,-1370.117232,177.606961,-414.423694,-150.494295,-1628.793970,-1146.599787,-793.263411,-12565.726050,436.171941,0.011000,-0.009000,0.999000,192.000000,0.000000,40.000000,127.500000,96.000000,15.500000,24.000000,0.000000,0.000000,0.000000,1773142206.747447,0.000000
12.000000,9187.729262,8472.562846,-1506.328762,-7003.650904,-5182.274304,2628.185168,-14420.607915,-1423.493197,153.534133,-451.102907,-188.089930,-1654.096145,-1191.415035,-838.726859,-12584.233294,423.453799,0.011000,-0.009000,0.999000,192.000000,0.000000,0.000000,0.000000,0.000000,0.000000,0.000000,0.000000,0.000000,0.000000,1773142206.747458,0.000000
14.000000,9241.239338,8522.608402,-1455.076212,-6959.707375,-5125.590280,2685.562096,-14361.979289,-1368.954941,151.008386,-429.242901,-186.748825,-1670.055290,-1191.750311,-792.414044,-12584.121535,414.580156,0.011000,-0.009000,0.999000,192.000000,0.000000,0.000000,0.000000,0.000000,0.000000,0.000000,0.000000,0.000000,0.000000,1773142206.747469,0.000000
16.000000,9239.697068,8521.580222,-1478.679654,-7020.213547,-5137.839036,2674.095651,-14392.400013,-1381.650732,186.525307,-380.694912,-144.951063,-1617.931022,-1134.060458,-750.169247,-12548.157578,436.663680,0.011000,-0.009000,0.999000,192.000000,0.000000,0.000000,0.000000,0.000000,0.000000,0.000000,0.000000,0.000000,0.000000,1773142206.747481,0.000000
18.000000,9231.918661,8511.566640,-1494.102358,-6951.057249,-5155.362803,2657.667119,-14395.037519,-1388.423310,155.836362,-432.260386,-191.196822,-1671.709320,-1201.048637,-827.685097,-12600.259495,411.361505,0.011000,-0.009000,0.999000,192.000000,0.000000,0.000000,0.000000,0.000000,0.000000,0.000000,0.000000,0.000000,0.000000,1773142206.747492,0.000000
20.000000,9264.954539,8549.542254,-1453.913922,-6948.196226,-5121.924594,2670.228800,-14361.532254,-1358.226104,193.253183,-420.615127,-138.022022,-1622.736647,-1153.148848,-808.641411,-12557.567663,439.435296,0.008500,-0.011500,0.998500,192.000000,0.000000,24.000000,127.500000,72.000000,15.500000,24.000000,0.000000,0.000000,0.000000,1773142206.747504,0.000000
22.000000,9221.011009,8488.365530,-1506.060541,-7009.305895,-5188.197516,2613.790645,-14416.539898,-1406.058837,183.731339,-406.779397,-166.878124,-1645.848351,-1157.172162,-821.605423,-12587.116669,413.216700,0.008500,-0.011500,0.998500,192.000000,0.000000,0.000000,0.000000,0.000000,0.000000,0.000000,0.000000,0.000000,0.000000,1773142206.747516,0.000000
24.000000,9263.792248,8538.053458,-1449.018890,-6962.613101,-5126.037315,2660.237570,-14360.526426,-1355.812115,177.450499,-443.369203,-168.040415,-1655.951340,-1175.947628,-827.349821,-12593.531620,410.400380,0.008500,-0.011500,0.998500,192.000000,0.000000,0.000000,0.000000,0.000000,0.000000,0.000000,0.000000,0.000000,0.000000,1773142206.747528,0.000000
26.000000,9236.009030,8510.136129,-1485.362826,-6980.092165,-5157.083888,2627.648726,-14394.523429,-1385.405825,195.823633,-391.446101,-140.458362,-1616.746380,-1144.476371,-784.456823,-12557.433552,427.901796,0.008500,-0.011500,0.998500,192.000000,0.000000,0.000000,0.000000,0.000000,0.000000,0.000000,0.000000,0.000000,0.000000,1773142206.747540,0.000000
28.000000,9237.283079,8511.745454,-1485.362826,-6983.355520,-5153.664071,2621.144369,-14395.976293,-1389.540898,159.859676,-455.036814,-195.108377,-1679.755948,-1201.920355,-865.168973,-12615.570440,406.801749,0.008500,-0.011500,0.998500,192.000000,0.000000,0.000000,0.000000,0.000000,0.000000,0.000000,0.000000,0.000000,0.000000,1773142206.747551,0.000000
30.000000,9268.843742,8544.580167,-1448.124820,-6973.677215,-5116.202547,2662.383337,-14361.465199,-1359.097822,201.120997,-403.314877,-137.642042,-1620.121493,-1130.551235,-759.467573,-12554.214901,430.360488,0.011250,-0.012750,1.002250,192.000000,0.000000,56.000000,127.500000,72.000000,15.500000,56.000000,0.000000,0.000000,0.000000,1773142206.747562,0.000000
32.000000,9217.814710,8496.546268,-1504.562975,-7006.690741,-5160.526056,2610.460235,-14416.919877,-1415.200700,176.757595,-419.810464,-176.355264,-1653.224427,-1155.965168,-804.618097,-12581.282864,417.687049,0.011250,-0.012750,1.002250,192.000000,0.000000,0.000000,0.000000,0.000000,0.000000,0.000000,0.000000,0.000000,0.000000,1773142206.747574,0.000000
34.000000,9259.545417,8532.621984,-1453.288073,-6951.325470,-5107.194794,2673.693320,-14365.957900,-1370.430156,179.238639,-428.415886,-183.150194,-1660.488744,-1178.495726,-812.932946,-12577.863047,410.825063,0.011250,-0.012750,1.002250,192.000000,0.000000,0.000000,0.000000,0.000000,0.000000,0.000000,0.000000,0.000000,0.000000,1773142206.747588,0.000000
36.000000,9249.576539,8524.754170,-1485.854564,-6976.068851,-5144.522207,2645.485418,-14398.166764,-1392.424273,204.786683,-392.429577,-149.332005,-1634.717182,-1115.374400,-773.482117,-12548.515206,441.536360,0.011250,-0.012750,1.002250,192.000000,0.000000,0.000000,0.000000,0.000000,0.000000,0.000000,0.000000,0.000000,0.000000,1773142206.747600,0.000000
38.000000,9251.252920,8522.317829,-1478.456137,-6993.033826,-5141.080039,2651.676852,-14395.842182,-1386.836336,164.598246,-436.909549,-188.514613,-1673.698625,-1190.096282,-841.006737,-12596.102070,402.733732,0.011250,-0.012750,1.002250,192.000000,0.000000,0.000000,0.000000,0.000000,0.000000,0.000000,0.000000,0.000000,0.000000,1773142206.747612,0.000000
40.000000,9286.278103,8552.135057,-1445.174390,-6936.595671,-5112.447454,2682.097576,-14357.955975,-1349.687737,205.636049,-393.345999,-131.428257,-1613.773598,-1135.759191,-791.855251,-12549.588090,436.976604,0.012625,-0.012375,1.005125,192.000000,0.000000,56.000000,127.500000,80.000000,15.500000,64.000000,0.000000,0.000000,0.000000,1773142206.747623,0.000000
42.000000,9240.747600,8515.187623,-1507.066370,-7001.840413,-5166.091641,2660.170515,-14413.723578,-1398.280430,197.455311,-417.418828,-158.920903,-1650.408107,-1146.599787,-793.978667,-12587.139021,420.548072,0.012625,-0.012375,1.005125,192.000000,0.000000,0.000000,0.000000,0.000000,0.000000,0.000000,0.000000,0.000000,0.000000,1773142206.747634,0.000000
44.000000,9289.586161,8564.853199,-1449.600035,-6950.163180,-5112.939192,2685.025654,-14359.587653,-1346.983176,188.089930,-407.405246,-167.056938,-1635.298328,-1157.909770,-788.994228,-12592.078756,421.531549,0.012625,-0.012375,1.005125,192.000000,0.000000,0.000000,0.000000,0.000000,0.000000,0.000000,0.000000,0.000000,0.000000,1773142206.747646,0.000000
46.000000,9266.832085,8543.931966,-1473.382291,-6988.429366,-5127.400771,2648.972291,-14391.952979,-1376.263961,228.904215,-368.647321,-123.046353,-1597.635638,-1120.448246,-748.023480,-12555.958337,433.422677,0.012625,-0.012375,1.005125,192.000000,0.000000,0.000000,0.000000,0.000000,0.000000,0.000000,0.000000,0.000000,0.000000,1773142206.747658,0.000000
48.000000,9263.993414,8524.217728,-1473.270532,-6986.954151,-5138.420181,2646.312433,-14393.651711,-1382.611857,188.983999,-422.291508,-178.098700,-1672.893962,-1177.959285,-824.980536,-12595.878553,408.433426,0.012625,-0.012375,1.005125,192.000000,0.000000,0.000000,0.000000,0.000000,0.000000,0.000000,0.000000,0.000000,0.000000,1773142206.747670,0.000000
50.000000,9293.520068,8559.622891,-1445.777887,-6934.539310,-5118.840053,2658.002395,-14356.816036,-1346.089106,229.440657,-391.736673,-123.091057,-1607.760979,-1111.507548,-778.555963,-12545.542424,438.876502,0.011312,-0.012188,1.007563,192.000000,0.000000,40.000000,127.500000,80.000000,15.500000,72.000000,0.000000,0.000000,0.000000,1773142206.747682,0.000000
52.000000,9237.886576,8503.363550,-1488.603829,-7002.242744,-5168.304463,2606.436921,-14412.874211,-1403.510738,192.202651,-434.294395,-154.830534,-1649.335223,-1159.988482,-808.708466,-12573.929140,414.960136,0.011312,-0.012188,1.007563,192.000000,0.000000,0.000000,0.000000,0.000000,0.000000,0.000000,0.000000,0.000000,0.000000,1773142206.747710,0.000000
54.000000,9294.034158,8557.812400,-1446.873122,-6946.810418,-5113.877966,2648.435849,-14353.798551,-1346.759659,192.806148,-411.473264,-158.473868,-1650.408107,-1146.018642,-794.559812,-12580.411146,406.332362,0.011312,-0.012188,1.007563,192.000000,0.000000,0.000000,0.000000,0.000000,0.000000,0.000000,0.000000,0.000000,0.000000,1773142206.747722,0.000000
56.000000,9271.861228,8527.346972,-1478.992579,-6990.821003,-5134.866254,2625.368848,-14387.437926,-1376.979217,225.819674,-393.345999,-127.762571,-1614.265336,-1100.979877,-799.343085,-12555.623061,429.220549,0.011312,-0.012188,1.007563,192.000000,0.000000,0.000000,0.000000,0.000000,0.000000,0.000000,0.000000,0.000000,0.000000,1773142206.747734,0.000000
58.000000,9264.552208,8527.123454,-1480.870125,-6979.533372,-5151.495952,2632.454351,-14392.355310,-1384.154127,187.955819,-441.201084,-177.316389,-1661.069889,-1191.012703,-841.945510,-12604.327512,398.844528,0.011312,-0.012188,1.007563,192.000000,0.000000,0.000000,0.000000,0.000000,0.000000,0.000000,0.000000,0.000000,0.000000,1773142206.747746,0.000000
60.000000,9282.746528,8546.837693,-1452.304596,-6962.993081,-5098.835242,2665.400823,-14363.923891,-1366.004511,215.224947,-397.279906,-133.462266,-1629.531578,-1128.852502,-794.179832,-12546.481198,433.422677,0.011656,-0.013094,1.006781,192.000000,0.000000,48.000000,127.500000,72.000000,15.500000,56.000000,0.000000,0.000000,0.000000,1773142206.747758,0.000000
62.000000,9249.218911,8506.917477,-1502.461911,-6994.777262,-5173.892400,2630.956785,-14415.064682,-1406.349409,186.905287,-438.496523,-171.728453,-1650.743383,-1156.725127,-829.607347,-12581.573436,424.817255,0.011656,-0.013094,1.006781,192.000000,0.000000,0.000000,0.000000,0.000000,0.000000,0.000000,0.000000,0.000000,0.000000,1773142206.747770,0.000000
64.000000,9303.757167,8559.309966,-1445.934349,-6943.234139,-5106.188966,2692.133509,-14359.855874,-1353.174609,204.965497,-423.744371,-160.440822,-1652.263302,-1154.288787,-809.088446,-12581.931064,424.660793,0.011656,-0.013094,1.006781,192.000000,0.000000,0.000000,0.000000,0.000000,0.000000,0.000000,0.000000,0.000000,0.000000,1773142206.747782,0.000000
66.000000,9284.244094,8545.630699,-1474.097547,-6985.121308,-5119.532957,2677.671931,-14390.924798,-1376.532182,221.751657,-386.215792,-125.035658,-1612.812473,-1096.442473,-756.852419,-12542.927270,441.983395,0.011656,-0.013094,1.006781,192.000000,0.000000,0.000000,0.000000,0.000000,0.000000,0.000000,0.000000,0.000000,0.000000,1773142206.747794,0.000000
68.000000,9280.489001,8537.204091,-1467.682596,-6988.786994,-5125.210300,2653.979081,-14393.450545,-1383.058892,202.372694,-432.707421,-174.231848,-1661.516924,-1166.470488,-816.330411,-12595.520925,416.368296,0.011656,-0.013094,1.006781,192.000000,0.000000,0.000000,0.000000,0.000000,0.000000,0.000000,0.000000,0.000000,0.000000,1773142206.747806,0.000000
70.000000,9318.241098,8582.041691,-1440.771096,-6963.417764,-5099.528146,2685.852669,-14359.811170,-1347.609025,239.498942,-366.613313,-115.826740,-1622.736647,-1099.906993,-719.234433,-12541.452055,432.685069,0.011828,-0.013547,1.008391,192.000000,0.000000,48.000000,127.500000,72.000000,15.500000,72.000000,0.000000,0.000000,0.000000,1773142206.747818,0.000000
72.000000,9267.837914,8528.688077,-1489.810823,-6994.821965,-5162.269492,2630.286232,-14414.438834,-1398.302781,222.019878,-393.681275,-149.779040,-1635.298328,-1143.291729,-798.985457,-12574.286768,428.192369,0.011828,-0.013547,1.008391,192.000000,0.000000,0.000000,0.000000,0.000000,0.000000,0.000000,0.000000,0.000000,0.000000,1773142206.747830,0.000000
74.000000,9313.681342,8563.959129,-1439.474695,-6946.922177,-5109.407617,2659.097631,-14359.766467,-1352.548760,205.412532,-420.302203,-151.969511,-1656.957168,-1151.383060,-813.715257,-12582.512210,417.575290,0.011828,-0.013547,1.008391,192.000000,0.000000,0.000000,0.000000,0.000000,0.000000,0.000000,0.000000,0.000000,0.000000,1773142207.227160,0.000000
76.000000,9285.048757,8543.417876,-1488.313256,-6959.081526,-5148.031431,2646.982985,-14388.175534,-1375.124022,238.761334,-399.291563,-123.672202,-1620.300307,-1092.128586,-778.757129,-12551.465637,432.416848,0.011828,-0.013547,1.008391,192.000000,0.000000,0.000000,0.000000,0.000000,0.000000,0.000000,0.000000,0.000000,0.000000,1773142207.227223,0.000000
78.000000,9282.701824,8542.568510,-1474.723396,-6994.129061,-5140.565949,2628.676907,-14392.332958,-1379.706130,184.044264,-444.799715,-173.516592,-1657.962997,-1148.477334,-835.619966,-12607.233239,401.124406,0.011828,-0.013547,1.008391,192.000000,0.000000,0.000000,0.000000,0.000000,0.000000,0.000000,0.000000,0.000000,0.000000,1773142207.227270,0.000000
80.000000,9314.061322,8570.307025,-1440.659337,-6952.532465,-5126.551405,2657.890637,-14357.039554,-1348.883074,227.183131,-384.338246,-122.621670,-1610.510243,-1106.411351,-797.107911,-12554.147846,430.941633,0.011828,-0.013547,1.008391,192.000000,0.000000,0.000000,0.000000,0.000000,0.000000,0.000000,0.000000,0.000000,0.000000,1773142207.227301,0.000000
82.000000,9265.893312,8519.412103,-1486.122785,-7034.898643,-5157.173295,2621.077314,-14419.490328,-1408.562232,212.051000,-416.904738,-147.096830,-1657.694776,-1176.819346,-800.170100,-12574.934968,421.822121,0.008000,-0.016000,1.012000,192.000000,0.000000,32.000000,127.500000,64.000000,15.500000,80.000000,0.000000,0.000000,0.000000,1773142207.227365,0.000000
84.000000,9330.445150,8582.913409,-1438.066535,-6976.605293,-5097.874117,2674.945018,-14360.213501,-1347.229045,221.908119,-405.214775,-152.528304,-1670.189401,-1156.792183,-784.881507,-12573.526808,412.814368,0.008000,-0.016000,1.012000,192.000000,0.000000,0.000000,0.000000,0.000000,0.000000,0.000000,0.000000,0.000000,0.000000,1773142207.227435,0.000000
86.000000,9293.385958,8552.604443,-1478.433785,-6954.633529,-5138.598995,2647.295910,-14389.002548,-1371.659502,232.793419,-392.407226,-114.373876,-1603.581202,-1118.861272,-773.504469,-12552.694983,438.988261,0.008000,-0.016000,1.012000,192.000000,0.000000,0.000000,0.000000,0.000000,0.000000,0.000000,0.000000,0.000000,0.000000,1773142207.227476,0.000000
88.000000,9299.219763,8554.526693,-1479.014931,-6977.499363,-5131.446437,2651.766259,-14395.261037,-1375.615761,183.954857,-429.868749,-175.617656,-1654.230255,-1161.441345,-822.745362,-12600.550067,409.394551,0.008000,-0.016000,1.012000,192.000000,0.000000,0.000000,0.000000,0.000000,0.000000,0.000000,0.000000,0.000000,0.000000,1773142207.227497,0.000000
90.000000,9325.706580,8586.601446,-1442.805105,-6935.433380,-5104.400826,2675.436756,-14358.023031,-1343.876284,245.265692,-361.003025,-115.782036,-1596.249830,-1109.630002,-738.859265,-12545.005983,435.054354,0.008000,-0.016000,1.012000,192.000000,0.000000,0.000000,0.000000,0.000000,0.000000,0.000000,0.000000,0.000000,0.000000,1773142207.227515,0.000000
92.000000,9272.777649,8533.717219,-1515.649440,-6983.132003,-5161.330719,2642.065602,-14419.423273,-1408.204604,216.655459,-408.478130,-157.915075,-1644.060212,-1130.662993,-800.795949,-12580.634663,432.416848,0.004000,-0.016000,1.008000,192.000000,0.000000,16.000000,127.500000,64.000000,15.500000,64.000000,0.000000,0.000000,0.000000,1773142207.227530,0.000000
94.000000,9325.751284,8581.438193,-1440.502875,-6964.468296,-5101.137471,2681.471727,-14360.928757,-1349.643034,210.799302,-403.784264,-171.996674,-1653.962034,-1140.989499,-784.993265,-12591.676425,427.410057,0.004000,-0.016000,1.008000,192.000000,0.000000,0.000000,0.000000,0.000000,0.000000,0.000000,0.000000,0.000000,0.000000,1773142207.227548,0.000000
96.000000,9308.719255,8571.357557,-1465.939160,-6993.324398,-5141.325908,2657.242436,-14387.884961,-1366.429194,257.514448,-372.670635,-114.642097,-1603.469444,-1098.565888,-751.823276,-12555.153675,437.267177,0.004000,-0.016000,1.008000,192.000000,0.000000,0.000000,0.000000,0.000000,0.000000,0.000000,0.000000,0.000000,0.000000,1773142207.227561,0.000000
98.000000,9299.420929,8555.912501,-1498.505652,-6969.855067,-5145.930367,2648.346442,-14398.479688,-1382.701264,195.577764,-415.250708,-179.886839,-1647.994119,-1163.475354,-800.818300,-12608.820213,411.316801,0.004000,-0.016000,1.008000,192.000000,0.000000,0.000000,0.000000,0.000000,0.000000,0.000000,0.000000,0.000000,0.000000,1773142207.227574,0.000000
100.000000,9328.791121,8598.179650,-1489.028512,-6953.895921,-5091.816794,2678.811869,-14367.567225,-1354.962749,263.035329,-371.530696,-147.186237,-1604.877604,-1066.357024,-763.580294,-12548.537558,448.487752,0.004000,-0.016000,1.008000,192.000000,0.000000,0.000000,0.000000,0.000000,0.000000,0.000000,0.000000,0.000000,0.000000,1773142207.227592,0.000000
102.000000,9290.949618,8539.439266,-1476.422128,-6990.262209,-5172.752461,2627.916947,-14413.567115,-1398.079264,241.376488,-380.672560,-159.211476,-1647.256511,-1122.951641,-751.242131,-12567.290672,427.320650,0.008000,-0.016000,1.008000,192.000000,0.000000,32.000000,127.500000,64.000000,15.500000,64.000000,0.000000,0.000000,0.000000,1773142207.227603,0.000000
104.000000,9329.841653,8587.808441,-1413.837244,-6943.681174,-5125.612632,2664.573808,-14353.887958,-1340.992909,182.077310,-428.862921,-130.668298,-1653.291482,-1194.141948,-848.941606,-12590.312969,417.441179,0.008000,-0.016000,1.008000,192.000000,0.000000,0.000000,0.000000,0.000000,0.000000,0.000000,0.000000,0.000000,0.000000,1773142207.227615,0.000000
106.000000,9315.447130,8596.838545,-1471.571800,-7018.872442,-5134.285108,2644.837218,-14388.130830,-1364.663406,232.525198,-375.241086,-109.612955,-1596.741569,-1109.227670,-734.970061,-12551.622099,436.753087,0.008000,-0.016000,1.008000,192.000000,0.000000,0.000000,0.000000,0.000000,0.000000,0.000000,0.000000,0.000000,0.000000,1773142207.227628,0.000000
108.000000,9325.348952,8589.462470,-1523.629013,-6947.570377,-5146.332699,2651.989776,-14395.082223,-1365.378662,222.958651,-359.192533,-187.732302,-1641.847389,-1118.704810,-765.971931,-12603.366387,408.053447,0.008000,-0.016000,1.008000,192.000000,0.000000,0.000000,0.000000,0.000000,0.000000,0.000000,0.000000,0.000000,0.000000,1773142207.227640,0.000000
110.000000,9365.760906,8622.632459,-1463.301654,-6960.221465,-5082.853744,2683.617495,-14357.911272,-1332.253377,320.322850,-364.624007,-116.832568,-1592.941772,-1061.752565,-775.918457,-12551.420933,445.604377,0.008000,-0.016000,1.008000,192.000000,0.000000,0.000000,0.000000,0.000000,0.000000,0.000000,0.000000,0.000000,0.000000,1773142207.227651,0.000000
112.000000,9308.562792,8570.239970,-1466.408547,-6978.751061,-5164.079984,2623.804226,-14409.521450,-1382.365988,235.788552,-397.995162,-146.962720,-1632.973746,-1141.637700,-797.689056,-12578.131268,425.040773,0.006000,-0.018000,1.006000,192.000000,0.000000,24.000000,127.500000,56.000000,15.500000,56.000000,0.000000,0.000000,0.000000,1773142207.227664,0.000000
114.000000,9352.327508,8631.796674,-1416.228880,-7006.199003,-5101.517451,2686.299704,-14357.620699,-1335.963766,242.337613,-373.542353,-141.240673,-1636.885302,-1146.935063,-738.591044,-12589.687120,409.707476,0.006000,-0.018000,1.006000,192.000000,0.000000,0.000000,0.000000,0.000000,0.000000,0.000000,0.000000,0.000000,0.000000,1773142207.227679,0.000000
116.000000,9307.445205,8575.805554,-1479.551372,-6923.162272,-5134.508626,2650.291044,-14395.350444,-1379.929647,226.266709,-350.453001,-132.590548,-1589.946638,-1140.430706,-766.463669,-12552.896148,443.548017,0.006000,-0.018000,1.006000,192.000000,0.000000,0.000000,0.000000,0.000000,0.000000,0.000000,0.000000,0.000000,0.000000,1773142207.227691,0.000000
118.000000,9296.537554,8573.279807,-1487.486242,-6985.478936,-5149.171370,2656.460125,-14405.274618,-1391.619610,252.082974,-425.912491,-205.881918,-1663.975616,-1170.359691,-812.776484,-12601.242972,422.962060,0.006000,-0.018000,1.006000,192.000000,0.000000,0.000000,0.000000,0.000000,0.000000,0.000000,0.000000,0.000000,0.000000,1773142207.227703,0.000000
120.000000,9362.944587,8631.461398,-1490.660189,-6938.808493,-5103.998495,2694.838070,-14361.442847,-1337.215464,272.311303,-358.946664,-150.270778,-1594.707560,-1058.578617,-756.427736,-12552.449113,450.097078,0.006000,-0.018000,1.006000,192.000000,0.000000,0.000000,0.000000,0.000000,0.000000,0.000000,0.000000,0.000000,0.000000,1773142207.227715,0.000000
122.000000,9307.512260,8580.052385,-1516.856434,-6990.485727,-5168.460926,2628.699258,-14412.918915,-1383.952961,233.419267,-410.400380,-134.825723,-1628.212825,-1130.730049,-825.338164,-12583.406279,427.745334,0.012000,-0.018000,1.010000,192.000000,0.000000,48.000000,127.500000,56.000000,15.500000,72.000000,0.000000,0.000000,0.000000,1773142207.227727,0.000000
124.000000,9341.151636,8648.716944,-1450.270587,-6990.642189,-5087.368797,2680.644713,-14362.627490,-1347.094935,288.583373,-335.164408,-197.187090,-1637.980537,-1135.334508,-728.845683,-12585.350881,419.631650,0.012000,-0.018000,1.010000,192.000000,0.000000,0.000000,0.000000,0.000000,0.000000,0.000000,0.000000,0.000000,0.000000,1773142207.227748,0.000000
126.000000,9358.429534,8620.263174,-1513.280155,-6946.765714,-5147.629100,2642.713802,-14387.817906,-1356.505019,277.340445,-325.106123,-180.333874,-1610.622002,-1042.373603,-732.444314,-12558.797009,444.710308,0.012000,-0.018000,1.010000,192.000000,0.000000,0.000000,0.000000,0.000000,0.000000,0.000000,0.000000,0.000000,0.000000,1773142207.227761,0.000000
128.000000,9325.058380,8600.973618,-1437.194817,-6965.921159,-5164.549370,2620.674982,-14390.544819,-1363.143487,228.233663,-414.826025,-126.689688,-1609.146787,-1178.003988,-820.309022,-12617.380931,402.577269,0.012000,-0.018000,1.010000,192.000000,0.000000,0.000000,0.000000,0.000000,0.000000,0.000000,0.000000,0.000000,0.000000,1773142207.227773,0.000000
130.000000,9366.386755,8637.049334,-1446.269625,-6949.716145,-5116.783692,2672.195753,-14356.771333,-1338.668327,281.386111,-348.262530,-126.041487,-1608.900918,-1120.917633,-756.807716,-12562.820323,427.477113,0.012000,-0.018000,1.010000,192.000000,0.000000,0.000000,0.000000,0.000000,0.000000,0.000000,0.000000,0.000000,0.000000,1773142207.227786,0.000000
132.000000,9321.929136,8624.912336,-1593.567621,-6974.325415,-5149.931329,2649.642843,-14419.959714,-1396.536994,355.504496,-371.106013,-228.233663,-1608.833862,-1048.743850,-761.859210,-12593.196344,429.041735,0.014000,-0.014000,1.006000,192.000000,0.000000,56.000000,127.500000,72.000000,15.500000,56.000000,0.000000,0.000000,0.000000,1773142207.227797,0.000000
134.000000,9422.713151,8662.887950,-1436.300747,-6996.654808,-5100.578678,2665.825506,-14355.206711,-1311.913289,361.606522,-350.877684,-207.915927,-1634.046630,-1066.111155,-731.885520,-12582.534561,422.939709,0.014000,-0.014000,1.006000,192.000000,0.000000,0.000000,0.000000,0.000000,0.000000,0.000000,0.000000,0.000000,0.000000,1773142207.227809,0.000000
136.000000,9340.704601,8612.015380,-1418.665221,-6950.006717,-5157.776792,2628.453389,-14379.100726,-1343.116324,203.736151,-341.266434,12.427570,-1610.085560,-1142.017679,-777.505431,-12552.180892,426.180712,0.014000,-0.014000,1.006000,192.000000,0.000000,0.000000,0.000000,0.000000,0.000000,0.000000,0.000000,0.000000,0.000000,1773142207.227821,0.000000
138.000000,9308.071054,8621.850147,-1471.392986,-6963.395412,-5132.072286,2666.294893,-14398.457336,-1375.883982,206.172491,-408.545185,-159.233827,-1605.659915,-1180.976770,-834.055344,-12603.902829,410.713304,0.014000,-0.014000,1.006000,192.000000,0.000000,0.000000,0.000000,0.000000,0.000000,0.000000,0.000000,0.000000,0.000000,1773142207.227833,0.000000
140.000000,9409.346808,8668.587645,-1470.074233,-6943.904691,-5089.648675,2694.145166,-14361.129923,-1325.078467,292.092597,-318.020620,-122.621670,-1614.667668,-1049.280292,-693.686389,-12543.284898,440.955215,0.014000,-0.014000,1.006000,192.000000,0.000000,0.000000,0.000000,0.000000,0.000000,0.000000,0.000000,0.000000,0.000000,1773142207.227845,0.000000
142.000000,9311.267353,8604.929877,-1483.842907,-7010.959925,-5138.129608,2691.574716,-14416.048159,-1392.357217,365.428670,-326.558986,-180.244467,-1595.713388,-1050.241417,-753.544361,-12577.348957,434.607319,0.012000,-0.022000,1.004000,192.000000,0.000000,48.000000,127.500000,40.000000,15.500000,48.000000,0.000000,0.000000,0.000000,1773142207.227857,0.000000
144.000000,9416.208794,8669.951102,-1408.137549,-6986.417709,-5087.435852,2713.568832,-14356.883092,-1322.776237,276.424024,-390.887307,-142.581778,-1638.807552,-1138.061421,-740.893273,-12579.830000,421.755066,0.012000,-0.022000,1.004000,192.000000,0.000000,0.000000,0.000000,0.000000,0.000000,0.000000,0.000000,0.000000,0.000000,1773142207.227868,0.000000
146.000000,9353.534502,8646.884101,-1477.852640,-6933.689944,-5141.147094,2635.293023,-14386.476801,-1347.899598,376.157507,-302.016771,-140.480714,-1572.646388,-1087.144147,-754.483134,-12545.430666,446.923130,0.012000,-0.022000,1.004000,192.000000,0.000000,0.000000,0.000000,0.000000,0.000000,0.000000,0.000000,0.000000,0.000000,1773142207.227883,0.000000
148.000000,9350.561720,8647.621709,-1470.856544,-6960.936720,-5125.165597,2712.361838,-14398.077357,-1372.218296,277.116928,-362.411185,-151.142496,-1627.922252,-1155.361671,-787.496661,-12605.333341,407.628764,0.012000,-0.022000,1.004000,192.000000,0.000000,0.000000,0.000000,0.000000,0.000000,0.000000,0.000000,0.000000,0.000000,1773142207.227895,0.000000
150.000000,9422.064951,8688.368939,-1442.916863,-6989.859878,-5086.675893,2696.849727,-14355.184359,-1312.896766,330.805818,-314.936079,-162.251313,-1592.226516,-1006.811977,-715.233471,-12557.612366,447.727793,0.012000,-0.022000,1.004000,192.000000,0.000000,0.000000,0.000000,0.000000,0.000000,0.000000,0.000000,0.000000,0.000000,1773142207.227906,0.000000
152.000000,9341.285746,8625.582889,-1463.256951,-6943.323546,-5160.771926,2610.527290,-14403.620589,-1364.663406,257.603855,-336.706678,-77.761719,-1591.935944,-1125.946775,-707.589174,-12576.343128,418.737581,0.007000,-0.019000,1.004000,192.000000,0.000000,8.000000,127.500000,64.000000,15.500000,48.000000,0.000000,0.000000,0.000000,1773142207.227918,0.000000
154.000000,9389.297293,8676.790735,-1449.912959,-6970.704433,-5096.242439,2760.596902,-14360.660536,-1328.632394,299.088693,-363.752289,-151.209551,-1613.214804,-1102.008057,-821.963051,-12595.051538,426.895967,0.007000,-0.019000,1.004000,192.000000,0.000000,0.000000,0.000000,0.000000,0.000000,0.000000,0.000000,0.000000,0.000000,1773142207.227930,0.000000
156.000000,9383.217619,8656.852979,-1476.645646,-6944.776409,-5136.386172,2670.184096,-14385.962711,-1349.039537,360.488935,-299.200451,-137.329118,-1562.610455,-1058.779783,-671.960494,-12551.331526,452.466363,0.007000,-0.019000,1.004000,192.000000,0.000000,0.000000,0.000000,0.000000,0.000000,0.000000,0.000000,0.000000,0.000000,1773142207.227942,0.000000
158.000000,9319.626906,8626.365200,-1510.732056,-6934.449903,-5119.376495,2645.686584,-14397.295046,-1375.638113,357.046766,-381.365464,-202.953840,-1609.884394,-1128.293708,-832.781295,-12611.569478,427.633575,0.007000,-0.019000,1.004000,192.000000,0.000000,0.000000,0.000000,0.000000,0.000000,0.000000,0.000000,0.000000,0.000000,1773142207.227954,0.000000
160.000000,9401.590753,8676.656625,-1468.531962,-6949.425572,-5091.861497,2708.696152,-14358.850045,-1324.430266,308.655239,-291.757320,-127.494350,-1601.524842,-1025.855664,-699.989581,-12544.871872,455.506200,0.007000,-0.019000,1.004000,192.000000,0.000000,0.000000,0.000000,0.000000,0.000000,0.000000,0.000000,0.000000,0.000000,1773142207.227966,0.000000
162.000000,9384.625779,8639.508026,-1563.236304,-7002.533317,-5124.293879,2728.186873,-14421.122005,-1386.277543,309.035219,-370.413109,-180.088005,-1588.382016,-1016.177358,-760.205181,-12581.014643,450.879389,0.008500,-0.017500,1.005000,192.000000,0.000000,40.000000,127.500000,64.000000,15.500000,56.000000,0.000000,0.000000,0.000000,1773142207.227977,0.000000
164.000000,9400.249648,8677.483639,-1403.600145,-6948.643261,-5088.687550,2672.888657,-14353.709144,-1316.897728,345.490914,-330.425838,-131.361202,-1649.938720,-1079.522202,-743.217855,-12579.137096,426.851264,0.008500,-0.017500,1.005000,192.000000,0.000000,0.000000,0.000000,0.000000,0.000000,0.000000,0.000000,0.000000,0.000000,1773142207.227989,0.000000
166.000000,9356.954319,8638.569252,-1433.015041,-6946.028107,-5111.709846,2658.136506,-14383.012281,-1354.739231,307.336486,-323.496798,-97.163033,-1551.434583,-1112.960412,-748.470515,-12553.723163,440.977566,0.008500,-0.017500,1.005000,192.000000,0.000000,0.000000,0.000000,0.000000,0.000000,0.000000,0.000000,0.000000,0.000000,1773142207.228001,0.000000
168.000000,9361.961110,8629.919127,-1450.561160,-7021.487596,-5127.177254,2661.086936,-14389.941322,-1357.980234,271.216067,-363.640531,-137.060897,-1643.210845,-1152.165371,-768.743547,-12608.529640,415.831854,0.008500,-0.017500,1.005000,192.000000,0.000000,0.000000,0.000000,0.000000,0.000000,0.000000,0.000000,0.000000,0.000000,1773142207.228013,0.000000
170.000000,9407.893945,8672.342738,-1454.316253,-6921.642354,-5101.025713,2719.268527,-14349.037629,-1313.276745,327.117780,-317.640640,-105.097902,-1571.439394,-1063.384242,-722.788360,-12547.621137,437.155418,0.008500,-0.017500,1.005000,192.000000,0.000000,0.000000,0.000000,0.000000,0.000000,0.000000,0.000000,0.000000,0.000000,1773142207.228025,0.000000
172.000000,9354.719145,8628.108636,-1465.022739,-7010.021151,-5160.660167,2658.091802,-14410.884906,-1377.068624,293.366646,-377.766833,-145.532208,-1623.161331,-1087.144147,-774.376187,-12590.022396,422.693839,0.009250,-0.015750,1.005500,192.000000,0.000000,40.000000,127.500000,72.000000,15.500000,56.000000,0.000000,0.000000,0.000000,1773142207.228037,0.000000
174.000000,9394.080567,8669.302901,-1500.584364,-6904.587973,-5082.764337,2679.281256,-14359.364135,-1325.458446,307.604707,-350.207132,-152.081269,-1603.916479,-1085.735987,-764.072032,-12591.966998,425.934842,0.009250,-0.015750,1.005500,192.000000,0.000000,0.000000,0.000000,0.000000,0.000000,0.000000,0.000000,0.000000,0.000000,1773142207.228049,0.000000
176.000000,9368.487819,8644.805389,-1474.097547,-6994.777262,-5127.244309,2714.820530,-14384.196923,-1346.446734,364.244028,-283.643637,-117.369010,-1600.966048,-1015.216233,-723.615375,-12557.522959,454.723889,0.009250,-0.015750,1.005500,192.000000,0.000000,0.000000,0.000000,0.000000,0.000000,0.000000,0.000000,0.000000,0.000000,1773142207.228060,0.000000
178.000000,9358.831866,8610.651923,-1448.527151,-7008.456529,-5121.701076,2628.609851,-14395.551609,-1367.725595,197.902345,-414.177825,-145.778077,-1618.020429,-1185.134195,-768.922361,-12597.800803,408.791054,0.009250,-0.015750,1.005500,192.000000,0.000000,0.000000,0.000000,0.000000,0.000000,0.000000,0.000000,0.000000,0.000000,1773142207.228074,0.000000
180.000000,9360.508246,8639.575081,-1433.707945,-6918.781330,-5083.412538,2729.930309,-14356.234891,-1333.013336,305.078960,-346.116763,-107.623650,-1631.453828,-1089.066397,-747.218817,-12565.971919,443.235093,0.009250,-0.015750,1.005500,192.000000,0.000000,0.000000,0.000000,0.000000,0.000000,0.000000,0.000000,0.000000,0.000000,1773142207.228086,0.000000
182.000000,9313.904859,8589.596580,-1491.688370,-6979.868648,-5160.168428,2634.197788,-14413.991799,-1387.372778,275.149974,-373.609409,-158.071537,-1597.456824,-1131.691174,-778.891239,-12596.079719,439.591758,0.009625,-0.014875,1.003750,192.000000,0.000000,40.000000,127.500000,72.000000,15.500000,40.000000,0.000000,0.000000,0.000000,1773142207.228101,0.000000
184.000000,9388.649093,8656.338889,-1462.832268,-7006.646038,-5059.853799,2724.811760,-14364.169760,-1337.014298,252.507657,-375.621066,-191.465043,-1639.232235,-1119.464769,-780.053530,-12578.667710,426.314822,0.009625,-0.014875,1.003750,192.000000,0.000000,0.000000,0.000000,0.000000,0.000000,0.000000,0.000000,0.000000,0.000000,1773142207.228118,0.000000
186.000000,9373.852238,8634.098903,-1459.993596,-6969.273921,-5152.121800,2671.145221,-14383.258150,-1350.537103,352.598769,-311.650373,-92.111539,-1598.172080,-1017.563166,-679.224811,-12544.626003,436.887197,0.009625,-0.014875,1.003750,192.000000,0.000000,0.000000,0.000000,0.000000,0.000000,0.000000,0.000000,0.000000,0.000000,1773142207.228136,0.000000
188.000000,9347.700697,8601.666522,-1466.877933,-6956.578130,-5148.254949,2657.778878,-14394.679891,-1368.373796,261.247189,-369.653150,-158.339758,-1652.062136,-1160.748441,-802.114702,-12610.027207,420.548072,0.009625,-0.014875,1.003750,192.000000,0.000000,0.000000,0.000000,0.000000,0.000000,0.000000,0.000000,0.000000,0.000000,1773142207.228155,0.000000
190.000000,9373.338148,8655.958910,-1452.528113,-6921.016505,-5104.222012,2702.035332,-14356.570167,-1325.212577,308.543480,-364.333435,-120.274737,-1572.624036,-1064.948865,-729.918567,-12563.066192,436.417810,0.009625,-0.014875,1.003750,192.000000,0.000000,0.000000,0.000000,0.000000,0.000000,0.000000,0.000000,0.000000,0.000000,1773142207.228168,0.000000
192.000000,9339.184682,8618.698551,-1515.180053,-6997.772395,-5152.770001,2673.760375,-14414.774110,-1377.761528,283.442471,-326.223710,-152.841229,-1616.299345,-1063.719519,-761.211009,-12592.279922,442.005747,0.009813,-0.015437,1.002875,192.000000,0.000000,40.000000,127.500000,64.000000,15.500000,40.000000,0.000000,0.000000,0.000000,1773142207.228181,0.000000
194.000000,9395.667541,8647.599357,-1438.558273,-6949.403220,-5105.004323,2696.000361,-14361.733420,-1329.548815,275.418195,-355.303330,-136.703269,-1610.465540,-1077.555248,-767.156573,-12598.270190,428.952328,0.009813,-0.015437,1.002875,192.000000,0.000000,0.000000,0.000000,0.000000,0.000000,0.000000,0.000000,0.000000,0.000000,1773142207.708990,0.000000
196.000000,9357.311947,8620.486691,-1457.534904,-6974.705395,-5143.181103,2637.058811,-14382.788763,-1347.072583,323.072114,-302.441454,-87.596487,-1596.786272,-1060.947902,-700.526023,-12548.962241,428.684107,0.009813,-0.015437,1.002875,192.000000,0.000000,0.000000,0.000000,0.000000,0.000000,0.000000,0.000000,0.000000,0.000000,1773142207.709065,0.000000
198.000000,9331.316868,8605.265153,-1478.634951,-6978.192267,-5151.697117,2636.857645,-14398.390281,-1365.892752,241.041212,-416.368296,-179.015121,-1612.968935,-1157.485087,-830.054382,-12607.926143,407.986392,0.009813,-0.015437,1.002875,192.000000,0.000000,0.000000,0.000000,0.000000,0.000000,0.000000,0.000000,0.000000,0.000000,1773142207.709123,0.000000
200.000000,9373.159334,8638.345735,-1457.780773,-6950.118476,-5095.281314,2670.117041,-14358.604176,-1326.531330,272.423061,-355.526847,-111.266984,-1589.343141,-1093.000304,-745.497733,-12557.813532,436.551921,0.009813,-0.015437,1.002875,192.000000,0.000000,0.000000,0.000000,0.000000,0.000000,0.000000,0.000000,0.000000,0.000000,1773142207.709180,0.000000
202.000000,9323.963144,8599.431348,-1545.846647,-6965.451773,-5162.135382,2651.207465,-14415.422310,-1381.695435,305.525995,-354.476315,-152.885932,-1617.193415,-1014.702143,-757.344157,-12580.299387,423.140874,0.008906,-0.015719,1.006438,192.000000,0.000000,32.000000,127.500000,64.000000,15.500000,72.000000,0.000000,0.000000,0.000000,1773142207.709236,0.000000
204.000000,9360.441191,8619.525566,-1414.507796,-6959.170933,-5126.953736,2673.380396,-14357.844217,-1332.611004,289.298628,-369.273170,-178.389272,-1611.583127,-1118.458941,-807.479120,-12610.094262,429.756991,0.008906,-0.015719,1.006438,192.000000,0.000000,0.000000,0.000000,0.000000,0.000000,0.000000,0.000000,0.000000,0.000000,1773142207.709266,0.000000
206.000000,9344.772618,8614.921107,-1486.972152,-6997.303009,-5125.523225,2666.429003,-14385.985063,-1354.582769,263.415308,-306.934155,-85.540126,-1619.897976,-1057.572789,-667.154869,-12549.163407,435.188465,0.008906,-0.015719,1.006438,192.000000,0.000000,0.000000,0.000000,0.000000,0.000000,0.000000,0.000000,0.000000,0.000000,1773142207.709290,0.000000
208.000000,9329.864005,8592.524659,-1501.031399,-6968.245741,-5148.165542,2659.388204,-14392.467069,-1359.321339,276.893410,-374.347016,-177.182278,-1614.779426,-1082.942019,-758.305282,-12615.659847,419.452836,0.008906,-0.015719,1.006438,192.000000,0.000000,0.000000,0.000000,0.000000,0.000000,0.000000,0.000000,0.000000,0.000000,1773142207.709313,0.000000
210.000000,9359.502418,8625.493482,-1404.360104,-6949.850255,-5109.295858,2688.691341,-14354.625565,-1329.660574,295.020675,-342.518132,-87.395321,-1608.275069,-1086.540650,-727.817503,-12554.058439,441.446953,0.008906,-0.015719,1.006438,192.000000,0.000000,0.000000,0.000000,0.000000,0.000000,0.000000,0.000000,0.000000,0.000000,1773142207.709346,0.000000
212.000000,9303.846574,8565.657862,-1497.008085,-6961.204941,-5163.632949,2662.673910,-14410.527278,-1384.824679,300.742722,-375.375196,-161.580761,-1595.758092,-1093.715560,-817.135074,-12593.464564,432.752124,0.007453,-0.015859,1.006219,192.000000,0.000000,24.000000,127.500000,64.000000,15.500000,56.000000,0.000000,0.000000,0.000000,1773142207.709370,0.000000
214.000000,9368.554874,8637.161092,-1411.512662,-6985.948323,-5104.177309,2679.370663,-14352.725667,-1322.239795,281.162594,-369.273170,-140.659528,-1633.823113,-1077.868173,-722.654250,-12595.185649,412.926127,0.007453,-0.015859,1.006219,192.000000,0.000000,0.000000,0.000000,0.000000,0.000000,0.000000,0.000000,0.000000,0.000000,1773142207.709393,0.000000
216.000000,9339.832883,8599.453700,-1435.518436,-6996.855974,-5147.472638,2660.818715,-14380.687699,-1350.581807,294.417178,-246.562093,-69.022187,-1617.685153,-1073.978969,-676.296732,-12550.728029,422.380915,0.007453,-0.015859,1.006219,192.000000,0.000000,0.000000,0.000000,0.000000,0.000000,0.000000,0.000000,0.000000,0.000000,1773142207.709419,0.000000
218.000000,9313.413121,8576.967845,-1493.856489,-6921.620002,-5156.167466,2650.849837,-14396.132755,-1369.334921,267.729195,-407.829929,-161.424298,-1636.170046,-1100.622249,-873.617932,-12622.477129,422.805598,0.007453,-0.015859,1.006219,192.000000,0.000000,0.000000,0.000000,0.000000,0.000000,0.000000,0.000000,0.000000,0.000000,1773142207.709446,0.000000
220.000000,9346.918386,8609.869612,-1426.175407,-6956.064040,-5106.188966,2675.324997,-14352.882129,-1326.710144,295.735931,-357.426746,-115.022077,-1563.884504,-1089.379321,-719.726171,-12554.013736,430.695764,0.007453,-0.015859,1.006219,192.000000,0.000000,0.000000,0.000000,0.000000,0.000000,0.000000,0.000000,0.000000,0.000000,1773142207.709472,0.000000
222.000000,9314.038970,8576.990196,-1505.233527,-6982.461450,-5156.860370,2648.391145,-14405.744005,-1370.184287,309.124626,-361.025376,-138.603167,-1596.719217,-1075.230667,-747.598797,-12588.658939,421.553900,0.007453,-0.015859,1.006219,192.000000,0.000000,0.000000,0.000000,0.000000,0.000000,0.000000,0.000000,0.000000,0.000000,1773142207.709498,0.000000
224.000000,9337.173025,8605.332208,-1443.118029,-6928.280822,-5124.897376,2689.674817,-14355.787856,-1331.359307,281.676684,-337.556045,-139.564292,-1620.948508,-1079.611609,-784.389768,-12612.016512,431.232206,0.006000,-0.010000,1.010000,192.000000,0.000000,24.000000,127.500000,88.000000,15.500000,72.000000,0.000000,0.000000,0.000000,1773142207.709525,0.000000
226.000000,9299.599743,8570.239970,-1458.406622,-6973.140773,-5128.652469,2654.828448,-14385.403917,-1366.205676,284.984742,-331.163446,-109.657658,-1586.303304,-1076.728234,-701.196575,-12540.312116,438.027136,0.006000,-0.010000,1.010000,192.000000,0.000000,0.000000,0.000000,0.000000,0.000000,0.000000,0.000000,0.000000,0.000000,1773142207.709551,0.000000
228.000000,9298.951542,8559.622891,-1467.034396,-6996.855974,-5142.264681,2648.704070,-14396.333921,-1375.056967,264.957579,-361.673577,-175.349435,-1651.682157,-1131.154732,-754.796059,-12599.253666,409.327496,0.006000,-0.010000,1.010000,192.000000,0.000000,0.000000,0.000000,0.000000,0.000000,0.000000,0.000000,0.000000,0.000000,1773142207.709577,0.000000
230.000000,9352.819246,8615.524604,-1503.579498,-6930.381886,-5087.391148,2705.142224,-14357.307775,-1328.073600,331.744591,-356.555028,-108.785940,-1596.652162,-932.447723,-738.300471,-12578.623006,445.336157,0.006000,-0.010000,1.010000,192.000000,0.000000,0.000000,0.000000,0.000000,0.000000,0.000000,0.000000,0.000000,0.000000,1773142207.709604,0.000000
232.000000,9266.005071,8530.386809,-1464.016910,-6971.553799,-5157.620330,2631.292061,-14412.404825,-1397.475767,262.565942,-329.621175,-139.921920,-1604.967011,-1122.973993,-772.141012,-12581.349919,439.077668,0.006000,-0.010000,1.010000,192.000000,0.000000,0.000000,0.000000,0.000000,0.000000,0.000000,0.000000,0.000000,0.000000,1773142207.709629,0.000000
234.000000,9323.717275,8582.376967,-1455.232675,-6968.446907,-5096.309495,2702.996457,-14367.075487,-1349.330109,260.800154,-384.293542,-147.096830,-1654.230255,-1110.211147,-766.016634,-12579.651186,418.536415,0.010000,-0.014000,1.012000,192.000000,0.000000,40.000000,127.500000,72.000000,15.500000,80.000000,0.000000,0.000000,0.000000,1773142207.709655,0.000000
236.000000,9307.199336,8578.197191,-1466.430898,-6989.211677,-5125.992611,2680.085919,-14385.292159,-1359.053118,318.333545,-300.653315,-101.231051,-1586.929153,-1023.374620,-645.741897,-12553.298480,451.438183,0.010000,-0.014000,1.012000,192.000000,0.000000,0.000000,0.000000,0.000000,0.000000,0.000000,0.000000,0.000000,0.000000,1773142207.709681,0.000000
238.000000,9270.631882,8531.526748,-1474.186954,-6955.460543,-5153.641719,2659.276445,-14399.306703,-1387.149261,247.076183,-412.434389,-183.664284,-1658.857066,-1102.611554,-813.111760,-12609.736634,417.172959,0.010000,-0.014000,1.012000,192.000000,0.000000,0.000000,0.000000,0.000000,0.000000,0.000000,0.000000,0.000000,0.000000,1773142207.709707,0.000000
240.000000,9321.571508,8589.440118,-1432.947985,-6947.436267,-5097.583544,2688.892506,-14357.173664,-1342.915159,283.375416,-336.840789,-120.297089,-1607.246889,-1077.510545,-751.443297,-12560.920425,432.685069,0.010000,-0.014000,1.012000,192.000000,0.000000,0.000000,0.000000,0.000000,0.000000,0.000000,0.000000,0.000000,0.000000,1773142207.709733,0.000000
242.000000,9260.461838,8516.394617,-1494.348227,-6974.571285,-5157.329757,2640.635090,-14414.036502,-1399.219203,273.339483,-366.345092,-139.497237,-1633.733706,-1072.771975,-767.223628,-12588.055442,423.632613,0.010000,-0.014000,1.012000,192.000000,0.000000,0.000000,0.000000,0.000000,0.000000,0.000000,0.000000,0.000000,0.000000,1773142207.709762,0.000000
244.000000,9309.881545,8568.720051,-1429.729334,-6973.073718,-5090.967428,2689.160727,-14363.633318,-1350.559455,253.357023,-403.761912,-163.391252,-1643.434363,-1120.157673,-787.608419,-12589.508306,426.985374,0.016000,-0.018000,1.016000,192.000000,0.000000,64.000000,127.500000,56.000000,15.500000,96.000000,0.000000,0.000000,0.000000,1773142207.709789,0.000000
246.000000,9275.303397,8539.908652,-1469.515439,-6938.026182,-5126.573757,2665.266712,-14385.426269,-1373.671159,285.320018,-318.288841,-111.401094,-1594.394635,-1074.001321,-735.327689,-12542.770808,437.021308,0.016000,-0.018000,1.016000,192.000000,0.000000,0.000000,0.000000,0.000000,0.000000,0.000000,0.000000,0.000000,0.000000,1773142207.709815,0.000000
248.000000,9265.669795,8524.061265,-1461.066480,-6987.110613,-5133.301632,2663.277407,-14397.451508,-1387.350427,258.944960,-396.631705,-173.427185,-1664.221485,-1125.745609,-796.616172,-12598.404300,416.837682,0.016000,-0.018000,1.016000,192.000000,0.000000,0.000000,0.000000,0.000000,0.000000,0.000000,0.000000,0.000000,0.000000,1773142207.709842,0.000000
250.000000,9304.427720,8560.785182,-1435.227863,-6946.184569,-5086.564134,2705.924536,-14359.833522,-1350.805324,287.845765,-342.272263,-116.385533,-1612.611307,-1071.497926,-698.268497,-12542.927270,443.950348,0.016000,-0.018000,1.016000,192.000000,0.000000,0.000000,0.000000,0.000000,0.000000,0.000000,0.000000,0.000000,0.000000,1773142207.709868,0.000000
252.000000,9253.421039,8512.147786,-1493.834137,-6983.355520,-5152.971167,2648.592311,-14415.556421,-1400.068569,263.661178,-373.855278,-149.510819,-1634.851293,-1083.992551,-787.139033,-12578.801820,436.216645,0.016000,-0.018000,1.016000,192.000000,0.000000,0.000000,0.000000,0.000000,0.000000,0.000000,0.000000,0.000000,0.000000,1773142207.709895,0.000000
254.000000,9295.554077,8558.617062,-1446.627253,-6957.203979,-5096.354198,2702.080035,-14362.895711,-1352.928740,256.620378,-389.210926,-167.012235,-1644.484895,-1095.347237,-764.273198,-12598.761928,428.035906,0.016000,-0.016000,1.008000,192.000000,0.000000,64.000000,127.500000,64.000000,15.500000,64.000000,0.000000,0.000000,0.000000,1773142207.709921,0.000000
0.000000,9269.491943,8531.973783,-1467.056747,-6979.265151,-5113.609745,2672.218105,-14386.096822,-1376.867458,281.252000,-332.303385,-114.463283,-1611.247851,-1046.575731,-715.233471,-12545.810645,444.643252,0.016000,-0.016000,1.008000,192.000000,0.000000,0.000000,0.000000,0.000000,0.000000,0.000000,0.000000,0.000000,0.000000,1773142207.709947,0.000000
2.000000,9248.436600,8509.666742,-1469.984826,-6983.020244,-5134.061591,2649.978119,-14399.999607,-1392.357217,226.713744,-392.206060,-180.467985,-1670.055290,-1140.408354,-792.190527,-12605.847431,403.381932,0.016000,-0.016000,1.008000,192.000000,0.000000,0.000000,0.000000,0.000000,0.000000,0.000000,0.000000,0.000000,0.000000,1773142207.709973,0.000000
4.000000,9302.840746,8557.767696,-1454.070384,-6971.754965,-5078.897486,2718.866196,-14361.465199,-1349.575978,294.394826,-367.663845,-133.484618,-1618.892147,-1040.205483,-717.826273,-12550.705677,439.301186,0.016000,-0.016000,1.008000,192.000000,0.000000,0.000000,0.000000,0.000000,0.000000,0.000000,0.000000,0.000000,0.000000,1773142207.710000,0.000000
6.000000,9241.239338,8501.530707,-1478.724358,-6957.338090,-5157.843847,2637.751715,-14409.588505,-1394.681799,265.114041,-364.445193,-143.229978,-1624.636546,-1104.444397,-793.553983,-12579.874704,426.828912,0.016000,-0.016000,1.008000,192.000000,0.000000,0.000000,0.000000,0.000000,0.000000,0.000000,0.000000,0.000000,0.000000,1773142207.710027,0.000000
8.000000,9283.305321,8541.048591,-1436.144285,-6946.184569,-5101.562154,2672.598085,-14360.951109,-1354.359252,243.254035,-391.669618,-152.863580,-1643.322604,-1117.475464,-771.917495,-12599.097204,405.348886,0.014000,-0.020000,1.006000,192.000000,0.000000,56.000000,127.500000,48.000000,15.500000,56.000000,0.000000,0.000000,0.000000,1773142207.710052,0.000000
10.000000,9254.024536,8510.493757,-1470.811840,-6982.483802,-5129.345373,2677.917800,-14389.293121,-1382.902429,271.037253,-364.691063,-127.024964,-1621.730819,-1078.650484,-753.030271,-12554.214901,443.548017,0.014000,-0.020000,1.006000,192.000000,0.000000,0.000000,0.000000,0.000000,0.000000,0.000000,0.000000,0.000000,0.000000,1773142207.710079,0.000000
12.000000,9246.760219,8498.200297,-1482.010064,-7023.409846,-5135.782675,2666.116079,-14411.264886,-1406.751741,240.862398,-414.021363,-190.079235,-1678.526602,-1121.185854,-749.275178,-12599.611294,419.408133,0.014000,-0.020000,1.006000,192.000000,0.000000,0.000000,0.000000,0.000000,0.000000,0.000000,0.000000,0.000000,0.000000,1773142207.710106,0.000000
14.000000,9282.947693,8542.657917,-1435.496084,-6931.141845,-5099.103463,2696.492099,-14361.375792,-1351.989967,262.275369,-357.091469,-135.362164,-1632.884339,-1092.106234,-755.779535,-12556.494779,449.203008,0.014000,-0.020000,1.006000,192.000000,0.000000,0.000000,0.000000,0.000000,0.000000,0.000000,0.000000,0.000000,0.000000,1773142207.710132,0.000000
16.000000,9229.482320,8481.458841,-1498.371541,-6988.049387,-5145.192760,2663.970311,-14418.618610,-1411.132683,269.584390,-381.633685,-147.588569,-1629.419819,-1086.361836,-766.709538,-12591.855239,433.199159,0.014000,-0.020000,1.006000,192.000000,0.000000,0.000000,0.000000,0.000000,0.000000,0.000000,0.000000,0.000000,0.000000,1773142207.710158,0.000000
18.000000,9266.787382,8505.330504,-1446.694308,-6940.462523,-5094.923686,2704.896355,-14366.159066,-1369.759604,247.053831,-414.446046,-175.550601,-1677.990160,-1106.143130,-800.818300,-12577.728936,427.678278,0.014000,-0.014000,1.008000,192.000000,0.000000,56.000000,127.500000,72.000000,15.500000,64.000000,0.000000,0.000000,0.000000,1773142207.710188,0.000000
20.000000,9257.176132,8504.369379,-1454.584474,-6998.934686,-5101.383341,2684.220992,-14388.577865,-1383.260057,271.484288,-380.985484,-120.408847,-1623.474255,-1069.106289,-748.805791,-12546.905881,440.463476,0.014000,-0.014000,1.008000,192.000000,0.000000,0.000000,0.000000,0.000000,0.000000,0.000000,0.000000,0.000000,0.000000,1773142207.710214,0.000000
22.000000,9244.636803,8491.584181,-1487.016855,-6980.941532,-5124.830320,2656.326015,-14402.704168,-1395.039427,239.700108,-426.113656,-175.908229,-1682.169936,-1125.387982,-783.450995,-12597.599637,411.674429,0.014000,-0.014000,1.008000,192.000000,0.000000,0.000000,0.000000,0.000000,0.000000,0.000000,0.000000,0.000000,0.000000,1773142207.710240,0.000000
24.000000,9278.879676,8524.731818,-1424.968413,-6976.024148,-5084.083090,2701.767111,-14359.654708,-1352.258188,284.515355,-363.439365,-125.102714,-1634.337203,-1058.310396,-731.527893,-12555.198378,444.531494,0.014000,-0.014000,1.008000,192.000000,0.000000,0.000000,0.000000,0.000000,0.000000,0.000000,0.000000,0.000000,0.000000,1773142207.710266,0.000000
26.000000,9230.309335,8478.016672,-1493.387102,-6983.511982,-5146.176236,2649.396974,-14414.349427,-1404.851843,261.291893,-380.270228,-142.648833,-1630.425648,-1083.791385,-733.226625,-12568.967053,425.532511,0.014000,-0.014000,1.008000,192.000000,0.000000,0.000000,0.000000,0.000000,0.000000,0.000000,0.000000,0.000000,0.000000,1773142207.710292,0.000000
28.000000,9258.025498,8496.725082,-1440.860503,-6941.401296,-5081.579695,2691.909992,-14362.918063,-1364.439889,250.317186,-422.671488,-167.571028,-1671.888134,-1118.525996,-826.634565,-12597.040844,429.488770,0.012000,-0.014000,1.006000,192.000000,0.000000,48.000000,127.500000,72.000000,15.500000,56.000000,0.000000,0.000000,0.000000,1773142207.710318,0.000000
30.000000,9263.032289,8502.760053,-1446.046108,-6983.981369,-5108.491195,2699.867213,-14382.051156,-1374.051139,288.404559,-389.546202,-114.351525,-1627.944604,-1074.068376,-730.276195,-12546.481198,431.411020,0.012000,-0.014000,1.006000,192.000000,0.000000,0.000000,0.000000,0.000000,0.000000,0.000000,0.000000,0.000000,0.000000,1773142207.710343,0.000000
32.000000,9241.194635,8483.336387,-1470.856544,-6977.722881,-5134.575681,2656.571884,-14401.541877,-1395.329999,249.467820,-405.415941,-169.515630,-1670.345863,-1115.284993,-775.918457,-12600.751233,424.392572,0.012000,-0.014000,1.006000,192.000000,0.000000,0.000000,0.000000,0.000000,0.000000,0.000000,0.000000,0.000000,0.000000,1773142207.710369,0.000000
34.000000,9281.628940,8526.564661,-1428.254119,-6961.048479,-5085.871230,2714.820530,-14362.672193,-1360.215409,282.257829,-358.186705,-123.314574,-1629.486874,-1071.520277,-739.954500,-12543.977802,445.984357,0.012000,-0.014000,1.006000,192.000000,0.000000,0.000000,0.000000,0.000000,0.000000,0.000000,0.000000,0.000000,0.000000,1773142207.710395,0.000000
36.000000,9234.377353,8471.981701,-1479.037282,-6999.381721,-5134.665088,2673.827430,-14418.797424,-1410.685648,264.443489,-405.751217,-147.365051,-1654.006738,-1093.335580,-792.883431,-12567.603596,435.590796,0.012000,-0.014000,1.006000,192.000000,0.000000,0.000000,0.000000,0.000000,0.000000,0.000000,0.000000,0.000000,0.000000,1773142207.710417,0.000000
38.000000,9278.097365,8512.974800,-1449.220055,-6948.620909,-5081.602047,2711.132492,-14369.198903,-1370.586618,263.661178,-409.238089,-161.893685,-1669.630607,-1095.369589,-764.496716,-12583.652149,432.372145,0.010000,-0.012000,1.005000,192.000000,0.000000,32.000000,127.500000,88.000000,15.500000,48.000000,0.000000,0.000000,0.000000,1773142207.710431,0.000000
40.000000,9266.474458,8496.076881,-1455.880875,-6962.054308,-5100.176346,2677.135489,-14383.615778,-1377.292142,296.317076,-370.703682,-127.360240,-1629.933909,-1039.490228,-734.187750,-12547.665840,455.148572,0.010000,-0.012000,1.005000,192.000000,0.000000,0.000000,0.000000,0.000000,0.000000,0.000000,0.000000,0.000000,0.000000,1773142207.710444,0.000000
42.000000,9247.274309,8480.989454,-1463.189896,-6999.113500,-5135.425047,2669.178268,-14404.134679,-1400.448549,252.932340,-429.555825,-161.938389,-1671.329340,-1108.110083,-800.974763,-12602.159393,414.423694,0.010000,-0.012000,1.005000,192.000000,0.000000,0.000000,0.000000,0.000000,0.000000,0.000000,0.000000,0.000000,0.000000,1773142207.710457,0.000000
44.000000,9293.005978,8525.670591,-1420.833340,-6982.975541,-5095.102500,2702.258849,-14360.235853,-1353.174609,284.180079,-365.249856,-120.677068,-1638.941662,-1090.720426,-712.528910,-12548.090523,444.687956,0.010000,-0.012000,1.005000,192.000000,0.000000,0.000000,0.000000,0.000000,0.000000,0.000000,0.000000,0.000000,0.000000,1773142207.710469,0.000000
46.000000,9238.087742,8470.260617,-1484.669922,-6992.832660,-5150.780696,2650.626320,-14418.797424,-1411.311497,270.478460,-411.115636,-146.582740,-1650.318700,-1095.682513,-796.325600,-12583.316873,437.557749,0.010000,-0.012000,1.005000,192.000000,0.000000,0.000000,0.000000,0.000000,0.000000,0.000000,0.000000,0.000000,0.000000,1773142207.710482,0.000000
48.000000,9282.523010,8507.923306,-1440.659337,-6932.393543,-5099.036407,2688.847803,-14366.024955,-1366.160973,259.347291,-397.905755,-161.044319,-1669.742366,-1097.202432,-765.547248,-12591.832887,423.140874,0.010000,-0.011000,1.004500,192.000000,0.000000,40.000000,127.500000,88.000000,15.500000,48.000000,0.000000,0.000000,0.000000,1773142207.710494,0.000000
50.000000,9266.697975,8496.166288,-1459.323044,-6994.374930,-5126.260832,2666.607817,-14390.410708,-1382.701264,296.071207,-404.499519,-120.408847,-1631.051496,-1064.054795,-767.044814,-12549.677497,444.844418,0.010000,-0.011000,1.004500,192.000000,0.000000,0.000000,0.000000,0.000000,0.000000,0.000000,0.000000,0.000000,0.000000,1773142207.710508,0.000000
52.000000,9251.699954,8481.101213,-1478.031454,-6996.028959,-5126.998440,2665.020843,-14406.571019,-1401.610840,259.660215,-401.996124,-175.662360,-1674.145660,-1116.715505,-761.725099,-12600.304198,410.243918,0.010000,-0.011000,1.004500,192.000000,0.000000,0.000000,0.000000,0.000000,0.000000,0.000000,0.000000,0.000000,0.000000,1773142207.710521,0.000000
54.000000,9295.062339,8521.557870,-1419.447532,-6961.428459,-5083.725462,2699.107253,-14361.755772,-1356.192095,286.839937,-387.668656,-126.622632,-1631.632642,-1065.395899,-719.815578,-12552.069134,431.008688,0.010000,-0.011000,1.004500,192.000000,0.000000,0.000000,0.000000,0.000000,0.000000,0.000000,0.000000,0.000000,0.000000,1773142207.710533,0.000000
56.000000,9259.143085,8490.041910,-1484.401701,-7035.010402,-5137.861387,2676.844916,-14424.228898,-1410.529186,275.507602,-401.526737,-147.409755,-1661.695738,-1077.935228,-793.039893,-12582.378099,429.756991,0.010000,-0.011000,1.004500,192.000000,0.000000,0.000000,0.000000,0.000000,0.000000,0.000000,0.000000,0.000000,0.000000,1773142207.710545,0.000000
58.000000,9296.939885,8522.831920,-1429.863445,-6929.487816,-5091.839146,2691.842936,-14369.712993,-1364.283426,284.828280,-404.566575,-157.244522,-1670.189401,-1114.793255,-769.212934,-12592.056405,418.536415,0.009000,-0.012500,1.003250,192.000000,0.000000,32.000000,127.500000,72.000000,15.500000,40.000000,0.000000,0.000000,0.000000,1773142208.189795,0.000000
60.000000,9286.300455,8510.516108,-1454.517419,-6971.732613,-5120.985820,2687.305532,-14393.808173,-1381.337807,292.047893,-391.647266,-123.068705,-1617.551043,-1082.316170,-802.584088,-12546.324735,448.845380,0.009000,-0.012500,1.003250,192.000000,0.000000,0.000000,0.000000,0.000000,0.000000,0.000000,0.000000,0.000000,0.000000,1773142208.189893,0.000000
62.000000,9271.213027,8498.379111,-1469.180163,-6998.152375,-5139.694231,2669.670006,-14412.561287,-1401.722598,267.975064,-422.872653,-172.711929,-1673.698625,-1111.328734,-777.907762,-12595.967960,418.916395,0.009000,-0.012500,1.003250,192.000000,0.000000,0.000000,0.000000,0.000000,0.000000,0.000000,0.000000,0.000000,0.000000,1773142208.189978,0.000000
64.000000,9322.845557,8546.725934,-1424.342564,-6951.683098,-5095.504832,2725.750533,-14361.733420,-1351.699394,309.348143,-372.648284,-119.917109,-1622.177854,-1064.904161,-726.655212,-12560.562797,452.242846,0.009000,-0.012500,1.003250,192.000000,0.000000,0.000000,0.000000,0.000000,0.000000,0.000000,0.000000,0.000000,0.000000,1773142208.190063,0.000000
66.000000,9287.909780,8508.191527,-1484.647570,-7011.630477,-5153.552312,2642.020898,-14418.998589,-1398.503947,307.023562,-376.023397,-134.401039,-1648.977595,-1069.553324,-754.751355,-12587.161373,429.824046,0.009000,-0.012500,1.003250,192.000000,0.000000,0.000000,0.000000,0.000000,0.000000,0.000000,0.000000,0.000000,0.000000,1773142208.190122,0.000000
68.000000,9329.618136,8549.475199,-1427.024773,-6949.492627,-5108.290030,2674.855611,-14369.087144,-1356.616778,291.265582,-407.293487,-146.716851,-1651.279825,-1098.498833,-784.769748,-12592.324626,412.143816,0.009500,-0.014250,1.000625,192.000000,0.000000,40.000000,127.500000,64.000000,15.500000,24.000000,0.000000,0.000000,0.000000,1773142208.190198,0.000000
70.000000,9310.708560,8531.146768,-1467.146154,-6983.713148,-5114.436759,2664.059718,-14393.718766,-1379.504964,327.028373,-353.202266,-113.032772,-1621.037915,-1045.078164,-734.746544,-12548.604613,435.859017,0.009500,-0.014250,1.000625,192.000000,0.000000,0.000000,0.000000,0.000000,0.000000,0.000000,0.000000,0.000000,0.000000,1773142208.190276,0.000000
72.000000,9286.501621,8509.040893,-1473.874029,-6978.661654,-5144.790428,2653.777916,-14410.706092,-1399.085092,262.163611,-435.523741,-168.465098,-1677.029035,-1134.149865,-813.961126,-12606.585038,416.256537,0.009500,-0.014250,1.000625,192.000000,0.000000,0.000000,0.000000,0.000000,0.000000,0.000000,0.000000,0.000000,0.000000,1773142208.190343,0.000000
74.000000,9341.173988,8556.113667,-1417.927613,-6987.758814,-5094.119024,2701.588297,-14364.750906,-1353.085202,310.801007,-357.829077,-116.743161,-1629.419819,-1081.198583,-720.150855,-12556.785352,435.635499,0.009500,-0.014250,1.000625,192.000000,0.000000,0.000000,0.000000,0.000000,0.000000,0.000000,0.000000,0.000000,0.000000,1773142208.190371,0.000000
76.000000,9300.180888,8518.629792,-1480.087814,-6965.965863,-5157.955606,2639.830427,-14418.506851,-1402.661372,288.516317,-409.126331,-146.694499,-1649.111706,-1106.031371,-808.060266,-12579.159448,433.489732,0.009500,-0.014250,1.000625,192.000000,0.000000,0.000000,0.000000,0.000000,0.000000,0.000000,0.000000,0.000000,0.000000,1773142208.190383,0.000000
78.000000,9357.781334,8579.761813,-1427.807084,-6968.804535,-5088.531087,2686.612628,-14369.981214,-1350.604159,296.518242,-378.884420,-146.694499,-1644.261377,-1091.614496,-760.786326,-12594.448041,420.369258,0.006750,-0.015125,0.997312,192.000000,0.000000,16.000000,127.500000,64.000000,15.500000,8.000000,0.000000,0.000000,0.000000,1773142208.190397,0.000000
80.000000,9344.325583,8563.310929,-1451.745802,-6953.672404,-5127.087847,2673.670968,-14388.063775,-1364.529296,325.374344,-351.548237,-101.074588,-1599.580240,-1052.141315,-711.120750,-12549.945718,436.216645,0.006750,-0.015125,0.997312,192.000000,0.000000,0.000000,0.000000,0.000000,0.000000,0.000000,0.000000,0.000000,0.000000,1773142208.190411,0.000000
82.000000,9336.636583,8553.029126,-1461.558218,-6994.889020,-5134.016887,2676.263771,-14408.873249,-1387.238668,299.043989,-398.263383,-156.015176,-1674.123308,-1103.237403,-806.339181,-12604.796899,428.170017,0.006750,-0.015125,0.997312,192.000000,0.000000,0.000000,0.000000,0.000000,0.000000,0.000000,0.000000,0.000000,0.000000,1773142208.190432,0.000000
84.000000,9376.646206,8598.045540,-1425.661317,-6932.885281,-5105.518413,2707.019771,-14362.716897,-1340.188246,322.289803,-360.310121,-106.237841,-1612.879528,-1073.688397,-744.871884,-12560.965128,445.067936,0.006750,-0.015125,0.997312,192.000000,0.000000,0.000000,0.000000,0.000000,0.000000,0.000000,0.000000,0.000000,0.000000,1773142208.190444,0.000000
86.000000,9345.957261,8573.235103,-1475.349245,-7009.328247,-5158.045013,2647.899407,-14418.260982,-1388.065682,301.815605,-364.400490,-127.986089,-1618.556871,-1102.164519,-732.064334,-12581.685195,429.578177,0.006750,-0.015125,0.997312,192.000000,0.000000,0.000000,0.000000,0.000000,0.000000,0.000000,0.000000,0.000000,0.000000,1773142208.190456,0.000000
88.000000,9408.408035,8632.087246,-1430.913977,-6955.371136,-5117.409541,2676.800212,-14368.103667,-1339.495342,299.960411,-388.473319,-141.911226,-1648.150581,-1109.071208,-804.618097,-12602.137041,415.541281,0.007375,-0.015562,0.996656,192.000000,0.000000,32.000000,127.500000,64.000000,15.500000,16.000000,0.000000,0.000000,0.000000,1773142208.190469,0.000000
90.000000,9397.388625,8622.923031,-1452.215189,-6965.898808,-5153.127629,2645.261901,-14385.225104,-1349.508923,324.748495,-314.869024,-92.022132,-1588.784348,-1075.342426,-745.229512,-12562.775619,439.994090,0.007375,-0.015562,0.996656,192.000000,0.000000,0.000000,0.000000,0.000000,0.000000,0.000000,0.000000,0.000000,0.000000,1773142208.190480,0.000000
92.000000,9400.137889,8622.520700,-1471.571800,-6981.500325,-5166.873952,2622.865453,-14400.334883,-1362.651749,286.325846,-386.171089,-143.677013,-1643.344956,-1131.400601,-802.159405,-12618.766739,396.475243,0.007375,-0.015562,0.996656,192.000000,0.000000,0.000000,0.000000,0.000000,0.000000,0.000000,0.000000,0.000000,0.000000,1773142208.190493,0.000000
94.000000,9449.669355,8677.796564,-1428.321174,-6944.508188,-5112.067474,2679.683588,-14354.983193,-1315.869548,317.707696,-330.515245,-98.258269,-1587.733816,-1080.036292,-742.636710,-12572.029242,428.080610,0.007375,-0.015562,0.996656,192.000000,0.000000,0.000000,0.000000,0.000000,0.000000,0.000000,0.000000,0.000000,0.000000,1773142208.190505,0.000000
96.000000,9401.702512,8626.096979,-1476.891515,-6983.936666,-5182.475469,2635.203616,-14415.243496,-1376.174554,305.637754,-354.543371,-115.558519,-1616.768732,-1105.740798,-771.135184,-12586.893152,425.174883,0.007375,-0.015562,0.996656,192.000000,0.000000,0.000000,0.000000,0.000000,0.000000,0.000000,0.000000,0.000000,0.000000,1773142208.190517,0.000000
98.000000,9468.087193,8692.571067,-1421.146264,-6974.548933,-5121.298745,2678.767166,-14364.259167,-1322.820940,294.640695,-363.618179,-130.757705,-1635.320680,-1129.120723,-787.228440,-12605.378044,417.396476,0.007687,-0.014781,0.998328,192.000000,0.000000,32.000000,127.500000,72.000000,15.500000,32.000000,0.000000,0.000000,0.000000,1773142208.190529,0.000000
100.000000,9438.359372,8666.240712,-1450.404698,-6949.783200,-5144.142228,2656.281311,-14383.459316,-1341.395240,342.138152,-321.865120,-78.968713,-1576.759109,-1077.644655,-734.567730,-12560.585148,435.434334,0.007687,-0.014781,0.998328,192.000000,0.000000,0.000000,0.000000,0.000000,0.000000,0.000000,0.000000,0.000000,0.000000,1773142208.190541,0.000000
102.000000,9438.247614,8664.966663,-1466.408547,-6977.812288,-5160.928388,2648.234683,-14400.781918,-1357.488496,290.572678,-374.190554,-142.000633,-1625.329450,-1139.424877,-770.196410,-12618.342056,411.093284,0.007687,-0.014781,0.998328,192.000000,0.000000,0.000000,0.000000,0.000000,0.000000,0.000000,0.000000,0.000000,0.000000,1773142208.190554,0.000000
104.000000,9483.331082,8708.105529,-1421.503892,-6960.422630,-5116.537823,2683.975122,-14356.748981,-1314.819016,332.973937,-305.347181,-87.864707,-1590.639542,-1081.243286,-733.271329,-12571.358689,429.824046,0.007687,-0.014781,0.998328,192.000000,0.000000,0.000000,0.000000,0.000000,0.000000,0.000000,0.000000,0.000000,0.000000,1773142208.190566,0.000000
106.000000,9438.761704,8662.977357,-1475.013968,-6975.644168,-5176.731071,2637.327032,-14411.980142,-1362.897618,315.025486,-347.480219,-110.283507,-1595.355760,-1105.070246,-746.548265,-12582.132230,424.213758,0.007687,-0.014781,0.998328,192.000000,0.000000,0.000000,0.000000,0.000000,0.000000,0.000000,0.000000,0.000000,0.000000,1773142208.190578,0.000000
108.000000,9477.363166,8706.406797,-1428.879968,-6941.088371,-5119.376495,2712.138320,-14365.108534,-1318.909385,306.263603,-353.112859,-123.068705,-1623.183682,-1114.301516,-802.293515,-12603.053463,420.726886,0.007687,-0.014781,0.998328,192.000000,0.000000,0.000000,0.000000,0.000000,0.000000,0.000000,0.000000,0.000000,0.000000,1773142208.190590,0.000000
110.000000,9462.231035,8687.251352,-1449.488276,-6957.963938,-5144.097524,2660.103459,-14384.509848,-1339.830618,344.596844,-312.142111,-76.130042,-1581.229458,-1083.813737,-754.460782,-12554.326660,442.586892,0.004000,-0.012000,1.002000,192.000000,0.000000,16.000000,127.500000,80.000000,15.500000,40.000000,0.000000,0.000000,0.000000,1773142208.190602,0.000000
112.000000,9454.162056,8677.193067,-1465.402718,-6991.960942,-5171.858391,2647.742945,-14400.357235,-1353.420479,296.473538,-371.083661,-137.798505,-1629.285709,-1143.649357,-799.343085,-12613.134100,406.153548,0.004000,-0.012000,1.002000,192.000000,0.000000,0.000000,0.000000,0.000000,0.000000,0.000000,0.000000,0.000000,0.000000,1773142208.190614,0.000000
114.000000,9491.534172,8720.644858,-1424.096694,-6937.154464,-5130.530015,2673.045119,-14352.502150,-1305.766559,333.532731,-324.569681,-84.176670,-1578.569600,-1080.304513,-717.066314,-12569.637605,429.935805,0.004000,-0.012000,1.002000,192.000000,0.000000,0.000000,0.000000,0.000000,0.000000,0.000000,0.000000,0.000000,0.000000,1773142208.190628,0.000000
116.000000,9455.547864,8683.026872,-1468.599018,-6985.456584,-5161.688347,2620.965555,-14408.940304,-1352.839333,320.613422,-323.720315,-102.527452,-1594.774615,-1102.812720,-754.997224,-12591.296445,418.894043,0.004000,-0.012000,1.002000,192.000000,0.000000,0.000000,0.000000,0.000000,0.000000,0.000000,0.000000,0.000000,0.000000,1773142208.190639,0.000000
118.000000,9496.116280,8716.979172,-1424.633136,-6926.067999,-5136.877911,2682.969294,-14358.782990,-1307.085312,310.152806,-341.802876,-114.977373,-1609.124435,-1124.493912,-794.626867,-12608.328475,408.075799,0.004000,-0.012000,1.002000,192.000000,0.000000,0.000000,0.000000,0.000000,0.000000,0.000000,0.000000,0.000000,0.000000,1773142208.190652,0.000000
120.000000,9480.425355,8708.776082,-1441.419296,-6977.879343,-5156.234521,2669.133564,-14380.531237,-1326.710144,347.144943,-318.892338,-70.095071,-1566.142030,-1072.459051,-738.568692,-12564.764925,445.917302,0.006000,-0.016000,0.994000,192.000000,0.000000,24.000000,127.500000,64.000000,15.500000,8.000000,0.000000,0.000000,0.000000,1773142208.190664,0.000000
122.000000,9458.922977,8691.453480,-1461.647625,-6973.565456,-5166.963359,2671.324035,-14396.222162,-1344.010394,309.705771,-341.601711,-124.655679,-1627.206996,-1131.534711,-760.629864,-12619.258478,412.657906,0.006000,-0.016000,0.994000,192.000000,0.000000,0.000000,0.000000,0.000000,0.000000,0.000000,0.000000,0.000000,0.000000,1773142208.190676,0.000000
124.000000,9504.207612,8733.161835,-1417.324116,-6936.372153,-5112.872137,2690.077149,-14350.781065,-1296.088254,334.382097,-311.985649,-81.114481,-1570.992359,-1090.206336,-722.698953,-12562.775619,436.015479,0.006000,-0.016000,0.994000,192.000000,0.000000,0.000000,0.000000,0.000000,0.000000,0.000000,0.000000,0.000000,0.000000,1773142208.190688,0.000000
126.000000,9464.399155,8691.229962,-1468.733128,-6971.844372,-5166.851600,2637.103514,-14405.274618,-1348.503095,331.744591,-330.425838,-97.297144,-1581.944714,-1110.904051,-748.716384,-12585.596750,430.002860,0.006000,-0.016000,0.994000,192.000000,0.000000,0.000000,0.000000,0.000000,0.000000,0.000000,0.000000,0.000000,0.000000,1773142208.190700,0.000000
128.000000,9497.815013,8722.343591,-1427.382401,-6939.277880,-5127.356068,2688.646637,-14358.291251,-1309.767522,321.641603,-321.686306,-113.971545,-1621.775522,-1106.143130,-773.750338,-12603.612256,419.855168,0.006000,-0.016000,0.994000,192.000000,0.000000,0.000000,0.000000,0.000000,0.000000,0.000000,0.000000,0.000000,0.000000,1773142208.190712,0.000000
130.000000,9484.649835,8711.033608,-1441.531055,-6960.467334,-5148.433763,2664.462050,-14377.424345,-1324.251452,342.451077,-320.546367,-74.028978,-1559.883542,-1085.490118,-725.470570,-12557.746477,444.263273,0.008000,-0.016000,0.998000,192.000000,0.000000,32.000000,127.500000,64.000000,15.500000,24.000000,0.000000,0.000000,0.000000,1773142208.190724,0.000000
132.000000,9471.842286,8695.968532,-1459.255989,-6956.019337,-5166.561027,2654.649634,-14394.881057,-1339.897673,311.628021,-344.932120,-121.057048,-1613.460674,-1127.377287,-781.461690,-12616.062178,411.897947,0.008000,-0.016000,0.998000,192.000000,0.000000,0.000000,0.000000,0.000000,0.000000,0.000000,0.000000,0.000000,0.000000,1773142208.190736,0.000000
134.000000,9515.897574,8737.453370,-1410.126854,-6946.676308,-5121.991649,2698.369646,-14350.244623,-1295.372998,339.657109,-320.591071,-73.872515,-1568.243094,-1085.959504,-747.017651,-12573.482105,433.310918,0.008000,-0.016000,0.998000,192.000000,0.000000,0.000000,0.000000,0.000000,0.000000,0.000000,0.000000,0.000000,0.000000,1773142208.190748,0.000000
136.000000,9466.097887,8689.352416,-1467.459079,-6970.011529,-5173.490068,2635.270671,-14405.632246,-1346.334976,350.900036,-315.450169,-82.299123,-1595.869851,-1098.655295,-736.691146,-12587.071966,418.245842,0.008000,-0.016000,0.998000,192.000000,0.000000,0.000000,0.000000,0.000000,0.000000,0.000000,0.000000,0.000000,0.000000,1773142208.190761,0.000000
138.000000,9498.910248,8722.120073,-1430.310479,-6933.175854,-5139.269547,2666.697224,-14359.297080,-1305.766559,309.348143,-361.271246,-116.810217,-1600.071979,-1128.450171,-802.137053,-12606.294466,412.993182,0.008000,-0.016000,0.998000,192.000000,0.000000,0.000000,0.000000,0.000000,0.000000,0.000000,0.000000,0.000000,0.000000,1773142208.190773,0.000000
140.000000,9493.188202,8721.002486,-1442.156904,-6965.675290,-5154.871065,2649.441677,-14376.619682,-1317.344763,345.490914,-302.419102,-68.977483,-1554.563827,-1088.485251,-713.937070,-12567.581244,435.099058,0.008000,-0.014000,1.002000,192.000000,0.000000,32.000000,127.500000,72.000000,15.500000,40.000000,0.000000,0.000000,0.000000,1773142208.190786,0.000000
142.000000,9477.676091,8699.231887,-1463.189896,-6983.668445,-5170.852562,2639.137523,-14399.329054,-1341.842275,318.668821,-339.746516,-119.760647,-1624.502435,-1127.220825,-765.256675,-12619.414940,405.326534,0.008000,-0.014000,1.002000,192.000000,0.000000,0.000000,0.000000,0.000000,0.000000,0.000000,0.000000,0.000000,0.000000,1773142208.190798,0.000000
144.000000,9520.479682,8735.642878,-1415.357162,-6929.934851,-5135.849730,2677.470765,-14349.015278,-1291.684960,340.864103,-321.261623,-71.123251,-1572.847554,-1090.139281,-765.837820,-12579.204152,433.042697,0.008000,-0.014000,1.002000,192.000000,0.000000,0.000000,0.000000,0.000000,0.000000,0.000000,0.000000,0.000000,0.000000,1773142208.190810,0.000000
146.000000,9471.842286,8702.584648,-1465.492125,-7008.858861,-5185.649417,2650.514561,-14407.286275,-1346.536141,338.852446,-320.211091,-85.048388,-1587.331484,-1108.892394,-738.278119,-12587.675463,422.738543,0.008000,-0.014000,1.002000,192.000000,0.000000,0.000000,0.000000,0.000000,0.000000,0.000000,0.000000,0.000000,0.000000,1773142208.190824,0.000000
148.000000,9501.592457,8732.670096,-1431.919805,-6915.853252,-5135.648565,2681.874058,-14359.297080,-1305.855966,304.408408,-340.059440,-118.777170,-1599.937868,-1131.221787,-788.591896,-12611.860050,417.150607,0.008000,-0.014000,1.002000,192.000000,0.000000,0.000000,0.000000,0.000000,0.000000,0.000000,0.000000,0.000000,0.000000,1773142208.190836,0.000000
150.000000,9501.257181,8726.232794,-1442.045145,-6957.874531,-5145.528036,2667.457183,-14378.519580,-1318.596461,350.140077,-302.642620,-68.373986,-1553.200370,-1087.926458,-720.664945,-12572.811553,446.520799,0.008000,-0.016000,1.002000,192.000000,0.000000,32.000000,127.500000,64.000000,15.500000,40.000000,0.000000,0.000000,0.000000,1773142208.190848,0.000000
152.000000,9486.236809,8707.680846,-1455.925579,-6980.047462,-5180.016778,2661.064584,-14395.372796,-1336.634318,317.148902,-336.147885,-115.625574,-1614.600612,-1140.386002,-761.389823,-12619.414940,410.869767,0.008000,-0.016000,1.002000,192.000000,0.000000,0.000000,0.000000,0.000000,0.000000,0.000000,0.000000,0.000000,0.000000,1773142208.190860,0.000000
154.000000,9523.564222,8746.483475,-1414.105465,-6938.696735,-5132.720486,2697.408521,-14349.283498,-1295.663571,350.631815,-304.140187,-68.888076,-1568.108984,-1075.767109,-720.061448,-12579.137096,439.234130,0.008000,-0.016000,1.002000,192.000000,0.000000,0.000000,0.000000,0.000000,0.000000,0.000000,0.000000,0.000000,0.000000,1773142208.190872,0.000000
156.000000,9473.652777,8699.500108,-1467.347320,-6973.990139,-5179.413280,2629.682735,-14405.788708,-1349.374813,327.833036,-327.497760,-97.520661,-1588.091444,-1105.807853,-776.678416,-12594.090413,430.449895,0.008000,-0.016000,1.002000,192.000000,0.000000,0.000000,0.000000,0.000000,0.000000,0.000000,0.000000,0.000000,0.000000,1773142208.190884,0.000000
158.000000,9525.017086,8750.484437,-1421.190968,-6946.318680,-5123.220995,2678.901276,-14356.279594,-1299.038684,319.562890,-334.270338,-112.205757,-1596.272182,-1126.952604,-785.239134,-12614.676370,415.407171,0.008000,-0.016000,1.002000,192.000000,0.000000,0.000000,0.000000,0.000000,0.000000,0.000000,0.000000,0.000000,0.000000,1773142208.190896,0.000000
160.000000,9502.866507,8731.083123,-1435.786657,-6982.014416,-5159.542580,2663.411518,-14379.234836,-1325.033763,361.986501,-287.197565,-61.064966,-1558.162458,-1074.984798,-693.999314,-12562.686212,431.321613,0.010000,-0.018000,1.000000,192.000000,0.000000,40.000000,127.500000,56.000000,15.500000,32.000000,0.000000,0.000000,0.000000,1773142208.190908,0.000000
162.000000,9483.599303,8704.909230,-1459.904189,-6961.920197,-5166.739841,2635.918872,-14397.563266,-1344.300967,310.935117,-338.874798,-122.509911,-1623.943642,-1131.110028,-778.555963,-12612.843527,410.489787,0.010000,-0.018000,1.000000,192.000000,0.000000,0.000000,0.000000,0.000000,0.000000,0.000000,0.000000,0.000000,0.000000,1773142208.190920,0.000000
164.000000,9521.396103,8740.292041,-1414.798369,-6928.459636,-5132.720486,2678.051910,-14351.205748,-1302.078521,353.023452,-325.709620,-72.911390,-1567.058452,-1091.703903,-758.998186,-12575.493762,433.579139,0.010000,-0.018000,1.000000,192.000000,0.000000,0.000000,0.000000,0.000000,0.000000,0.000000,0.000000,0.000000,0.000000,1773142208.190933,0.000000
166.000000,9478.927789,8702.785814,-1466.386195,-6978.505192,-5179.033301,2635.673003,-14408.202697,-1354.314548,329.487065,-323.139170,-97.766530,-1590.885412,-1112.513377,-758.349986,-12588.614236,426.560691,0.010000,-0.018000,1.000000,192.000000,0.000000,0.000000,0.000000,0.000000,0.000000,0.000000,0.000000,0.000000,0.000000,1773142208.190945,0.000000
168.000000,9518.512728,8742.571919,-1424.253157,-6950.006717,-5107.463015,2695.598030,-14364.080353,-1312.494434,321.552196,-334.426801,-120.051219,-1615.584089,-1121.923461,-767.938884,-12604.349864,417.731752,0.010000,-0.018000,1.000000,192.000000,0.000000,0.000000,0.000000,0.000000,0.000000,0.000000,0.000000,0.000000,0.000000,1773142208.190957,0.000000
170.000000,9498.463213,8723.304716,-1441.374593,-6944.307023,-5129.546539,2670.832297,-14380.866513,-1329.861740,354.565722,-302.955544,-75.392434,-1558.385975,-1076.482365,-712.595965,-12556.763000,448.286587,0.012000,-0.010000,1.000000,192.000000,0.000000,48.000000,127.500000,88.000000,15.500000,32.000000,0.000000,0.000000,0.000000,1773142208.190970,0.000000
172.000000,9474.882123,8703.813994,-1458.004291,-6976.292369,-5170.494934,2667.613646,-14400.960732,-1349.508923,305.682457,-345.110934,-133.641080,-1613.773598,-1131.624118,-803.053475,-12612.664713,426.314822,0.012000,-0.010000,1.000000,192.000000,0.000000,0.000000,0.000000,0.000000,0.000000,0.000000,0.000000,0.000000,0.000000,1773142208.190982,0.000000
174.000000,9524.234775,8746.259957,-1408.718694,-6948.397392,-5119.085922,2713.211204,-14350.177568,-1297.004676,349.670690,-296.630001,-76.465318,-1572.646388,-1075.722405,-711.590136,-12568.072983,446.297282,0.012000,-0.010000,1.000000,192.000000,0.000000,0.000000,0.000000,0.000000,0.000000,0.000000,0.000000,0.000000,0.000000,1773142208.190994,0.000000
176.000000,9472.401079,8691.207611,-1463.927503,-6968.066927,-5178.519211,2644.725459,-14407.576848,-1351.878208,339.992385,-312.365629,-93.072664,-1594.774615,-1102.835071,-734.545378,-12586.893152,434.249691,0.012000,-0.010000,1.000000,192.000000,0.000000,0.000000,0.000000,0.000000,0.000000,0.000000,0.000000,0.000000,0.000000,1773142208.191006,0.000000
178.000000,9510.153176,8730.189053,-1420.028677,-6953.113610,-5125.344411,2684.511564,-14361.599310,-1307.867623,314.645507,-342.451077,-117.033734,-1605.212880,-1124.784484,-772.476288,-12610.764815,417.552938,0.012000,-0.010000,1.000000,192.000000,0.000000,0.000000,0.000000,0.000000,0.000000,0.000000,0.000000,0.000000,0.000000,1773142208.669745,0.000000
180.000000,9500.027835,8718.052056,-1436.367802,-6952.130133,-5141.281204,2646.245378,-14375.926778,-1320.272841,354.431612,-297.546422,-66.362329,-1563.102193,-1074.358949,-731.572596,-12561.814494,435.546092,0.013000,-0.011000,1.000000,192.000000,0.000000,56.000000,127.500000,80.000000,15.500000,32.000000,0.000000,0.000000,0.000000,1773142208.669826,0.000000
182.000000,9469.271835,8700.170660,-1461.222942,-6963.618930,-5168.483277,2632.387296,-14394.545781,-1336.813132,307.962335,-357.471449,-125.348583,-1614.310040,-1136.854426,-795.766806,-12616.598620,402.331400,0.013000,-0.011000,1.000000,192.000000,0.000000,0.000000,0.000000,0.000000,0.000000,0.000000,0.000000,0.000000,0.000000,1773142208.669879,0.000000
184.000000,9512.924792,8742.527216,-1413.569023,-6935.008697,-5129.591242,2680.287085,-14347.875339,-1292.020236,337.377231,-298.619306,-77.337036,-1569.517144,-1090.586315,-739.507465,-12578.086564,429.846398,0.013000,-0.011000,1.000000,192.000000,0.000000,0.000000,0.000000,0.000000,0.000000,0.000000,0.000000,0.000000,0.000000,1773142208.669931,0.000000
186.000000,9460.554655,8692.973398,-1465.246256,-6972.604331,-5166.873952,2631.895558,-14404.157031,-1345.664423,325.910786,-315.226652,-95.576059,-1579.955409,-1109.898223,-761.345120,-12590.782355,426.694802,0.013000,-0.011000,1.000000,192.000000,0.000000,0.000000,0.000000,0.000000,0.000000,0.000000,0.000000,0.000000,0.000000,1773142208.669985,0.000000
188.000000,9492.450594,8726.769236,-1421.638003,-6957.807476,-5134.195701,2685.495041,-14359.967632,-1305.945373,303.246117,-331.118742,-114.776208,-1603.603554,-1132.093505,-771.559867,-12603.947533,416.681220,0.013000,-0.011000,1.000000,192.000000,0.000000,0.000000,0.000000,0.000000,0.000000,0.000000,0.000000,0.000000,0.000000,1773142208.670011,0.000000
190.000000,9480.425355,8715.973343,-1441.620462,-6961.719032,-5140.990632,2677.806041,-14377.759621,-1319.646993,338.941853,-282.146070,-70.340940,-1560.218818,-1076.236496,-695.519232,-12563.692041,447.616034,0.014500,-0.012500,1.002000,192.000000,0.000000,64.000000,127.500000,72.000000,15.500000,48.000000,0.000000,0.000000,0.000000,1773142208.670037,0.000000
192.000000,9445.131951,8688.145422,-1458.026643,-6977.521715,-5171.232542,2648.815828,-14398.211467,-1346.089106,287.599896,-346.228522,-133.305804,-1615.181758,-1150.488991,-775.717291,-12617.515042,416.524758,0.014500,-0.012500,1.002000,192.000000,0.000000,0.000000,0.000000,0.000000,0.000000,0.000000,0.000000,0.000000,0.000000,1773142208.670062,0.000000
194.000000,9468.958911,8719.191995,-1419.268718,-6930.001906,-5128.406600,2691.731178,-14351.541025,-1307.487644,313.036181,-278.234515,-91.172766,-1584.224592,-1098.811757,-710.763122,-12568.944701,437.133066,0.014500,-0.012500,1.002000,192.000000,0.000000,0.000000,0.000000,0.000000,0.000000,0.000000,0.000000,0.000000,0.000000,1773142208.670088,0.000000
196.000000,9417.572250,8669.727584,-1470.454212,-6981.299160,-5174.585304,2645.820695,-14409.074415,-1363.210543,282.950733,-342.786353,-123.985126,-1592.092406,-1128.628985,-785.820280,-12587.250780,437.267177,0.014500,-0.012500,1.002000,192.000000,0.000000,0.000000,0.000000,0.000000,0.000000,0.000000,0.000000,0.000000,0.000000,1773142208.670113,0.000000
198.000000,9458.744163,8710.608925,-1424.610785,-6939.277880,-5124.159768,2694.078111,-14361.867531,-1316.562452,283.956562,-332.705716,-134.110467,-1615.427627,-1128.226653,-763.580294,-12604.305161,422.760895,0.014500,-0.012500,1.002000,192.000000,0.000000,0.000000,0.000000,0.000000,0.000000,0.000000,0.000000,0.000000,0.000000,1773142208.670139,0.000000
200.000000,9450.965756,8707.636143,-1437.999480,-6967.485782,-5125.545576,2673.581561,-14377.625510,-1324.094990,319.138207,-284.805928,-82.209716,-1569.047757,-1074.783632,-717.401590,-12558.439381,440.664642,0.018250,-0.013250,1.000000,192.000000,0.000000,88.000000,127.500000,72.000000,15.500000,24.000000,0.000000,0.000000,0.000000,1773142208.670165,0.000000
202.000000,9417.706361,8679.919980,-1463.525172,-6964.110668,-5170.852562,2653.040308,-14397.406804,-1348.257226,274.278256,-323.563853,-140.011327,-1608.252717,-1144.498723,-764.966102,-12616.889193,415.027191,0.018250,-0.013250,1.000000,192.000000,0.000000,0.000000,0.000000,0.000000,0.000000,0.000000,0.000000,0.000000,0.000000,1773142208.670190,0.000000
204.000000,9449.356431,8707.122053,-1421.928575,-6933.086447,-5124.562100,2692.960524,-14351.205748,-1312.226213,300.116873,-295.579469,-103.555632,-1574.322769,-1103.595031,-720.262613,-12576.209018,432.126276,0.018250,-0.013250,1.000000,192.000000,0.000000,0.000000,0.000000,0.000000,0.000000,0.000000,0.000000,0.000000,0.000000,1773142208.670216,0.000000
206.000000,9392.918276,8658.127029,-1477.003274,-6970.056232,-5179.368577,2642.043250,-14406.191040,-1365.356310,283.196602,-318.490007,-124.990955,-1595.221650,-1125.857368,-732.511369,-12592.034053,427.275947,0.018250,-0.013250,1.000000,192.000000,0.000000,0.000000,0.000000,0.000000,0.000000,0.000000,0.000000,0.000000,0.000000,1773142208.670241,0.000000
208.000000,9442.092114,8702.070558,-1433.551482,-6943.636470,-5136.408524,2680.912933,-14363.856836,-1321.524539,266.544553,-329.710582,-148.236769,-1613.907708,-1137.972014,-762.820335,-12615.548088,417.128255,0.018250,-0.013250,1.000000,192.000000,0.000000,0.000000,0.000000,0.000000,0.000000,0.000000,0.000000,0.000000,0.000000,1773142208.670266,0.000000
210.000000,9414.822986,8682.356320,-1448.504799,-6970.480915,-5142.085867,2672.575733,-14383.258150,-1341.059964,307.984687,-276.245210,-94.279658,-1568.824240,-1084.797214,-715.054657,-12562.060364,438.250654,0.018125,-0.012625,1.003000,192.000000,0.000000,72.000000,127.500000,80.000000,15.500000,56.000000,0.000000,0.000000,0.000000,1773142208.670288,0.000000
212.000000,9393.521773,8655.891854,-1470.074233,-6975.711224,-5150.512475,2658.605892,-14405.252267,-1365.959807,255.234570,-352.554065,-157.043357,-1627.385810,-1152.187723,-774.577352,-12610.451890,412.166168,0.018125,-0.012625,1.003000,192.000000,0.000000,0.000000,0.000000,0.000000,0.000000,0.000000,0.000000,0.000000,0.000000,1773142208.670301,0.000000
214.000000,9425.752989,8690.335892,-1423.895529,-6932.170025,-5105.585468,2693.608724,-14357.128961,-1320.988097,291.332637,-308.789350,-113.926841,-1589.119624,-1104.846728,-751.532704,-12565.815457,433.400325,0.018125,-0.012625,1.003000,192.000000,0.000000,0.000000,0.000000,0.000000,0.000000,0.000000,0.000000,0.000000,0.000000,1773142208.670313,0.000000
216.000000,9384.804593,8648.538130,-1475.371596,-6999.359369,-5174.384138,2671.838125,-14418.350389,-1375.124022,273.138317,-322.110989,-132.836417,-1598.775577,-1121.364668,-746.481210,-12582.869838,440.239959,0.018125,-0.012625,1.003000,192.000000,0.000000,0.000000,0.000000,0.000000,0.000000,0.000000,0.000000,0.000000,0.000000,1773142208.670325,0.000000
218.000000,9423.204890,8681.596360,-1434.222035,-6944.977575,-5130.351201,2711.892451,-14371.165856,-1332.342783,274.255904,-326.603690,-143.520551,-1623.787179,-1129.098371,-728.063372,-12608.261419,427.387706,0.018125,-0.012625,1.003000,192.000000,0.000000,0.000000,0.000000,0.000000,0.000000,0.000000,0.000000,0.000000,0.000000,1773142208.670336,0.000000
220.000000,9420.790901,8687.117241,-1444.593244,-6981.299160,-5134.150998,2689.384245,-14381.671176,-1335.852007,299.043989,-291.422044,-100.359333,-1574.032196,-1087.635885,-712.663020,-12557.813532,455.863828,0.014063,-0.013313,1.005500,192.000000,0.000000,40.000000,127.500000,72.000000,15.500000,64.000000,0.000000,0.000000,0.000000,1773142208.670348,0.000000
222.000000,9383.955226,8647.934633,-1466.252085,-6967.485782,-5153.887588,2670.698186,-14400.983083,-1360.595388,267.349215,-331.029335,-148.817915,-1626.335278,-1136.072115,-746.190637,-12615.168108,419.318726,0.014063,-0.013313,1.005500,192.000000,0.000000,0.000000,0.000000,0.000000,0.000000,0.000000,0.000000,0.000000,0.000000,1773142208.670359,0.000000
224.000000,9432.279698,8695.610904,-1422.733238,-6936.372153,-5109.273506,2697.922611,-14352.524501,-1314.684905,296.607649,-312.790312,-109.121216,-1579.664836,-1082.718501,-701.218927,-12570.665785,438.518874,0.014063,-0.013313,1.005500,192.000000,0.000000,0.000000,0.000000,0.000000,0.000000,0.000000,0.000000,0.000000,0.000000,1773142208.670371,0.000000
226.000000,9381.027148,8651.019174,-1472.018835,-6977.119383,-5171.076080,2657.421250,-14409.029711,-1366.250380,282.771919,-307.470597,-130.355374,-1598.328543,-1102.946830,-751.398593,-12590.268265,437.401287,0.014063,-0.013313,1.005500,192.000000,0.000000,0.000000,0.000000,0.000000,0.000000,0.000000,0.000000,0.000000,0.000000,1773142208.670382,0.000000
228.000000,9418.600430,8696.415567,-1431.673936,-6942.384773,-5122.081056,2677.582524,-14362.180455,-1323.849121,263.616474,-322.580376,-147.856790,-1614.980592,-1135.625081,-740.557997,-12609.021379,419.519892,0.014063,-0.013313,1.005500,192.000000,0.000000,0.000000,0.000000,0.000000,0.000000,0.000000,0.000000,0.000000,0.000000,1773142208.670394,0.000000
230.000000,9408.631552,8671.202799,-1448.661262,-6956.376965,-5143.784600,2661.779840,-14377.334938,-1337.483685,303.000248,-280.603800,-98.593545,-1562.230475,-1076.370606,-719.614413,-12564.809628,435.076706,0.015031,-0.012656,1.004750,192.000000,0.000000,64.000000,127.500000,80.000000,15.500000,48.000000,0.000000,0.000000,0.000000,1773142208.670406,0.000000
232.000000,9381.183610,8653.209645,-1469.113108,-6992.765605,-5164.839943,2654.962558,-14399.597275,-1358.337862,261.738928,-347.301405,-152.260083,-1626.000002,-1141.011851,-764.809640,-12612.530603,411.897947,0.015031,-0.012656,1.004750,192.000000,0.000000,0.000000,0.000000,0.000000,0.000000,0.000000,0.000000,0.000000,0.000000,1773142208.670418,0.000000
234.000000,9419.069817,8689.732395,-1430.198721,-6931.611232,-5101.740968,2701.878870,-14358.090086,-1323.759714,289.969181,-303.782559,-113.189234,-1577.496717,-1092.396807,-727.750448,-12572.588035,434.517912,0.015031,-0.012656,1.004750,192.000000,0.000000,0.000000,0.000000,0.000000,0.000000,0.000000,0.000000,0.000000,0.000000,1773142208.670429,0.000000
236.000000,9368.688985,8635.574119,-1487.307428,-6994.665503,-5157.150943,2661.064584,-14421.725502,-1385.785804,269.204410,-313.930251,-139.407830,-1619.830921,-1110.412313,-737.808733,-12575.426707,432.282738,0.015031,-0.012656,1.004750,192.000000,0.000000,0.000000,0.000000,0.000000,0.000000,0.000000,0.000000,0.000000,0.000000,1773142208.670441,0.000000
238.000000,9412.610163,8672.230979,-1425.035468,-6969.698604,-5124.204472,2698.459053,-14370.204731,-1334.242682,265.494021,-355.258626,-155.769307,-1632.929043,-1125.253871,-751.555056,-12597.130251,418.379953,0.015031,-0.012656,1.004750,192.000000,0.000000,0.000000,0.000000,0.000000,0.000000,0.000000,0.000000,0.000000,0.000000,1773142208.670453,0.000000
240.000000,9403.155375,8663.402040,-1456.596131,-6950.587863,-5130.775884,2688.780748,-14382.207618,-1344.189208,304.386056,-307.157672,-103.890908,-1568.824240,-1072.235533,-713.758256,-12557.813532,451.304072,0.011516,-0.012328,1.004375,192.000000,0.000000,32.000000,127.500000,80.000000,15.500000,48.000000,0.000000,0.000000,0.000000,1773142208.670464,0.000000
242.000000,9385.586904,8644.447761,-1469.604846,-6999.225259,-5150.624234,2682.566963,-14404.537011,-1362.584694,272.512468,-329.554120,-162.474830,-1631.342069,-1118.928327,-739.239244,-12607.926143,426.404229,0.011516,-0.012328,1.004375,192.000000,0.000000,0.000000,0.000000,0.000000,0.000000,0.000000,0.000000,0.000000,0.000000,1773142208.670478,0.000000
244.000000,9427.317611,8685.954951,-1420.788636,-6914.109816,-5100.466919,2709.947850,-14353.887958,-1317.635336,286.392902,-316.076018,-113.211586,-1582.727025,-1079.969237,-752.694995,-12573.929140,450.007671,0.011516,-0.012328,1.004375,192.000000,0.000000,0.000000,0.000000,0.000000,0.000000,0.000000,0.000000,0.000000,0.000000,1773142208.670489,0.000000
246.000000,9381.451831,8640.111523,-1463.703986,-6994.687855,-5176.731071,2656.817753,-14410.862554,-1368.776127,312.455036,-309.415198,-120.833531,-1597.300362,-1100.443435,-700.213099,-12586.714338,435.233168,0.011516,-0.012328,1.004375,192.000000,0.000000,0.000000,0.000000,0.000000,0.000000,0.000000,0.000000,0.000000,0.000000,1773142208.670501,0.000000
248.000000,9409.458567,8671.806296,-1435.071401,-6936.148636,-5133.972184,2678.074262,-14364.706202,-1329.057077,272.959503,-342.428725,-147.320348,-1620.367363,-1121.521130,-765.077861,-12618.565574,410.847415,0.011516,-0.012328,1.004375,192.000000,0.000000,0.000000,0.000000,0.000000,0.000000,0.000000,0.000000,0.000000,0.000000,1773142208.670513,0.000000
250.000000,9404.719997,8661.636253,-1446.806067,-6965.608235,-5133.793370,2671.681663,-14380.285368,-1343.161028,284.448300,-292.874908,-108.495368,-1573.138127,-1086.563001,-723.280099,-12565.033146,439.077668,0.011516,-0.012328,1.004375,192.000000,0.000000,0.000000,0.000000,0.000000,0.000000,0.000000,0.000000,0.000000,0.000000,1773142208.670524,0.000000
252.000000,9379.082546,8638.815122,-1468.040224,-6994.240820,-5143.941062,2648.748773,-14407.509793,-1370.117232,262.521239,-355.593903,-154.741127,-1624.033049,-1127.690211,-773.683283,-12611.345960,408.612240,0.010000,-0.012000,1.008000,192.000000,0.000000,40.000000,127.500000,80.000000,15.500000,64.000000,0.000000,0.000000,0.000000,1773142208.670537,0.000000
254.000000,9427.474073,8691.364073,-1429.058782,-6939.389639,-5102.590335,2710.126663,-14358.090086,-1319.132903,312.164463,-289.008056,-116.541996,-1583.509336,-1080.639789,-678.800127,-12569.391736,436.060183,0.010000,-0.012000,1.008000,192.000000,0.000000,0.000000,0.000000,0.000000,0.000000,0.000000,0.000000,0.000000,0.000000,1773142208.670548,0.000000
0.000000,9381.608293,8638.524549,-1468.464907,-6986.060081,-5171.143135,2636.120038,-14415.802290,-1374.833450,298.239326,-321.552196,-128.410772,-1594.886374,-1108.423008,-770.419928,-12580.053518,430.092267,0.010000,-0.012000,1.008000,192.000000,0.000000,0.000000,0.000000,0.000000,0.000000,0.000000,0.000000,0.000000,0.000000,1773142208.670560,0.000000
2.000000,9416.432311,8668.922921,-1430.332831,-6959.215636,-5126.819626,2694.279277,-14370.405897,-1337.461333,280.939076,-350.989443,-155.814011,-1624.077752,-1127.444342,-735.953538,-12602.494669,419.832816,0.010000,-0.012000,1.008000,192.000000,0.000000,0.000000,0.000000,0.000000,0.000000,0.000000,0.000000,0.000000,0.000000,1773142208.670571,0.000000
4.000000,9408.072759,8668.051203,-1440.324061,-6976.895866,-5133.502797,2682.209335,-14385.627435,-1350.604159,318.154731,-295.847690,-110.059990,-1577.876696,-1081.131528,-722.587195,-12555.846579,447.191351,0.010000,-0.012000,1.008000,192.000000,0.000000,0.000000,0.000000,0.000000,0.000000,0.000000,0.000000,0.000000,0.000000,1773142208.670583,0.000000
6.000000,9389.766680,8644.358354,-1465.022739,-6994.732558,-5143.359917,2662.696262,-14408.694435,-1372.620627,274.166497,-310.935117,-149.913150,-1645.311909,-1124.046877,-742.390840,-12602.785242,421.553900,0.012000,-0.014000,1.004000,192.000000,0.000000,48.000000,127.500000,72.000000,15.500000,48.000000,0.000000,0.000000,0.000000,1773142208.670595,0.000000
8.000000,9441.175692,8690.961741,-1433.327965,-6955.348784,-5101.383341,2725.527015,-14358.827693,-1323.133865,323.139170,-310.376324,-120.028868,-1580.603609,-1047.000414,-681.057654,-12565.591939,452.064032,0.012000,-0.014000,1.004000,192.000000,0.000000,0.000000,0.000000,0.000000,0.000000,0.000000,0.000000,0.000000,0.000000,1773142208.670606,0.000000
10.000000,9379.842505,8638.479845,-1468.509611,-6957.539255,-5176.194629,2664.640863,-14409.633208,-1374.274656,316.523053,-318.981745,-120.833531,-1594.819319,-1096.241307,-739.775686,-12584.166239,444.866770,0.012000,-0.014000,1.004000,192.000000,0.000000,0.000000,0.000000,0.000000,0.000000,0.000000,0.000000,0.000000,0.000000,1773142208.670618,0.000000
12.000000,9433.285526,8686.692558,-1427.874139,-6956.376965,-5109.742893,2706.796254,-14365.421458,-1327.827731,282.056663,-324.323812,-153.131801,-1619.138017,-1113.586261,-768.698844,-12618.990257,423.878482,0.012000,-0.014000,1.004000,192.000000,0.000000,0.000000,0.000000,0.000000,0.000000,0.000000,0.000000,0.000000,0.000000,1773142208.670630,0.000000
14.000000,9420.410922,8668.431183,-1439.899378,-6976.895866,-5144.477504,2694.189870,-14383.056984,-1350.224179,345.692080,-282.749567,-90.748082,-1578.256676,-1057.326920,-687.137328,-12563.245006,447.213703,0.012000,-0.014000,1.004000,192.000000,0.000000,0.000000,0.000000,0.000000,0.000000,0.000000,0.000000,0.000000,0.000000,1773142208.670642,0.000000
16.000000,9392.672407,8643.106656,-1466.922637,-6971.084412,-5155.742783,2667.770108,-14404.425252,-1363.769336,306.777693,-337.086658,-150.762516,-1632.593767,-1100.018752,-749.677509,-12609.602524,415.094246,0.012000,-0.014000,1.002000,192.000000,0.000000,48.000000,127.500000,72.000000,15.500000,40.000000,0.000000,0.000000,0.000000,1773142208.670654,0.000000
18.000000,9444.327288,8695.029759,-1422.174444,-6936.752133,-5087.435852,2703.130567,-14352.144522,-1313.276745,333.152751,-286.169384,-102.214527,-1564.689167,-1048.185056,-679.358921,-12567.827114,429.533473,0.012000,-0.014000,1.002000,192.000000,0.000000,0.000000,0.000000,0.000000,0.000000,0.000000,0.000000,0.000000,0.000000,1773142208.670666,0.000000
20.000000,9396.181631,8646.660584,-1493.767082,-6960.892017,-5130.485312,2646.401840,-14413.634171,-1373.224124,329.174141,-307.917632,-143.185275,-1587.711464,-1041.613643,-741.653233,-12581.014643,431.366316,0.012000,-0.014000,1.002000,192.000000,0.000000,0.000000,0.000000,0.000000,0.000000,0.000000,0.000000,0.000000,0.000000,1773142208.670678,0.000000
22.000000,9426.468244,8665.011366,-1420.922747,-6975.733575,-5114.906146,2716.385152,-14371.232911,-1335.561435,319.920518,-327.453056,-149.846095,-1623.831883,-1094.184946,-731.796113,-12596.705567,426.493636,0.012000,-0.014000,1.002000,192.000000,0.000000,0.000000,0.000000,0.000000,0.000000,0.000000,0.000000,0.000000,0.000000,1773142208.670690,0.000000
24.000000,9397.858011,8644.671279,-1433.015041,-6953.270072,-5134.955661,2680.287085,-14383.660481,-1354.649824,330.582300,-296.764111,-109.076513,-1579.173098,-1075.700054,-692.792319,-12543.262546,452.198142,0.012000,-0.014000,1.002000,192.000000,0.000000,0.000000,0.000000,0.000000,0.000000,0.000000,0.000000,0.000000,0.000000,1773142208.670701,0.000000
26.000000,9385.564552,8632.869557,-1457.601959,-6997.347712,-5140.945928,2662.472744,-14408.582676,-1375.414595,274.121794,-349.402469,-149.108487,-1646.004813,-1117.296650,-795.252716,-12596.079719,420.168092,0.008000,-0.014000,1.006000,192.000000,0.000000,32.000000,127.500000,72.000000,15.500000,56.000000,0.000000,0.000000,0.000000,1773142208.670714,0.000000
28.000000,9436.817102,8675.293168,-1439.899378,-6944.552892,-5087.145279,2720.766094,-14362.761600,-1329.727629,361.271246,-291.153823,-121.705249,-1599.580240,-1041.546588,-688.366674,-12554.907805,444.173866,0.008000,-0.014000,1.006000,192.000000,0.000000,0.000000,0.000000,0.000000,0.000000,0.000000,0.000000,0.000000,0.000000,1773142208.670725,0.000000
30.000000,9377.517924,8625.538185,-1463.122840,-6979.846296,-5127.378419,2672.285160,-14414.394130,-1376.845107,326.491931,-329.665879,-133.171693,-1597.143900,-1062.154897,-743.754297,-12575.270245,450.164133,0.008000,-0.014000,1.006000,192.000000,0.000000,0.000000,0.000000,0.000000,0.000000,0.000000,0.000000,0.000000,0.000000,1773142208.670737,0.000000
32.000000,9426.915279,8666.531285,-1410.596241,-6960.869665,-5105.674875,2703.465844,-14367.343708,-1334.086220,313.214995,-316.903033,-148.549694,-1632.861988,-1115.553214,-744.246035,-12591.721128,420.883348,0.008000,-0.014000,1.006000,192.000000,0.000000,0.000000,0.000000,0.000000,0.000000,0.000000,0.000000,0.000000,0.000000,1773142208.670749,0.000000
34.000000,9414.621820,8647.286433,-1438.446514,-6943.345898,-5124.986783,2693.519317,-14378.631339,-1346.536141,364.780470,-323.295632,-89.026998,-1584.895144,-1029.007259,-703.565860,-12551.912672,448.331290,0.008000,-0.014000,1.006000,192.000000,0.000000,0.000000,0.000000,0.000000,0.000000,0.000000,0.000000,0.000000,0.000000,1773142208.670761,0.000000
36.000000,9380.825982,8628.063932,-1469.247218,-6984.294293,-5150.803048,2674.587390,-14406.928647,-1374.341711,304.631925,-337.556045,-165.179392,-1624.100104,-1088.507603,-771.269294,-12611.815347,419.028153,0.008000,-0.016000,1.006000,192.000000,0.000000,32.000000,127.500000,64.000000,15.500000,56.000000,0.000000,0.000000,0.000000,1773142208.670772,0.000000
38.000000,9432.480864,8676.455459,-1445.442610,-6957.226331,-5089.045178,2717.614498,-14361.420496,-1328.475932,358.007891,-299.423969,-136.122124,-1586.236249,-1030.549530,-667.378386,-12564.183779,436.395459,0.008000,-0.016000,1.006000,192.000000,0.000000,0.000000,0.000000,0.000000,0.000000,0.000000,0.000000,0.000000,0.000000,1773142208.670784,0.000000
40.000000,9379.864857,8613.177671,-1479.216096,-6977.454660,-5148.031431,2644.881921,-14417.031636,-1383.729444,355.124516,-315.450169,-158.384461,-1606.263412,-1030.393068,-739.239244,-12578.108916,436.037831,0.008000,-0.016000,1.006000,192.000000,0.000000,0.000000,0.000000,0.000000,0.000000,0.000000,0.000000,0.000000,0.000000,1773142208.670796,0.000000
42.000000,9390.191363,8642.033773,-1442.514532,-6937.623851,-5112.469806,2691.753530,-14373.892769,-1351.833505,348.977786,-366.769775,-187.687598,-1635.052459,-1084.931324,-777.237210,-12606.138004,417.396476,0.008000,-0.016000,1.006000,192.000000,0.000000,0.000000,0.000000,0.000000,0.000000,0.000000,0.000000,0.000000,0.000000,1773142209.150638,0.000000
44.000000,9423.003724,8643.218415,-1462.653454,-6960.780258,-5110.659314,2680.801175,-14389.159011,-1361.981197,335.164408,-305.570698,-136.300938,-1582.212935,-1042.239492,-727.303413,-12554.796047,445.827895,0.008000,-0.016000,1.006000,192.000000,0.000000,0.000000,0.000000,0.000000,0.000000,0.000000,0.000000,0.000000,0.000000,1773142209.150706,0.000000
46.000000,9386.749194,8628.779188,-1495.175242,-6983.176706,-5136.453228,2655.431945,-14409.029711,-1370.206639,396.944630,-351.302368,-205.814863,-1634.761886,-1044.787591,-765.569599,-12599.164259,410.467435,0.008000,-0.018000,1.008000,192.000000,0.000000,32.000000,127.500000,56.000000,15.500000,64.000000,0.000000,0.000000,0.000000,1773142209.150759,0.000000
48.000000,9428.032866,8667.604168,-1430.981032,-6943.077677,-5082.630227,2708.249117,-14360.213501,-1328.364173,345.312100,-305.525995,-138.513760,-1588.717292,-1000.531137,-714.249994,-12567.871817,441.044622,0.008000,-0.018000,1.008000,192.000000,0.000000,0.000000,0.000000,0.000000,0.000000,0.000000,0.000000,0.000000,0.000000,1773142209.150805,0.000000
50.000000,9397.142756,8624.666467,-1509.882690,-6985.277770,-5119.890585,2664.998491,-14424.586526,-1389.898525,396.564650,-319.965222,-173.047206,-1607.515109,-1020.446541,-727.728096,-12581.059346,439.748220,0.008000,-0.018000,1.008000,192.000000,0.000000,0.000000,0.000000,0.000000,0.000000,0.000000,0.000000,0.000000,0.000000,1773142209.150869,0.000000
52.000000,9397.567439,8635.060028,-1423.001459,-6956.511075,-5105.719579,2697.117948,-14373.937473,-1345.351499,349.134248,-351.905865,-133.954005,-1633.152560,-1076.661179,-762.015672,-12585.663806,422.403267,0.008000,-0.018000,1.008000,192.000000,0.000000,0.000000,0.000000,0.000000,0.000000,0.000000,0.000000,0.000000,0.000000,1773142209.150914,0.000000
54.000000,9410.151471,8640.849130,-1461.357052,-6961.629625,-5107.552422,2699.777806,-14388.667272,-1355.096859,406.555880,-311.762132,-116.921975,-1589.186679,-965.327140,-715.278174,-12558.707602,451.818162,0.008000,-0.018000,1.008000,192.000000,0.000000,0.000000,0.000000,0.000000,0.000000,0.000000,0.000000,0.000000,0.000000,1773142209.150939,0.000000
56.000000,9376.646206,8624.688819,-1530.893329,-6976.359424,-5113.140358,2673.402747,-14417.098691,-1383.952961,360.243065,-350.140077,-217.661288,-1637.891130,-962.801392,-734.612433,-12607.121480,432.483903,0.008000,-0.012000,1.008000,192.000000,0.000000,32.000000,127.500000,80.000000,15.500000,64.000000,0.000000,0.000000,0.000000,1773142209.150950,0.000000
58.000000,9453.223282,8661.323328,-1430.109314,-6947.771543,-5078.293989,2693.094634,-14360.861702,-1325.659612,361.025376,-311.605669,-148.594397,-1592.159461,-965.505953,-722.698953,-12576.588997,445.067936,0.008000,-0.012000,1.008000,192.000000,0.000000,0.000000,0.000000,0.000000,0.000000,0.000000,0.000000,0.000000,0.000000,1773142209.150961,0.000000
60.000000,9359.748287,8606.069816,-1476.958570,-6987.334131,-5148.500818,2655.856628,-14422.798386,-1398.280430,438.228302,-342.316966,-130.333022,-1619.741514,-1038.394992,-751.063317,-12559.445209,429.891101,0.008000,-0.012000,1.008000,192.000000,0.000000,0.000000,0.000000,0.000000,0.000000,0.000000,0.000000,0.000000,0.000000,1773142209.150975,0.000000
62.000000,9433.084361,8652.941424,-1430.466942,-6953.605348,-5093.180250,2681.561134,-14373.535141,-1340.612929,444.799715,-344.328623,-242.069392,-1631.006793,-1042.507713,-764.161439,-12599.723053,415.049543,0.008000,-0.012000,1.008000,192.000000,0.000000,0.000000,0.000000,0.000000,0.000000,0.000000,0.000000,0.000000,0.000000,1773142209.150991,0.000000
64.000000,9428.301087,8649.722773,-1468.151983,-6954.119438,-5111.709846,2690.412425,-14382.811115,-1343.831580,447.146648,-295.423006,-132.970528,-1581.341217,-910.587717,-702.872956,-12555.645413,453.025157,0.008000,-0.012000,1.008000,192.000000,0.000000,0.000000,0.000000,0.000000,0.000000,0.000000,0.000000,0.000000,0.000000,1773142209.151007,0.000000
66.000000,9396.583962,8611.613049,-1391.038464,-6995.984256,-5157.665033,2638.601081,-14409.275581,-1373.090014,302.799082,-367.842659,-58.539219,-1642.517941,-1097.068321,-777.997169,-12604.998065,409.796883,0.014000,-0.010000,1.006000,192.000000,0.000000,56.000000,127.500000,88.000000,15.500000,56.000000,0.000000,0.000000,0.000000,1773142209.151023,0.000000
68.000000,9437.912338,8656.450648,-1366.183325,-6956.421668,-5096.845936,2685.249172,-14358.782990,-1323.111513,386.752234,-336.729030,-79.639265,-1609.683229,-1065.150030,-739.283948,-12557.008869,427.611223,0.014000,-0.010000,1.006000,192.000000,0.000000,0.000000,0.000000,0.000000,0.000000,0.000000,0.000000,0.000000,0.000000,1773142209.151035,0.000000
70.000000,9370.834752,8618.765607,-1511.760236,-6985.389529,-5112.559213,2661.444564,-14426.262906,-1396.984028,374.212906,-341.109972,-115.558519,-1615.740551,-1011.483492,-742.480247,-12571.425744,428.147665,0.014000,-0.010000,1.006000,192.000000,0.000000,0.000000,0.000000,0.000000,0.000000,0.000000,0.000000,0.000000,0.000000,1773142209.151047,0.000000
72.000000,9424.791864,8659.043450,-1517.661097,-6946.966880,-5077.981064,2711.847748,-14384.621606,-1355.812115,428.974680,-347.323757,-259.906085,-1631.811456,-923.976412,-746.235340,-12611.189498,441.648119,0.014000,-0.010000,1.006000,192.000000,0.000000,0.000000,0.000000,0.000000,0.000000,0.000000,0.000000,0.000000,0.000000,1773142209.151059,0.000000
74.000000,9411.246706,8637.474017,-1459.233637,-6970.547971,-5115.062608,2684.824489,-14394.545781,-1364.708109,419.072857,-298.932230,-155.948121,-1590.281915,-947.982186,-714.182939,-12547.308212,459.931846,0.014000,-0.010000,1.006000,192.000000,0.000000,0.000000,0.000000,0.000000,0.000000,0.000000,0.000000,0.000000,0.000000,1773142209.151070,0.000000
76.000000,9370.231255,8619.145586,-1502.193690,-6993.100881,-5132.049934,2666.943093,-14421.300819,-1388.870345,394.396531,-362.500592,-221.774008,-1645.468372,-996.172547,-757.634730,-12595.230352,417.776456,0.014000,-0.008000,1.010000,192.000000,0.000000,56.000000,127.500000,104.000000,15.500000,88.000000,0.000000,0.000000,0.000000,1773142209.151082,0.000000
78.000000,9453.245634,8676.075480,-1403.466034,-6950.654918,-5077.824602,2700.023675,-14356.369001,-1316.048362,357.784373,-319.607594,-90.993952,-1602.105987,-971.898552,-695.988619,-12565.726050,445.112639,0.014000,-0.008000,1.010000,192.000000,0.000000,0.000000,0.000000,0.000000,0.000000,0.000000,0.000000,0.000000,0.000000,1773142209.151093,0.000000
80.000000,9393.812346,8629.583851,-1472.935256,-6986.976503,-5139.515417,2662.293930,-14417.545726,-1386.210488,427.410057,-327.609518,-165.581723,-1601.055455,-1036.428039,-729.203311,-12578.690061,429.689935,0.014000,-0.008000,1.010000,192.000000,0.000000,0.000000,0.000000,0.000000,0.000000,0.000000,0.000000,0.000000,0.000000,1773142209.151105,0.000000
82.000000,9453.916187,8676.656625,-1442.358070,-6947.168046,-5104.266716,2680.778823,-14368.505999,-1325.771371,470.548924,-335.969071,-191.576802,-1620.412066,-947.065764,-771.805736,-12609.200193,422.895005,0.014000,-0.008000,1.010000,192.000000,0.000000,0.000000,0.000000,0.000000,0.000000,0.000000,0.000000,0.000000,0.000000,1773142209.151116,0.000000
84.000000,9386.704491,8651.421505,-1455.299730,-6962.434287,-5109.184099,2681.874058,-14389.784859,-1362.651749,334.516208,-297.412312,-98.414731,-1575.440356,-964.164849,-708.885575,-12556.181855,439.412944,0.014000,-0.008000,1.010000,192.000000,0.000000,0.000000,0.000000,0.000000,0.000000,0.000000,0.000000,0.000000,0.000000,1773142209.151128,0.000000
86.000000,9389.654921,8637.049334,-1454.003329,-6979.220447,-5126.417294,2653.487343,-14412.069549,-1372.777089,376.179859,-338.204245,-173.807165,-1630.604462,-1055.695242,-735.640614,-12601.041806,421.173921,0.012000,-0.008000,1.012000,192.000000,0.000000,40.000000,127.500000,96.000000,15.500000,88.000000,0.000000,0.000000,0.000000,1773142209.151139,0.000000
88.000000,9462.298091,8676.254293,-1431.405715,-6948.620909,-5064.078279,2691.440605,-14363.320394,-1325.771371,371.217772,-312.857367,-89.138757,-1595.467519,-956.229980,-724.822369,-12567.849465,438.205950,0.012000,-0.008000,1.012000,192.000000,0.000000,0.000000,0.000000,0.000000,0.000000,0.000000,0.000000,0.000000,0.000000,1773142209.151151,0.000000
90.000000,9394.080567,8626.678124,-1515.425922,-6993.167936,-5131.692306,2643.741982,-14424.653581,-1396.492290,422.626784,-328.391830,-144.660490,-1613.013639,-1000.218213,-744.894236,-12562.529750,424.951366,0.012000,-0.008000,1.012000,192.000000,0.000000,0.000000,0.000000,0.000000,0.000000,0.000000,0.000000,0.000000,0.000000,1773142209.151163,0.000000
92.000000,9459.772344,8678.221247,-1487.150966,-6954.767639,-5074.717709,2681.136451,-14372.439906,-1330.532292,485.882221,-342.965167,-270.411404,-1624.703601,-933.028869,-747.867018,-12602.159393,417.552938,0.012000,-0.008000,1.012000,192.000000,0.000000,0.000000,0.000000,0.000000,0.000000,0.000000,0.000000,0.000000,0.000000,1773142209.151174,0.000000
94.000000,9411.313762,8644.313651,-1399.845052,-6972.224351,-5126.752570,2675.772032,-14385.046290,-1353.085202,350.832981,-295.937097,-57.622797,-1578.524897,-970.490393,-720.128503,-12559.221692,445.067936,0.012000,-0.008000,1.012000,192.000000,0.000000,0.000000,0.000000,0.000000,0.000000,0.000000,0.000000,0.000000,0.000000,1773142209.151186,0.000000
96.000000,9410.620858,8634.724752,-1467.906114,-6990.530430,-5129.926518,2671.972236,-14416.986932,-1375.235781,360.913618,-358.700795,-161.513705,-1637.421744,-1028.493169,-764.921399,-12611.949457,422.067991,0.011000,-0.010000,1.012000,192.000000,0.000000,40.000000,127.500000,80.000000,15.500000,80.000000,0.000000,0.000000,0.000000,1773142209.151197,0.000000
98.000000,9454.296166,8684.725605,-1435.876064,-6945.581072,-5095.504832,2715.066399,-14364.907368,-1324.631432,390.753197,-325.217882,-99.912298,-1600.094330,-976.570067,-708.751465,-12566.798933,452.779287,0.011000,-0.010000,1.012000,192.000000,0.000000,0.000000,0.000000,0.000000,0.000000,0.000000,0.000000,0.000000,0.000000,1773142209.151208,0.000000
100.000000,9399.847317,8648.627537,-1505.546451,-6985.255418,-5132.161693,2673.581561,-14423.156014,-1390.099691,464.782174,-308.543480,-174.768290,-1595.244002,-984.862564,-729.248015,-12575.940797,445.872598,0.011000,-0.010000,1.012000,192.000000,0.000000,0.000000,0.000000,0.000000,0.000000,0.000000,0.000000,0.000000,0.000000,1773142209.151220,0.000000
102.000000,9472.378727,8677.953026,-1424.856654,-6960.355575,-5093.537878,2670.787593,-14369.020089,-1318.596461,463.038738,-336.572568,-233.531026,-1619.316831,-980.794547,-748.805791,-12607.255591,417.083552,0.011000,-0.010000,1.012000,192.000000,0.000000,0.000000,0.000000,0.000000,0.000000,0.000000,0.000000,0.000000,0.000000,1773142209.151231,0.000000
104.000000,9452.239806,8664.407869,-1453.466887,-6965.295311,-5096.935343,2677.068433,-14383.347557,-1340.322356,411.540319,-304.833091,-64.104803,-1573.763975,-944.696479,-711.210157,-12555.935986,433.467380,0.011000,-0.010000,1.012000,192.000000,0.000000,0.000000,0.000000,0.000000,0.000000,0.000000,0.000000,0.000000,0.000000,1773142209.151242,0.000000
106.000000,9423.182538,8648.068744,-1447.208398,-6989.055215,-5148.836094,2647.541779,-14405.185211,-1361.735327,332.638661,-344.686251,-120.565310,-1629.777447,-993.915021,-752.449125,-12623.192385,410.042752,0.010500,-0.010000,1.009000,192.000000,0.000000,40.000000,127.500000,88.000000,15.500000,56.000000,0.000000,0.000000,0.000000,1773142209.151254,0.000000
