Sample_index,EXG Channel 0,EXG Channel 1,EXG Channel 2,EXG Channel 3,EXG Channel 4,EXG Channel 5,EXG Channel 6,EXG Channel 7,EXG Channel 8,EXG Channel 9,EXG Channel 10,EXG Channel 11,EXG Channel 12,EXG Channel 13,EXG Channel 14,EXG Channel 15,Accel Channel 0,Accel Channel 1,Accel Channel 2,Not Used,Digital Channel 0 (D11),Digital Channel 1 (D12),Digital Channel 2 (D13),Digital Channel 3 (D17),Not Used,Digital Channel 4 (D18),Analog Channel 0,Analog Channel 1,Analog Channel 2,Timestamp,Marker Channel
210.000000,9195.999407,5500.451386,-1405.365933,-6056.473381,-3768.705281,3409.490396,-15584.865580,-3059.506781,-235.945014,-1492.090701,345.155638,-902.004647,-1119.598880,-857.792897,-9380.513058,5228.005973,0.008000,-0.014000,1.006000,192.000000,0.000000,0.000000,0.000000,0.000000,0.000000,0.000000,0.000000,0.000000,0.000000,1773140830.955750,101.000000
212.000000,9126.977220,5435.117237,-1475.617465,-6119.170024,-3853.820724,3354.728622,-15660.325069,-3132.060544,-223.070410,-1473.494050,358.521981,-882.402168,-1091.614496,-824.242929,-9359.100087,5249.128371,0.008000,-0.014000,1.006000,192.000000,0.000000,0.000000,0.000000,0.000000,0.000000,0.000000,0.000000,0.000000,0.000000,1773140830.955817,0.000000
214.000000,9154.022831,5455.882008,-1454.785640,-6081.194410,-3814.839281,3366.887971,-15629.971400,-3108.926488,-272.266599,-1548.953539,280.424986,-958.331044,-1160.480220,-898.629534,-9423.271945,5211.622144,0.008000,-0.014000,1.006000,192.000000,0.000000,0.000000,0.000000,0.000000,0.000000,0.000000,0.000000,0.000000,0.000000,1773140830.955871,0.000000
216.000000,9177.782736,5484.425185,-1429.148189,-6080.792079,-3791.794633,3367.178543,-15608.759595,-3086.530040,-212.341572,-1455.210323,373.296484,-865.057214,-1103.416217,-848.293406,-9335.608403,5252.324671,0.006000,-0.014000,1.004000,192.000000,0.000000,24.000000,127.500000,72.000000,15.500000,48.000000,0.000000,0.000000,0.000000,1773140830.955924,0.000000
218.000000,9117.120101,5426.891795,-1490.459024,-6121.986344,-3883.056805,3309.376932,-15679.525218,-3152.490038,-255.525143,-1513.771893,302.061475,-932.715944,-1161.575456,-910.475959,-9409.659733,5209.565784,0.006000,-0.014000,1.004000,192.000000,0.000000,0.000000,0.000000,0.000000,0.000000,0.000000,0.000000,0.000000,0.000000,1773140830.955978,0.000000
220.000000,9197.698140,5500.093758,-1411.870290,-6063.961215,-3788.978313,3392.994808,-15591.705214,-3068.648645,-239.856570,-1499.779701,330.872873,-911.191214,-1134.105162,-904.061008,-9387.732671,5225.659040,0.006000,-0.014000,1.004000,192.000000,0.000000,0.000000,0.000000,0.000000,0.000000,0.000000,0.000000,0.000000,0.000000,1773140830.956010,0.000000
222.000000,9140.097694,5450.629348,-1476.444480,-6117.784216,-3851.227921,3330.298165,-15663.409610,-3127.478436,-212.878014,-1474.544582,360.041900,-884.436176,-1096.531879,-857.323510,-9362.877531,5243.987470,0.006000,-0.014000,1.004000,192.000000,0.000000,0.000000,0.000000,0.000000,0.000000,0.000000,0.000000,0.000000,0.000000,1773140830.956034,0.000000
224.000000,9165.511628,5472.645816,-1448.728317,-6094.001960,-3809.139587,3369.547828,-15634.665267,-3104.053808,-260.643692,-1527.875844,292.114948,-950.195009,-1153.327662,-909.112502,-9424.188366,5209.297563,0.006000,-0.014000,1.004000,192.000000,0.000000,0.000000,0.000000,0.000000,0.000000,0.000000,0.000000,0.000000,0.000000,1773140830.956057,0.000000
226.000000,9183.348320,5492.762386,-1427.114180,-6073.147782,-3806.904412,3388.390349,-15612.738206,-3084.697197,-204.049075,-1455.143268,379.264400,-863.783164,-1095.347237,-803.701675,-9341.106932,5262.360604,0.010000,-0.014000,1.004000,192.000000,0.000000,40.000000,127.500000,72.000000,15.500000,48.000000,0.000000,0.000000,0.000000,1773140830.956080,0.000000
228.000000,9112.493290,5423.539033,-1495.979905,-6129.250661,-3882.654474,3329.448799,-15685.537837,-3158.390899,-255.614550,-1511.581422,301.055646,-936.493389,-1166.425784,-913.158168,-9407.849241,5228.005973,0.010000,-0.014000,1.004000,192.000000,0.000000,0.000000,0.000000,0.000000,0.000000,0.000000,0.000000,0.000000,0.000000,1773140830.956103,0.000000
230.000000,9184.600018,5490.996598,-1418.285241,-6065.279968,-3784.776185,3399.588573,-15593.448650,-3075.845906,-248.864323,-1504.272402,323.161521,-918.254366,-1142.084735,-861.704452,-9385.631607,5235.046772,0.010000,-0.014000,1.004000,192.000000,0.000000,0.000000,0.000000,0.000000,0.000000,0.000000,0.000000,0.000000,0.000000,1773140830.956126,0.000000
232.000000,9120.048180,5433.999650,-1479.216096,-6109.447015,-3878.295884,3328.487674,-15665.957709,-3141.157704,-236.704974,-1484.804032,341.579359,-893.622743,-1131.087676,-856.429441,-9364.173933,5247.474342,0.010000,-0.014000,1.004000,192.000000,0.000000,0.000000,0.000000,0.000000,0.000000,0.000000,0.000000,0.000000,0.000000,1773140830.956148,0.000000
234.000000,9154.000479,5471.707043,-1455.187971,-6081.842611,-3830.083171,3361.456497,-15635.693447,-3109.105302,-283.330713,-1540.348117,273.764166,-958.129878,-1187.302314,-907.011438,-9432.503215,5209.766949,0.010000,-0.014000,1.004000,192.000000,0.000000,0.000000,0.000000,0.000000,0.000000,0.000000,0.000000,0.000000,0.000000,1773140830.956171,0.000000
236.000000,9188.176297,5505.636991,-1435.809009,-6064.788230,-3796.153223,3388.926791,-15614.749863,-3083.579610,-209.078218,-1445.174390,368.915542,-860.720975,-1080.975065,-846.594673,-9339.162331,5263.165267,0.006000,-0.012000,1.010000,192.000000,0.000000,24.000000,127.500000,80.000000,15.500000,72.000000,0.000000,0.000000,0.000000,1773140830.956194,0.000000
238.000000,9132.900433,5450.651699,-1497.008085,-6114.520861,-3873.445555,3337.338965,-15683.213256,-3146.008032,-246.942073,-1500.919640,299.826300,-924.579909,-1155.115802,-893.287467,-9412.900735,5232.856301,0.006000,-0.012000,1.010000,192.000000,0.000000,0.000000,0.000000,0.000000,0.000000,0.000000,0.000000,0.000000,0.000000,1773140830.956217,0.000000
240.000000,9225.615469,5537.622337,-1413.457264,-6051.645404,-3770.806345,3410.429169,-15586.720775,-3052.354223,-221.192863,-1466.989692,337.667803,-890.627610,-1128.919557,-830.568472,-9389.476107,5239.181845,0.006000,-0.012000,1.010000,192.000000,0.000000,0.000000,0.000000,0.000000,0.000000,0.000000,0.000000,0.000000,0.000000,1773140830.956240,0.000000
242.000000,9165.802201,5479.977188,-1474.164602,-6101.467443,-3861.509724,3347.777229,-15653.887767,-3114.156796,-200.763369,-1449.331814,366.233333,-865.079566,-1100.532842,-843.957167,-9368.532523,5250.603587,0.006000,-0.012000,1.010000,192.000000,0.000000,0.000000,0.000000,0.000000,0.000000,0.000000,0.000000,0.000000,0.000000,1773140830.956263,0.000000
244.000000,9179.526172,5492.158889,-1450.203532,-6079.249809,-3838.018040,3359.936578,-15625.769273,-3094.017874,-251.077145,-1512.207271,298.284030,-933.073572,-1171.343168,-918.500235,-9447.590643,5206.548298,0.006000,-0.012000,1.010000,192.000000,0.000000,0.000000,0.000000,0.000000,0.000000,0.000000,0.000000,0.000000,0.000000,1773140830.956286,0.000000
246.000000,9191.752576,5505.234659,-1427.158883,-6081.127355,-3815.867462,3368.407889,-15605.697406,-3080.048034,-199.511671,-1440.659337,379.867897,-855.133039,-1092.262696,-813.000001,-9358.720107,5251.050621,0.004000,-0.010000,1.010000,192.000000,0.000000,8.000000,127.500000,96.000000,15.500000,72.000000,0.000000,0.000000,0.000000,1773140830.956310,0.000000
248.000000,9114.683761,5428.635231,-1493.945896,-6128.289536,-3887.460099,3306.381799,-15683.906160,-3161.654253,-258.162648,-1517.974021,296.719408,-941.634290,-1181.043825,-937.610976,-9421.260288,5218.662944,0.004000,-0.010000,1.010000,192.000000,0.000000,0.000000,0.000000,0.000000,0.000000,0.000000,0.000000,0.000000,0.000000,1773140830.956333,0.000000
250.000000,9195.150041,5504.899383,-1414.887776,-6073.863038,-3789.559458,3389.843212,-15598.343682,-3083.490203,-251.524180,-1506.217004,315.673687,-921.383610,-1141.771810,-890.001761,-9384.536372,5232.766894,0.004000,-0.010000,1.010000,192.000000,0.000000,0.000000,0.000000,0.000000,0.000000,0.000000,0.000000,0.000000,0.000000,1773140830.956355,0.000000
252.000000,9144.255119,5457.916016,-1473.404643,-6124.489739,-3862.180276,3343.418639,-15668.975195,-3143.661099,-230.401782,-1483.775852,337.265472,-899.970639,-1124.024525,-826.880434,-9355.680270,5247.720211,0.004000,-0.010000,1.010000,192.000000,0.000000,0.000000,0.000000,0.000000,0.000000,0.000000,0.000000,0.000000,0.000000,1773140830.956378,0.000000
254.000000,9179.995558,5490.348398,-1449.018890,-6097.891164,-3828.451494,3374.174639,-15635.179357,-3106.221927,-265.762242,-1537.978832,281.430814,-960.007424,-1187.056445,-951.446706,-9423.361352,5203.977848,0.004000,-0.010000,1.010000,192.000000,0.000000,0.000000,0.000000,0.000000,0.000000,0.000000,0.000000,0.000000,0.000000,1773140830.956401,0.000000
0.000000,9217.546489,5525.217119,-1430.735163,-6079.205105,-3801.964677,3381.304846,-15607.396139,-3072.448441,-199.064636,-1452.952797,379.845545,-864.811345,-1091.614496,-829.428533,-9344.236177,5256.638558,0.004000,-0.009000,1.009000,192.000000,0.000000,16.000000,127.500000,96.000000,15.500000,64.000000,0.000000,0.000000,0.000000,1773140830.956424,0.000000
2.000000,9159.811933,5469.494220,-1485.966323,-6117.538347,-3884.666131,3327.370087,-15677.222988,-3136.285023,-235.453276,-1501.880765,317.059495,-926.233938,-1158.334453,-912.442912,-9414.778282,5215.779569,0.004000,-0.009000,1.009000,192.000000,0.000000,0.000000,0.000000,0.000000,0.000000,0.000000,0.000000,0.000000,0.000000,1773140830.956446,0.000000
4.000000,9245.799094,5550.720459,-1412.451436,-6054.104096,-3783.189211,3404.371846,-15588.285397,-3053.561217,-213.950898,-1470.834192,344.552141,-893.801557,-1127.936080,-878.423557,-9388.984369,5232.543377,0.004000,-0.009000,1.009000,192.000000,0.000000,0.000000,0.000000,0.000000,0.000000,0.000000,0.000000,0.000000,0.000000,1773140830.956469,0.000000
6.000000,9192.221962,5501.166642,-1471.281227,-6094.761919,-3852.881950,3347.218436,-15656.391162,-3113.016857,-193.454348,-1449.085945,365.294560,-867.739423,-1104.064417,-830.434362,-9374.723956,5248.726040,0.004000,-0.009000,1.009000,192.000000,0.000000,0.000000,0.000000,0.000000,0.000000,0.000000,0.000000,0.000000,0.000000,1773140830.956493,0.000000
8.000000,9218.753483,5525.395933,-1447.051936,-6085.731815,-3824.137607,3372.274741,-15629.770235,-3087.558220,-237.554340,-1496.739864,299.871004,-929.832569,-1177.154622,-914.141645,-9438.158207,5211.353923,0.004000,-0.009000,1.009000,192.000000,0.000000,0.000000,0.000000,0.000000,0.000000,0.000000,0.000000,0.000000,0.000000,1773140830.956516,0.000000
10.000000,9240.658193,5548.597044,-1425.661317,-6065.928169,-3800.847089,3393.397140,-15605.250371,-3062.613674,-172.689578,-1422.241500,391.557859,-841.967862,-1078.315208,-802.002943,-9355.054421,5260.550113,0.004000,-0.010500,1.009500,192.000000,0.000000,16.000000,127.500000,80.000000,15.500000,72.000000,0.000000,0.000000,0.000000,1773140830.956538,0.000000
12.000000,9170.831343,5481.340645,-1483.150003,-6116.554870,-3893.048035,3323.123255,-15675.211331,-3132.127599,-222.511616,-1485.273419,323.630908,-915.125121,-1155.607540,-890.828775,-9417.259326,5221.099284,0.004000,-0.010500,1.009500,192.000000,0.000000,0.000000,0.000000,0.000000,0.000000,0.000000,0.000000,0.000000,0.000000,1773140830.956561,0.000000
14.000000,9242.044001,5547.010070,-1407.690514,-6064.028271,-3805.742121,3384.769366,-15587.793659,-3057.562179,-222.153988,-1484.446405,338.383059,-895.522642,-1137.256758,-876.791880,-9397.165107,5228.765932,0.004000,-0.010500,1.009500,192.000000,0.000000,0.000000,0.000000,0.000000,0.000000,0.000000,0.000000,0.000000,0.000000,1773140830.956584,0.000000
16.000000,9176.709852,5483.151136,-1471.772965,-6117.895975,-3867.365881,3323.369124,-15659.341593,-3127.143160,-202.618563,-1469.291922,359.594865,-886.157261,-1114.301516,-870.108708,-9373.807534,5239.874749,0.004000,-0.010500,1.009500,192.000000,0.000000,0.000000,0.000000,0.000000,0.000000,0.000000,0.000000,0.000000,0.000000,1773140830.956606,0.000000
18.000000,9198.860431,5504.005313,-1446.828419,-6096.728873,-3843.918901,3343.217473,-15634.173528,-3104.634953,-259.079070,-1529.351059,284.247134,-954.151267,-1201.540375,-899.747121,-9440.661602,5206.794167,0.004000,-0.010500,1.009500,192.000000,0.000000,0.000000,0.000000,0.000000,0.000000,0.000000,0.000000,0.000000,0.000000,1773140830.956629,0.000000
20.000000,9231.404571,5535.968308,-1426.018945,-6082.669626,-3806.837357,3364.161058,-15610.994769,-3075.532982,-188.648723,-1450.762326,372.715339,-864.520772,-1096.934211,-866.934760,-9345.577281,5246.401459,0.004000,-0.009250,1.008750,192.000000,0.000000,16.000000,127.500000,96.000000,15.500000,64.000000,0.000000,0.000000,0.000000,1773140830.956652,0.000000
22.000000,9185.024701,5493.365883,-1481.920657,-6123.550966,-3861.219151,3310.896851,-15679.167590,-3130.026535,-233.240453,-1502.953649,309.817530,-925.451627,-1160.793145,-895.924973,-9405.479956,5212.180938,0.004000,-0.009250,1.008750,192.000000,0.000000,0.000000,0.000000,0.000000,0.000000,0.000000,0.000000,0.000000,0.000000,1773140830.956674,0.000000
24.000000,9278.522048,5578.637788,-1390.770243,-6059.714384,-3783.926819,3403.030742,-15586.497258,-3038.987880,-202.149177,-1470.208343,352.844638,-889.800595,-1113.407447,-888.548897,-9382.636473,5228.922394,0.004000,-0.009250,1.008750,192.000000,0.000000,0.000000,0.000000,0.000000,0.000000,0.000000,0.000000,0.000000,0.000000,1773140830.956697,0.000000
26.000000,9222.285059,5529.151026,-1454.740936,-6096.192431,-3833.681802,3353.253407,-15654.848892,-3099.426997,-167.235752,-1434.244386,380.806670,-857.882304,-1082.293818,-838.972728,-9361.894055,5251.452953,0.004000,-0.009250,1.008750,192.000000,0.000000,0.000000,0.000000,0.000000,0.000000,0.000000,0.000000,0.000000,0.000000,1773140830.956720,0.000000
28.000000,9245.128542,5550.027555,-1431.897453,-6073.416003,-3799.595392,3374.621674,-15624.092892,-3071.979054,-224.411514,-1488.402663,314.578451,-918.232014,-1164.302369,-906.564403,-9431.564442,5213.477339,0.004000,-0.009250,1.008750,192.000000,0.000000,0.000000,0.000000,0.000000,0.000000,0.000000,0.000000,0.000000,0.000000,1773140830.956743,0.000000
30.000000,9263.971062,5565.517314,-1412.317325,-6064.810582,-3808.133758,3390.759634,-15603.149307,-3054.589397,-162.206610,-1413.524319,402.353752,-833.854179,-1083.411405,-812.284745,-9347.276014,5260.527761,0.006000,-0.010625,1.005375,192.000000,0.000000,32.000000,127.500000,80.000000,15.500000,40.000000,0.000000,0.000000,0.000000,1773140830.956766,0.000000
32.000000,9196.781718,5501.747787,-1478.836117,-6121.136978,-3885.962532,3331.505159,-15673.333785,-3122.739866,-207.670058,-1486.480413,327.296594,-911.861767,-1139.246063,-890.180575,-9423.473111,5218.350019,0.006000,-0.010625,1.005375,192.000000,0.000000,0.000000,0.000000,0.000000,0.000000,0.000000,0.000000,0.000000,0.000000,1773140830.956782,0.000000
34.000000,9269.760164,5573.027500,-1408.182252,-6056.808657,-3792.107557,3392.726587,-15584.351490,-3044.844037,-200.875127,-1461.737032,345.826190,-889.040636,-1116.961374,-833.854179,-9395.265209,5232.342211,0.006000,-0.010625,1.005375,192.000000,0.000000,0.000000,0.000000,0.000000,0.000000,0.000000,0.000000,0.000000,0.000000,1773140830.956794,0.000000
36.000000,9206.169451,5513.080122,-1463.346358,-6106.518937,-3867.030605,3332.198063,-15656.927604,-3113.061561,-188.760482,-1445.844942,362.925275,-870.488688,-1120.269432,-838.548045,-9371.550008,5240.679412,0.006000,-0.010625,1.005375,192.000000,0.000000,0.000000,0.000000,0.000000,0.000000,0.000000,0.000000,0.000000,0.000000,1773140830.956806,0.000000
38.000000,9229.147044,5531.296793,-1443.118029,-6083.630751,-3839.895587,3355.622692,-15628.607944,-3089.502822,-239.811866,-1510.150911,291.466748,-938.147418,-1178.875706,-953.905398,-9439.164035,5199.976885,0.006000,-0.010625,1.005375,192.000000,0.000000,0.000000,0.000000,0.000000,0.000000,0.000000,0.000000,0.000000,0.000000,1773140830.956816,0.000000
40.000000,9248.302489,5549.334651,-1418.464055,-6073.818335,-3815.062799,3371.425375,-15603.752804,-3069.319197,-181.607924,-1433.015041,383.801804,-851.735574,-1103.952659,-853.948397,-9353.243930,5246.669679,0.008000,-0.012313,1.004687,192.000000,0.000000,40.000000,127.500000,72.000000,15.500000,48.000000,0.000000,0.000000,0.000000,1773140830.956826,0.000000
42.000000,9189.070367,5489.767252,-1482.568858,-6125.115588,-3887.661265,3311.098017,-15675.948939,-3136.977927,-228.881863,-1502.663076,312.097408,-928.491465,-1151.450116,-914.007534,-9411.850203,5212.538566,0.008000,-0.012313,1.004687,192.000000,0.000000,0.000000,0.000000,0.000000,0.000000,0.000000,0.000000,0.000000,0.000000,1773140830.956837,0.000000
44.000000,9276.577446,5572.356948,-1406.304706,-6065.324672,-3771.231028,3397.040474,-15588.352452,-3049.314386,-208.899404,-1481.495974,342.585187,-902.384627,-1100.376380,-871.047481,-9389.565514,5226.061371,0.008000,-0.012313,1.004687,192.000000,0.000000,0.000000,0.000000,0.000000,0.000000,0.000000,0.000000,0.000000,0.000000,1773140830.956847,0.000000
46.000000,9227.604774,5526.513520,-1455.903227,-6102.361512,-3860.392137,3347.285491,-15656.100590,-3105.685485,-182.077310,-1449.242407,371.955379,-869.751080,-1119.621232,-852.003795,-9368.532523,5241.752296,0.008000,-0.012313,1.004687,192.000000,0.000000,0.000000,0.000000,0.000000,0.000000,0.000000,0.000000,0.000000,0.000000,1773140830.956857,0.000000
48.000000,9260.953577,5560.823448,-1428.298822,-6080.836783,-3821.120122,3376.476869,-15624.808148,-3074.393043,-222.086933,-1496.784567,309.325792,-928.402058,-1173.310122,-899.523604,-9435.699515,5206.570650,0.008000,-0.012313,1.004687,192.000000,0.000000,0.000000,0.000000,0.000000,0.000000,0.000000,0.000000,0.000000,0.000000,1773140830.956868,0.000000
50.000000,9287.798022,5588.204335,-1406.014133,-6058.641500,-3786.676083,3389.999675,-15601.092947,-3051.258987,-156.037528,-1404.985953,401.839662,-833.295385,-1069.195696,-832.066039,-9347.924214,5251.452953,0.009000,-0.013156,1.005344,192.000000,0.000000,40.000000,127.500000,72.000000,15.500000,56.000000,0.000000,0.000000,0.000000,1773140830.956878,0.000000
52.000000,9223.760274,5525.664154,-1470.454212,-6117.918327,-3851.764363,3337.540130,-15671.746811,-3118.671849,-196.427130,-1467.369672,331.498722,-903.479863,-1122.348144,-867.672368,-9413.325419,5218.998220,0.009000,-0.013156,1.005344,192.000000,0.000000,0.000000,0.000000,0.000000,0.000000,0.000000,0.000000,0.000000,0.000000,1773140830.956889,0.000000
54.000000,9296.805775,5589.836012,-1393.184232,-6053.500599,-3782.004569,3403.835404,-15579.501162,-3038.183217,-177.808127,-1445.733183,363.886400,-882.066891,-1097.113025,-843.264263,-9390.750157,5228.520063,0.009000,-0.013156,1.005344,192.000000,0.000000,0.000000,0.000000,0.000000,0.000000,0.000000,0.000000,0.000000,0.000000,1773140830.956899,0.000000
56.000000,9220.474567,5519.718590,-1462.094660,-6103.680265,-3846.511703,3334.612052,-15653.530139,-3111.966325,-178.277514,-1456.193800,373.587057,-868.052348,-1103.952659,-870.108708,-9371.639415,5241.618185,0.009000,-0.013156,1.005344,192.000000,0.000000,0.000000,0.000000,0.000000,0.000000,0.000000,0.000000,0.000000,0.000000,1773140830.956910,0.000000
58.000000,9231.650440,5530.626241,-1442.648642,-6089.933943,-3830.060819,3353.387517,-15631.513671,-3098.868203,-237.666099,-1521.930280,293.344294,-945.992881,-1179.568610,-887.006627,-9440.013402,5203.441406,0.009000,-0.013156,1.005344,192.000000,0.000000,0.000000,0.000000,0.000000,0.000000,0.000000,0.000000,0.000000,0.000000,1773140830.956921,0.000000
60.000000,9251.163513,5549.155837,-1424.342564,-6080.389748,-3807.172633,3374.152288,-15612.425281,-3082.462023,-187.464081,-1450.359994,372.111842,-867.091223,-1089.938115,-871.807441,-9337.932985,5251.095325,0.009000,-0.013156,1.005344,192.000000,0.000000,0.000000,0.000000,0.000000,0.000000,0.000000,0.000000,0.000000,0.000000,1773140830.956931,0.000000
62.000000,9197.720492,5497.255087,-1481.183050,-6129.854158,-3878.429994,3335.528473,-15681.179247,-3141.560035,-231.832293,-1508.116902,304.609573,-939.980261,-1152.120668,-918.924918,-9402.730692,5216.897156,0.016000,-0.020000,1.006000,192.000000,0.000000,64.000000,127.500000,48.000000,15.500000,56.000000,0.000000,0.000000,0.000000,1773140830.956941,0.000000
64.000000,9288.692092,5580.492983,-1397.229898,-6065.391727,-3777.221296,3394.224154,-15589.067708,-3052.041298,-201.478625,-1475.103375,343.903940,-902.429331,-1116.581394,-880.122290,-9382.748232,5231.917528,0.016000,-0.020000,1.006000,192.000000,0.000000,0.000000,0.000000,0.000000,0.000000,0.000000,0.000000,0.000000,0.000000,1773140830.956952,0.000000
66.000000,9234.667925,5530.514482,-1456.998462,-6107.323600,-3842.823665,3333.986203,-15657.642860,-3111.094607,-175.818822,-1450.091773,373.855278,-873.059138,-1104.578507,-864.163144,-9357.379002,5249.173075,0.016000,-0.020000,1.006000,192.000000,0.000000,0.000000,0.000000,0.000000,0.000000,0.000000,0.000000,0.000000,0.000000,1773140830.956962,0.000000
68.000000,9266.675623,5560.488172,-1438.580625,-6086.849402,-3812.402941,3368.631407,-15629.233793,-3081.500898,-215.761389,-1508.072198,308.811701,-941.209607,-1155.473430,-900.417674,-9424.925974,5210.839833,0.016000,-0.020000,1.006000,192.000000,0.000000,0.000000,0.000000,0.000000,0.000000,0.000000,0.000000,0.000000,0.000000,1773140830.956972,0.000000
70.000000,9299.040949,5593.278181,-1409.858633,-6064.475306,-3795.236802,3394.894707,-15600.578857,-3048.353261,-149.957854,-1417.078247,404.186595,-838.995080,-1070.179173,-818.654992,-9350.539368,5257.219703,0.016000,-0.020000,1.006000,192.000000,0.000000,0.000000,0.000000,0.000000,0.000000,0.000000,0.000000,0.000000,0.000000,1773140830.956983,0.000000
72.000000,9235.338478,5532.772009,-1466.117974,-6118.007734,-3861.107392,3331.929842,-15670.539817,-3114.514424,-190.950953,-1475.237486,335.678498,-900.998819,-1129.433647,-884.011493,-9413.884212,5218.797054,0.010000,-0.018000,1.010000,192.000000,0.000000,40.000000,127.500000,56.000000,15.500000,72.000000,0.000000,0.000000,0.000000,1773140830.956994,0.000000
74.000000,9306.126452,5598.217916,-1390.993761,-6042.615300,-3784.776185,3394.939410,-15581.959853,-3037.557368,-182.054959,-1450.628215,358.969016,-881.888077,-1115.910842,-859.871609,-9393.924104,5227.581290,0.010000,-0.018000,1.010000,192.000000,0.000000,0.000000,0.000000,0.000000,0.000000,0.000000,0.000000,0.000000,0.000000,1773140831.436729,0.000000
76.000000,9246.737867,5547.121828,-1456.909055,-6094.918382,-3836.095790,3340.691726,-15654.155988,-3101.505709,-167.727490,-1444.593244,375.486955,-863.179667,-1098.856461,-827.953318,-9374.120459,5244.121581,0.010000,-0.018000,1.010000,192.000000,0.000000,0.000000,0.000000,0.000000,0.000000,0.000000,0.000000,0.000000,0.000000,1773140831.436781,0.000000
78.000000,9270.698937,5566.903122,-1433.059744,-6079.898009,-3819.823720,3352.135819,-15626.283363,-3077.879915,-210.374619,-1493.387102,309.526957,-924.579909,-1152.925331,-940.203779,-9435.408942,5204.648400,0.010000,-0.018000,1.010000,192.000000,0.000000,0.000000,0.000000,0.000000,0.000000,0.000000,0.000000,0.000000,0.000000,1773140831.436832,0.000000
80.000000,9281.807754,5577.296683,-1415.960659,-6076.344082,-3798.857784,3379.919038,-15606.502069,-3067.084022,-156.395156,-1421.034505,393.569516,-850.573284,-1069.016882,-831.797818,-9349.220616,5254.515142,0.010000,-0.018000,1.010000,192.000000,0.000000,0.000000,0.000000,0.000000,0.000000,0.000000,0.000000,0.000000,0.000000,1773140831.436871,0.000000
82.000000,9205.856527,5500.361979,-1486.033378,-6128.915385,-3876.306579,3329.739372,-15682.430945,-3144.488113,-211.805130,-1501.053751,310.778655,-932.984165,-1139.514284,-900.194156,-9410.754968,5221.881595,0.008000,-0.016000,1.002000,192.000000,0.000000,32.000000,127.500000,64.000000,15.500000,40.000000,0.000000,0.000000,0.000000,1773140831.436916,0.000000
84.000000,9280.868981,5567.663082,-1401.767302,-6072.007843,-3787.480746,3404.662419,-15593.292188,-3062.658377,-204.093779,-1492.783605,332.862178,-916.063895,-1126.527921,-888.392435,-9389.543163,5233.370392,0.008000,-0.016000,1.002000,192.000000,0.000000,0.000000,0.000000,0.000000,0.000000,0.000000,0.000000,0.000000,0.000000,1773140831.436953,0.000000
86.000000,9231.695143,5525.060657,-1458.808954,-6119.594707,-3858.022852,3343.038659,-15659.900386,-3117.822482,-183.418415,-1461.625273,360.757156,-887.520717,-1116.894319,-864.118441,-9352.998060,5249.709517,0.008000,-0.016000,1.002000,192.000000,0.000000,0.000000,0.000000,0.000000,0.000000,0.000000,0.000000,0.000000,0.000000,1773140831.436966,0.000000
88.000000,9266.228588,5556.174285,-1431.606881,-6094.963085,-3819.555500,3356.270892,-15631.916002,-3085.725377,-225.707916,-1514.218928,297.009980,-947.579854,-1177.713415,-905.826796,-9421.193233,5207.978810,0.008000,-0.016000,1.002000,192.000000,0.000000,0.000000,0.000000,0.000000,0.000000,0.000000,0.000000,0.000000,0.000000,1773140831.436977,0.000000
90.000000,9302.684284,5592.317056,-1408.830453,-6068.498620,-3793.649828,3383.227096,-15605.205668,-3056.265778,-151.343662,-1426.465979,394.888269,-850.036842,-1070.514449,-859.357519,-9338.670592,5251.832932,0.008000,-0.016000,1.002000,192.000000,0.000000,0.000000,0.000000,0.000000,0.000000,0.000000,0.000000,0.000000,0.000000,1773140831.436988,0.000000
92.000000,9244.815617,5541.220968,-1468.442555,-6122.634545,-3853.284282,3345.206779,-15676.328918,-3121.868148,-186.391197,-1469.560143,330.269376,-909.246613,-1130.528883,-894.226240,-9402.484823,5225.547281,0.006000,-0.018000,1.002000,192.000000,0.000000,24.000000,127.500000,56.000000,15.500000,40.000000,0.000000,0.000000,0.000000,1773140831.437000,0.000000
94.000000,9332.747380,5626.783446,-1391.284334,-6046.616262,-3770.940455,3409.021009,-15579.165885,-3028.773132,-167.951008,-1441.195779,359.706624,-878.647075,-1091.748606,-862.151487,-9384.916351,5240.500598,0.006000,-0.018000,1.002000,192.000000,0.000000,0.000000,0.000000,0.000000,0.000000,0.000000,0.000000,0.000000,0.000000,1773140831.437011,0.000000
96.000000,9272.889408,5567.976006,-1450.225884,-6092.258524,-3835.335831,3356.561465,-15648.657459,-3094.621372,-145.822781,-1412.987877,386.841641,-848.472220,-1082.070301,-835.195283,-9368.040784,5251.274139,0.006000,-0.018000,1.002000,192.000000,0.000000,0.000000,0.000000,0.000000,0.000000,0.000000,0.000000,0.000000,0.000000,1773140831.437022,0.000000
98.000000,9296.850478,5584.538649,-1420.051029,-6080.054471,-3822.193005,3372.006520,-15618.773177,-3067.933389,-194.281363,-1482.814727,320.434609,-922.858825,-1146.286863,-899.456549,-9435.341887,5216.316011,0.006000,-0.018000,1.002000,192.000000,0.000000,0.000000,0.000000,0.000000,0.000000,0.000000,0.000000,0.000000,0.000000,1773140831.437033,0.000000
100.000000,9314.396598,5604.431701,-1401.834357,-6067.604550,-3792.509889,3380.589590,-15596.197915,-3048.286205,-132.076458,-1405.209470,409.685124,-836.044650,-1052.700109,-818.476178,-9352.595729,5252.414078,0.006000,-0.018000,1.002000,192.000000,0.000000,0.000000,0.000000,0.000000,0.000000,0.000000,0.000000,0.000000,0.000000,1773140831.437044,0.000000
102.000000,9243.563919,5536.549453,-1470.007178,-6121.651068,-3885.359035,3317.580023,-15671.590349,-3121.197596,-188.268744,-1474.768099,331.565777,-910.230089,-1146.175104,-865.146621,-9421.483805,5218.260612,0.008000,-0.012000,1.006000,192.000000,0.000000,32.000000,127.500000,80.000000,15.500000,56.000000,0.000000,0.000000,0.000000,1773140831.437055,0.000000
104.000000,9320.230403,5607.695056,-1393.765377,-6056.741602,-3784.642075,3397.643971,-15581.289301,-3040.798371,-180.132709,-1455.545599,355.169219,-889.174746,-1113.921537,-892.035769,-9394.974636,5228.587118,0.008000,-0.012000,1.006000,192.000000,0.000000,0.000000,0.000000,0.000000,0.000000,0.000000,0.000000,0.000000,0.000000,1773140831.437066,0.000000
106.000000,9254.180998,5545.959538,-1459.859486,-6111.413969,-3836.654584,3335.148494,-15656.167645,-3110.446407,-164.128860,-1436.434857,374.414071,-871.896848,-1088.060568,-833.205978,-9363.123401,5249.396592,0.008000,-0.012000,1.006000,192.000000,0.000000,0.000000,0.000000,0.000000,0.000000,0.000000,0.000000,0.000000,0.000000,1773140831.437077,0.000000
108.000000,9268.977853,5556.509561,-1439.698212,-6096.147728,-3811.955906,3373.682901,-15632.966534,-3094.196688,-215.739037,-1505.233527,298.351085,-947.512799,-1161.620159,-914.499273,-9422.556689,5214.282002,0.008000,-0.012000,1.006000,192.000000,0.000000,0.000000,0.000000,0.000000,0.000000,0.000000,0.000000,0.000000,0.000000,1773140831.437088,0.000000
110.000000,9301.320827,5586.170326,-1410.775055,-6073.840687,-3774.203810,3401.175547,-15607.329083,-3066.167601,-150.360185,-1426.644793,391.513156,-858.418746,-1065.105327,-843.241911,-9335.049610,5263.120563,0.008000,-0.012000,1.006000,192.000000,0.000000,0.000000,0.000000,0.000000,0.000000,0.000000,0.000000,0.000000,0.000000,1773140831.437099,0.000000
112.000000,9243.429809,5531.386200,-1464.508648,-6118.365361,-3842.130761,3336.623709,-15677.111230,-3130.182997,-189.051055,-1482.591210,325.150827,-925.228110,-1135.133342,-908.866633,-9394.527602,5230.107037,0.006000,-0.014000,1.008000,192.000000,0.000000,24.000000,127.500000,72.000000,15.500000,64.000000,0.000000,0.000000,0.000000,1773140831.437109,0.000000
114.000000,9332.345048,5617.596879,-1385.674046,-6054.193503,-3748.991042,3418.207576,-15583.837400,-3040.396040,-166.855772,-1446.671956,356.644435,-891.365217,-1086.115967,-852.584941,-9370.588883,5240.880578,0.006000,-0.014000,1.008000,192.000000,0.000000,0.000000,0.000000,0.000000,0.000000,0.000000,0.000000,0.000000,0.000000,1773140831.437122,0.000000
116.000000,9276.979777,5568.601855,-1448.325985,-6098.673475,-3820.740142,3361.277683,-15650.959689,-3097.594154,-141.508894,-1418.329944,384.137080,-857.524676,-1049.436754,-815.458693,-9350.941700,5260.103078,0.006000,-0.014000,1.008000,192.000000,0.000000,0.000000,0.000000,0.000000,0.000000,0.000000,0.000000,0.000000,0.000000,1773140831.437132,0.000000
118.000000,9302.036083,5590.037178,-1424.141398,-6077.215800,-3811.173595,3373.526439,-15620.941296,-3068.380424,-190.213345,-1476.153907,318.624117,-923.797598,-1153.662938,-897.780168,-9420.969715,5215.399589,0.006000,-0.014000,1.008000,192.000000,0.000000,0.000000,0.000000,0.000000,0.000000,0.000000,0.000000,0.000000,0.000000,1773140831.437143,0.000000
120.000000,9328.388790,5619.496777,-1400.560308,-6055.601663,-3795.840299,3391.318427,-15591.995787,-3037.400906,-129.014269,-1396.179366,415.496578,-827.886263,-1070.805022,-803.120530,-9353.690964,5259.656043,0.006000,-0.014000,1.008000,192.000000,0.000000,0.000000,0.000000,0.000000,0.000000,0.000000,0.000000,0.000000,0.000000,1773140831.437154,0.000000
122.000000,9260.171266,5552.799172,-1463.167544,-6113.269164,-3876.150116,3332.242767,-15666.024764,-3109.194709,-173.941275,-1459.993596,345.289748,-898.048389,-1127.444342,-882.648037,-9421.439102,5221.121636,0.008000,-0.018000,1.008000,192.000000,0.000000,32.000000,127.500000,56.000000,15.500000,64.000000,0.000000,0.000000,0.000000,1773140831.437165,0.000000
124.000000,9329.215804,5616.300478,-1390.814947,-6057.725079,-3782.228086,3394.805300,-15580.015252,-3035.456304,-166.140517,-1443.095677,366.836830,-881.061063,-1109.004153,-877.015397,-9408.609201,5226.642516,0.008000,-0.018000,1.008000,192.000000,0.000000,0.000000,0.000000,0.000000,0.000000,0.000000,0.000000,0.000000,0.000000,1773140831.437176,0.000000
126.000000,9258.651347,5551.189846,-1461.938198,-6108.508242,-3852.300805,3341.474037,-15653.954822,-3106.758369,-159.524400,-1431.003384,378.325627,-868.611141,-1079.499850,-847.801667,-9377.808497,5248.413116,0.008000,-0.018000,1.008000,192.000000,0.000000,0.000000,0.000000,0.000000,0.000000,0.000000,0.000000,0.000000,0.000000,1773140831.437187,0.000000
128.000000,9270.028385,5558.454163,-1436.345450,-6093.867850,-3812.604107,3380.299017,-15631.714837,-3090.709816,-213.325049,-1499.824405,303.335524,-941.947215,-1164.659997,-932.537130,-9435.565404,5213.723208,0.008000,-0.018000,1.008000,192.000000,0.000000,0.000000,0.000000,0.000000,0.000000,0.000000,0.000000,0.000000,0.000000,1773140831.437198,0.000000
130.000000,9294.771766,5580.671797,-1406.908203,-6078.154573,-3793.135738,3400.974381,-15606.792641,-3067.464002,-151.433069,-1426.242462,391.580211,-859.916313,-1068.748661,-811.860062,-9343.833845,5273.000034,0.008000,-0.018000,1.008000,192.000000,0.000000,0.000000,0.000000,0.000000,0.000000,0.000000,0.000000,0.000000,0.000000,1773140831.437209,0.000000
132.000000,9230.197576,5520.255032,-1472.756442,-6130.547062,-3850.110334,3345.519703,-15681.089840,-3134.742753,-190.503918,-1488.536774,323.988536,-927.329174,-1119.174197,-903.055179,-9400.651980,5237.326650,0.010000,-0.018000,1.008000,192.000000,0.000000,48.000000,127.500000,56.000000,15.500000,64.000000,0.000000,0.000000,0.000000,1773140831.437221,0.000000
134.000000,9314.508356,5602.352989,-1390.658485,-6068.163343,-3755.227179,3418.341687,-15587.145458,-3044.307595,-173.114261,-1455.411488,349.603635,-899.009514,-1084.305475,-835.239987,-9374.478087,5242.892235,0.010000,-0.018000,1.008000,192.000000,0.000000,0.000000,0.000000,0.000000,0.000000,0.000000,0.000000,0.000000,0.000000,1773140831.437232,0.000000
136.000000,9240.077047,5535.208349,-1453.913922,-6107.658876,-3830.731372,3355.399174,-15655.742962,-3108.099473,-162.452479,-1437.574796,373.072967,-871.382758,-1087.278257,-833.988289,-9352.819246,5253.956348,0.010000,-0.018000,1.008000,192.000000,0.000000,0.000000,0.000000,0.000000,0.000000,0.000000,0.000000,0.000000,0.000000,1773140831.437243,0.000000
138.000000,9266.876789,5560.018785,-1431.316308,-6089.956294,-3798.656618,3375.694558,-15628.093854,-3082.462023,-211.156930,-1496.963381,304.609573,-938.572101,-1158.893247,-913.471092,-9424.590698,5213.320877,0.010000,-0.018000,1.008000,192.000000,0.000000,0.000000,0.000000,0.000000,0.000000,0.000000,0.000000,0.000000,0.000000,1773140831.437254,0.000000
140.000000,9288.110946,5578.458974,-1412.429084,-6069.213875,-3793.314552,3386.848079,-15601.316464,-3057.405717,-149.354356,-1408.830453,398.509252,-848.025185,-1062.691338,-834.994118,-9345.420819,5257.264406,0.010000,-0.018000,1.008000,192.000000,0.000000,0.000000,0.000000,0.000000,0.000000,0.000000,0.000000,0.000000,0.000000,1773140831.437264,0.000000
142.000000,9212.539698,5512.767197,-1475.416300,-6118.745341,-3872.417375,3330.342869,-15673.177323,-3127.254918,-194.169604,-1467.704948,327.810684,-917.516758,-1120.537653,-893.131005,-9418.689837,5222.194519,0.009000,-0.019000,1.007000,192.000000,0.000000,32.000000,127.500000,48.000000,15.500000,56.000000,0.000000,0.000000,0.000000,1773140831.437276,0.000000
144.000000,9286.211048,5581.029425,-1393.743026,-6064.028271,-3773.309740,3397.934544,-15584.016214,-3047.034508,-189.833366,-1454.293901,344.865065,-892.326342,-1121.543482,-876.724825,-9403.200078,5224.988487,0.009000,-0.019000,1.007000,192.000000,0.000000,0.000000,0.000000,0.000000,0.000000,0.000000,0.000000,0.000000,0.000000,1773140831.437287,0.000000
146.000000,9220.809844,5522.467854,-1455.903227,-6108.597649,-3845.058840,3344.133895,-15654.670078,-3112.346305,-170.700272,-1433.037392,366.523906,-871.405109,-1085.758339,-821.180740,-9373.092279,5243.607490,0.009000,-0.019000,1.007000,192.000000,0.000000,0.000000,0.000000,0.000000,0.000000,0.000000,0.000000,0.000000,0.000000,1773140831.437299,0.000000
148.000000,9238.758294,5539.008145,-1439.161770,-6104.641390,-3804.423369,3367.156192,-15633.726494,-3096.320104,-221.796360,-1491.397797,295.825338,-943.400078,-1144.610482,-909.470130,-9434.090189,5205.453063,0.009000,-0.019000,1.007000,192.000000,0.000000,0.000000,0.000000,0.000000,0.000000,0.000000,0.000000,0.000000,0.000000,1773140831.437310,0.000000
150.000000,9252.594024,5548.865265,-1415.871253,-6076.969931,-3780.194078,3394.827651,-15610.279514,-3078.997502,-164.240618,-1422.688535,381.656037,-863.760813,-1070.939132,-810.787178,-9348.281842,5257.800848,0.009000,-0.019000,1.007000,192.000000,0.000000,0.000000,0.000000,0.000000,0.000000,0.000000,0.000000,0.000000,0.000000,1773140831.437322,0.000000
152.000000,9169.199666,5476.825592,-1490.928410,-6130.815283,-3873.803183,3338.367145,-15686.208390,-3154.613454,-227.160779,-1491.844832,298.775768,-941.366069,-1137.033240,-890.851127,-9408.050407,5229.727057,0.008500,-0.020500,1.006500,192.000000,0.000000,32.000000,127.500000,40.000000,15.500000,56.000000,0.000000,0.000000,0.000000,1773140831.437332,0.000000
154.000000,9253.979832,5557.984776,-1415.446569,-6064.698823,-3782.116328,3417.760541,-15594.946217,-3071.375557,-225.752619,-1479.864297,313.371457,-921.450665,-1117.922499,-883.542107,-9393.387663,5248.077839,0.008500,-0.020500,1.006500,192.000000,0.000000,0.000000,0.000000,0.000000,0.000000,0.000000,0.000000,0.000000,0.000000,1773140831.437343,0.000000
156.000000,9195.708835,5499.981999,-1466.475602,-6115.258469,-3845.639985,3364.451631,-15662.560244,-3132.351116,-191.643857,-1440.145247,344.239216,-888.459490,-1094.028484,-845.208865,-9370.611235,5263.768764,0.008500,-0.020500,1.006500,192.000000,0.000000,0.000000,0.000000,0.000000,0.000000,0.000000,0.000000,0.000000,0.000000,1773140831.437354,0.000000
158.000000,9224.117902,5526.401761,-1441.799276,-6094.046664,-3805.652714,3385.551677,-15635.805206,-3102.176261,-234.112171,-1510.374428,275.574657,-961.549695,-1158.960302,-927.887968,-9429.865710,5220.406380,0.008500,-0.020500,1.006500,192.000000,0.000000,0.000000,0.000000,0.000000,0.000000,0.000000,0.000000,0.000000,0.000000,1773140831.437365,0.000000
160.000000,9258.271367,5563.662119,-1412.294973,-6066.956349,-3773.890886,3409.356285,-15604.915095,-3068.581589,-160.552580,-1410.082151,380.963132,-860.698624,-1066.289969,-818.923213,-9345.621985,5269.602569,0.008500,-0.020500,1.006500,192.000000,0.000000,0.000000,0.000000,0.000000,0.000000,0.000000,0.000000,0.000000,0.000000,1773140831.437376,0.000000
162.000000,9185.695253,5486.928581,-1474.723396,-6125.137940,-3848.903340,3350.258273,-15679.592273,-3144.018727,-207.603003,-1481.294809,312.589146,-928.022078,-1124.940947,-852.070850,-9400.540221,5230.062333,0.009250,-0.022250,1.006250,192.000000,0.000000,40.000000,127.500000,32.000000,15.500000,56.000000,0.000000,0.000000,0.000000,1773140831.437387,0.000000
164.000000,9269.134315,5565.494962,-1393.631267,-6065.145858,-3753.751964,3413.267841,-15589.939426,-3060.445554,-196.270668,-1466.408547,334.829132,-912.554671,-1115.307345,-860.385699,-9380.267189,5237.773685,0.009250,-0.022250,1.006250,192.000000,0.000000,0.000000,0.000000,0.000000,0.000000,0.000000,0.000000,0.000000,0.000000,1773140831.437398,0.000000
166.000000,9210.773910,5509.325029,-1456.037337,-6110.877527,-3846.154075,3344.111543,-15659.319241,-3122.851625,-177.204630,-1438.111238,357.404394,-881.977484,-1073.956618,-848.762792,-9357.647223,5248.793095,0.009250,-0.022250,1.006250,192.000000,0.000000,0.000000,0.000000,0.000000,0.000000,0.000000,0.000000,0.000000,0.000000,1773140831.437409,0.000000
168.000000,9233.952669,5527.675811,-1437.105410,-6098.539364,-3809.541918,3355.265064,-15633.592383,-3099.941087,-214.733209,-1501.344323,290.952658,-950.731450,-1152.120668,-910.408903,-9431.072704,5208.470548,0.009250,-0.022250,1.006250,192.000000,0.000000,0.000000,0.000000,0.000000,0.000000,0.000000,0.000000,0.000000,0.000000,1773140831.437419,0.000000
170.000000,9259.388955,5553.782648,-1412.138511,-6071.024367,-3787.905429,3376.789794,-15604.065729,-3070.883819,-159.971435,-1426.756552,376.649246,-866.063042,-1041.904216,-801.667667,-9349.734706,5255.275101,0.009250,-0.022250,1.006250,192.000000,0.000000,0.000000,0.000000,0.000000,0.000000,0.000000,0.000000,0.000000,0.000000,1773140831.437431,0.000000
172.000000,9209.477509,5503.602982,-1473.806974,-6126.680210,-3851.227921,3329.202930,-15673.132619,-3131.233529,-195.957744,-1483.261762,315.271356,-924.468151,-1125.812665,-896.953153,-9416.588773,5217.880633,0.008625,-0.022125,1.007125,192.000000,0.000000,32.000000,127.500000,40.000000,15.500000,64.000000,0.000000,0.000000,0.000000,1773140831.437442,0.000000
174.000000,9288.133298,5575.061509,-1392.983066,-6060.161419,-3763.854952,3417.648782,-15581.915150,-3048.554426,-177.025816,-1461.647625,343.680423,-902.138758,-1103.729141,-882.648037,-9393.991160,5233.795075,0.008625,-0.022125,1.007125,192.000000,0.000000,0.000000,0.000000,0.000000,0.000000,0.000000,0.000000,0.000000,0.000000,1773140831.437452,0.000000
176.000000,9228.722361,5518.757465,-1452.751631,-6105.937792,-3822.550633,3371.894762,-15653.954822,-3114.514424,-156.797487,-1434.713773,368.736728,-877.931819,-1069.083937,-856.876475,-9361.491723,5255.476267,0.008625,-0.022125,1.007125,192.000000,0.000000,0.000000,0.000000,0.000000,0.000000,0.000000,0.000000,0.000000,0.000000,1773140831.437463,0.000000
178.000000,9250.537664,5529.285136,-1430.377535,-6087.117623,-3809.810139,3386.289285,-15632.832424,-3095.046055,-205.256069,-1505.300582,298.216975,-947.155171,-1138.329642,-916.354467,-9425.775340,5222.619202,0.008625,-0.022125,1.007125,192.000000,0.000000,0.000000,0.000000,0.000000,0.000000,0.000000,0.000000,0.000000,0.000000,1773140831.437476,0.000000
180.000000,9278.745565,5557.828314,-1403.600145,-6071.449050,-3772.795650,3406.785835,-15604.646874,-3068.693348,-137.507932,-1430.064610,388.607429,-863.760813,-1053.281254,-818.163254,-9339.385848,5269.200238,0.008625,-0.022125,1.007125,192.000000,0.000000,0.000000,0.000000,0.000000,0.000000,0.000000,0.000000,0.000000,0.000000,1773140831.437487,0.000000
182.000000,9217.032399,5501.077235,-1472.130593,-6123.148635,-3861.174448,3341.272872,-15678.072355,-3134.407477,-176.332912,-1488.045035,322.826245,-929.541997,-1116.022601,-893.868613,-9404.116500,5236.969022,0.007313,-0.019062,1.005562,192.000000,0.000000,24.000000,127.500000,64.000000,15.500000,48.000000,0.000000,0.000000,0.000000,1773140831.437498,0.000000
184.000000,9293.967103,5575.687358,-1392.893659,-6062.865980,-3767.833563,3409.870375,-15584.619711,-3047.123915,-172.242543,-1462.988730,344.038051,-898.651886,-1097.895336,-852.383775,-9391.621875,5244.278043,0.007313,-0.019062,1.005562,192.000000,0.000000,0.000000,0.000000,0.000000,0.000000,0.000000,0.000000,0.000000,0.000000,1773140831.437509,0.000000
186.000000,9232.186882,5511.314334,-1456.149096,-6110.072864,-3840.119104,3343.731564,-15653.910119,-3116.034343,-156.350452,-1443.743878,367.149754,-879.116461,-1071.721443,-819.504359,-9362.810476,5250.603587,0.007313,-0.019062,1.005562,192.000000,0.000000,0.000000,0.000000,0.000000,0.000000,0.000000,0.000000,0.000000,0.000000,1773140831.437520,0.000000
188.000000,9253.555149,5525.015953,-1429.997555,-6102.182699,-3813.676991,3353.409869,-15631.156043,-3099.471700,-203.982020,-1517.325821,295.668876,-957.816953,-1143.939929,-912.577023,-9438.135855,5206.525946,0.007313,-0.019062,1.005562,192.000000,0.000000,0.000000,0.000000,0.000000,0.000000,0.000000,0.000000,0.000000,0.000000,1773140831.437531,0.000000
190.000000,9284.109984,5553.916759,-1400.672066,-6082.267294,-3794.879174,3378.175602,-15603.931618,-3070.570895,-137.060897,-1440.458171,389.903830,-876.724825,-1052.767164,-849.254531,-9345.577281,5246.669679,0.007313,-0.019062,1.005562,192.000000,0.000000,0.000000,0.000000,0.000000,0.000000,0.000000,0.000000,0.000000,0.000000,1773140831.437542,0.000000
192.000000,9224.699047,5500.607848,-1464.821573,-6125.272051,-3857.352299,3324.598470,-15674.630186,-3132.105247,-175.505897,-1494.549393,328.548292,-931.643061,-1132.205264,-914.499273,-9409.659733,5220.205214,0.005656,-0.017531,1.003781,192.000000,0.000000,16.000000,127.500000,64.000000,15.500000,40.000000,0.000000,0.000000,0.000000,1773140831.437559,0.000000
194.000000,9312.966086,5579.844782,-1385.405825,-6062.664814,-3766.291292,3399.253297,-15583.077441,-3042.854731,-160.664339,-1478.411434,354.923350,-906.743217,-1102.142167,-888.146566,-9386.190401,5229.324726,0.005656,-0.017531,1.003781,192.000000,0.000000,0.000000,0.000000,0.000000,0.000000,0.000000,0.000000,0.000000,0.000000,1773140831.918516,0.000000
196.000000,9250.224739,5530.402724,-1450.605863,-6101.959181,-3846.735221,3356.159133,-15651.786703,-3104.567898,-140.011327,-1440.011137,381.276057,-871.002778,-1071.967312,-848.829847,-9361.737592,5250.424773,0.005656,-0.017531,1.003781,192.000000,0.000000,0.000000,0.000000,0.000000,0.000000,0.000000,0.000000,0.000000,0.000000,1773140831.918572,0.000000
198.000000,9264.865132,5536.594157,-1434.445552,-6094.136071,-3828.764418,3380.164907,-15633.346514,-3093.816709,-195.845985,-1511.939050,301.502681,-946.439915,-1154.467601,-933.967642,-9438.605242,5213.589098,0.005656,-0.017531,1.003781,192.000000,0.000000,0.000000,0.000000,0.000000,0.000000,0.000000,0.000000,0.000000,0.000000,1773140831.918621,0.000000
200.000000,9290.681397,5560.689337,-1416.094770,-6071.337291,-3791.437005,3405.377675,-15608.714892,-3072.984883,-136.837380,-1432.769171,385.366426,-867.940589,-1062.065490,-811.167158,-9349.555892,5272.485944,0.005656,-0.017531,1.003781,192.000000,0.000000,0.000000,0.000000,0.000000,0.000000,0.000000,0.000000,0.000000,0.000000,1773140831.918672,0.000000
202.000000,9234.444408,5506.933392,-1476.556239,-6123.193338,-3848.590416,3342.837494,-15680.911026,-3138.408439,-177.472851,-1488.715588,319.071152,-933.475904,-1133.546368,-859.044595,-9412.721922,5237.170188,0.005656,-0.017531,1.003781,192.000000,0.000000,0.000000,0.000000,0.000000,0.000000,0.000000,0.000000,0.000000,0.000000,1773140831.918724,0.000000
204.000000,9318.174042,5586.304436,-1400.023866,-6061.547227,-3755.495400,3413.156082,-15591.101717,-3053.494162,-158.920903,-1460.641797,344.842713,-909.470130,-1090.005170,-886.716054,-9388.805555,5242.936938,0.006000,-0.020000,1.012000,192.000000,0.000000,24.000000,127.500000,48.000000,15.500000,80.000000,0.000000,0.000000,0.000000,1773140831.918770,0.000000
206.000000,9266.966196,5542.472666,-1448.683613,-6110.922231,-3830.731372,3370.307788,-15657.933433,-3110.580517,-137.038545,-1438.111238,373.743519,-879.295275,-1082.070301,-845.946472,-9359.301252,5258.739621,0.006000,-0.020000,1.012000,192.000000,0.000000,0.000000,0.000000,0.000000,0.000000,0.000000,0.000000,0.000000,0.000000,1773140831.918794,0.000000
208.000000,9289.317940,5560.085840,-1430.846921,-6082.893143,-3806.792653,3384.992884,-15630.239621,-3086.284171,-178.836307,-1493.096530,309.035219,-944.741183,-1138.955490,-903.971601,-9430.491558,5219.802883,0.006000,-0.020000,1.012000,192.000000,0.000000,0.000000,0.000000,0.000000,0.000000,0.000000,0.000000,0.000000,0.000000,1773140831.918818,0.000000
210.000000,9321.079769,5594.060492,-1406.282354,-6062.329538,-3782.362197,3391.474890,-15600.914133,-3053.047127,-122.755781,-1414.150168,398.196327,-853.657824,-1060.031481,-790.089463,-9355.166180,5260.930092,0.006000,-0.020000,1.012000,192.000000,0.000000,0.000000,0.000000,0.000000,0.000000,0.000000,0.000000,0.000000,0.000000,1773140831.918850,0.000000
212.000000,9258.696050,5535.141293,-1473.382291,-6112.151577,-3876.373634,3338.367145,-15673.557302,-3120.571747,-159.792621,-1469.604846,335.052649,-912.822892,-1126.080886,-884.235011,-9421.819082,5223.535624,0.006000,-0.020000,1.012000,192.000000,0.000000,0.000000,0.000000,0.000000,0.000000,0.000000,0.000000,0.000000,0.000000,1773140831.918875,0.000000
214.000000,9333.149711,5605.169309,-1390.680837,-6063.871809,-3779.657636,3400.929678,-15582.138667,-3042.184179,-157.132764,-1450.047070,353.425783,-892.236935,-1103.662086,-889.398264,-9399.936724,5233.035115,0.012000,-0.016000,1.014000,192.000000,0.000000,48.000000,127.500000,64.000000,15.500000,88.000000,0.000000,0.000000,0.000000,1773140831.918919,0.000000
216.000000,9276.197466,5551.480419,-1451.030547,-6102.987361,-3840.744953,3337.830703,-15648.925680,-3104.702008,-132.456438,-1430.913977,380.471394,-871.315702,-1087.837051,-835.061173,-9369.560703,5244.948595,0.012000,-0.016000,1.014000,192.000000,0.000000,0.000000,0.000000,0.000000,0.000000,0.000000,0.000000,0.000000,0.000000,1773140831.918944,0.000000
218.000000,9295.442318,5562.522180,-1430.511645,-6098.628771,-3824.517587,3368.787869,-15628.563241,-3086.910020,-183.507822,-1498.595059,307.515300,-947.199875,-1159.787316,-909.939517,-9439.946346,5204.894269,0.012000,-0.016000,1.014000,192.000000,0.000000,0.000000,0.000000,0.000000,0.000000,0.000000,0.000000,0.000000,0.000000,1773140831.918967,0.000000
220.000000,9327.986458,5596.362721,-1404.695380,-6065.168210,-3786.586676,3405.735303,-15601.092947,-3056.109316,-119.067743,-1417.681744,400.185633,-858.038766,-1065.239437,-846.594673,-9352.372212,5260.728927,0.012000,-0.016000,1.014000,192.000000,0.000000,0.000000,0.000000,0.000000,0.000000,0.000000,0.000000,0.000000,0.000000,1773140831.919011,0.000000
222.000000,9263.680490,5537.890558,-1473.918733,-6116.599574,-3863.051994,3351.420564,-15676.954767,-3125.176206,-159.680862,-1467.615541,334.359745,-919.439008,-1114.346220,-877.663598,-9415.560593,5230.352906,0.012000,-0.016000,1.014000,192.000000,0.000000,0.000000,0.000000,0.000000,0.000000,0.000000,0.000000,0.000000,0.000000,1773140831.919035,0.000000
224.000000,9344.482046,5609.729065,-1390.256153,-6059.446163,-3767.967673,3420.956841,-15586.743127,-3042.742973,-152.528304,-1456.216151,353.470487,-902.071703,-1100.063455,-830.412010,-9391.197192,5244.881540,0.016000,-0.018000,1.014000,192.000000,0.000000,64.000000,127.500000,56.000000,15.500000,88.000000,0.000000,0.000000,0.000000,1773140831.919059,0.000000
226.000000,9288.423871,5559.527047,-1454.897398,-6101.333332,-3829.233805,3371.045395,-15652.993697,-3102.958572,-123.091057,-1430.712811,384.874688,-874.266133,-1053.594178,-853.970749,-9357.222540,5259.879560,0.016000,-0.018000,1.014000,192.000000,0.000000,0.000000,0.000000,0.000000,0.000000,0.000000,0.000000,0.000000,0.000000,1773140831.919083,0.000000
228.000000,9305.768824,5573.988625,-1428.522340,-6089.889239,-3806.144453,3386.669265,-15629.032627,-3084.116052,-178.635142,-1498.215079,309.012867,-944.249445,-1154.154677,-922.724715,-9429.999820,5221.926298,0.016000,-0.018000,1.014000,192.000000,0.000000,0.000000,0.000000,0.000000,0.000000,0.000000,0.000000,0.000000,0.000000,1773140831.919107,0.000000
230.000000,9341.442208,5608.477367,-1398.928630,-6078.936884,-3780.037615,3398.739207,-15598.902476,-3053.337700,-110.909356,-1406.483520,405.304182,-852.093202,-1050.017899,-802.025295,-9347.834807,5256.772668,0.016000,-0.018000,1.014000,192.000000,0.000000,0.000000,0.000000,0.000000,0.000000,0.000000,0.000000,0.000000,0.000000,1773140831.919131,0.000000
232.000000,9280.332539,5546.473628,-1466.609712,-6119.214728,-3854.670090,3338.344793,-15673.579654,-3122.762218,-154.294092,-1467.906114,335.119705,-921.495369,-1127.220825,-887.006627,-9415.448834,5222.552147,0.016000,-0.018000,1.014000,192.000000,0.000000,0.000000,0.000000,0.000000,0.000000,0.000000,0.000000,0.000000,0.000000,1773140831.919155,0.000000
234.000000,9365.157409,5628.973917,-1385.741101,-6062.463649,-3769.979330,3406.003524,-15582.585702,-3035.411601,-136.479752,-1448.035413,361.807687,-900.484729,-1094.073188,-861.480935,-9392.448889,5227.670697,0.012000,-0.018000,1.012000,192.000000,0.000000,48.000000,127.500000,56.000000,15.500000,80.000000,0.000000,0.000000,0.000000,1773140831.919178,0.000000
236.000000,9307.601667,5575.799117,-1445.643776,-6099.366379,-3838.800351,3362.842305,-15651.227909,-3097.214174,-110.395266,-1414.619555,392.004894,-866.644188,-1070.849725,-836.849312,-9367.660805,5240.411191,0.012000,-0.018000,1.012000,192.000000,0.000000,0.000000,0.000000,0.000000,0.000000,0.000000,0.000000,0.000000,0.000000,1773140831.919202,0.000000
238.000000,9325.639525,5592.853498,-1431.383363,-6080.322692,-3810.950078,3376.834497,-15627.870337,-3078.326950,-165.805240,-1481.875954,315.874853,-934.928767,-1135.513322,-921.473017,-9438.359372,5211.398627,0.012000,-0.018000,1.012000,192.000000,0.000000,0.000000,0.000000,0.000000,0.000000,0.000000,0.000000,0.000000,0.000000,1773140831.919226,0.000000
240.000000,9351.701659,5619.630887,-1405.030656,-6063.715346,-3784.485612,3393.531250,-15600.332987,-3054.052955,-109.143568,-1401.432026,401.951421,-850.349766,-1061.305530,-826.500455,-9351.008755,5252.548188,0.012000,-0.018000,1.012000,192.000000,0.000000,0.000000,0.000000,0.000000,0.000000,0.000000,0.000000,0.000000,0.000000,1773140831.919249,0.000000
242.000000,9288.870906,5559.012957,-1467.593189,-6120.600536,-3863.074346,3332.779209,-15675.077221,-3124.438599,-148.236769,-1460.753555,335.611443,-921.137741,-1121.476426,-884.570287,-9416.521718,5214.013781,0.012000,-0.018000,1.012000,192.000000,0.000000,0.000000,0.000000,0.000000,0.000000,0.000000,0.000000,0.000000,0.000000,1773140831.919276,0.000000
244.000000,9360.307081,5624.101236,-1391.038464,-6066.062279,-3756.657691,3414.586593,-15587.078403,-3045.291072,-139.273720,-1453.913922,356.756193,-902.697552,-1090.720426,-895.299124,-9393.253552,5227.067200,0.008000,-0.018000,1.012000,192.000000,0.000000,32.000000,127.500000,56.000000,15.500000,80.000000,0.000000,0.000000,0.000000,1773140831.919299,0.000000
246.000000,9304.271257,5576.089689,-1449.801201,-6113.246812,-3834.687630,3363.803430,-15655.720610,-3105.886651,-118.620708,-1424.454322,383.354769,-878.647075,-1075.700054,-807.836748,-9364.509209,5248.144895,0.008000,-0.018000,1.012000,192.000000,0.000000,0.000000,0.000000,0.000000,0.000000,0.000000,0.000000,0.000000,0.000000,1773140831.919323,0.000000
248.000000,9326.265374,5593.456995,-1430.735163,-6087.832879,-3794.633304,3385.886954,-15633.793549,-3085.725377,-167.459269,-1485.407530,312.432684,-943.958872,-1149.930197,-872.768566,-9438.001745,5211.912717,0.008000,-0.018000,1.012000,192.000000,0.000000,0.000000,0.000000,0.000000,0.000000,0.000000,0.000000,0.000000,0.000000,1773140831.919347,0.000000
250.000000,9356.931967,5625.017658,-1402.057874,-6063.782402,-3778.651807,3422.320297,-15602.545810,-3052.868313,-106.461359,-1402.951944,402.621973,-855.356557,-1064.993568,-848.919254,-9346.113723,5254.336328,0.008000,-0.018000,1.012000,192.000000,0.000000,0.000000,0.000000,0.000000,0.000000,0.000000,0.000000,0.000000,0.000000,1773140831.919371,0.000000
252.000000,9298.705673,5569.540628,-1470.700082,-6117.158367,-3854.357166,3348.961872,-15674.809000,-3117.084875,-141.710060,-1451.075250,343.121629,-910.230089,-1113.496854,-899.076569,-9417.259326,5224.072066,0.008000,-0.018000,1.012000,192.000000,0.000000,0.000000,0.000000,0.000000,0.000000,0.000000,0.000000,0.000000,0.000000,1773140831.919394,0.000000
254.000000,9378.233180,5641.177969,-1389.607953,-6059.647329,-3760.435135,3406.227041,-15585.156153,-3034.495179,-134.825723,-1440.301709,365.227504,-893.600392,-1099.705827,-872.053310,-9398.260343,5225.279060,0.010000,-0.012000,1.006000,192.000000,0.000000,40.000000,127.500000,80.000000,15.500000,56.000000,0.000000,0.000000,0.000000,1773140831.919418,0.000000
0.000000,9316.922345,5580.448279,-1449.600035,-6101.869774,-3834.642927,3347.106677,-15651.250261,-3094.263744,-108.383609,-1418.821683,398.442197,-867.471202,-1068.815716,-848.248702,-9370.052441,5240.120618,0.010000,-0.012000,1.006000,192.000000,0.000000,0.000000,0.000000,0.000000,0.000000,0.000000,0.000000,0.000000,0.000000,1773140831.919442,0.000000
2.000000,9328.679362,5594.105195,-1435.831360,-6095.119547,-3815.353372,3370.419546,-15628.876165,-3077.589342,-167.302807,-1491.375445,316.880681,-944.182389,-1145.839828,-917.449703,-9444.707268,5200.021589,0.010000,-0.012000,1.006000,192.000000,0.000000,0.000000,0.000000,0.000000,0.000000,0.000000,0.000000,0.000000,0.000000,1773140831.919465,0.000000
4.000000,9355.054421,5620.167329,-1407.466997,-6073.080727,-3792.822813,3397.822785,-15601.629389,-3053.002423,-111.289336,-1407.355238,402.197290,-856.518848,-1060.478516,-814.922251,-9359.413011,5245.820313,0.010000,-0.012000,1.006000,192.000000,0.000000,0.000000,0.000000,0.000000,0.000000,0.000000,0.000000,0.000000,0.000000,1773140831.919489,0.000000
6.000000,9294.145917,5563.304491,-1471.303579,-6116.241946,-3873.289093,3334.544997,-15673.467895,-3116.548433,-154.271740,-1466.140326,334.493856,-924.088171,-1121.722295,-895.880270,-9420.589736,5215.712513,0.010000,-0.012000,1.006000,192.000000,0.000000,0.000000,0.000000,0.000000,0.000000,0.000000,0.000000,0.000000,0.000000,1773140831.919512,0.000000
8.000000,9376.892075,5641.133266,-1391.641962,-6059.960253,-3754.377813,3411.546756,-15584.418545,-3033.779923,-135.675089,-1443.498009,363.841696,-893.309819,-1112.468673,-872.947380,-9400.383759,5228.877691,0.013000,-0.010000,1.008000,192.000000,0.000000,64.000000,127.500000,96.000000,15.500000,72.000000,0.000000,0.000000,0.000000,1773140831.919536,0.000000
10.000000,9321.303287,5587.891410,-1449.309462,-6101.690960,-3841.482561,3358.506067,-15651.853758,-3094.643723,-108.875347,-1414.574851,393.033075,-866.823002,-1071.877905,-843.778353,-9369.381889,5244.300395,0.013000,-0.010000,1.008000,192.000000,0.000000,0.000000,0.000000,0.000000,0.000000,0.000000,0.000000,0.000000,0.000000,1773140831.919559,0.000000
12.000000,9334.781389,5598.486137,-1427.382401,-6082.759033,-3811.754741,3381.148384,-15628.250316,-3077.142307,-161.267836,-1484.714625,317.774751,-940.583758,-1132.495836,-917.583813,-9434.291355,5206.436539,0.013000,-0.010000,1.008000,192.000000,0.000000,0.000000,0.000000,0.000000,0.000000,0.000000,0.000000,0.000000,0.000000,1773140831.919583,0.000000
14.000000,9365.537389,5629.979745,-1403.242517,-6064.810582,-3783.502136,3404.036570,-15600.735319,-3049.604958,-102.236879,-1406.215299,406.086493,-852.294368,-1058.265693,-828.422705,-9354.696793,5254.336328,0.013000,-0.010000,1.008000,192.000000,0.000000,0.000000,0.000000,0.000000,0.000000,0.000000,0.000000,0.000000,0.000000,1773140831.919605,0.000000
16.000000,9302.326656,5571.418175,-1466.520305,-6117.515995,-3857.709927,3362.037642,-15674.227855,-3118.582442,-144.347566,-1461.893494,339.500647,-918.209662,-1112.982763,-889.912354,-9414.755930,5228.788284,0.013000,-0.010000,1.008000,192.000000,0.000000,0.000000,0.000000,0.000000,0.000000,0.000000,0.000000,0.000000,0.000000,1773140831.919616,0.000000
18.000000,9388.805555,5650.520998,-1387.730406,-6046.683317,-3755.003662,3430.657498,-15581.043432,-3029.376630,-126.421467,-1437.664203,366.099222,-894.092130,-1100.108159,-863.604351,-9394.013511,5240.701764,0.013500,-0.013000,1.010000,192.000000,0.000000,56.000000,127.500000,64.000000,15.500000,80.000000,0.000000,0.000000,0.000000,1773140831.919630,0.000000
20.000000,9333.864967,5597.390902,-1446.627253,-6094.538402,-3837.593357,3372.967645,-15647.741037,-3089.882802,-98.861766,-1405.209470,397.928107,-862.777336,-1066.312321,-819.146731,-9370.812401,5250.961214,0.013500,-0.013000,1.010000,192.000000,0.000000,0.000000,0.000000,0.000000,0.000000,0.000000,0.000000,0.000000,0.000000,1773140831.919642,0.000000
22.000000,9350.204092,5614.534690,-1426.242462,-6085.105966,-3803.037560,3385.574029,-15625.143424,-3069.967397,-146.918016,-1469.202515,326.536635,-931.106619,-1118.347182,-901.557613,-9438.985221,5206.280077,0.013500,-0.013000,1.010000,192.000000,0.000000,0.000000,0.000000,0.000000,0.000000,0.000000,0.000000,0.000000,0.000000,1773140831.919653,0.000000
24.000000,9372.265264,5634.740667,-1396.648752,-6065.034099,-3780.976389,3397.733378,-15595.192086,-3046.095734,-95.173728,-1391.619610,411.205043,-846.795839,-1043.468838,-826.500455,-9352.998060,5251.363546,0.013500,-0.013000,1.010000,192.000000,0.000000,0.000000,0.000000,0.000000,0.000000,0.000000,0.000000,0.000000,0.000000,1773140831.919664,0.000000
26.000000,9304.986513,5573.228666,-1458.853657,-6121.561661,-3841.974299,3337.115447,-15668.103477,-3115.922584,-138.446705,-1460.485334,340.729992,-915.192177,-1127.332583,-893.689799,-9409.637381,5221.479263,0.013500,-0.013000,1.010000,192.000000,0.000000,0.000000,0.000000,0.000000,0.000000,0.000000,0.000000,0.000000,0.000000,1773140831.919675,0.000000
28.000000,9386.771546,5649.001080,-1385.227011,-6051.935977,-3761.664481,3417.581727,-15579.098830,-3033.042316,-125.259176,-1434.512607,362.344129,-892.527508,-1090.921592,-857.681138,-9391.666578,5234.532682,0.011750,-0.014500,1.010000,192.000000,0.000000,40.000000,127.500000,64.000000,15.500000,72.000000,0.000000,0.000000,0.000000,1773140831.919686,0.000000
30.000000,9330.199281,5593.166422,-1442.358070,-6100.863946,-3819.577851,3364.876314,-15647.584575,-3095.537793,-98.124158,-1402.393151,394.284772,-861.458583,-1059.360928,-852.584941,-9360.620005,5248.748392,0.011750,-0.014500,1.010000,192.000000,0.000000,0.000000,0.000000,0.000000,0.000000,0.000000,0.000000,0.000000,0.000000,1773140831.919703,0.000000
32.000000,9341.352801,5603.068245,-1427.807084,-6088.481079,-3810.793616,3382.802413,-15630.396084,-3082.931409,-152.327138,-1481.943009,314.846672,-942.237788,-1136.183874,-920.623651,-9436.079494,5206.458891,0.011750,-0.014500,1.010000,192.000000,0.000000,0.000000,0.000000,0.000000,0.000000,0.000000,0.000000,0.000000,0.000000,1773140831.919714,0.000000
34.000000,9372.734651,5635.232405,-1405.432988,-6067.157515,-3768.213542,3423.460236,-15599.394214,-3051.102525,-85.584830,-1398.638058,405.214775,-853.210789,-1044.295853,-830.702583,-9348.862988,5257.554979,0.011750,-0.014500,1.010000,192.000000,0.000000,0.000000,0.000000,0.000000,0.000000,0.000000,0.000000,0.000000,0.000000,1773140831.919725,0.000000
36.000000,9306.908763,5572.625169,-1466.609712,-6126.121417,-3848.992747,3358.461363,-15674.518427,-3120.616450,-126.756743,-1455.120916,340.439420,-917.270889,-1093.804967,-876.478955,-9407.893945,5227.514234,0.011750,-0.014500,1.010000,192.000000,0.000000,0.000000,0.000000,0.000000,0.000000,0.000000,0.000000,0.000000,0.000000,1773140831.919736,0.000000
38.000000,9393.030035,5654.790181,-1382.567153,-6052.964157,-3754.355461,3431.104533,-15582.540999,-3033.176426,-117.123141,-1433.193854,361.383004,-895.612049,-1093.290877,-866.666540,-9392.404186,5239.517121,0.010875,-0.016250,1.008000,192.000000,0.000000,40.000000,127.500000,56.000000,15.500000,56.000000,0.000000,0.000000,0.000000,1773140831.919747,0.000000
40.000000,9337.105970,5603.761149,-1440.234654,-6104.596687,-3819.577851,3378.734395,-15650.311488,-3096.029531,-82.276771,-1401.320267,397.034037,-863.023205,-1057.058699,-840.805571,-9360.351784,5254.179866,0.010875,-0.016250,1.008000,192.000000,0.000000,0.000000,0.000000,0.000000,0.000000,0.000000,0.000000,0.000000,0.000000,1773140831.919758,0.000000
42.000000,9351.276976,5613.886489,-1429.572872,-6083.876620,-3798.813081,3394.045340,-15630.038456,-3080.606828,-139.273720,-1457.758422,316.679515,-936.046354,-1133.702831,-896.684932,-9435.721867,5212.069179,0.010875,-0.016250,1.008000,192.000000,0.000000,0.000000,0.000000,0.000000,0.000000,0.000000,0.000000,0.000000,0.000000,1773140831.919768,0.000000
44.000000,9379.820154,5642.831998,-1401.543784,-6065.168210,-3772.102746,3418.565204,-15600.914133,-3050.700194,-81.226239,-1396.067607,403.873671,-849.858028,-1033.879940,-799.834824,-9349.757057,5257.465572,0.010875,-0.016250,1.008000,192.000000,0.000000,0.000000,0.000000,0.000000,0.000000,0.000000,0.000000,0.000000,0.000000,1773140831.919779,0.000000
46.000000,9314.910688,5585.477422,-1465.134497,-6117.091312,-3845.215302,3345.296186,-15673.892578,-3117.531910,-114.843263,-1437.954776,343.635719,-909.313668,-1107.439531,-887.341903,-9409.771491,5217.612412,0.010875,-0.016250,1.008000,192.000000,0.000000,0.000000,0.000000,0.000000,0.000000,0.000000,0.000000,0.000000,0.000000,1773140831.919790,0.000000
48.000000,9390.951322,5653.538484,-1388.669180,-6058.350928,-3757.708223,3428.489379,-15583.546827,-3037.378554,-111.937536,-1436.837189,359.259589,-896.215546,-1082.785557,-869.952246,-9393.208849,5232.006935,0.010437,-0.015125,1.007000,192.000000,0.000000,40.000000,127.500000,72.000000,15.500000,56.000000,0.000000,0.000000,0.000000,1773140831.919800,0.000000
50.000000,9331.026296,5599.581373,-1450.583512,-6106.317771,-3815.979220,3370.620712,-15652.323145,-3102.600944,-88.647019,-1402.527261,386.841641,-871.136888,-1061.573751,-817.604460,-9364.240988,5244.255691,0.010437,-0.015125,1.007000,192.000000,0.000000,0.000000,0.000000,0.000000,0.000000,0.000000,0.000000,0.000000,0.000000,1773140831.919812,0.000000
52.000000,9343.789142,5602.978838,-1434.557311,-6098.584068,-3792.621647,3383.785890,-15633.100645,-3090.531002,-144.191103,-1475.036320,307.805873,-946.976357,-1135.870950,-911.414732,-9426.892928,5208.202327,0.010437,-0.015125,1.007000,192.000000,0.000000,0.000000,0.000000,0.000000,0.000000,0.000000,0.000000,0.000000,0.000000,1773140831.919824,0.000000
54.000000,9378.523753,5636.104123,-1406.438816,-6066.308149,-3783.233915,3409.356285,-15601.741147,-3055.259950,-84.288428,-1396.939325,400.118577,-859.893961,-1057.818658,-840.738516,-9347.007793,5252.525837,0.010437,-0.015125,1.007000,192.000000,0.000000,0.000000,0.000000,0.000000,0.000000,0.000000,0.000000,0.000000,0.000000,1773140831.919835,0.000000
56.000000,9313.435473,5577.453146,-1471.571800,-6116.957202,-3855.362994,3360.450668,-15675.971291,-3121.510520,-123.158112,-1448.348337,337.176065,-917.695572,-1107.797159,-900.238860,-9412.632515,5220.428731,0.010437,-0.015125,1.007000,192.000000,0.000000,0.000000,0.000000,0.000000,0.000000,0.000000,0.000000,0.000000,0.000000,1773140831.919847,0.000000
58.000000,9392.784165,5652.711469,-1389.160918,-6058.976776,-3756.724746,3431.842140,-15586.698423,-3038.518493,-109.434141,-1426.108351,361.517115,-898.942459,-1077.108214,-855.445964,-9396.539259,5231.761066,0.011219,-0.013562,1.007500,192.000000,0.000000,48.000000,127.500000,80.000000,15.500000,64.000000,0.000000,0.000000,0.000000,1773140832.398535,0.000000
60.000000,9334.826092,5600.251925,-1448.258930,-6098.919344,-3821.276584,3387.093948,-15654.044229,-3100.186956,-85.473071,-1400.828529,389.166223,-867.672368,-1055.650539,-833.116571,-9358.831866,5251.899988,0.011219,-0.013562,1.007500,192.000000,0.000000,0.000000,0.000000,0.000000,0.000000,0.000000,0.000000,0.000000,0.000000,1773140832.398607,0.000000
62.000000,9351.165217,5612.701847,-1428.321174,-6090.559791,-3800.757682,3402.740169,-15631.491319,-3081.836174,-140.972452,-1468.196686,314.042010,-941.947215,-1129.835979,-887.967752,-9433.039657,5213.075008,0.011219,-0.013562,1.007500,192.000000,0.000000,0.000000,0.000000,0.000000,0.000000,0.000000,0.000000,0.000000,0.000000,1773140832.398654,0.000000
64.000000,9373.986348,5633.243100,-1403.063703,-6064.274140,-3761.686833,3420.420399,-15600.243580,-3052.309519,-83.953152,-1391.105520,403.359580,-855.624778,-1043.178265,-807.434417,-9347.678345,5258.091421,0.011219,-0.013562,1.007500,192.000000,0.000000,0.000000,0.000000,0.000000,0.000000,0.000000,0.000000,0.000000,0.000000,1773140832.398708,0.000000
66.000000,9311.803795,5574.525067,-1466.676768,-6112.866832,-3845.304709,3359.020157,-15674.183151,-3119.320049,-130.645946,-1447.700137,335.678498,-916.309764,-1115.039124,-900.305915,-9409.950305,5224.474397,0.011219,-0.013562,1.007500,192.000000,0.000000,0.000000,0.000000,0.000000,0.000000,0.000000,0.000000,0.000000,0.000000,1773140832.398761,0.000000
68.000000,9387.173878,5646.855312,-1386.769281,-6055.333442,-3755.607159,3415.748884,-15583.837400,-3038.898473,-119.246557,-1431.673936,355.169219,-897.780168,-1089.692246,-871.382758,-9392.828869,5228.229490,0.010609,-0.010781,1.004750,192.000000,0.000000,40.000000,127.500000,96.000000,15.500000,40.000000,0.000000,0.000000,0.000000,1773140832.398813,0.000000
70.000000,9331.406275,5593.904030,-1451.522285,-6100.819242,-3824.316421,3356.874389,-15652.703125,-3100.879860,-95.799577,-1415.401866,384.807633,-874.556705,-1064.300664,-851.176781,-9365.068002,5242.154627,0.010609,-0.010781,1.004750,192.000000,0.000000,0.000000,0.000000,0.000000,0.000000,0.000000,0.000000,0.000000,0.000000,1773140832.398837,0.000000
72.000000,9354.719145,5614.065303,-1431.472770,-6091.185640,-3810.547746,3392.681884,-15629.837290,-3079.109261,-142.492371,-1467.995521,313.818492,-941.030793,-1131.937043,-902.451682,-9441.041582,5208.157624,0.010609,-0.010781,1.004750,192.000000,0.000000,0.000000,0.000000,0.000000,0.000000,0.000000,0.000000,0.000000,0.000000,1773140832.398860,0.000000
74.000000,9380.893037,5640.418010,-1410.328020,-6063.849457,-3776.595447,3407.836367,-15602.746976,-3054.164714,-86.009513,-1392.826604,398.397493,-854.686004,-1052.297777,-831.082562,-9357.848389,5259.164305,0.010609,-0.010781,1.004750,192.000000,0.000000,0.000000,0.000000,0.000000,0.000000,0.000000,0.000000,0.000000,0.000000,1773140832.398894,0.000000
76.000000,9319.492795,5583.756338,-1472.108242,-6113.716199,-3849.216264,3354.639215,-15677.446506,-3118.828311,-117.547824,-1442.760401,337.265472,-910.990049,-1095.816624,-885.330246,-9412.140776,5223.960307,0.010609,-0.010781,1.004750,192.000000,0.000000,0.000000,0.000000,0.000000,0.000000,0.000000,0.000000,0.000000,0.000000,1773140832.398917,0.000000
78.000000,9400.137889,5657.941777,-1386.903392,-6052.718288,-3762.469144,3427.550605,-15585.334967,-3033.131723,-109.478844,-1428.991727,358.142001,-894.360351,-1089.871060,-860.206885,-9399.400282,5232.610432,0.010609,-0.010781,1.004750,192.000000,0.000000,0.000000,0.000000,0.000000,0.000000,0.000000,0.000000,0.000000,0.000000,1773140832.398940,0.000000
80.000000,9346.806627,5607.851518,-1441.732221,-6099.031103,-3820.360162,3382.958875,-15651.004392,-3091.514479,-81.449757,-1393.720674,391.446101,-862.576170,-1060.143240,-811.055399,-9371.013566,5248.524874,0.016000,-0.010000,1.006000,192.000000,0.000000,64.000000,127.500000,88.000000,15.500000,56.000000,0.000000,0.000000,0.000000,1773140832.398963,0.000000
82.000000,9362.631662,5620.234385,-1423.806122,-6088.726948,-3783.859764,3392.547773,-15631.446616,-3076.248238,-129.729525,-1461.714680,320.345202,-932.783000,-1122.526958,-906.832624,-9432.190291,5209.431673,0.016000,-0.010000,1.006000,192.000000,0.000000,0.000000,0.000000,0.000000,0.000000,0.000000,0.000000,0.000000,0.000000,1773140832.398994,0.000000
84.000000,9389.386700,5646.229463,-1394.480633,-6062.396593,-3771.365138,3420.241585,-15601.070595,-3048.017984,-68.061062,-1384.131775,412.747313,-847.846371,-1038.730268,-809.803702,-9348.259491,5254.939825,0.016000,-0.010000,1.006000,192.000000,0.000000,0.000000,0.000000,0.000000,0.000000,0.000000,0.000000,0.000000,0.000000,1773140832.399017,0.000000
86.000000,9322.175005,5584.225724,-1465.447422,-6123.506263,-3849.730355,3353.275758,-15678.139410,-3120.124712,-108.495368,-1442.827456,345.043879,-914.119293,-1100.152862,-901.356447,-9411.514927,5214.818444,0.016000,-0.010000,1.006000,192.000000,0.000000,0.000000,0.000000,0.000000,0.000000,0.000000,0.000000,0.000000,0.000000,1773140832.399039,0.000000
88.000000,9395.376968,5654.678423,-1393.363046,-6053.277082,-3763.474973,3421.985021,-15587.436031,-3036.283319,-101.700437,-1422.241500,360.511286,-893.153357,-1071.721443,-856.451792,-9398.260343,5227.335421,0.016000,-0.010000,1.006000,192.000000,0.000000,0.000000,0.000000,0.000000,0.000000,0.000000,0.000000,0.000000,0.000000,1773140832.399062,0.000000
90.000000,9339.519958,5602.844727,-1453.600997,-6098.628771,-3836.654584,3378.287360,-15654.088933,-3097.482395,-83.751986,-1402.102578,386.327551,-866.375967,-1043.670004,-825.472274,-9371.281787,5247.608453,0.018000,-0.006000,1.008000,192.000000,0.000000,72.000000,127.500000,104.000000,15.500000,64.000000,0.000000,0.000000,0.000000,1773140832.399084,0.000000
92.000000,9347.723049,5610.913707,-1443.542712,-6091.565620,-3803.842223,3391.832518,-15637.168662,-3088.809918,-138.089077,-1468.733128,309.549309,-940.851979,-1138.217883,-913.918127,-9446.785980,5207.218851,0.018000,-0.006000,1.008000,192.000000,0.000000,0.000000,0.000000,0.000000,0.000000,0.000000,0.000000,0.000000,0.000000,1773140832.399107,0.000000
94.000000,9376.087412,5635.657088,-1407.109369,-6063.424774,-3782.339845,3416.665306,-15605.272723,-3060.691423,-81.561516,-1392.245459,396.162319,-860.922141,-1051.806039,-815.615155,-9360.016508,5256.012709,0.018000,-0.006000,1.008000,192.000000,0.000000,0.000000,0.000000,0.000000,0.000000,0.000000,0.000000,0.000000,0.000000,1773140832.399129,0.000000
96.000000,9311.088539,5572.267541,-1471.907076,-6123.998001,-3857.352299,3350.302976,-15679.189942,-3132.798151,-120.006516,-1453.958625,332.661013,-927.128008,-1112.491025,-893.958019,-9419.159224,5222.552147,0.018000,-0.006000,1.008000,192.000000,0.000000,0.000000,0.000000,0.000000,0.000000,0.000000,0.000000,0.000000,0.000000,1773140832.399153,0.000000
98.000000,9386.816250,5644.307213,-1391.664313,-6061.100192,-3769.867572,3412.753750,-15586.027871,-3046.140438,-113.345696,-1435.898416,351.190609,-911.504139,-1098.252964,-880.837545,-9400.853145,5222.574499,0.018000,-0.006000,1.008000,192.000000,0.000000,0.000000,0.000000,0.000000,0.000000,0.000000,0.000000,0.000000,0.000000,1773140832.399175,0.000000
100.000000,9333.149711,5597.100329,-1448.460096,-6103.590858,-3823.578814,3370.151325,-15651.429075,-3102.310372,-91.597449,-1410.395075,382.170127,-874.243781,-1069.732138,-833.518902,-9369.426593,5242.936938,0.014000,-0.008000,1.008000,192.000000,0.000000,56.000000,127.500000,96.000000,15.500000,64.000000,0.000000,0.000000,0.000000,1773140832.399198,0.000000
102.000000,9349.690002,5609.304382,-1436.077230,-6084.547172,-3796.309685,3394.894707,-15633.167700,-3088.608752,-140.815990,-1469.895419,310.532786,-945.031756,-1133.524017,-891.096996,-9438.605242,5208.112920,0.014000,-0.008000,1.008000,192.000000,0.000000,0.000000,0.000000,0.000000,0.000000,0.000000,0.000000,0.000000,0.000000,1773140832.399221,0.000000
104.000000,9376.757965,5636.975841,-1404.650677,-6068.476268,-3765.956016,3427.304736,-15602.635217,-3059.395022,-78.946361,-1389.563249,400.297391,-861.324473,-1025.922719,-812.396504,-9351.701659,5257.823200,0.014000,-0.008000,1.008000,192.000000,0.000000,0.000000,0.000000,0.000000,0.000000,0.000000,0.000000,0.000000,0.000000,1773140832.399243,0.000000
106.000000,9317.145862,5581.856439,-1465.335663,-6118.968859,-3841.057878,3360.763593,-15677.334747,-3125.086799,-117.525472,-1448.840076,335.320870,-925.116351,-1101.985705,-896.372008,-9407.379855,5229.257671,0.014000,-0.008000,1.008000,192.000000,0.000000,0.000000,0.000000,0.000000,0.000000,0.000000,0.000000,0.000000,0.000000,1773140832.399266,0.000000
108.000000,9397.232163,5660.556932,-1386.523412,-6061.413117,-3752.768487,3428.869358,-15586.050223,-3038.965528,-103.645039,-1428.902320,359.483106,-896.751988,-1085.735987,-879.272923,-9391.376006,5224.653211,0.014000,-0.008000,1.008000,192.000000,0.000000,0.000000,0.000000,0.000000,0.000000,0.000000,0.000000,0.000000,0.000000,1773140832.399289,0.000000
110.000000,9333.552043,5603.269411,-1446.426087,-6103.032065,-3825.478712,3373.034701,-15649.484473,-3100.701046,-84.176670,-1397.140491,386.148737,-867.650016,-1063.183077,-825.271109,-9368.621930,5249.508351,0.010000,-0.016000,1.012000,192.000000,0.000000,40.000000,127.500000,64.000000,15.500000,80.000000,0.000000,0.000000,0.000000,1773140832.399311,0.000000
112.000000,9347.298366,5612.813605,-1437.753610,-6086.000036,-3814.325191,3397.353398,-15628.183261,-3082.596133,-144.034641,-1468.643721,308.744646,-942.282491,-1134.999232,-895.813214,-9442.337983,5208.559955,0.010000,-0.016000,1.012000,192.000000,0.000000,0.000000,0.000000,0.000000,0.000000,0.000000,0.000000,0.000000,0.000000,1773140832.399334,0.000000
114.000000,9379.462526,5644.955414,-1409.255136,-6061.569579,-3783.256267,3410.853852,-15596.667301,-3051.303691,-82.455585,-1388.557421,400.565612,-852.808458,-1048.162704,-815.145769,-9360.217674,5255.185694,0.010000,-0.016000,1.012000,192.000000,0.000000,0.000000,0.000000,0.000000,0.000000,0.000000,0.000000,0.000000,0.000000,1773140832.399358,0.000000
116.000000,9308.920420,5574.547419,-1476.153907,-6114.543213,-3859.743936,3356.315596,-15677.111230,-3127.947823,-123.895720,-1446.068459,331.118742,-919.282546,-1103.706789,-873.975560,-9421.439102,5223.803845,0.010000,-0.016000,1.012000,192.000000,0.000000,0.000000,0.000000,0.000000,0.000000,0.000000,0.000000,0.000000,0.000000,1773140832.399381,0.000000
118.000000,9389.833735,5649.828094,-1386.948095,-6054.797000,-3744.520693,3419.861605,-15583.993862,-3042.541807,-113.010420,-1440.681689,347.681385,-906.720866,-1089.155804,-873.103842,-9395.354616,5233.459799,0.010000,-0.016000,1.012000,192.000000,0.000000,0.000000,0.000000,0.000000,0.000000,0.000000,0.000000,0.000000,0.000000,1773140832.399404,0.000000
120.000000,9334.267298,5599.022579,-1444.973224,-6110.385789,-3830.239633,3372.855887,-15652.390200,-3103.003276,-83.014379,-1406.550575,386.416958,-875.249609,-1056.186981,-830.724934,-9361.379965,5245.842665,0.006000,-0.014000,1.010000,192.000000,0.000000,24.000000,127.500000,72.000000,15.500000,72.000000,0.000000,0.000000,0.000000,1773140832.399426,0.000000
122.000000,9347.946566,5606.666876,-1432.344488,-6090.090405,-3811.866499,3381.885991,-15630.977229,-3086.664151,-137.910263,-1477.539715,309.750475,-952.787811,-1131.333546,-930.681936,-9439.611070,5204.223717,0.006000,-0.014000,1.010000,192.000000,0.000000,0.000000,0.000000,0.000000,0.000000,0.000000,0.000000,0.000000,0.000000,1773140832.399449,0.000000
124.000000,9376.869723,5640.418010,-1404.337752,-6067.828067,-3785.580848,3404.058922,-15597.002577,-3053.181237,-80.131004,-1398.638058,395.134138,-862.218542,-1055.002338,-851.333243,-9358.764810,5252.302319,0.006000,-0.014000,1.010000,192.000000,0.000000,0.000000,0.000000,0.000000,0.000000,0.000000,0.000000,0.000000,0.000000,1773140832.399471,0.000000
126.000000,9316.520013,5586.572657,-1471.571800,-6119.728818,-3853.552503,3359.489543,-15671.880921,-3119.677677,-119.134798,-1442.961567,328.436533,-919.863691,-1114.212109,-883.720921,-9421.081474,5223.736790,0.006000,-0.014000,1.010000,192.000000,0.000000,0.000000,0.000000,0.000000,0.000000,0.000000,0.000000,0.000000,0.000000,1773140832.399494,0.000000
128.000000,9407.648076,5668.223580,-1386.054025,-6048.449105,-3739.580958,3441.967480,-15580.372880,-3032.014135,-100.269926,-1423.739067,356.622083,-895.857918,-1081.422100,-853.456659,-9400.428462,5233.571557,0.006000,-0.014000,1.010000,192.000000,0.000000,0.000000,0.000000,0.000000,0.000000,0.000000,0.000000,0.000000,0.000000,1773140832.399517,0.000000
130.000000,9355.456752,5616.747512,-1437.239520,-6098.651123,-3813.878156,3383.897648,-15646.578747,-3090.128671,-64.797707,-1394.167709,394.552993,-867.001816,-1031.555358,-823.617080,-9359.167142,5252.056450,0.006000,-0.020000,1.004000,192.000000,0.000000,24.000000,127.500000,48.000000,15.500000,48.000000,0.000000,0.000000,0.000000,1773140832.399539,0.000000
132.000000,9365.939720,5626.671687,-1428.410581,-6086.692940,-3793.672179,3395.252335,-15625.769273,-3071.464964,-112.541033,-1451.701099,326.536635,-935.375802,-1093.246173,-902.161110,-9430.826835,5209.476377,0.006000,-0.020000,1.004000,192.000000,0.000000,0.000000,0.000000,0.000000,0.000000,0.000000,0.000000,0.000000,0.000000,1773140832.399562,0.000000
134.000000,9384.178744,5648.531693,-1401.476729,-6058.015651,-3775.231990,3411.591460,-15594.454479,-3043.011194,-66.988178,-1386.746929,406.108845,-853.970749,-1025.274518,-800.572431,-9351.075810,5259.790153,0.006000,-0.020000,1.004000,192.000000,0.000000,0.000000,0.000000,0.000000,0.000000,0.000000,0.000000,0.000000,0.000000,1773140832.399584,0.000000
136.000000,9302.371359,5573.049852,-1470.029529,-6115.370228,-3853.194875,3361.389442,-15673.400840,-3124.170378,-116.810217,-1435.764305,338.070135,-916.913261,-1116.357877,-878.200040,-9418.756893,5227.089551,0.006000,-0.020000,1.004000,192.000000,0.000000,0.000000,0.000000,0.000000,0.000000,0.000000,0.000000,0.000000,0.000000,1773140832.399595,0.000000
138.000000,9369.515999,5633.734838,-1391.440796,-6065.123506,-3756.702394,3435.016088,-15587.346624,-3053.941197,-120.699420,-1435.630195,343.166333,-913.292278,-1103.773845,-857.703490,-9404.921163,5232.968060,0.006000,-0.020000,1.004000,192.000000,0.000000,0.000000,0.000000,0.000000,0.000000,0.000000,0.000000,0.000000,0.000000,1773140832.399605,0.000000
140.000000,9310.574449,5568.557151,-1447.789544,-6108.508242,-3827.110389,3370.665416,-15653.440732,-3116.637840,-96.514833,-1413.971354,367.708548,-891.208755,-1060.836144,-832.490722,-9368.465468,5249.173075,0.012000,-0.022000,0.998000,192.000000,0.000000,48.000000,127.500000,40.000000,15.500000,24.000000,0.000000,0.000000,0.000000,1773140832.399615,0.000000
142.000000,9317.883470,5577.408442,-1432.925634,-6089.665722,-3788.374816,3391.005503,-15634.821729,-3101.617468,-143.095868,-1486.033378,296.227669,-966.154154,-1124.382153,-924.445799,-9437.957041,5208.448196,0.012000,-0.022000,0.998000,192.000000,0.000000,0.000000,0.000000,0.000000,0.000000,0.000000,0.000000,0.000000,0.000000,1773140832.399625,0.000000
144.000000,9339.095275,5608.499719,-1403.376627,-6066.911646,-3772.818002,3432.579748,-15603.395176,-3070.280322,-87.060045,-1400.157976,384.047673,-873.193249,-1033.567015,-815.592803,-9351.254624,5262.226494,0.012000,-0.022000,0.998000,192.000000,0.000000,0.000000,0.000000,0.000000,0.000000,0.000000,0.000000,0.000000,0.000000,1773140832.399635,0.000000
146.000000,9267.502638,5532.481436,-1473.248181,-6121.382847,-3840.342622,3370.821878,-15679.681680,-3142.945843,-130.891816,-1454.629177,316.411295,-939.220302,-1100.443435,-901.557613,-9408.922125,5231.403438,0.012000,-0.022000,0.998000,192.000000,0.000000,0.000000,0.000000,0.000000,0.000000,0.000000,0.000000,0.000000,0.000000,1773140832.399647,0.000000
148.000000,9334.446112,5599.916649,-1392.401921,-6058.328576,-3747.135847,3430.322222,-15587.458383,-3060.780830,-123.985126,-1449.331814,333.353917,-923.082343,-1085.758339,-867.962941,-9393.521773,5235.985546,0.012000,-0.022000,0.998000,192.000000,0.000000,0.000000,0.000000,0.000000,0.000000,0.000000,0.000000,0.000000,0.000000,1773140832.399657,0.000000
150.000000,9270.788344,5547.255939,-1451.924616,-6103.993190,-3822.818854,3385.752843,-15653.172511,-3119.342401,-109.322382,-1418.128779,362.679406,-894.427406,-1068.815716,-828.757981,-9366.811438,5255.856246,0.010000,-0.020000,0.999000,192.000000,0.000000,32.000000,127.500000,56.000000,15.500000,32.000000,0.000000,0.000000,0.000000,1773140832.399668,0.000000
152.000000,9291.463708,5558.655329,-1435.294918,-6088.481079,-3793.828642,3402.404893,-15633.145348,-3102.757407,-160.150249,-1478.992579,292.986666,-962.332006,-1126.259700,-887.028979,-9438.046448,5218.327668,0.010000,-0.020000,0.999000,192.000000,0.000000,0.000000,0.000000,0.000000,0.000000,0.000000,0.000000,0.000000,0.000000,1773140832.399684,0.000000
154.000000,9318.509319,5591.311227,-1401.722598,-6061.144896,-3771.566304,3425.762466,-15598.701310,-3067.799278,-94.726693,-1399.330962,384.472356,-873.997912,-1042.463010,-820.845463,-9356.753153,5265.243979,0.010000,-0.020000,0.999000,192.000000,0.000000,0.000000,0.000000,0.000000,0.000000,0.000000,0.000000,0.000000,0.000000,1773140832.399695,0.000000
156.000000,9252.839893,5527.251128,-1463.189896,-6117.761864,-3829.390267,3367.469116,-15673.490247,-3136.620299,-134.088115,-1452.952797,319.585242,-933.453552,-1100.331676,-856.764717,-9413.191308,5228.408304,0.010000,-0.020000,0.999000,192.000000,0.000000,0.000000,0.000000,0.000000,0.000000,0.000000,0.000000,0.000000,0.000000,1773140832.399705,0.000000
158.000000,9324.656048,5594.149899,-1384.176479,-6062.284835,-3741.972594,3446.147257,-15583.658586,-3054.723508,-117.056086,-1435.294918,344.775658,-913.046409,-1065.373548,-865.906580,-9393.901753,5235.739676,0.010000,-0.020000,0.999000,192.000000,0.000000,0.000000,0.000000,0.000000,0.000000,0.000000,0.000000,0.000000,0.000000,1773140832.399715,0.000000
160.000000,9258.561940,5535.364811,-1448.638910,-6107.927097,-3827.289203,3380.299017,-15653.105456,-3122.829273,-95.620763,-1415.401866,370.480164,-892.214583,-1036.293928,-831.797818,-9366.297348,5255.498619,0.011000,-0.017000,1.003500,192.000000,0.000000,48.000000,127.500000,72.000000,15.500000,64.000000,0.000000,0.000000,0.000000,1773140832.399725,0.000000
162.000000,9246.089667,5529.508654,-1444.772058,-6103.032065,-3801.629400,3396.481680,-15638.867395,-3121.979907,-167.839249,-1483.105300,280.737910,-970.848020,-1126.460865,-912.800540,-9439.588718,5211.599792,0.011000,-0.017000,1.003500,192.000000,0.000000,0.000000,0.000000,0.000000,0.000000,0.000000,0.000000,0.000000,0.000000,1773140832.399736,0.000000
164.000000,9270.497772,5554.028517,-1412.362029,-6079.674492,-3763.586731,3414.899518,-15609.094871,-3094.844889,-123.381629,-1414.619555,357.359690,-893.801557,-1046.732193,-830.881397,-9349.064153,5255.588026,0.011000,-0.017000,1.003500,192.000000,0.000000,0.000000,0.000000,0.000000,0.000000,0.000000,0.000000,0.000000,0.000000,1773140832.399746,0.000000
166.000000,9204.604829,5484.469889,-1477.316198,-6130.636469,-3839.515607,3372.632369,-15685.247265,-3165.230532,-158.630330,-1477.226791,295.177137,-960.946198,-1115.888490,-904.888023,-9410.307933,5222.842720,0.011000,-0.017000,1.003500,192.000000,0.000000,0.000000,0.000000,0.000000,0.000000,0.000000,0.000000,0.000000,0.000000,1773140832.399756,0.000000
168.000000,9285.384033,5561.739869,-1395.844089,-6062.262483,-3740.072696,3444.873207,-15592.308711,-3078.550467,-147.990900,-1454.718584,320.613422,-939.443819,-1079.611609,-847.824019,-9391.308950,5237.840740,0.011000,-0.017000,1.003500,192.000000,0.000000,0.000000,0.000000,0.000000,0.000000,0.000000,0.000000,0.000000,0.000000,1773140832.399766,0.000000
170.000000,9219.692256,5514.734151,-1457.601959,-6099.858117,-3799.394226,3392.681884,-15658.559282,-3137.156741,-131.115333,-1423.850825,344.239216,-905.223299,-1051.314300,-836.446981,-9362.564607,5261.377127,0.012500,-0.013500,1.006750,192.000000,0.000000,56.000000,127.500000,88.000000,15.500000,72.000000,0.000000,0.000000,0.000000,1773140832.399777,0.000000
172.000000,9258.092553,5542.830294,-1438.804142,-6086.849402,-3787.078415,3406.607021,-15636.542813,-3108.926488,-179.260991,-1476.064500,272.020730,-966.377672,-1129.791275,-890.806424,-9437.308840,5222.507444,0.012500,-0.013500,1.006750,192.000000,0.000000,0.000000,0.000000,0.000000,0.000000,0.000000,0.000000,0.000000,0.000000,1773140832.399787,0.000000
174.000000,9285.428737,5568.668910,-1402.840186,-6066.285797,-3759.809287,3433.339707,-15603.484583,-3077.589342,-98.772359,-1392.983066,374.011740,-877.417729,-1026.950899,-766.575428,-9347.857159,5265.981587,0.012500,-0.013500,1.006750,192.000000,0.000000,0.000000,0.000000,0.000000,0.000000,0.000000,0.000000,0.000000,0.000000,1773140832.399797,0.000000
176.000000,9216.428902,5505.525232,-1472.175297,-6113.515033,-3841.504913,3376.655683,-15676.932416,-3147.282082,-143.654662,-1449.153000,308.521129,-939.644985,-1092.173289,-861.905618,-9413.079549,5231.738714,0.012500,-0.013500,1.006750,192.000000,0.000000,0.000000,0.000000,0.000000,0.000000,0.000000,0.000000,0.000000,0.000000,1773140832.399807,0.000000
178.000000,9288.021539,5571.485230,-1392.536031,-6054.886407,-3754.802496,3451.265806,-15587.190162,-3068.738052,-141.039508,-1434.244386,328.078905,-923.328212,-1078.851650,-887.163089,-9401.501346,5241.707592,0.012500,-0.013500,1.006750,192.000000,0.000000,0.000000,0.000000,0.000000,0.000000,0.000000,0.000000,0.000000,0.000000,1773140832.878922,0.000000
180.000000,9226.576594,5518.668058,-1451.969320,-6102.383864,-3826.641002,3400.661457,-15652.993697,-3128.618375,-126.376763,-1411.825587,353.202266,-899.948287,-1062.668987,-833.004812,-9371.102973,5255.789191,0.012250,-0.011750,1.010375,192.000000,0.000000,48.000000,127.500000,88.000000,15.500000,88.000000,0.000000,0.000000,0.000000,1773140832.878990,0.000000
182.000000,9234.757332,5529.083971,-1437.105410,-6094.694864,-3793.068682,3408.663381,-15633.927659,-3113.620354,-178.925714,-1478.076157,279.955599,-969.730433,-1120.962336,-889.733540,-9439.566367,5216.003086,0.012250,-0.011750,1.010375,192.000000,0.000000,0.000000,0.000000,0.000000,0.000000,0.000000,0.000000,0.000000,0.000000,1773140832.879028,0.000000
184.000000,9254.851550,5555.168456,-1408.070494,-6071.113774,-3765.866609,3430.322222,-15603.506935,-3083.892534,-130.265967,-1402.884889,361.226542,-883.296237,-1061.149068,-813.849367,-9355.300290,5256.750316,0.012250,-0.011750,1.010375,192.000000,0.000000,0.000000,0.000000,0.000000,0.000000,0.000000,0.000000,0.000000,0.000000,1773140832.879065,0.000000
186.000000,9186.142288,5488.493203,-1474.432823,-6118.432417,-3822.595337,3368.139668,-15679.659328,-3155.172247,-174.544772,-1459.032471,292.740797,-946.462267,-1114.882662,-875.003740,-9416.052331,5224.832025,0.012250,-0.011750,1.010375,192.000000,0.000000,0.000000,0.000000,0.000000,0.000000,0.000000,0.000000,0.000000,0.000000,1773140832.879120,0.000000
188.000000,9259.590120,5554.743773,-1404.963601,-6056.987471,-3757.216484,3442.101591,-15590.855848,-3079.109261,-168.487450,-1437.127761,307.403541,-928.714982,-1092.821490,-835.843484,-9398.372102,5239.919453,0.012250,-0.011750,1.010375,192.000000,0.000000,0.000000,0.000000,0.000000,0.000000,0.000000,0.000000,0.000000,0.000000,1773140832.879194,0.000000
190.000000,9197.765195,5497.858584,-1457.132573,-6113.224460,-3817.566194,3378.555581,-15660.168607,-3145.136314,-146.046298,-1419.916918,333.756248,-911.258270,-1053.124792,-837.206940,-9364.732726,5252.190560,0.011125,-0.011875,1.011188,192.000000,0.000000,40.000000,127.500000,80.000000,15.500000,80.000000,0.000000,0.000000,0.000000,1773140832.879231,0.000000
192.000000,9213.433768,5512.722494,-1440.547578,-6095.052492,-3795.348560,3405.914117,-15641.415494,-3131.591157,-197.924697,-1490.235506,260.353119,-990.830480,-1143.045860,-903.636325,-9435.096018,5213.164415,0.011125,-0.011875,1.011188,192.000000,0.000000,0.000000,0.000000,0.000000,0.000000,0.000000,0.000000,0.000000,0.000000,1773140832.879277,0.000000
194.000000,9236.992507,5533.084933,-1413.412561,-6074.935922,-3758.401127,3430.746905,-15609.273685,-3099.896383,-135.451571,-1413.211395,350.095373,-901.512909,-1047.045117,-813.245870,-9348.371249,5264.774592,0.011125,-0.011875,1.011188,192.000000,0.000000,0.000000,0.000000,0.000000,0.000000,0.000000,0.000000,0.000000,0.000000,1773140832.879314,0.000000
196.000000,9172.641834,5475.372729,-1479.707835,-6118.387713,-3834.173540,3372.878238,-15680.799267,-3160.491962,-173.427185,-1470.923599,289.902126,-959.694500,-1119.263604,-880.032883,-9411.805500,5233.124522,0.011125,-0.011875,1.011188,192.000000,0.000000,0.000000,0.000000,0.000000,0.000000,0.000000,0.000000,0.000000,0.000000,1773140832.879351,0.000000
198.000000,9251.141161,5556.129581,-1399.643886,-6052.673585,-3738.441019,3456.809039,-15586.787830,-3067.441650,-170.364996,-1438.670032,313.483216,-929.787866,-1099.795234,-873.483822,-9398.908543,5240.657060,0.011125,-0.011875,1.011188,192.000000,0.000000,0.000000,0.000000,0.000000,0.000000,0.000000,0.000000,0.000000,0.000000,1773140832.879388,0.000000
200.000000,9204.448367,5505.547584,-1455.702061,-6091.655027,-3806.658543,3411.546756,-15651.876110,-3123.879805,-139.631348,-1406.036485,350.430650,-891.432272,-1068.256923,-810.898937,-9366.967901,5262.315901,0.013562,-0.015938,1.009594,192.000000,0.000000,64.000000,127.500000,48.000000,15.500000,64.000000,0.000000,0.000000,0.000000,1773140832.879424,0.000000
202.000000,9210.662152,5515.337648,-1431.673936,-6080.702672,-3797.829604,3420.710971,-15632.206575,-3113.687410,-191.532098,-1472.510573,273.987684,-967.495259,-1131.735877,-872.276827,-9439.633422,5224.228528,0.013562,-0.015938,1.009594,192.000000,0.000000,0.000000,0.000000,0.000000,0.000000,0.000000,0.000000,0.000000,0.000000,1773140832.879461,0.000000
204.000000,9242.692201,5546.987718,-1408.092845,-6059.759088,-3754.422516,3447.868341,-15602.881086,-3088.295828,-132.344679,-1389.406787,357.113821,-880.725787,-1037.679736,-758.260579,-9354.137999,5268.328520,0.013562,-0.015938,1.009594,192.000000,0.000000,0.000000,0.000000,0.000000,0.000000,0.000000,0.000000,0.000000,0.000000,1773140832.879489,0.000000
206.000000,9177.849791,5484.358130,-1468.196686,-6120.220556,-3829.993764,3387.742148,-15681.179247,-3161.475439,-165.246447,-1446.917826,294.081902,-947.669261,-1091.703903,-875.160202,-9412.833680,5234.823255,0.013562,-0.015938,1.009594,192.000000,0.000000,0.000000,0.000000,0.000000,0.000000,0.000000,0.000000,0.000000,0.000000,1773140832.879500,0.000000
208.000000,9262.205274,5560.510523,-1387.395130,-6056.227512,-3732.629565,3446.549588,-15588.240694,-3072.470793,-148.437935,-1435.250215,320.501664,-930.659584,-1069.754490,-859.469278,-9390.459584,5241.126447,0.013562,-0.015938,1.009594,192.000000,0.000000,0.000000,0.000000,0.000000,0.000000,0.000000,0.000000,0.000000,0.000000,1773140832.879510,0.000000
210.000000,9202.101434,5509.883822,-1450.896436,-6114.297344,-3797.583735,3401.086140,-15653.328973,-3130.406514,-123.605147,-1400.739122,355.325682,-896.751988,-1052.856571,-822.566548,-9360.865874,5254.336328,0.011781,-0.014969,1.007797,192.000000,0.000000,40.000000,127.500000,72.000000,15.500000,56.000000,0.000000,0.000000,0.000000,1773140832.879528,0.000000
212.000000,9202.839041,5501.948953,-1443.118029,-6091.833841,-3804.378665,3405.914117,-15635.224060,-3122.404590,-180.959723,-1486.323951,274.300608,-975.050148,-1123.622194,-884.257362,-9436.861806,5215.801920,0.011781,-0.014969,1.007797,192.000000,0.000000,0.000000,0.000000,0.000000,0.000000,0.000000,0.000000,0.000000,0.000000,1773140832.879538,0.000000
214.000000,9233.393876,5533.487264,-1412.205566,-6073.483059,-3767.855915,3429.517559,-15605.406833,-3093.123805,-133.037583,-1409.366895,354.208094,-894.650924,-1061.193772,-839.665632,-9355.322642,5255.096287,0.011781,-0.014969,1.007797,192.000000,0.000000,0.000000,0.000000,0.000000,0.000000,0.000000,0.000000,0.000000,0.000000,1773140832.879549,0.000000
216.000000,9167.232712,5466.007348,-1477.718529,-6127.596632,-3835.246424,3370.888933,-15682.833276,-3167.353948,-172.331950,-1464.575704,288.091634,-956.319387,-1120.761170,-881.776319,-9410.687913,5227.536586,0.011781,-0.014969,1.007797,192.000000,0.000000,0.000000,0.000000,0.000000,0.000000,0.000000,0.000000,0.000000,0.000000,1773140832.879559,0.000000
218.000000,9245.240300,5546.674794,-1402.191985,-6065.011747,-3741.659670,3455.892617,-15593.627464,-3086.887668,-170.119127,-1445.576721,300.250983,-941.500180,-1105.316115,-842.817228,-9389.699625,5235.627918,0.011781,-0.014969,1.007797,192.000000,0.000000,0.000000,0.000000,0.000000,0.000000,0.000000,0.000000,0.000000,0.000000,1773140832.879569,0.000000
220.000000,9205.342436,5504.161776,-1451.902265,-6100.998056,-3795.885002,3405.422378,-15655.944128,-3137.603776,-128.231958,-1405.790616,339.545350,-904.329229,-1028.917853,-814.989306,-9361.178799,5259.767802,0.011781,-0.014969,1.007797,192.000000,0.000000,0.000000,0.000000,0.000000,0.000000,0.000000,0.000000,0.000000,0.000000,1773140832.879579,0.000000
222.000000,9213.970210,5519.070389,-1437.753610,-6091.677379,-3767.386528,3429.294041,-15638.085084,-3116.436674,-171.192011,-1471.772965,277.988646,-968.814012,-1116.559043,-897.087264,-9430.223337,5216.606583,0.010000,-0.008000,1.006000,192.000000,0.000000,40.000000,127.500000,96.000000,15.500000,56.000000,0.000000,0.000000,0.000000,1773140832.879590,0.000000
224.000000,9259.970100,5565.226741,-1400.336790,-6072.186657,-3750.153333,3447.644824,-15601.316464,-3072.604903,-109.881176,-1383.081243,371.709510,-875.204906,-1033.321146,-815.592803,-9350.069982,5268.686148,0.010000,-0.008000,1.006000,192.000000,0.000000,0.000000,0.000000,0.000000,0.000000,0.000000,0.000000,0.000000,0.000000,1773140832.879600,0.000000
226.000000,9191.640817,5501.591325,-1472.376463,-6115.414931,-3840.655546,3376.186296,-15673.557302,-3139.302509,-151.477772,-1431.159846,311.113931,-931.508950,-1107.886566,-842.906635,-9424.613050,5227.357772,0.010000,-0.008000,1.006000,192.000000,0.000000,0.000000,0.000000,0.000000,0.000000,0.000000,0.000000,0.000000,0.000000,1773140832.879610,0.000000
228.000000,9265.893312,5567.037233,-1395.598220,-6046.839779,-3763.720842,3440.045230,-15580.261121,-3056.064612,-150.203723,-1420.341601,327.341298,-906.452645,-1086.071263,-858.798725,-9420.455625,5231.448142,0.010000,-0.008000,1.006000,192.000000,0.000000,0.000000,0.000000,0.000000,0.000000,0.000000,0.000000,0.000000,0.000000,1773140832.879621,0.000000
230.000000,9204.604829,5506.084026,-1456.506724,-6101.981533,-3818.750837,3405.131806,-15652.077276,-3127.232567,-122.398153,-1406.841148,354.476315,-884.883211,-1065.038272,-818.453827,-9387.039767,5250.894159,0.010000,-0.008000,1.006000,192.000000,0.000000,0.000000,0.000000,0.000000,0.000000,0.000000,0.000000,0.000000,0.000000,1773140832.879631,0.000000
232.000000,9205.230678,5507.089854,-1440.659337,-6079.965065,-3780.886982,3408.775140,-15636.788683,-3124.729171,-182.501993,-1474.097547,267.863306,-969.283398,-1139.246063,-900.194156,-9447.076553,5213.097359,0.006000,-0.012000,1.010000,192.000000,0.000000,24.000000,127.500000,80.000000,15.500000,72.000000,0.000000,0.000000,0.000000,1773140832.879641,0.000000
234.000000,9244.726210,5540.572767,-1405.187119,-6072.097250,-3751.852066,3440.514617,-15606.725586,-3096.342456,-115.424408,-1404.695380,356.890304,-892.393397,-1049.548513,-802.785254,-9355.501456,5263.031156,0.006000,-0.012000,1.010000,192.000000,0.000000,0.000000,0.000000,0.000000,0.000000,0.000000,0.000000,0.000000,0.000000,1773140832.879652,0.000000
236.000000,9160.907168,5461.626406,-1477.830288,-6119.751170,-3821.231880,3397.308695,-15686.275445,-3175.691149,-157.512743,-1451.723451,290.997361,-963.516648,-1105.092598,-884.793804,-9412.118424,5236.924319,0.006000,-0.012000,1.010000,192.000000,0.000000,0.000000,0.000000,0.000000,0.000000,0.000000,0.000000,0.000000,0.000000,1773140832.879678,0.000000
238.000000,9244.860321,5541.958575,-1398.973334,-6067.358681,-3736.272900,3458.775992,-15597.091984,-3088.832270,-157.021005,-1448.996538,307.112969,-949.144477,-1064.770051,-852.450830,-9389.766680,5244.658022,0.006000,-0.012000,1.010000,192.000000,0.000000,0.000000,0.000000,0.000000,0.000000,0.000000,0.000000,0.000000,0.000000,1773140832.879688,0.000000
240.000000,9192.311369,5495.332837,-1452.684576,-6107.480062,-3809.206642,3392.927753,-15658.067543,-3140.755372,-132.903473,-1416.742971,341.489952,-915.661563,-1070.693263,-808.909632,-9359.457714,5266.450973,0.006000,-0.012000,1.010000,192.000000,0.000000,0.000000,0.000000,0.000000,0.000000,0.000000,0.000000,0.000000,0.000000,1773140832.879698,0.000000
242.000000,9212.092663,5513.437750,-1440.324061,-6097.622943,-3786.094938,3407.769311,-15635.939316,-3119.185939,-183.999560,-1485.988675,270.590218,-974.401948,-1140.006022,-899.769473,-9433.866672,5213.522042,0.008000,-0.016000,1.008000,192.000000,0.000000,32.000000,127.500000,64.000000,15.500000,64.000000,0.000000,0.000000,0.000000,1773140832.879716,0.000000
244.000000,9245.910853,5543.120866,-1409.121026,-6071.180829,-3755.338938,3440.291100,-15602.366996,-3088.564049,-124.163940,-1394.659447,358.365519,-887.766586,-1059.942074,-806.495643,-9351.947528,5259.745450,0.008000,-0.016000,1.008000,192.000000,0.000000,0.000000,0.000000,0.000000,0.000000,0.000000,0.000000,0.000000,0.000000,1773140832.879726,0.000000
246.000000,9183.773003,5485.900400,-1472.599980,-6122.388675,-3834.486465,3379.986093,-15675.926587,-3156.781573,-161.156078,-1452.036375,297.054684,-950.999671,-1113.988592,-899.389493,-9418.689837,5226.418999,0.008000,-0.016000,1.008000,192.000000,0.000000,0.000000,0.000000,0.000000,0.000000,0.000000,0.000000,0.000000,0.000000,1773140832.879736,0.000000
248.000000,9261.802943,5558.498866,-1390.166746,-6058.015651,-3735.423533,3451.332861,-15584.619711,-3072.023758,-148.639101,-1434.199683,322.602728,-937.968604,-1081.176231,-850.103897,-9402.708340,5233.459799,0.008000,-0.016000,1.008000,192.000000,0.000000,0.000000,0.000000,0.000000,0.000000,0.000000,0.000000,0.000000,0.000000,1773140832.879746,0.000000
250.000000,9205.275381,5505.882860,-1446.895474,-6093.018483,-3798.947191,3409.132768,-15649.998564,-3130.562977,-122.554615,-1396.224069,357.024414,-894.337999,-1051.671928,-830.881397,-9370.790049,5258.918435,0.008000,-0.016000,1.008000,192.000000,0.000000,0.000000,0.000000,0.000000,0.000000,0.000000,0.000000,0.000000,0.000000,1773140832.879756,0.000000
252.000000,9222.240355,5522.221985,-1430.265776,-6090.626847,-3792.621647,3423.147312,-15632.519499,-3113.486244,-168.062767,-1461.379404,284.984742,-966.087099,-1131.355897,-902.697552,-9446.271890,5220.160511,0.004000,-0.014000,1.004000,192.000000,0.000000,16.000000,127.500000,72.000000,15.500000,48.000000,0.000000,0.000000,0.000000,1773140832.879766,0.000000
254.000000,9252.437562,5551.614529,-1407.355238,-6070.040890,-3755.003662,3434.792570,-15603.238714,-3083.803127,-109.970583,-1380.533145,370.055481,-881.910429,-1045.525199,-768.922361,-9357.043726,5257.689089,0.004000,-0.014000,1.004000,192.000000,0.000000,0.000000,0.000000,0.000000,0.000000,0.000000,0.000000,0.000000,0.000000,1773140832.879777,0.000000
0.000000,9177.134535,5489.543735,-1479.730186,-6114.967896,-3849.216264,3375.024006,-15679.189942,-3157.116849,-165.313502,-1448.281282,292.383169,-943.377726,-1106.701923,-862.576170,-9427.630535,5233.772723,0.004000,-0.014000,1.004000,192.000000,0.000000,0.000000,0.000000,0.000000,0.000000,0.000000,0.000000,0.000000,0.000000,1773140832.879787,0.000000
2.000000,9249.129504,5555.593140,-1401.767302,-6056.562788,-3733.948318,3438.726477,-15590.140592,-3081.120918,-161.178429,-1429.908148,304.900146,-934.459380,-1099.862289,-876.791880,-9405.032921,5237.706630,0.004000,-0.014000,1.004000,192.000000,0.000000,0.000000,0.000000,0.000000,0.000000,0.000000,0.000000,0.000000,0.000000,1773140832.879797,0.000000
4.000000,9211.980905,5509.146215,-1457.736070,-6106.675399,-3810.592450,3400.147367,-15655.586500,-3136.799113,-134.445743,-1409.299840,338.964205,-902.630496,-1058.109231,-837.922196,-9370.052441,5257.376165,0.004000,-0.014000,1.004000,192.000000,0.000000,0.000000,0.000000,0.000000,0.000000,0.000000,0.000000,0.000000,0.000000,1773140832.879807,0.000000
6.000000,9221.301582,5519.249203,-1450.203532,-6084.368358,-3777.891848,3424.086085,-15638.465063,-3122.203424,-178.702197,-1468.956646,271.216067,-975.564238,-1124.493912,-891.074644,-9441.287451,5221.076932,0.004000,-0.014000,1.004000,192.000000,0.000000,0.000000,127.500000,72.000000,15.500000,56.000000,0.000000,0.000000,0.000000,1773140832.879817,0.000000
8.000000,9258.561940,5552.955634,-1402.661372,-6068.342157,-3747.180551,3449.879998,-15603.439880,-3085.725377,-112.563385,-1385.852860,368.334397,-887.319551,-1059.338577,-813.134112,-9358.384831,5260.952444,0.004000,-0.014000,1.004000,192.000000,0.000000,0.000000,0.000000,0.000000,0.000000,0.000000,0.000000,0.000000,0.000000,1773140832.879827,0.000000
10.000000,9190.702044,5491.980075,-1473.047015,-6124.042705,-3819.980183,3401.041436,-15678.452334,-3153.875846,-150.270778,-1430.198721,310.309268,-948.988014,-1106.299592,-854.954225,-9416.365256,5230.174092,0.004000,-0.014000,1.004000,192.000000,0.000000,0.000000,0.000000,0.000000,0.000000,0.000000,0.000000,0.000000,0.000000,1773140832.879837,0.000000
12.000000,9270.274254,5567.596026,-1388.736235,-6057.032175,-3742.531388,3438.324146,-15586.564313,-3070.727357,-149.153191,-1423.157921,324.010888,-931.464247,-1097.090673,-852.853161,-9406.150509,5231.649307,0.004000,-0.014000,1.004000,192.000000,0.000000,0.000000,0.000000,0.000000,0.000000,0.000000,0.000000,0.000000,0.000000,1773140832.879847,0.000000
14.000000,9221.748617,5521.976116,-1451.209361,-6100.640428,-3802.344656,3394.268858,-15652.211386,-3126.047924,-117.614879,-1396.626401,354.431612,-898.249554,-1057.304568,-841.453772,-9370.611235,5249.977738,0.004000,-0.014000,1.004000,192.000000,0.000000,0.000000,0.000000,0.000000,0.000000,0.000000,0.000000,0.000000,0.000000,1773140832.879857,0.000000
16.000000,9240.121751,5543.702012,-1436.926596,-6087.229381,-3790.766453,3411.189128,-15633.100645,-3107.808901,-172.421357,-1456.193800,283.263657,-967.986997,-1142.822342,-882.357464,-9446.584814,5212.449159,0.004000,-0.016000,1.012000,192.000000,0.000000,16.000000,127.500000,64.000000,15.500000,80.000000,0.000000,0.000000,0.000000,1773140832.879867,0.000000
18.000000,9276.778612,5579.017768,-1409.769226,-6060.273178,-3750.153333,3444.962614,-15601.249409,-3075.734148,-114.887967,-1371.145412,370.793089,-874.489650,-1039.244358,-782.713387,-9363.659842,5261.734755,0.004000,-0.016000,1.012000,192.000000,0.000000,0.000000,0.000000,0.000000,0.000000,0.000000,0.000000,0.000000,0.000000,1773140832.879877,0.000000
20.000000,9209.052826,5515.427055,-1478.769061,-6109.290553,-3834.464113,3400.952029,-15676.015994,-3145.784515,-151.924807,-1426.845959,308.342315,-934.146456,-1111.552252,-875.763700,-9426.736465,5234.711496,0.004000,-0.016000,1.012000,192.000000,0.000000,0.000000,0.000000,0.000000,0.000000,0.000000,0.000000,0.000000,0.000000,1773140832.879887,0.000000
22.000000,9294.034158,5597.077977,-1387.976275,-6053.657061,-3740.899711,3457.971329,-15585.826705,-3062.837191,-137.865560,-1412.339677,328.615347,-919.461360,-1092.620324,-842.213731,-9408.095110,5238.533645,0.004000,-0.016000,1.012000,192.000000,0.000000,0.000000,0.000000,0.000000,0.000000,0.000000,0.000000,0.000000,0.000000,1773140832.879897,0.000000
24.000000,9248.011917,5549.826390,-1446.604901,-6095.477175,-3814.526357,3404.014218,-15651.339668,-3121.711686,-111.155225,-1379.817889,362.008853,-884.235011,-1061.104365,-814.788141,-9375.930950,5253.509313,0.004000,-0.016000,1.012000,192.000000,0.000000,0.000000,0.000000,0.000000,0.000000,0.000000,0.000000,0.000000,0.000000,1773140832.879908,0.000000
26.000000,9265.178056,5560.577579,-1430.399886,-6093.577277,-3783.412729,3414.027800,-15636.162834,-3109.015895,-158.876200,-1445.509666,290.617381,-961.549695,-1130.752400,-871.047481,-9446.651870,5213.387932,0.008000,-0.014000,1.012000,192.000000,0.000000,32.000000,127.500000,72.000000,15.500000,80.000000,0.000000,0.000000,0.000000,1773140832.879918,0.000000
28.000000,9293.207144,5589.143108,-1408.875157,-6063.715346,-3749.058097,3441.766315,-15604.870391,-3080.360959,-98.884117,-1365.736290,380.180821,-879.250572,-1046.598082,-806.763864,-9357.982499,5256.526799,0.008000,-0.014000,1.012000,192.000000,0.000000,0.000000,0.000000,0.000000,0.000000,0.000000,0.000000,0.000000,0.000000,1773140832.879928,0.000000
30.000000,9219.692256,5521.752598,-1478.612599,-6111.726893,-3830.239633,3387.809204,-15677.826485,-3149.539608,-149.019080,-1428.499988,307.425893,-944.182389,-1097.738874,-876.680121,-9421.126177,5230.174092,0.008000,-0.014000,1.012000,192.000000,0.000000,0.000000,0.000000,0.000000,0.000000,0.000000,0.000000,0.000000,0.000000,1773140832.879938,0.000000
32.000000,9314.016618,5607.113911,-1393.832432,-6059.177942,-3737.032859,3469.616588,-15586.854885,-3060.534961,-136.122124,-1415.737142,326.916614,-926.524511,-1094.520222,-838.615100,-9405.547012,5236.387877,0.008000,-0.014000,1.012000,192.000000,0.000000,0.000000,0.000000,0.000000,0.000000,0.000000,0.000000,0.000000,0.000000,1773140832.879948,0.000000
34.000000,9255.723268,5553.425020,-1452.282244,-6090.425681,-3805.473900,3424.890748,-15653.172511,-3123.991564,-102.929783,-1368.262037,360.310121,-885.531412,-1055.538780,-825.628737,-9372.958168,5256.549151,0.008000,-0.014000,1.012000,192.000000,0.000000,0.000000,0.000000,0.000000,0.000000,0.000000,0.000000,0.000000,0.000000,1773140832.879958,0.000000
36.000000,9272.308263,5565.182038,-1430.936328,-6087.318788,-3783.613894,3408.797492,-15634.285287,-3108.367694,-162.743051,-1444.012099,284.649466,-960.208590,-1127.466694,-891.007589,-9443.299108,5211.130406,0.006000,-0.011000,1.009000,192.000000,0.000000,16.000000,127.500000,96.000000,15.500000,56.000000,0.000000,0.000000,0.000000,1773140832.879968,0.000000
38.000000,9302.840746,5597.301495,-1404.270697,-6067.224570,-3745.995908,3436.714820,-15601.070595,-3077.857563,-95.821928,-1360.528333,378.124461,-875.674293,-1042.664175,-817.738571,-9360.485895,5252.011746,0.006000,-0.011000,1.009000,192.000000,0.000000,0.000000,0.000000,0.000000,0.000000,0.000000,0.000000,0.000000,0.000000,1773140832.879978,0.000000
40.000000,9232.700972,5531.430904,-1476.779756,-6120.175853,-3833.167712,3381.103680,-15678.362927,-3150.232512,-127.203778,-1424.677840,308.543480,-940.650814,-1099.750531,-846.013528,-9425.685933,5227.335421,0.006000,-0.011000,1.009000,192.000000,0.000000,0.000000,0.000000,0.000000,0.000000,0.000000,0.000000,0.000000,0.000000,1773140832.879989,0.000000
42.000000,9317.525842,5611.807777,-1395.307648,-6059.736736,-3742.218464,3448.650652,-15585.983167,-3062.546618,-142.268853,-1407.802273,326.067248,-918.947270,-1086.942981,-845.097106,-9414.778282,5237.259595,0.006000,-0.011000,1.009000,192.000000,0.000000,0.000000,0.000000,0.000000,0.000000,0.000000,0.000000,0.000000,0.000000,1773140833.360618,0.000000
44.000000,9264.574559,5555.704898,-1454.428012,-6095.253658,-3829.099694,3397.554564,-15652.323145,-3121.599927,-97.207737,-1376.778051,366.546257,-893.309819,-1055.717594,-819.303193,-9387.620913,5251.721174,0.006000,-0.011000,1.009000,192.000000,0.000000,0.000000,0.000000,0.000000,0.000000,0.000000,0.000000,0.000000,0.000000,1773140833.360693,0.000000
46.000000,9285.786365,5571.351119,-1434.289090,-6087.877582,-3806.479729,3415.167739,-15633.793549,-3101.393950,-145.532208,-1455.657358,286.638771,-964.030738,-1139.201360,-911.168863,-9453.536207,5213.007952,0.004000,-0.014500,1.004500,192.000000,0.000000,8.000000,127.500000,56.000000,15.500000,32.000000,0.000000,0.000000,0.000000,1773140833.360750,0.000000
48.000000,9319.179871,5605.549288,-1405.701209,-6063.268311,-3766.738327,3434.703163,-15600.087118,-3067.128726,-101.566327,-1372.017130,388.115691,-874.914333,-1051.783687,-799.387789,-9364.777430,5254.984528,0.004000,-0.014500,1.004500,192.000000,0.000000,0.000000,0.000000,0.000000,0.000000,0.000000,0.000000,0.000000,0.000000,1773140833.360792,0.000000
50.000000,9259.612472,5547.591215,-1466.497954,-6125.406161,-3834.732334,3370.307788,-15675.457200,-3136.486189,-136.747973,-1421.392133,322.960356,-940.539055,-1110.233499,-878.557668,-9423.383704,5219.802883,0.004000,-0.014500,1.004500,192.000000,0.000000,0.000000,0.000000,0.000000,0.000000,0.000000,0.000000,0.000000,0.000000,1773140833.360844,0.000000
52.000000,9333.261470,5623.587146,-1393.474805,-6051.243073,-3743.000775,3454.149181,-15584.686766,-3056.779868,-129.774228,-1400.761473,335.879664,-925.183406,-1096.911859,-857.859952,-9408.519794,5234.577386,0.004000,-0.014500,1.004500,192.000000,0.000000,0.000000,0.000000,0.000000,0.000000,0.000000,0.000000,0.000000,0.000000,1773140833.360898,0.000000
54.000000,9277.873847,5568.490096,-1459.613616,-6098.360550,-3815.308668,3398.627448,-15653.731305,-3122.315183,-104.069722,-1377.605066,357.247932,-887.587772,-1069.285103,-825.427571,-9375.081584,5255.990357,0.004000,-0.014500,1.004500,192.000000,0.000000,0.000000,0.000000,0.000000,0.000000,0.000000,0.000000,0.000000,0.000000,1773140833.360922,0.000000
56.000000,9295.822298,5582.526992,-1442.179256,-6089.106928,-3806.278563,3417.604079,-15635.089950,-3103.450311,-154.674072,-1447.744840,285.699998,-966.802355,-1125.432685,-869.348749,-9449.959928,5211.868013,0.007000,-0.015250,1.002250,192.000000,0.000000,40.000000,127.500000,64.000000,15.500000,32.000000,0.000000,0.000000,0.000000,1773140833.360946,0.000000
58.000000,9323.918441,5611.651315,-1411.400904,-6059.803791,-3760.301025,3448.181265,-15601.182354,-3073.454270,-91.016303,-1362.763508,377.610371,-877.104804,-1049.906141,-823.795894,-9365.425630,5258.538456,0.007000,-0.015250,1.002250,192.000000,0.000000,0.000000,0.000000,0.000000,0.000000,0.000000,0.000000,0.000000,0.000000,1773140833.360970,0.000000
60.000000,9261.177094,5554.766125,-1470.945951,-6113.000943,-3846.019965,3385.439919,-15675.300738,-3139.190750,-141.955929,-1408.137549,310.331620,-932.604186,-1123.309269,-848.829847,-9424.948326,5231.358735,0.007000,-0.015250,1.002250,192.000000,0.000000,0.000000,0.000000,0.000000,0.000000,0.000000,0.000000,0.000000,0.000000,1773140833.360993,0.000000
62.000000,9348.997098,5638.160484,-1391.641962,-6059.110887,-3738.016336,3459.044213,-15585.312615,-3049.448496,-121.459379,-1397.408712,333.957414,-914.991011,-1087.278257,-857.435269,-9414.174785,5235.627918,0.007000,-0.015250,1.002250,192.000000,0.000000,0.000000,0.000000,0.000000,0.000000,0.000000,0.000000,0.000000,0.000000,1773140833.361016,0.000000
64.000000,9295.397615,5585.969160,-1448.929483,-6096.304190,-3787.503098,3409.423340,-15650.557357,-3112.770988,-86.568306,-1357.108516,378.057406,-880.949304,-1060.947902,-786.066149,-9372.198209,5251.810581,0.007000,-0.015250,1.002250,192.000000,0.000000,0.000000,0.000000,0.000000,0.000000,0.000000,0.000000,0.000000,0.000000,1773140833.361039,0.000000
66.000000,9307.400502,5597.167384,-1441.665166,-6076.277027,-3794.409787,3418.185224,-15636.095778,-3102.958572,-145.420449,-1431.852750,290.706788,-960.320349,-1120.515301,-907.391418,-9448.842341,5219.311144,0.009500,-0.015625,1.003125,192.000000,0.000000,48.000000,127.500000,64.000000,15.500000,48.000000,0.000000,0.000000,0.000000,1773140833.361062,0.000000
68.000000,9340.972822,5629.197434,-1407.109369,-6064.631768,-3759.719880,3443.934434,-15601.919961,-3068.648645,-87.887059,-1354.091031,379.890249,-870.287522,-1036.025707,-790.648257,-9373.114630,5261.712404,0.009500,-0.015625,1.003125,192.000000,0.000000,0.000000,0.000000,0.000000,0.000000,0.000000,0.000000,0.000000,0.000000,1773140833.361085,0.000000
70.000000,9273.984644,5561.806925,-1475.952742,-6116.510167,-3838.532131,3385.171698,-15679.748735,-3143.839913,-123.113408,-1405.008305,315.986611,-937.678032,-1108.311249,-856.965882,-9426.267079,5227.380124,0.009500,-0.015625,1.003125,192.000000,0.000000,0.000000,0.000000,0.000000,0.000000,0.000000,0.000000,0.000000,0.000000,1773140833.361108,0.000000
72.000000,9350.338203,5633.868949,-1396.492290,-6053.522951,-3748.387545,3449.432963,-15591.057013,-3064.178296,-113.368048,-1395.397055,333.756248,-923.842302,-1088.261734,-872.992083,-9409.503270,5235.091476,0.009500,-0.015625,1.003125,192.000000,0.000000,0.000000,0.000000,0.000000,0.000000,0.000000,0.000000,0.000000,0.000000,1773140833.361131,0.000000
74.000000,9300.806737,5587.824355,-1450.449401,-6094.739568,-3810.815967,3409.892727,-15653.574843,-3118.828311,-87.484728,-1366.004511,358.812554,-889.867650,-1061.305530,-824.622908,-9378.948436,5258.046717,0.009500,-0.015625,1.003125,192.000000,0.000000,0.000000,0.000000,0.000000,0.000000,0.000000,0.000000,0.000000,0.000000,1773140833.361174,0.000000
76.000000,9304.204202,5593.278181,-1435.809009,-6097.578239,-3774.270865,3426.567128,-15639.068560,-3108.278287,-143.095868,-1434.222035,296.764111,-960.432108,-1137.144999,-880.412862,-9449.892873,5218.685295,0.012750,-0.014812,1.005562,192.000000,0.000000,64.000000,127.500000,72.000000,15.500000,64.000000,0.000000,0.000000,0.000000,1773140833.361197,0.000000
78.000000,9334.647278,5617.909803,-1407.221127,-6078.713367,-3753.975481,3452.182228,-15605.853868,-3077.589342,-76.264152,-1349.598330,377.811537,-883.542107,-1043.446486,-779.740605,-9361.089392,5259.521933,0.012750,-0.014812,1.005562,192.000000,0.000000,0.000000,0.000000,0.000000,0.000000,0.000000,0.000000,0.000000,0.000000,1773140833.361220,0.000000
80.000000,9271.593007,5555.235512,-1472.935256,-6111.659838,-3839.225035,3382.713006,-15680.240474,-3144.175189,-141.285377,-1421.056857,314.623155,-943.824761,-1100.242269,-861.369176,-9424.210718,5230.263499,0.012750,-0.014812,1.005562,192.000000,0.000000,0.000000,0.000000,0.000000,0.000000,0.000000,0.000000,0.000000,0.000000,1773140833.361242,0.000000
82.000000,9356.037898,5637.355821,-1391.418444,-6055.758125,-3738.217501,3450.394088,-15588.844191,-3057.450421,-104.092074,-1394.614744,343.725126,-922.992936,-1084.327827,-851.288539,-9410.866727,5232.409267,0.012750,-0.014812,1.005562,192.000000,0.000000,0.000000,0.000000,0.000000,0.000000,0.000000,0.000000,0.000000,0.000000,1773140833.361266,0.000000
84.000000,9300.829089,5587.153803,-1455.612654,-6090.358626,-3800.131834,3415.793588,-15654.290098,-3118.068352,-89.831661,-1356.907351,366.434499,-889.688836,-1044.273501,-801.958239,-9378.255532,5261.667700,0.012750,-0.014812,1.005562,192.000000,0.000000,0.000000,0.000000,0.000000,0.000000,0.000000,0.000000,0.000000,0.000000,1773140833.361289,0.000000
86.000000,9317.659952,5599.156690,-1436.345450,-6084.815393,-3787.368987,3423.057905,-15636.475758,-3102.533889,-120.945289,-1431.986860,286.884640,-956.274683,-1118.548348,-897.668409,-9448.752934,5222.172168,0.014375,-0.013406,1.006781,192.000000,0.000000,64.000000,127.500000,80.000000,15.500000,64.000000,0.000000,0.000000,0.000000,1773140833.361312,0.000000
88.000000,9351.031107,5631.142036,-1398.503947,-6068.699785,-3761.351557,3448.203617,-15601.450575,-3065.988787,-80.622742,-1345.642071,385.254667,-872.679159,-1039.110248,-814.162292,-9367.437287,5266.182752,0.014375,-0.013406,1.006781,192.000000,0.000000,0.000000,0.000000,0.000000,0.000000,0.000000,0.000000,0.000000,0.000000,1773140833.361334,0.000000
90.000000,9281.628940,5564.511486,-1472.711739,-6121.941641,-3823.310593,3386.199878,-15679.368756,-3140.263634,-113.680972,-1411.356200,317.372420,-939.175599,-1094.028484,-856.675310,-9431.787960,5233.303336,0.014375,-0.013406,1.006781,192.000000,0.000000,0.000000,0.000000,0.000000,0.000000,0.000000,0.000000,0.000000,0.000000,1773140833.361357,0.000000
92.000000,9364.620967,5643.547254,-1397.967505,-6046.169227,-3741.145580,3447.309547,-15587.883066,-3053.494162,-100.985181,-1396.112310,333.175103,-913.962831,-1094.296705,-835.351746,-9411.559631,5233.929185,0.014375,-0.013406,1.006781,192.000000,0.000000,0.000000,0.000000,0.000000,0.000000,0.000000,0.000000,0.000000,0.000000,1773140833.361380,0.000000
94.000000,9313.636638,5597.390902,-1451.030547,-6105.021370,-3811.508871,3404.707122,-15652.636069,-3112.748636,-75.615951,-1361.489458,361.271246,-889.219450,-1046.262806,-841.029089,-9378.121421,5259.521933,0.014375,-0.013406,1.006781,192.000000,0.000000,0.000000,0.000000,0.000000,0.000000,0.000000,0.000000,0.000000,0.000000,1773140833.361412,0.000000
96.000000,9323.180833,5602.688265,-1441.687517,-6082.535515,-3788.955961,3423.996678,-15634.508805,-3098.130595,-136.099772,-1423.917881,295.557117,-954.397136,-1102.410388,-904.373932,-9452.709192,5218.864109,0.015187,-0.013703,1.007391,192.000000,0.000000,64.000000,127.500000,72.000000,15.500000,64.000000,0.000000,0.000000,0.000000,1773140833.361422,0.000000
98.000000,9349.377078,5631.231443,-1393.541860,-6062.508352,-3756.367118,3452.316338,-15600.020063,-3066.480525,-73.067853,-1360.617740,392.898964,-877.015397,-1061.126716,-783.719216,-9370.030090,5266.450973,0.015187,-0.013703,1.007391,192.000000,0.000000,0.000000,0.000000,0.000000,0.000000,0.000000,0.000000,0.000000,0.000000,1773140833.361434,0.000000
100.000000,9287.708615,5573.921570,-1461.759384,-6130.971745,-3830.753723,3393.352436,-15677.155933,-3136.441485,-115.983202,-1399.599183,320.300498,-935.308747,-1108.691228,-823.058286,-9427.161148,5232.453970,0.015187,-0.013703,1.007391,192.000000,0.000000,0.000000,0.000000,0.000000,0.000000,0.000000,0.000000,0.000000,0.000000,1773140833.361445,0.000000
102.000000,9370.700642,5653.046745,-1400.850880,-6034.725134,-3734.060077,3467.359062,-15585.312615,-3049.806124,-83.751986,-1378.432081,326.715449,-913.158168,-1070.514449,-856.585903,-9413.034846,5242.959290,0.015187,-0.013703,1.007391,192.000000,0.000000,0.000000,0.000000,0.000000,0.000000,0.000000,0.000000,0.000000,0.000000,1773140833.361456,0.000000
104.000000,9323.180833,5606.175137,-1437.731259,-6102.763844,-3798.366046,3414.094855,-15648.813921,-3103.137386,-77.448795,-1352.146429,361.427708,-875.026092,-1045.838123,-819.549062,-9373.785183,5266.942712,0.015187,-0.013703,1.007391,192.000000,0.000000,0.000000,0.000000,0.000000,0.000000,0.000000,0.000000,0.000000,0.000000,1773140833.361467,0.000000
106.000000,9331.965069,5614.065303,-1423.247328,-6091.632675,-3784.843240,3425.047210,-15633.413569,-3092.319142,-123.649850,-1411.467959,320.814588,-952.050203,-1127.936080,-866.554781,-9447.031849,5219.311144,0.015187,-0.013703,1.007391,192.000000,0.000000,0.000000,0.000000,0.000000,0.000000,0.000000,0.000000,0.000000,0.000000,1773140833.361478,0.000000
