Sample_index,EXG Channel 0,EXG Channel 1,EXG Channel 2,EXG Channel 3,EXG Channel 4,EXG Channel 5,EXG Channel 6,EXG Channel 7,EXG Channel 8,EXG Channel 9,EXG Channel 10,EXG Channel 11,EXG Channel 12,EXG Channel 13,EXG Channel 14,EXG Channel 15,Accel Channel 0,Accel Channel 1,Accel Channel 2,Not Used,Digital Channel 0 (D11),Digital Channel 1 (D12),Digital Channel 2 (D13),Digital Channel 3 (D17),Not Used,Digital Channel 4 (D18),Analog Channel 0,Analog Channel 1,Analog Channel 2,Timestamp,Marker Channel
90.000000,8385.994540,6136.604385,-2534.061972,-7617.340400,-5815.856852,3029.287223,-15089.729737,-3193.773710,-897.735464,-1835.949938,-801.600611,-2195.634210,-2376.571581,-2500.802577,-12658.619900,1390.546726,0.010000,-0.012000,1.008000,192.000000,0.000000,0.000000,0.000000,0.000000,0.000000,0.000000,0.000000,0.000000,0.000000,1773141539.756283,101.000000
92.000000,8342.542749,6101.087463,-2587.080310,-7654.556054,-5864.963635,2995.223164,-15151.442903,-3245.942682,-881.753967,-1801.908231,-775.158498,-2166.107555,-2355.896217,-2449.102992,-12621.940687,1408.405770,0.010000,-0.012000,1.008000,192.000000,0.000000,0.000000,0.000000,0.000000,0.000000,0.000000,0.000000,0.000000,0.000000,1773141539.756343,0.000000
94.000000,8360.491200,6113.760902,-2574.339816,-7635.445313,-5842.231910,3024.638060,-15136.042552,-3228.821245,-915.885081,-1851.752621,-840.805571,-2225.987879,-2410.725046,-2491.347789,-12682.558618,1390.725540,0.014000,-0.012000,1.006000,192.000000,0.000000,56.000000,127.500000,80.000000,15.500000,56.000000,0.000000,0.000000,0.000000,1773141539.756387,0.000000
96.000000,8381.054804,6136.537330,-2543.941443,-7613.719417,-5798.981285,3040.060763,-15101.419699,-3197.439396,-856.049461,-1778.617713,-758.193524,-2141.386526,-2319.194653,-2420.738628,-12611.301257,1424.700192,0.014000,-0.012000,1.006000,192.000000,0.000000,0.000000,0.000000,0.000000,0.000000,0.000000,0.000000,0.000000,0.000000,1773141539.756424,0.000000
98.000000,8315.027751,6074.377128,-2612.181319,-7662.468572,-5877.882943,3001.727522,-15172.006508,-3266.662749,-908.129025,-1839.034479,-827.528635,-2205.513681,-2386.607514,-2493.135928,-12653.747219,1413.636078,0.014000,-0.012000,1.006000,192.000000,0.000000,0.000000,0.000000,0.000000,0.000000,0.000000,0.000000,0.000000,0.000000,1773141539.756462,0.000000
100.000000,8378.976092,6127.306059,-2536.207740,-7615.038170,-5794.645047,3056.735165,-15094.267141,-3198.668742,-902.116406,-1832.261900,-815.592803,-2196.483576,-2379.365549,-2475.410995,-12640.850263,1410.260965,0.014000,-0.012000,1.006000,192.000000,0.000000,0.000000,0.000000,0.000000,0.000000,0.000000,0.000000,0.000000,0.000000,1773141539.756501,0.000000
102.000000,8337.603013,6096.080672,-2584.778081,-7646.822351,-5861.744983,3012.501062,-15147.844273,-3241.852312,-881.463394,-1809.239603,-782.132242,-2169.728538,-2341.233473,-2438.240044,-12609.893097,1433.484427,0.014000,-0.012000,1.006000,192.000000,0.000000,0.000000,0.000000,0.000000,0.000000,0.000000,0.000000,0.000000,0.000000,1773141539.756547,0.000000
104.000000,8349.740010,6109.111739,-2568.818935,-7635.914700,-5853.474838,3026.850882,-15133.047418,-3225.557891,-919.886043,-1854.546589,-837.564568,-2224.333849,-2415.642430,-2521.366182,-12684.659682,1395.821738,0.010000,-0.012000,1.007000,192.000000,0.000000,24.000000,127.500000,80.000000,15.500000,64.000000,0.000000,0.000000,0.000000,1773141539.756560,0.000000
106.000000,8375.578627,6133.653955,-2542.466228,-7615.306391,-5828.195015,3042.608862,-15102.626694,-3197.193527,-863.581999,-1783.423338,-753.164381,-2146.728593,-2333.879749,-2429.321698,-12618.476167,1429.975203,0.010000,-0.012000,1.007000,192.000000,0.000000,0.000000,0.000000,0.000000,0.000000,0.000000,0.000000,0.000000,0.000000,1773141539.756572,0.000000
108.000000,8307.808138,6068.990358,-2606.638087,-7664.815505,-5900.189984,2987.668274,-15169.592520,-3263.868781,-913.649906,-1844.890636,-820.756056,-2211.101617,-2405.181814,-2498.187423,-12664.297243,1400.560308,0.010000,-0.012000,1.007000,192.000000,0.000000,0.000000,0.000000,0.000000,0.000000,0.000000,0.000000,0.000000,0.000000,1773141539.756583,0.000000
110.000000,8387.112127,6140.739458,-2530.418638,-7607.483281,-5803.004599,3064.781793,-15086.555789,-3186.509393,-897.511947,-1832.261900,-805.288649,-2194.606029,-2381.734834,-2480.060158,-12655.960042,1398.101616,0.010000,-0.012000,1.007000,192.000000,0.000000,0.000000,0.000000,0.000000,0.000000,0.000000,0.000000,0.000000,0.000000,1773141539.756594,0.000000
112.000000,8341.447513,6093.577277,-2578.810165,-7650.979775,-5862.169667,2991.311609,-15146.413761,-3239.304213,-871.226295,-1811.854757,-776.387844,-2169.572076,-2341.546397,-2424.963108,-12616.419806,1417.190005,0.010000,-0.012000,1.007000,192.000000,0.000000,0.000000,0.000000,0.000000,0.000000,0.000000,0.000000,0.000000,0.000000,1773141539.756605,0.000000
114.000000,8351.952833,6102.361512,-2572.350511,-7638.462798,-5845.964652,3012.232842,-15137.897746,-3230.251757,-900.462377,-1864.046081,-832.557777,-2228.893605,-2402.343142,-2515.800597,-12679.988167,1385.674046,0.011000,-0.014000,1.008500,192.000000,0.000000,48.000000,127.500000,64.000000,15.500000,72.000000,0.000000,0.000000,0.000000,1773141539.756616,0.000000
116.000000,8393.661188,6149.635452,-2536.677126,-7603.102339,-5795.673227,3043.435877,-15099.184525,-3186.196469,-852.249664,-1791.224097,-759.422870,-2150.774258,-2322.659173,-2446.219617,-12608.686102,1430.779866,0.011000,-0.014000,1.008500,192.000000,0.000000,0.000000,0.000000,0.000000,0.000000,0.000000,0.000000,0.000000,0.000000,1773141539.756627,0.000000
118.000000,8324.013153,6082.244942,-2597.719741,-7659.853418,-5876.072452,2987.936495,-15167.714973,-3256.269187,-878.267095,-1819.566109,-804.774559,-2191.119157,-2379.052625,-2477.310893,-12663.470228,1397.654581,0.011000,-0.014000,1.008500,192.000000,0.000000,0.000000,0.000000,0.000000,0.000000,0.000000,0.000000,0.000000,0.000000,1773141539.756638,0.000000
120.000000,8377.031490,6130.949394,-2531.625632,-7605.292810,-5796.634352,3057.048089,-15090.042661,-3193.550193,-896.975505,-1833.290080,-808.395542,-2200.059855,-2380.371378,-2474.852201,-12637.117521,1405.432988,0.011000,-0.014000,1.008500,192.000000,0.000000,0.000000,0.000000,0.000000,0.000000,0.000000,0.000000,0.000000,0.000000,1773141539.756649,0.000000
122.000000,8339.547615,6103.747321,-2581.693540,-7633.388952,-5862.728460,3004.990876,-15145.407932,-3237.270205,-874.802574,-1799.874222,-779.919419,-2167.046328,-2349.458915,-2420.112779,-12615.413978,1435.026698,0.011000,-0.014000,1.008500,192.000000,0.000000,0.000000,0.000000,0.000000,0.000000,0.000000,0.000000,0.000000,0.000000,1773141539.756659,0.000000
124.000000,8343.056839,6102.607382,-2571.411737,-7627.733961,-5850.032669,3041.133647,-15137.696581,-3231.190530,-905.379761,-1854.345424,-839.486818,-2223.909166,-2413.295497,-2509.028019,-12689.420603,1410.260965,0.010500,-0.016000,1.006250,192.000000,0.000000,40.000000,127.500000,56.000000,15.500000,48.000000,0.000000,0.000000,0.000000,1773141539.756670,0.000000
126.000000,8376.249179,6144.494551,-2541.214531,-7601.716531,-5814.739265,3066.636988,-15101.643217,-3192.723178,-863.246723,-1782.171641,-764.876695,-2145.074564,-2328.940014,-2409.026314,-12614.698722,1439.273529,0.010500,-0.016000,1.006250,192.000000,0.000000,0.000000,0.000000,0.000000,0.000000,0.000000,0.000000,0.000000,0.000000,1773141539.756681,0.000000
128.000000,8330.025772,6092.392634,-2596.065712,-7649.906892,-5880.743966,2984.807251,-15166.128000,-3251.888246,-888.526546,-1817.621507,-814.698734,-2193.980180,-2382.338331,-2467.297312,-12663.179655,1409.478654,0.010500,-0.016000,1.006250,192.000000,0.000000,0.000000,0.000000,0.000000,0.000000,0.000000,0.000000,0.000000,0.000000,1773141539.756692,0.000000
130.000000,8392.968284,6142.348783,-2526.060048,-7596.933257,-5795.337951,3068.961569,-15087.919246,-3185.794137,-876.322493,-1817.822673,-801.265335,-2193.242573,-2368.077918,-2453.841562,-12655.110676,1407.981087,0.010500,-0.016000,1.006250,192.000000,0.000000,0.000000,0.000000,0.000000,0.000000,0.000000,0.000000,0.000000,0.000000,1773141539.756713,0.000000
132.000000,8353.852731,6117.068960,-2574.451575,-7629.633859,-5852.804286,3006.779016,-15144.156235,-3230.497626,-848.405164,-1785.546754,-768.117698,-2158.709128,-2331.421057,-2427.086523,-12620.130196,1421.414485,0.010500,-0.016000,1.006250,192.000000,0.000000,0.000000,0.000000,0.000000,0.000000,0.000000,0.000000,0.000000,0.000000,1773141539.756724,0.000000
134.000000,8352.466923,6114.632620,-2568.260141,-7623.531833,-5838.856797,3029.108409,-15136.780159,-3225.379077,-901.937592,-1838.520388,-838.346879,-2216.019001,-2404.019523,-2495.773434,-12682.938598,1399.979162,0.011250,-0.017000,1.006125,192.000000,0.000000,48.000000,127.500000,56.000000,15.500000,56.000000,0.000000,0.000000,0.000000,1773141539.756735,0.000000
136.000000,8396.276342,6151.714164,-2533.905510,-7596.262705,-5792.052244,3073.141345,-15099.430394,-3185.123585,-848.740440,-1770.615789,-756.405384,-2135.485665,-2323.665002,-2416.357686,-12604.439271,1433.596186,0.011250,-0.017000,1.006125,192.000000,0.000000,0.000000,0.000000,0.000000,0.000000,0.000000,0.000000,0.000000,0.000000,1773141539.756746,0.000000
138.000000,8330.741028,6088.592838,-2598.658514,-7646.889406,-5869.679853,3006.443740,-15166.642090,-3252.715260,-871.740386,-1817.845025,-805.087484,-2189.733349,-2368.033215,-2467.207905,-12655.803580,1412.071456,0.011250,-0.017000,1.006125,192.000000,0.000000,0.000000,0.000000,0.000000,0.000000,0.000000,0.000000,0.000000,0.000000,1773141539.756756,0.000000
140.000000,8391.962456,6148.495513,-2529.144589,-7597.536754,-5783.893857,3079.690406,-15090.936731,-3186.755262,-879.697607,-1818.672039,-802.248812,-2192.169689,-2365.932151,-2446.443134,-12648.695725,1417.860558,0.011250,-0.017000,1.006125,192.000000,0.000000,0.000000,0.000000,0.000000,0.000000,0.000000,0.000000,0.000000,0.000000,1773141539.756768,0.000000
142.000000,8348.957699,6113.693847,-2581.201801,-7633.366601,-5846.121114,3036.596243,-15149.408895,-3238.276033,-855.155391,-1785.904382,-773.057434,-2160.899599,-2326.503673,-2407.215823,-12614.855184,1444.123858,0.011250,-0.017000,1.006125,192.000000,0.000000,0.000000,0.000000,0.000000,0.000000,0.000000,0.000000,0.000000,0.000000,1773141539.756778,0.000000
144.000000,8362.547560,6120.622888,-2568.841287,-7620.134368,-5840.421419,3035.143380,-15135.193185,-3224.529710,-896.550822,-1841.113191,-840.380888,-2221.383419,-2403.348971,-2473.667559,-12682.133935,1410.640944,0.012625,-0.014500,1.007062,192.000000,0.000000,56.000000,127.500000,80.000000,15.500000,64.000000,0.000000,0.000000,0.000000,1773141539.756789,0.000000
146.000000,8396.991598,6158.643205,-2540.611034,-7592.127632,-5805.150366,3074.907133,-15101.732624,-3189.370416,-839.598577,-1764.603170,-757.925303,-2136.402087,-2308.689333,-2399.035084,-12612.463547,1443.319195,0.012625,-0.014500,1.007062,192.000000,0.000000,0.000000,0.000000,0.000000,0.000000,0.000000,0.000000,0.000000,0.000000,1773141539.756800,0.000000
148.000000,8337.513606,6102.696789,-2600.357246,-7638.574557,-5873.636111,3014.020981,-15168.564340,-3251.307100,-867.873534,-1809.731342,-809.535481,-2185.553573,-2379.633770,-2459.384794,-12660.698612,1426.600090,0.012625,-0.014500,1.007062,192.000000,0.000000,0.000000,0.000000,0.000000,0.000000,0.000000,0.000000,0.000000,0.000000,1773141539.756811,0.000000
150.000000,8407.183994,6168.299159,-2521.835568,-7589.735995,-5777.344796,3091.045092,-15087.315749,-3176.294646,-869.080528,-1800.231850,-798.314905,-2171.851953,-2376.973912,-2451.159352,-12654.931862,1424.208453,0.012625,-0.014500,1.007062,192.000000,0.000000,0.000000,0.000000,0.000000,0.000000,0.000000,0.000000,0.000000,0.000000,1773141539.756822,0.000000
152.000000,8364.514514,6124.310926,-2566.963740,-7629.343287,-5823.098817,3042.295938,-15142.368095,-3226.898995,-844.001871,-1775.019082,-759.467573,-2147.354442,-2329.588214,-2404.667724,-12610.362483,1439.720564,0.012625,-0.014500,1.007062,192.000000,0.000000,0.000000,0.000000,0.000000,0.000000,0.000000,0.000000,0.000000,0.000000,1773141539.756832,0.000000
154.000000,8370.393022,6125.383809,-2560.749955,-7627.264574,-5805.016256,3045.089906,-15135.841386,-3226.161388,-881.217525,-1834.273557,-825.896958,-2219.930556,-2387.211011,-2478.517887,-12675.853095,1405.477691,0.010313,-0.013250,1.007531,192.000000,0.000000,32.000000,127.500000,80.000000,15.500000,64.000000,0.000000,0.000000,0.000000,1773141539.756853,0.000000
156.000000,8409.553279,6163.135906,-2532.340888,-7598.967266,-5771.220418,3085.300694,-15101.754976,-3190.488004,-829.920272,-1762.993844,-752.113849,-2143.912273,-2301.670885,-2398.655104,-12596.750271,1442.693346,0.010313,-0.013250,1.007531,192.000000,0.000000,0.000000,0.000000,0.000000,0.000000,0.000000,0.000000,0.000000,0.000000,1773141539.756864,0.000000
158.000000,8347.393077,6105.535460,-2597.071540,-7647.917586,-5854.435963,3031.410638,-15170.575997,-3254.458696,-859.759850,-1803.405798,-809.289611,-2190.962695,-2348.810714,-2419.419875,-12649.522740,1423.068514,0.010313,-0.013250,1.007531,192.000000,0.000000,0.000000,0.000000,0.000000,0.000000,0.000000,0.000000,0.000000,0.000000,1773141539.756874,0.000000
160.000000,8405.306447,6163.292368,-2524.741295,-7587.567876,-5766.750069,3071.911999,-15090.132068,-3185.257695,-861.525638,-1799.449539,-803.254640,-2182.960770,-2357.885523,-2438.910596,-12641.476112,1421.146264,0.010313,-0.013250,1.007531,192.000000,0.000000,0.000000,0.000000,0.000000,0.000000,0.000000,0.000000,0.000000,0.000000,1773141539.756885,0.000000
162.000000,8363.128705,6121.740475,-2576.776156,-7622.816577,-5837.403934,3032.304708,-15144.111531,-3235.169141,-844.135981,-1771.174582,-771.649274,-2152.852971,-2334.885578,-2416.894128,-12614.318742,1444.012099,0.010313,-0.013250,1.007531,192.000000,0.000000,0.000000,0.000000,0.000000,0.000000,0.000000,0.000000,0.000000,0.000000,1773141539.756896,0.000000
164.000000,8358.814819,6117.538347,-2576.262066,-7621.721342,-5829.826692,3050.879008,-15140.758770,-3234.766809,-890.761720,-1837.738077,-840.202074,-2222.858634,-2395.257639,-2480.484841,-12680.569313,1410.797407,0.007156,-0.013625,1.007766,192.000000,0.000000,16.000000,127.500000,72.000000,15.500000,64.000000,0.000000,0.000000,0.000000,1773141539.756907,0.000000
166.000000,8386.866258,6139.107780,-2543.382650,-7595.681560,-5801.819957,3086.351226,-15104.079557,-3200.389826,-860.408051,-1777.388367,-770.554038,-2151.869494,-2346.307319,-2398.923325,-12610.608352,1454.405660,0.007156,-0.013625,1.007766,192.000000,0.000000,0.000000,0.000000,0.000000,0.000000,0.000000,0.000000,0.000000,0.000000,1773141539.756918,0.000000
168.000000,8326.941231,6082.781384,-2603.285325,-7648.945767,-5865.522428,3024.928632,-15172.274729,-3264.896961,-884.525583,-1821.711877,-815.972783,-2204.820777,-2394.832956,-2450.757021,-12662.173827,1430.489293,0.007156,-0.013625,1.007766,192.000000,0.000000,0.000000,0.000000,0.000000,0.000000,0.000000,0.000000,0.000000,0.000000,1773141539.756929,0.000000
170.000000,8398.936200,6142.684059,-2533.726696,-7588.752519,-5776.316616,3094.777834,-15093.015443,-3196.232402,-875.853106,-1814.313449,-806.294478,-2199.992800,-2373.598799,-2430.014602,-12653.814275,1426.935366,0.007156,-0.013625,1.007766,192.000000,0.000000,0.000000,0.000000,0.000000,0.000000,0.000000,0.000000,0.000000,0.000000,1773141539.756939,0.000000
172.000000,8345.493179,6106.697751,-2580.352435,-7627.309278,-5818.963745,3059.663243,-15151.241738,-3249.898940,-864.006682,-1782.283399,-784.412120,-2170.309683,-2332.248072,-2411.820282,-12607.903791,1448.370689,0.007156,-0.013625,1.007766,192.000000,0.000000,0.000000,0.000000,0.000000,0.000000,0.000000,0.000000,0.000000,0.000000,1773141539.756950,0.000000
174.000000,8367.643758,6119.460597,-2564.885028,-7614.188804,-5805.910326,3067.329892,-15138.523595,-3231.704620,-892.549860,-1829.758505,-841.274958,-2225.853768,-2386.786328,-2449.885303,-12675.383708,1414.686610,0.007156,-0.013625,1.007766,192.000000,0.000000,0.000000,0.000000,0.000000,0.000000,0.000000,0.000000,0.000000,0.000000,1773141539.756960,0.000000
176.000000,8397.572744,6150.462467,-2533.123199,-7589.847754,-5757.161171,3097.392988,-15104.280723,-3199.406350,-842.772525,-1760.222228,-763.915570,-2149.611968,-2326.123694,-2395.659971,-12600.125384,1449.354166,0.008000,-0.014000,1.006000,192.000000,0.000000,32.000000,127.500000,72.000000,15.500000,56.000000,0.000000,0.000000,0.000000,1773141539.756971,0.000000
178.000000,8337.982993,6093.554925,-2595.484566,-7644.475418,-5856.134696,3032.394115,-15169.994851,-3259.912522,-872.075662,-1799.896574,-812.664725,-2198.785806,-2370.268389,-2433.188550,-12657.547016,1426.063648,0.008000,-0.014000,1.006000,192.000000,0.000000,0.000000,0.000000,0.000000,0.000000,0.000000,0.000000,0.000000,0.000000,1773141539.756982,0.000000
180.000000,8413.174261,6162.197132,-2516.605260,-7592.909943,-5766.101869,3090.083967,-15091.584932,-3184.408329,-866.577133,-1796.364998,-797.599649,-2190.135680,-2353.437525,-2426.259509,-12647.756952,1420.632174,0.008000,-0.014000,1.006000,192.000000,0.000000,0.000000,0.000000,0.000000,0.000000,0.000000,0.000000,0.000000,0.000000,1773141539.756993,0.000000
182.000000,8367.017909,6117.046609,-2569.020101,-7633.008973,-5821.735361,3050.074345,-15149.498302,-3237.069039,-832.378964,-1768.402966,-761.948617,-2156.183381,-2320.334592,-2403.214860,-12605.892134,1431.584529,0.008000,-0.014000,1.006000,192.000000,0.000000,0.000000,0.000000,0.000000,0.000000,0.000000,0.000000,0.000000,0.000000,1773141539.757004,0.000000
184.000000,8358.300729,6106.496585,-2570.227095,-7627.421037,-5815.007486,3061.563142,-15145.765560,-3241.964071,-896.774339,-1842.543702,-847.712260,-2233.810989,-2405.561794,-2471.253570,-12678.065917,1409.165729,0.008000,-0.014000,1.006000,192.000000,0.000000,0.000000,0.000000,0.000000,0.000000,0.000000,0.000000,0.000000,0.000000,1773141539.757015,0.000000
186.000000,8395.382273,6140.694754,-2540.968661,-7594.765138,-5781.301055,3096.074235,-15107.029987,-3205.620135,-841.990214,-1776.494298,-776.589009,-2159.603198,-2322.793284,-2407.439340,-12608.753158,1444.056802,0.008000,-0.012000,1.008000,192.000000,0.000000,32.000000,127.500000,80.000000,15.500000,64.000000,0.000000,0.000000,0.000000,1773141539.757026,0.000000
188.000000,8334.876100,6086.558829,-2603.888822,-7654.399592,-5837.314527,3038.339679,-15175.627491,-3265.388699,-880.345807,-1825.109342,-824.466446,-2212.040390,-2369.799002,-2419.308116,-12657.926996,1421.325078,0.008000,-0.012000,1.008000,192.000000,0.000000,0.000000,0.000000,0.000000,0.000000,0.000000,0.000000,0.000000,0.000000,1773141539.757037,0.000000
190.000000,8407.698084,6155.804533,-2523.824873,-7582.203458,-5793.102776,3088.027607,-15094.803583,-3187.962256,-868.722900,-1805.193937,-805.646277,-2197.198832,-2361.528857,-2426.572433,-12657.524664,1418.888738,0.008000,-0.012000,1.008000,192.000000,0.000000,0.000000,0.000000,0.000000,0.000000,0.000000,0.000000,0.000000,0.000000,1773141539.757048,0.000000
192.000000,8353.584511,6105.535460,-2570.092984,-7625.230566,-5850.591463,3030.583624,-15148.984212,-3241.427629,-850.953263,-1777.455423,-769.794079,-2160.765488,-2342.127543,-2432.495646,-12624.689952,1432.322136,0.008000,-0.012000,1.008000,192.000000,0.000000,0.000000,0.000000,0.000000,0.000000,0.000000,0.000000,0.000000,0.000000,1773141539.757059,0.000000
194.000000,8353.718621,6099.858117,-2570.361205,-7619.821444,-5829.781989,3055.103487,-15142.323392,-3240.846484,-900.685895,-1847.103458,-849.589807,-2235.621480,-2416.625907,-2488.665579,-12690.605246,1397.833395,0.008000,-0.012000,1.008000,192.000000,0.000000,0.000000,0.000000,0.000000,0.000000,0.000000,0.000000,0.000000,0.000000,1773141539.757070,0.000000
196.000000,8390.308427,6139.197187,-2538.129990,-7589.087795,-5770.527514,3080.070386,-15103.721929,-3204.480196,-851.556760,-1776.695463,-776.410195,-2156.317491,-2330.951671,-2396.285820,-12620.979562,1431.249253,0.014000,-0.014000,1.010000,192.000000,0.000000,56.000000,127.500000,72.000000,15.500000,72.000000,0.000000,0.000000,0.000000,1773141539.757081,0.000000
198.000000,8325.555423,6076.120564,-2602.860642,-7647.559958,-5833.112399,3028.661374,-15180.634282,-3281.012569,-880.591676,-1816.325106,-830.791990,-2209.157015,-2374.269351,-2435.043744,-12663.224359,1410.462130,0.014000,-0.014000,1.010000,192.000000,0.000000,0.000000,0.000000,0.000000,0.000000,0.000000,0.000000,0.000000,0.000000,1773141539.757091,0.000000
200.000000,8405.641723,6145.478028,-2528.764609,-7589.892458,-5754.590720,3104.120863,-15102.604342,-3204.815472,-880.234048,-1818.873205,-827.953318,-2215.706076,-2354.711575,-2420.872738,-12647.220510,1418.285241,0.014000,-0.014000,1.010000,192.000000,0.000000,0.000000,0.000000,0.000000,0.000000,0.000000,0.000000,0.000000,0.000000,1773141539.757102,0.000000
202.000000,8376.718566,6118.410065,-2568.684825,-7630.036191,-5820.148387,3068.335720,-15154.303927,-3243.975728,-836.111705,-1776.114318,-774.957332,-2172.209581,-2318.188824,-2394.497680,-12613.447024,1437.753610,0.014000,-0.014000,1.010000,192.000000,0.000000,0.000000,0.000000,0.000000,0.000000,0.000000,0.000000,0.000000,0.000000,1773141539.757113,0.000000
204.000000,8383.647607,6125.495568,-2563.946255,-7617.139234,-5821.400085,3056.824572,-15144.513863,-3234.029202,-872.969731,-1834.944109,-835.463504,-2236.895530,-2394.251811,-2445.482009,-12689.733528,1401.655543,0.014000,-0.014000,1.010000,192.000000,0.000000,0.000000,0.000000,0.000000,0.000000,0.000000,0.000000,0.000000,0.000000,1773141539.757123,0.000000
206.000000,8411.564936,6148.808437,-2528.764609,-7600.375426,-5781.278703,3082.372616,-15107.924057,-3201.015675,-831.820170,-1769.297036,-755.824239,-2157.032747,-2312.802054,-2394.251811,-12619.012608,1437.373631,0.014000,-0.010000,1.002000,192.000000,0.000000,56.000000,127.500000,88.000000,15.500000,40.000000,0.000000,0.000000,0.000000,1773141539.757134,0.000000
208.000000,8340.508740,6084.748338,-2594.836366,-7669.487020,-5835.436980,3014.266850,-15181.550703,-3273.010644,-872.634455,-1829.780856,-817.559757,-2218.924727,-2377.219782,-2464.391585,-12653.434295,1409.433950,0.014000,-0.010000,1.002000,192.000000,0.000000,0.000000,0.000000,0.000000,0.000000,0.000000,0.000000,0.000000,0.000000,1773141539.757145,0.000000
210.000000,8409.754444,6152.965862,-2524.785998,-7613.361789,-5752.467305,3084.674845,-15104.548944,-3202.088559,-873.237952,-1821.354249,-813.335277,-2219.371762,-2371.855363,-2411.373247,-12651.199120,1399.621534,0.014000,-0.010000,1.002000,192.000000,0.000000,0.000000,0.000000,0.000000,0.000000,0.000000,0.000000,0.000000,0.000000,1773141540.237839,0.000000
212.000000,8365.319176,6108.865870,-2575.055072,-7609.852566,-5822.182396,3044.687574,-15155.600328,-3249.854237,-845.857065,-1789.547716,-782.445166,-2173.282465,-2321.139255,-2420.783331,-12626.276925,1432.188026,0.014000,-0.010000,1.002000,192.000000,0.000000,0.000000,0.000000,0.000000,0.000000,0.000000,0.000000,0.000000,0.000000,1773141540.237915,0.000000
214.000000,8382.552371,6130.189434,-2563.812144,-7605.561031,-5813.711085,3072.202572,-15145.072656,-3234.655051,-884.078548,-1842.744868,-847.824019,-2235.465018,-2398.990381,-2495.326399,-12687.967740,1398.302781,0.014000,-0.010000,1.002000,192.000000,0.000000,0.000000,0.000000,0.000000,0.000000,0.000000,0.000000,0.000000,0.000000,1773141540.237948,0.000000
216.000000,8425.870052,6172.523638,-2523.891929,-7579.767117,-5784.027968,3093.481433,-15105.040682,-3190.867983,-829.339126,-1753.851980,-757.098288,-2145.789819,-2314.299621,-2392.418968,-12617.224469,1435.764305,0.016000,-0.010000,1.004000,192.000000,0.000000,64.000000,127.500000,88.000000,15.500000,48.000000,0.000000,0.000000,0.000000,1773141540.237964,0.000000
218.000000,8356.713755,6106.273068,-2594.970476,-7633.679525,-5865.231856,3023.676935,-15177.437982,-3260.180743,-865.772470,-1798.153138,-807.724989,-2198.852861,-2359.986587,-2424.940756,-12665.951272,1407.466997,0.016000,-0.010000,1.004000,192.000000,0.000000,0.000000,0.000000,0.000000,0.000000,0.000000,0.000000,0.000000,0.000000,1773141540.238012,0.000000
220.000000,8424.350133,6172.970673,-2520.717981,-7584.215115,-5776.383671,3081.925581,-15099.899781,-3190.800928,-863.738461,-1800.298905,-805.400408,-2193.488442,-2361.461802,-2422.146788,-12661.950310,1403.376627,0.016000,-0.010000,1.004000,192.000000,0.000000,0.000000,0.000000,0.000000,0.000000,0.000000,0.000000,0.000000,0.000000,1773141540.238070,0.000000
222.000000,8381.971226,6133.341030,-2570.987054,-7620.648458,-5823.411742,3067.575761,-15156.874377,-3247.864932,-840.090315,-1762.949140,-775.672588,-2163.492401,-2325.006106,-2355.560941,-12616.062178,1427.538863,0.016000,-0.010000,1.004000,192.000000,0.000000,0.000000,0.000000,0.000000,0.000000,0.000000,0.000000,0.000000,0.000000,1773141540.238124,0.000000
224.000000,8400.254953,6147.065001,-2561.576970,-7613.384141,-5791.962837,3084.250162,-15148.313659,-3238.052516,-877.015397,-1822.538891,-842.280786,-2234.593300,-2373.487040,-2441.413992,-12682.692728,1403.153110,0.016000,-0.010000,1.004000,192.000000,0.000000,0.000000,0.000000,0.000000,0.000000,0.000000,0.000000,0.000000,0.000000,1773141540.238178,0.000000
226.000000,8436.867110,6177.373967,-2520.472112,-7580.907056,-5752.444953,3100.701046,-15110.740377,-3201.440358,-810.116626,-1752.466172,-752.694995,-2154.708165,-2292.774891,-2389.647351,-12601.824117,1433.797352,0.010000,-0.006000,1.006000,192.000000,0.000000,40.000000,127.500000,104.000000,15.500000,56.000000,0.000000,0.000000,0.000000,1773141540.238237,0.000000
228.000000,8366.481467,6110.922231,-2589.829575,-7639.759200,-5836.174588,3056.779868,-15184.188209,-3271.513077,-841.833751,-1801.461196,-806.987382,-2211.906280,-2356.410307,-2435.021393,-12655.289490,1421.638003,0.010000,-0.006000,1.006000,192.000000,0.000000,0.000000,0.000000,0.000000,0.000000,0.000000,0.000000,0.000000,0.000000,1773141540.238263,0.000000
230.000000,8436.308317,6178.424499,-2522.394362,-7593.736958,-5769.901665,3102.422130,-15103.185487,-3193.281972,-856.809420,-1797.862565,-803.835786,-2204.083169,-2353.795153,-2424.314907,-12660.206873,1413.278450,0.010000,-0.006000,1.006000,192.000000,0.000000,0.000000,0.000000,0.000000,0.000000,0.000000,0.000000,0.000000,0.000000,1773141540.238284,0.000000
232.000000,8385.502802,6133.497492,-2571.121165,-7618.569746,-5833.693544,3043.324118,-15155.399162,-3240.757077,-831.663708,-1774.169716,-772.453937,-2169.683834,-2317.562976,-2403.036046,-12622.857108,1422.643831,0.010000,-0.006000,1.006000,192.000000,0.000000,0.000000,0.000000,0.000000,0.000000,0.000000,0.000000,0.000000,0.000000,1773141540.238301,0.000000
234.000000,8393.392967,6141.164141,-2559.386499,-7623.643592,-5824.082294,3059.618540,-15148.961860,-3237.314908,-881.172822,-1833.491246,-839.620929,-2237.029640,-2393.000113,-2458.580131,-12692.102813,1390.122043,0.010000,-0.006000,1.006000,192.000000,0.000000,0.000000,0.000000,0.000000,0.000000,0.000000,0.000000,0.000000,0.000000,1773141540.238320,0.000000
236.000000,8428.127578,6176.748118,-2524.853054,-7577.330777,-5769.812258,3082.260857,-15110.360397,-3200.814509,-831.686059,-1765.676053,-757.366509,-2158.373852,-2311.706819,-2401.538480,-12624.846414,1425.683668,0.006000,-0.012000,1.004000,192.000000,0.000000,24.000000,127.500000,80.000000,15.500000,48.000000,0.000000,0.000000,0.000000,1773141540.238344,0.000000
238.000000,8360.379441,6111.458672,-2593.830537,-7640.027421,-5833.067695,3042.072420,-15187.317453,-3277.257476,-859.245760,-1800.924754,-814.139940,-2208.687628,-2364.211066,-2424.046686,-12666.487714,1409.858633,0.006000,-0.012000,1.004000,192.000000,0.000000,0.000000,0.000000,0.000000,0.000000,0.000000,0.000000,0.000000,0.000000,1773141540.238363,0.000000
240.000000,8440.242224,6182.224295,-2515.442969,-7586.249123,-5751.439125,3114.559128,-15108.684016,-3203.697885,-857.524676,-1796.432054,-812.217690,-2215.415503,-2338.439505,-2387.523936,-12660.743315,1417.234709,0.006000,-0.012000,1.004000,192.000000,0.000000,0.000000,0.000000,0.000000,0.000000,0.000000,0.000000,0.000000,0.000000,1773141540.238383,0.000000
242.000000,8402.668941,6150.842446,-2562.135763,-7606.969190,-5807.944335,3063.127764,-15156.427342,-3240.332394,-815.905728,-1752.287358,-767.514201,-2166.509887,-2317.317106,-2389.334427,-12614.564611,1434.445552,0.006000,-0.012000,1.004000,192.000000,0.000000,0.000000,0.000000,0.000000,0.000000,0.000000,0.000000,0.000000,0.000000,1773141540.238401,0.000000
244.000000,8413.822462,6163.649996,-2558.179505,-7619.575574,-5812.727608,3056.355185,-15149.610060,-3230.095295,-867.202981,-1809.507824,-836.312871,-2226.971355,-2376.102194,-2440.877550,-12681.619845,1399.465072,0.006000,-0.012000,1.004000,192.000000,0.000000,0.000000,0.000000,0.000000,0.000000,0.000000,0.000000,0.000000,0.000000,1773141540.238420,0.000000
246.000000,8445.316070,6191.679083,-2534.553711,-7573.866257,-5776.115450,3098.734093,-15108.751072,-3194.176041,-817.850330,-1751.460344,-753.052622,-2155.982215,-2291.009103,-2385.914610,-12617.917373,1428.701154,0.008000,-0.013000,1.005000,192.000000,0.000000,40.000000,127.500000,72.000000,15.500000,56.000000,0.000000,0.000000,0.000000,1773141540.238436,0.000000
248.000000,8380.965397,6130.927042,-2589.449595,-7650.085706,-5851.194960,3033.265833,-15184.098802,-3267.176839,-857.435269,-1794.666266,-809.982516,-2207.592393,-2360.143049,-2446.331375,-12661.659737,1411.110331,0.008000,-0.013000,1.005000,192.000000,0.000000,0.000000,0.000000,0.000000,0.000000,0.000000,0.000000,0.000000,0.000000,1773141540.238454,0.000000
250.000000,8447.014802,6191.075586,-2523.981336,-7575.833210,-5757.876427,3094.241392,-15105.800641,-3196.388864,-862.889095,-1794.465100,-805.646277,-2203.502024,-2353.303415,-2423.599651,-12660.363336,1407.914031,0.008000,-0.013000,1.005000,192.000000,0.000000,0.000000,0.000000,0.000000,0.000000,0.000000,0.000000,0.000000,0.000000,1773141540.238474,0.000000
252.000000,8403.786529,6147.668498,-2560.414679,-7619.441464,-5817.175605,3072.023758,-15155.756790,-3243.036955,-830.121437,-1761.295111,-767.245980,-2172.969541,-2329.990546,-2390.228497,-12625.964001,1428.254119,0.008000,-0.013000,1.005000,192.000000,0.000000,0.000000,0.000000,0.000000,0.000000,0.000000,0.000000,0.000000,0.000000,1773141540.238487,0.000000
254.000000,8409.374465,6148.875493,-2558.313615,-7616.043999,-5813.688733,3055.952854,-15148.917156,-3238.477199,-866.063042,-1829.914967,-835.239987,-2242.528169,-2390.004979,-2467.878457,-12688.079499,1397.006380,0.008000,-0.013000,1.005000,192.000000,0.000000,0.000000,0.000000,0.000000,0.000000,0.000000,0.000000,0.000000,0.000000,1773141540.238520,0.000000
0.000000,8451.775724,6195.858860,-2522.282603,-7586.785565,-5775.802526,3095.023703,-15107.968760,-3194.690132,-826.813379,-1759.976358,-760.898085,-2165.280541,-2299.860394,-2377.935037,-12617.269172,1424.253157,0.009000,-0.013500,1.001500,192.000000,0.000000,40.000000,127.500000,72.000000,15.500000,24.000000,0.000000,0.000000,0.000000,1773141540.238540,0.000000
2.000000,8398.824441,6149.881321,-2585.225115,-7633.232490,-5841.494303,3035.098676,-15180.522523,-3253.765792,-839.419763,-1779.020045,-804.416931,-2196.327114,-2336.360793,-2436.787181,-12664.341946,1404.829491,0.009000,-0.013500,1.001500,192.000000,0.000000,0.000000,0.000000,0.000000,0.000000,0.000000,0.000000,0.000000,0.000000,1773141540.238555,0.000000
4.000000,8465.566750,6214.455511,-2509.072722,-7566.981920,-5763.240846,3104.836119,-15100.793851,-3177.054605,-839.933853,-1771.353396,-792.972838,-2191.789710,-2341.658156,-2410.188605,-12661.525626,1406.237651,0.009000,-0.013500,1.001500,192.000000,0.000000,0.000000,0.000000,0.000000,0.000000,0.000000,0.000000,0.000000,0.000000,1773141540.238571,0.000000
6.000000,8425.445369,6180.614970,-2560.101755,-7611.484243,-5805.373884,3080.450366,-15151.554662,-3222.339239,-817.738571,-1734.495370,-757.746489,-2147.689718,-2309.762217,-2389.088558,-12624.242917,1432.970337,0.009000,-0.013500,1.001500,192.000000,0.000000,0.000000,0.000000,0.000000,0.000000,0.000000,0.000000,0.000000,0.000000,1773141540.238590,0.000000
8.000000,8425.177148,6175.563476,-2557.911284,-7606.969190,-5804.345704,3051.504857,-15144.133883,-3223.367420,-863.716109,-1791.358208,-828.154484,-2218.656506,-2382.003055,-2440.676384,-12689.308845,1396.626401,0.009000,-0.013500,1.001500,192.000000,0.000000,0.000000,0.000000,0.000000,0.000000,0.000000,0.000000,0.000000,0.000000,1773141540.238609,0.000000
10.000000,8459.397669,6209.538127,-2522.684934,-7590.406548,-5776.428375,3094.688427,-15106.538249,-3188.699864,-816.196301,-1731.433181,-755.444259,-2152.785915,-2309.829272,-2364.121659,-12623.594716,1428.120008,0.011500,-0.013750,1.001750,192.000000,0.000000,56.000000,127.500000,72.000000,15.500000,40.000000,0.000000,0.000000,0.000000,1773141540.238623,0.000000
12.000000,8395.851659,6146.573263,-2584.755729,-7628.315106,-5854.882998,3039.881949,-15180.746040,-3256.604464,-849.902731,-1776.203725,-805.892146,-2203.367913,-2357.684357,-2405.293573,-12673.841438,1408.785750,0.011500,-0.013750,1.001750,192.000000,0.000000,0.000000,0.000000,0.000000,0.000000,0.000000,0.000000,0.000000,0.000000,1773141540.238642,0.000000
14.000000,8467.779573,6210.365142,-2512.336077,-7575.877914,-5763.129087,3091.782700,-15103.476060,-3183.626018,-846.929949,-1784.205649,-799.499547,-2197.265887,-2357.349081,-2447.516018,-12665.615996,1402.057874,0.011500,-0.013750,1.001750,192.000000,0.000000,0.000000,0.000000,0.000000,0.000000,0.000000,0.000000,0.000000,0.000000,1773141540.238662,0.000000
16.000000,8430.630974,6177.463374,-2565.019138,-7613.920583,-5814.046361,3051.258987,-15150.370020,-3223.367420,-806.830920,-1751.795620,-755.578370,-2163.157125,-2289.667999,-2393.625962,-12623.997047,1419.782808,0.011500,-0.013750,1.001750,192.000000,0.000000,0.000000,0.000000,0.000000,0.000000,0.000000,0.000000,0.000000,0.000000,1773141540.238680,0.000000
18.000000,8422.450235,6168.008586,-2557.799525,-7618.860319,-5804.904497,3062.837191,-15147.196072,-3227.480141,-848.874551,-1794.733321,-829.696754,-2225.406733,-2366.937979,-2463.296349,-12695.165002,1389.026807,0.011500,-0.013750,1.001750,192.000000,0.000000,0.000000,0.000000,0.000000,0.000000,0.000000,0.000000,0.000000,0.000000,1773141540.238698,0.000000
20.000000,8443.013840,6187.678121,-2517.119350,-7598.252010,-5760.357471,3099.091720,-15114.607229,-3204.167271,-834.278862,-1749.068707,-758.819373,-2165.481706,-2296.418225,-2381.041930,-12613.804652,1416.094770,0.011750,-0.013875,1.003875,192.000000,0.000000,48.000000,127.500000,72.000000,15.500000,56.000000,0.000000,0.000000,0.000000,1773141540.238717,0.000000
22.000000,8383.312331,6132.379905,-2581.827650,-7634.417133,-5846.456390,3038.473790,-15187.608026,-3273.032996,-856.183571,-1798.175490,-814.788141,-2226.792541,-2371.184811,-2445.884341,-12661.369164,1403.957773,0.011750,-0.013875,1.003875,192.000000,0.000000,0.000000,0.000000,0.000000,0.000000,0.000000,0.000000,0.000000,0.000000,1773141540.238736,0.000000
24.000000,8462.616320,6202.162051,-2514.347734,-7576.883742,-5760.245712,3102.980924,-15109.108699,-3196.835899,-851.735574,-1784.607981,-809.915460,-2211.213375,-2357.550246,-2432.227425,-12662.553807,1403.533090,0.011750,-0.013875,1.003875,192.000000,0.000000,0.000000,0.000000,0.000000,0.000000,0.000000,0.000000,0.000000,0.000000,1773141540.238755,0.000000
26.000000,8425.601831,6171.115478,-2557.732470,-7622.391894,-5813.353457,3074.817726,-15154.326278,-3237.449019,-813.044705,-1736.685841,-764.988454,-2170.220276,-2295.702970,-2371.788308,-12630.903736,1430.064610,0.011750,-0.013875,1.003875,192.000000,0.000000,0.000000,0.000000,0.000000,0.000000,0.000000,0.000000,0.000000,0.000000,1773141540.238778,0.000000
28.000000,8428.976945,6174.647054,-2568.170734,-7603.571725,-5811.207689,3082.327912,-15150.571185,-3231.548158,-865.034862,-1795.716798,-837.564568,-2236.917882,-2358.690185,-2456.881399,-12698.003673,1398.839223,0.011750,-0.013875,1.003875,192.000000,0.000000,0.000000,0.000000,0.000000,0.000000,0.000000,0.000000,0.000000,0.000000,1773141540.238797,0.000000
30.000000,8461.297567,6202.631438,-2522.729638,-7579.856524,-5758.144648,3105.506671,-15110.561563,-3192.767881,-796.593821,-1724.258271,-753.901989,-2156.943340,-2300.083911,-2329.252938,-12625.427559,1433.395020,0.009875,-0.013938,1.004938,192.000000,0.000000,32.000000,127.500000,72.000000,15.500000,56.000000,0.000000,0.000000,0.000000,1773141540.238816,0.000000
32.000000,8404.524136,6150.261301,-2581.782947,-7640.832083,-5832.441846,3050.320214,-15182.020090,-3256.000967,-825.069943,-1772.225114,-798.560774,-2202.809120,-2321.228662,-2406.589974,-12676.210722,1407.176424,0.009875,-0.013938,1.004938,192.000000,0.000000,0.000000,0.000000,0.000000,0.000000,0.000000,0.000000,0.000000,0.000000,1773141540.238835,0.000000
34.000000,8464.605625,6209.985162,-2510.704399,-7574.737975,-5756.222398,3123.030439,-15102.649045,-3185.928248,-837.475161,-1767.218324,-791.654085,-2208.866442,-2339.288871,-2436.742477,-12660.922129,1403.711904,0.009875,-0.013938,1.004938,192.000000,0.000000,0.000000,0.000000,0.000000,0.000000,0.000000,0.000000,0.000000,0.000000,1773141540.238853,0.000000
36.000000,8410.670866,6153.435249,-2556.547827,-7604.622257,-5800.702369,3066.391118,-15152.895767,-3235.839693,-818.677344,-1732.707230,-761.345120,-2160.139639,-2310.790397,-2406.522919,-12625.695780,1428.276471,0.009875,-0.013938,1.004938,192.000000,0.000000,0.000000,0.000000,0.000000,0.000000,0.000000,0.000000,0.000000,0.000000,1773141540.238871,0.000000
38.000000,8398.533869,6143.622833,-2553.329176,-7621.162548,-5795.092081,3065.832325,-15154.616851,-3243.841618,-873.327359,-1805.752731,-837.385754,-2242.975204,-2387.747453,-2462.446983,-12683.430336,1389.250325,0.009875,-0.013938,1.004938,192.000000,0.000000,0.000000,0.000000,0.000000,0.000000,0.000000,0.000000,0.000000,0.000000,1773141540.238901,0.000000
40.000000,8434.810750,6170.064946,-2523.199025,-7599.816632,-5755.261273,3106.691314,-15117.535307,-3210.448111,-827.215711,-1750.476867,-771.224591,-2177.797518,-2296.641743,-2381.019578,-12612.351789,1428.544692,0.011938,-0.014969,1.004469,192.000000,0.000000,56.000000,127.500000,64.000000,15.500000,48.000000,0.000000,0.000000,0.000000,1773141540.238920,0.000000
42.000000,8369.744822,6107.256545,-2599.396121,-7646.241205,-5827.390352,3064.334758,-15190.692567,-3281.303141,-836.648147,-1789.435958,-819.750228,-2228.826550,-2320.580461,-2415.731837,-12658.306975,1415.826549,0.011938,-0.014969,1.004469,192.000000,0.000000,0.000000,0.000000,0.000000,0.000000,0.000000,0.000000,0.000000,0.000000,1773141540.238938,0.000000
44.000000,8440.443389,6182.134888,-2515.062990,-7564.344414,-5758.815200,3124.103323,-15105.420662,-3197.171175,-849.545103,-1774.348530,-818.699696,-2219.125893,-2342.038136,-2422.303250,-12660.810371,1417.882910,0.011938,-0.014969,1.004469,192.000000,0.000000,0.000000,0.000000,0.000000,0.000000,0.000000,0.000000,0.000000,0.000000,1773141540.238956,0.000000
46.000000,8403.115976,6144.516903,-2551.563388,-7600.822461,-5799.607134,3094.107281,-15152.582842,-3237.963109,-810.965992,-1730.494407,-762.730928,-2166.308721,-2299.323952,-2358.667834,-12628.936783,1441.665166,0.011938,-0.014969,1.004469,192.000000,0.000000,0.000000,0.000000,0.000000,0.000000,0.000000,0.000000,0.000000,0.000000,1773141540.238975,0.000000
48.000000,8407.720436,6145.723897,-2550.088173,-7603.661132,-5804.524518,3075.644741,-15149.967688,-3234.073905,-856.250627,-1813.307621,-829.473237,-2240.181236,-2370.938941,-2464.369233,-12695.097947,1405.656505,0.011938,-0.014969,1.004469,192.000000,0.000000,0.000000,0.000000,0.000000,0.000000,0.000000,0.000000,0.000000,0.000000,1773141540.238994,0.000000
50.000000,8448.758238,6187.231086,-2514.347734,-7634.283022,-5727.947441,3121.711686,-15111.857964,-3201.418007,-799.030161,-1713.931765,-756.405384,-2169.974407,-2268.992635,-2341.099363,-12621.001914,1433.685593,0.010969,-0.018484,1.004234,192.000000,0.000000,40.000000,127.500000,40.000000,15.500000,48.000000,0.000000,0.000000,0.000000,1773141540.239014,0.000000
52.000000,8373.410508,6115.705504,-2591.707121,-7603.124690,-5842.947166,3046.453362,-15182.355366,-3266.595693,-822.343030,-1774.370882,-808.775521,-2245.947986,-2313.539662,-2400.890279,-12660.877426,1410.350372,0.010969,-0.018484,1.004234,192.000000,0.000000,0.000000,0.000000,0.000000,0.000000,0.000000,0.000000,0.000000,0.000000,1773141540.239033,0.000000
54.000000,8441.180997,6173.238894,-2506.323458,-7572.927484,-5746.678203,3106.423093,-15103.923095,-3193.013751,-841.319661,-1795.873260,-803.478158,-2197.221183,-2351.984662,-2439.268224,-12670.041641,1408.450473,0.010969,-0.018484,1.004234,192.000000,0.000000,0.000000,0.000000,0.000000,0.000000,0.000000,0.000000,0.000000,0.000000,1773141540.239052,0.000000
56.000000,8393.057691,6136.023240,-2553.709156,-7608.109129,-5814.851024,3071.777889,-15156.136770,-3241.449981,-817.604460,-1739.524512,-756.271274,-2173.796555,-2307.191766,-2399.884450,-12629.294411,1430.288128,0.010969,-0.018484,1.004234,192.000000,0.000000,0.000000,0.000000,0.000000,0.000000,0.000000,0.000000,0.000000,0.000000,1773141540.239071,0.000000
58.000000,8400.724340,6141.342955,-2559.140630,-7612.378313,-5786.240791,3094.464909,-15152.806360,-3240.913539,-869.125231,-1817.442693,-837.408106,-2249.770135,-2368.189677,-2458.893056,-12690.068804,1399.241555,0.010969,-0.018484,1.004234,192.000000,0.000000,0.000000,0.000000,0.000000,0.000000,0.000000,0.000000,0.000000,0.000000,1773141540.239094,0.000000
60.000000,8447.215968,6185.666464,-2511.129083,-7586.070309,-5749.405116,3120.258822,-15109.309865,-3196.612382,-810.429550,-1729.242710,-755.891294,-2167.649826,-2301.939106,-2382.181869,-12615.346922,1433.730296,0.010969,-0.018484,1.004234,192.000000,0.000000,0.000000,0.000000,0.000000,0.000000,0.000000,0.000000,0.000000,0.000000,1773141540.239128,0.000000
62.000000,8398.489165,6138.347821,-2592.422377,-7668.525895,-5820.483663,3065.385290,-15187.943302,-3268.160316,-838.145714,-1759.261103,-801.757074,-2248.071402,-2332.628051,-2373.062357,-12655.982394,1410.640944,0.008000,-0.022000,1.004000,192.000000,0.000000,32.000000,127.500000,40.000000,15.500000,48.000000,0.000000,0.000000,0.000000,1773141540.239146,0.000000
64.000000,8462.795134,6205.581868,-2512.626649,-7589.534830,-5763.106735,3106.758369,-15103.878391,-3185.771785,-838.011603,-1766.123088,-804.819263,-2209.380532,-2340.920549,-2426.840654,-12672.008595,1415.379514,0.008000,-0.022000,1.004000,192.000000,0.000000,0.000000,0.000000,0.000000,0.000000,0.000000,0.000000,0.000000,0.000000,1773141540.239164,0.000000
66.000000,8418.449273,6162.130077,-2556.190199,-7584.863315,-5816.370942,3070.213267,-15151.129979,-3235.616176,-811.793007,-1736.551730,-764.831992,-2161.145468,-2306.230641,-2386.115776,-12632.825986,1432.210378,0.008000,-0.022000,1.004000,192.000000,0.000000,0.000000,0.000000,0.000000,0.000000,0.000000,0.000000,0.000000,0.000000,1773141540.239184,0.000000
68.000000,8432.508520,6169.997891,-2557.084269,-7601.716531,-5800.992942,3064.178296,-15147.754866,-3228.597728,-843.957167,-1789.570068,-835.955243,-2237.320213,-2363.026424,-2448.521846,-12697.690749,1391.083168,0.008000,-0.022000,1.004000,192.000000,0.000000,0.000000,0.000000,0.000000,0.000000,0.000000,0.000000,0.000000,0.000000,1773141540.239202,0.000000
70.000000,8475.423870,6208.577002,-2510.860862,-7576.369652,-5756.848247,3113.530947,-15106.605304,-3187.939905,-800.594783,-1724.861768,-743.262558,-2160.899599,-2293.423092,-2392.351913,-12632.356600,1421.503892,0.008000,-0.022000,1.004000,192.000000,0.000000,0.000000,0.000000,0.000000,0.000000,0.000000,0.000000,0.000000,0.000000,1773141540.239221,0.000000
72.000000,8413.442482,6150.954205,-2576.351473,-7657.305319,-5831.927756,3059.327967,-15182.623587,-3261.030109,-818.006792,-1779.176507,-797.711408,-2231.397001,-2341.993432,-2401.024389,-12663.604339,1409.791578,0.012000,-0.022000,1.002000,192.000000,0.000000,48.000000,127.500000,40.000000,15.500000,40.000000,0.000000,0.000000,0.000000,1773141540.239240,0.000000
74.000000,8472.518143,6209.001685,-2520.047429,-7560.701079,-5751.170904,3113.083913,-15104.884220,-3189.571582,-827.930966,-1743.704288,-797.331428,-2206.005419,-2342.820447,-2412.759055,-12667.180618,1403.309572,0.012000,-0.022000,1.002000,192.000000,0.000000,0.000000,0.000000,0.000000,0.000000,0.000000,0.000000,0.000000,0.000000,1773141540.717208,0.000000
76.000000,8426.764122,6168.701490,-2581.693540,-7595.882725,-5794.734454,3083.892534,-15153.722781,-3235.415010,-809.043742,-1734.674184,-775.449070,-2169.057985,-2288.483356,-2377.890334,-12628.512100,1427.829436,0.012000,-0.022000,1.002000,192.000000,0.000000,0.000000,0.000000,0.000000,0.000000,0.000000,0.000000,0.000000,0.000000,1773141540.717306,0.000000
78.000000,8434.028439,6173.909446,-2558.626540,-7612.020685,-5804.122186,3070.749709,-15150.884110,-3231.592862,-833.451847,-1793.883955,-841.386717,-2246.506780,-2368.636712,-2462.446983,-12697.288417,1393.184232,0.012000,-0.022000,1.002000,192.000000,0.000000,0.000000,0.000000,0.000000,0.000000,0.000000,0.000000,0.000000,0.000000,1773141540.717391,0.000000
80.000000,8471.601721,6212.510909,-2511.620821,-7581.957588,-5768.962892,3112.145139,-15110.025121,-3191.739701,-813.983478,-1720.994916,-751.644463,-2156.384546,-2311.595060,-2375.632808,-12628.892079,1426.734200,0.012000,-0.022000,1.002000,192.000000,0.000000,0.000000,0.000000,0.000000,0.000000,0.000000,0.000000,0.000000,0.000000,1773141540.717458,0.000000
82.000000,8417.242279,6154.888112,-2576.664397,-7648.163456,-5835.548739,3052.220112,-15183.584712,-3257.789106,-825.338164,-1757.651777,-798.583126,-2218.254175,-2347.402554,-2410.054494,-12667.091211,1408.763398,0.008000,-0.022000,1.008000,192.000000,0.000000,32.000000,127.500000,40.000000,15.500000,64.000000,0.000000,0.000000,0.000000,1773141540.717525,0.000000
84.000000,8484.096346,6214.768435,-2517.611088,-7564.523228,-5742.520778,3121.331706,-15107.275856,-3189.884506,-822.767713,-1762.569161,-800.415969,-2209.380532,-2337.567787,-2412.692000,-12672.276815,1409.210433,0.008000,-0.022000,1.008000,192.000000,0.000000,0.000000,0.000000,0.000000,0.000000,0.000000,0.000000,0.000000,0.000000,1773141540.717600,0.000000
86.000000,8447.037154,6186.202906,-2550.714022,-7602.655304,-5795.427358,3091.313313,-15153.052229,-3228.217748,-785.082672,-1718.089189,-758.193524,-2175.003549,-2287.991618,-2370.335444,-12630.523757,1432.299785,0.008000,-0.022000,1.008000,192.000000,0.000000,0.000000,0.000000,0.000000,0.000000,0.000000,0.000000,0.000000,0.000000,1773141540.717676,0.000000
88.000000,8444.645517,6180.614970,-2557.866580,-7597.402644,-5779.803488,3080.472717,-15153.543967,-3226.921347,-841.073792,-1787.491356,-830.501417,-2232.849864,-2371.162459,-2456.948454,-12695.992016,1401.923764,0.008000,-0.022000,1.008000,192.000000,0.000000,0.000000,0.000000,0.000000,0.000000,0.000000,0.000000,0.000000,0.000000,1773141540.717744,0.000000
90.000000,8492.724120,6227.643040,-2511.553766,-7579.230676,-5756.401212,3095.291924,-15108.974589,-3181.256733,-787.451957,-1716.837492,-747.665852,-2159.513791,-2288.416301,-2363.428755,-12625.472263,1426.175407,0.008000,-0.022000,1.008000,192.000000,0.000000,0.000000,0.000000,0.000000,0.000000,0.000000,0.000000,0.000000,0.000000,1773141540.717794,0.000000
92.000000,8424.484244,6164.834638,-2583.884011,-7632.517234,-5838.163893,3050.700194,-15183.942340,-3255.911560,-813.469388,-1756.355376,-794.112777,-2207.525338,-2343.155723,-2438.396506,-12668.164094,1402.862537,0.006000,-0.020000,1.002000,192.000000,0.000000,24.000000,127.500000,48.000000,15.500000,40.000000,0.000000,0.000000,0.000000,1773141540.717806,0.000000
94.000000,8496.076881,6229.609994,-2515.867652,-7579.476545,-5759.977491,3115.542604,-15105.532420,-3181.681416,-825.092295,-1761.339815,-800.930059,-2217.784788,-2337.500732,-2422.370305,-12672.746202,1407.534052,0.006000,-0.020000,1.002000,192.000000,0.000000,0.000000,0.000000,0.000000,0.000000,0.000000,0.000000,0.000000,0.000000,1773141540.717819,0.000000
96.000000,8460.291739,6201.938534,-2565.957912,-7614.658191,-5802.803433,3094.420206,-15155.421514,-3225.423780,-784.278009,-1721.553710,-759.378166,-2173.237762,-2294.339513,-2350.889427,-12631.373123,1430.533997,0.006000,-0.020000,1.002000,192.000000,0.000000,0.000000,0.000000,0.000000,0.000000,0.000000,0.000000,0.000000,0.000000,1773141540.717849,0.000000
98.000000,8457.743640,6196.082377,-2551.764554,-7603.281153,-5794.846212,3083.959589,-15153.789837,-3226.004925,-841.364365,-1765.988978,-828.869740,-2251.491219,-2369.419023,-2449.661785,-12699.881220,1400.225031,0.006000,-0.020000,1.002000,192.000000,0.000000,0.000000,0.000000,0.000000,0.000000,0.000000,0.000000,0.000000,0.000000,1773141540.717862,0.000000
100.000000,8494.579315,6230.325249,-2520.673277,-7586.740862,-5722.001877,3118.515386,-15111.835612,-3192.566716,-790.938829,-1721.084323,-751.778573,-2170.890828,-2301.179147,-2362.735851,-12625.293449,1429.662279,0.006000,-0.020000,1.002000,192.000000,0.000000,0.000000,0.000000,0.000000,0.000000,0.000000,0.000000,0.000000,0.000000,1773141540.717874,0.000000
102.000000,8438.252919,6179.117403,-2587.795566,-7647.247034,-5817.421474,3060.602017,-15183.830581,-3252.581150,-807.501472,-1765.698405,-803.813434,-2209.782864,-2307.772912,-2402.946639,-12673.461458,1413.278450,0.006000,-0.020000,0.998000,192.000000,0.000000,24.000000,127.500000,48.000000,15.500000,24.000000,0.000000,0.000000,0.000000,1773141540.717887,0.000000
104.000000,8494.601666,6233.499197,-2504.803539,-7572.547504,-5763.129087,3120.348229,-15108.706368,-3189.772748,-825.494626,-1754.701347,-794.917440,-2221.450474,-2361.282988,-2398.543346,-12666.510065,1404.583622,0.006000,-0.020000,0.998000,192.000000,0.000000,0.000000,0.000000,0.000000,0.000000,0.000000,0.000000,0.000000,0.000000,1773141540.717900,0.000000
106.000000,8456.760163,6195.814156,-2556.167848,-7592.105280,-5812.884070,3081.322084,-15153.655726,-3230.899958,-789.910649,-1731.321422,-757.768841,-2182.401977,-2311.371542,-2391.368436,-12632.177786,1434.333793,0.006000,-0.020000,0.998000,192.000000,0.000000,0.000000,0.000000,0.000000,0.000000,0.000000,0.000000,0.000000,0.000000,1773141540.717912,0.000000
108.000000,8464.851494,6203.972543,-2561.129935,-7603.437615,-5791.471099,3091.827404,-15155.488569,-3230.698792,-834.591786,-1788.161908,-831.775466,-2247.043222,-2363.965197,-2456.523771,-12700.775290,1398.727465,0.006000,-0.020000,0.998000,192.000000,0.000000,0.000000,0.000000,0.000000,0.000000,0.000000,0.000000,0.000000,0.000000,1773141540.717925,0.000000
110.000000,8509.465576,6248.564273,-2518.840434,-7579.230676,-5749.136895,3134.318070,-15111.030949,-3185.660027,-781.104062,-1711.942460,-750.124544,-2160.564323,-2282.783661,-2363.942845,-12631.127254,1436.568968,0.006000,-0.020000,0.998000,192.000000,0.000000,0.000000,0.000000,0.000000,0.000000,0.000000,0.000000,0.000000,0.000000,1773141540.717938,0.000000
112.000000,8447.506541,6192.439043,-2582.453499,-7632.986621,-5811.073579,3076.583514,-15184.881113,-3255.419821,-805.646277,-1737.512855,-801.242983,-2203.636134,-2327.196577,-2382.941828,-12668.991109,1421.347430,0.006000,-0.016000,1.000000,192.000000,0.000000,24.000000,127.500000,64.000000,15.500000,32.000000,0.000000,0.000000,0.000000,1773141540.717950,0.000000
114.000000,8518.585088,6260.477753,-2509.810330,-7581.823478,-5733.200101,3129.825369,-15105.331255,-3180.764995,-811.167158,-1735.501198,-795.208012,-2212.353314,-2335.958461,-2376.392767,-12671.874484,1414.194872,0.006000,-0.016000,1.000000,192.000000,0.000000,0.000000,0.000000,0.000000,0.000000,0.000000,0.000000,0.000000,0.000000,1773141540.717963,0.000000
116.000000,8468.070146,6208.912278,-2561.018176,-7593.312275,-5809.754826,3078.014025,-15155.600328,-3229.715315,-783.428643,-1723.878291,-761.032195,-2169.035634,-2288.304542,-2396.799910,-12635.150568,1433.998517,0.006000,-0.016000,1.000000,192.000000,0.000000,0.000000,0.000000,0.000000,0.000000,0.000000,0.000000,0.000000,0.000000,1773141540.717976,0.000000
118.000000,8466.773744,6207.012380,-2555.363185,-7613.987638,-5800.232983,3075.667092,-15157.321412,-3233.112780,-838.123362,-1768.782946,-831.283728,-2237.856655,-2380.013750,-2448.812419,-12705.782080,1392.133700,0.006000,-0.016000,1.000000,192.000000,0.000000,0.000000,0.000000,0.000000,0.000000,0.000000,0.000000,0.000000,0.000000,1773141540.717988,0.000000
120.000000,8507.096291,6242.328136,-2516.940536,-7562.690385,-5745.493560,3122.762218,-15111.701502,-3191.493832,-792.324637,-1713.998820,-758.685262,-2166.286369,-2302.319086,-2366.066261,-12628.713266,1432.120971,0.006000,-0.016000,1.000000,192.000000,0.000000,0.000000,0.000000,0.000000,0.000000,0.000000,0.000000,0.000000,0.000000,1773141540.718001,0.000000
122.000000,8452.625090,6195.702397,-2577.357301,-7633.791284,-5813.778140,3076.449403,-15186.244570,-3253.475219,-807.613231,-1745.783001,-797.376132,-2214.297916,-2330.884615,-2395.615267,-12666.443010,1409.858633,0.006000,-0.018000,1.006000,192.000000,0.000000,24.000000,127.500000,56.000000,15.500000,56.000000,0.000000,0.000000,0.000000,1773141540.718015,0.000000
124.000000,8520.529690,6258.957834,-2511.062027,-7573.955664,-5718.827929,3152.713555,-15111.187412,-3187.537573,-805.847443,-1745.715945,-795.833861,-2213.582660,-2328.224758,-2383.187697,-12671.226283,1420.431008,0.006000,-0.018000,1.006000,192.000000,0.000000,0.000000,0.000000,0.000000,0.000000,0.000000,0.000000,0.000000,0.000000,1773141540.718027,0.000000
126.000000,8472.451088,6217.942383,-2552.278644,-7603.996408,-5793.348645,3106.847776,-15158.796627,-3233.135132,-779.897068,-1701.437140,-760.115774,-2165.593465,-2300.463891,-2335.131447,-12626.768664,1442.983919,0.006000,-0.018000,1.006000,192.000000,0.000000,0.000000,0.000000,0.000000,0.000000,0.000000,0.000000,0.000000,0.000000,1773141540.718040,0.000000
128.000000,8480.542419,6219.350543,-2552.211589,-7623.844758,-5793.058073,3093.012046,-15157.299060,-3229.156521,-821.292498,-1766.078385,-827.707449,-2249.099582,-2354.935092,-2423.890224,-12696.193182,1399.666238,0.006000,-0.018000,1.006000,192.000000,0.000000,0.000000,0.000000,0.000000,0.000000,0.000000,0.000000,0.000000,0.000000,1773141540.718053,0.000000
130.000000,8513.153614,6248.497218,-2519.756856,-7547.357088,-5746.119409,3127.523139,-15111.857964,-3189.705692,-780.299399,-1706.175710,-751.465649,-2162.643035,-2288.639818,-2384.640561,-12635.195271,1435.317270,0.006000,-0.018000,1.006000,192.000000,0.000000,0.000000,0.000000,0.000000,0.000000,0.000000,0.000000,0.000000,0.000000,1773141540.718066,0.000000
132.000000,8439.415209,6182.179592,-2583.034644,-7636.138217,-5834.051172,3062.390156,-15188.256227,-3262.997063,-813.804664,-1764.893742,-798.046684,-2214.409675,-2333.097438,-2405.785311,-12676.545999,1413.300802,0.006000,-0.016000,1.007000,192.000000,0.000000,24.000000,127.500000,72.000000,15.500000,64.000000,0.000000,0.000000,0.000000,1773141540.718078,0.000000
134.000000,8502.827108,6238.863616,-2517.409923,-7576.861391,-5730.786113,3125.377372,-15114.271952,-3194.578373,-828.288594,-1758.747012,-806.182719,-2220.914033,-2353.638691,-2426.214805,-12673.752031,1406.707037,0.006000,-0.016000,1.007000,192.000000,0.000000,0.000000,0.000000,0.000000,0.000000,0.000000,0.000000,0.000000,0.000000,1773141540.718090,0.000000
136.000000,8469.433602,6208.711113,-2557.732470,-7600.710702,-5782.418642,3100.946915,-15159.690697,-3236.957280,-788.189565,-1723.811236,-762.127431,-2179.339788,-2306.722380,-2383.277104,-12625.315800,1434.646718,0.006000,-0.016000,1.007000,192.000000,0.000000,0.000000,0.000000,0.000000,0.000000,0.000000,0.000000,0.000000,0.000000,1773141540.718103,0.000000
138.000000,8471.646425,6213.203813,-2560.995824,-7617.653324,-5783.111546,3100.969267,-15160.629470,-3235.459713,-831.820170,-1781.344626,-833.608309,-2248.920768,-2357.907874,-2439.894073,-12695.656740,1401.856709,0.006000,-0.016000,1.007000,192.000000,0.000000,0.000000,0.000000,0.000000,0.000000,0.000000,0.000000,0.000000,0.000000,1773141540.718116,0.000000
140.000000,8512.170137,6254.241616,-2518.751027,-7560.879893,-5747.907549,3141.649442,-15111.165060,-3188.185774,-788.368379,-1703.761721,-756.919474,-2172.880134,-2293.423092,-2336.874883,-12641.006725,1434.490256,0.006000,-0.016000,1.007000,192.000000,0.000000,0.000000,0.000000,0.000000,0.000000,0.000000,0.000000,0.000000,0.000000,1773141540.718129,0.000000
142.000000,8443.371468,6189.667426,-2578.385482,-7624.582365,-5814.113416,3075.957665,-15185.931645,-3259.666653,-803.902841,-1731.187312,-797.532594,-2216.957774,-2336.517255,-2395.637619,-12673.081478,1412.518491,0.008000,-0.014000,1.006500,192.000000,0.000000,40.000000,127.500000,80.000000,15.500000,56.000000,0.000000,0.000000,0.000000,1773141540.718142,0.000000
144.000000,8508.124472,6246.060878,-2516.806426,-7572.927484,-5736.910491,3136.173265,-15113.735511,-3193.416082,-822.521844,-1762.882085,-804.975725,-2215.102579,-2340.987604,-2432.115666,-12671.159228,1411.400904,0.008000,-0.014000,1.006500,192.000000,0.000000,0.000000,0.000000,0.000000,0.000000,0.000000,0.000000,0.000000,0.000000,1773141540.718154,0.000000
146.000000,8470.752355,6215.640153,-2558.581836,-7613.652362,-5767.778250,3104.880822,-15159.467180,-3232.844559,-791.452919,-1715.608146,-764.608474,-2184.056006,-2292.149042,-2368.390842,-12625.673428,1437.038355,0.008000,-0.014000,1.006500,192.000000,0.000000,0.000000,0.000000,0.000000,0.000000,0.000000,0.000000,0.000000,0.000000,1773141540.718167,0.000000
148.000000,8475.021538,6214.969601,-2553.083307,-7618.681505,-5778.820011,3095.738959,-15156.740267,-3230.899958,-835.642318,-1772.962722,-827.930966,-2248.674899,-2362.869962,-2405.762959,-12694.025063,1395.777034,0.008000,-0.014000,1.006500,192.000000,0.000000,0.000000,0.000000,0.000000,0.000000,0.000000,0.000000,0.000000,0.000000,1773141540.718180,0.000000
150.000000,8504.101158,6250.620633,-2518.974545,-7548.541730,-5736.821084,3125.243261,-15111.701502,-3191.247963,-790.782367,-1714.311744,-757.657082,-2161.748965,-2285.667036,-2376.571581,-12627.170995,1436.233692,0.008000,-0.014000,1.006500,192.000000,0.000000,0.000000,0.000000,0.000000,0.000000,0.000000,0.000000,0.000000,0.000000,1773141540.718192,0.000000
152.000000,8440.130465,6183.408938,-2580.933581,-7619.977906,-5814.739265,3075.577685,-15188.144468,-3260.203095,-816.464521,-1745.224207,-798.471367,-2217.091884,-2334.773819,-2394.318866,-12667.359432,1413.300802,0.009000,-0.014000,1.005250,192.000000,0.000000,40.000000,127.500000,72.000000,15.500000,48.000000,0.000000,0.000000,0.000000,1773141540.718204,0.000000
154.000000,8501.195431,6244.742125,-2513.565423,-7577.531943,-5742.766648,3140.420096,-15110.069824,-3191.359722,-828.757981,-1758.121164,-804.461635,-2223.730352,-2344.049793,-2409.272183,-12677.842400,1413.949002,0.009000,-0.014000,1.005250,192.000000,0.000000,0.000000,0.000000,0.000000,0.000000,0.000000,0.000000,0.000000,0.000000,1773141540.718219,0.000000
156.000000,8453.943843,6200.083339,-2561.085231,-7596.329760,-5798.958933,3104.523194,-15156.360287,-3235.415010,-802.002943,-1714.356448,-762.239189,-2174.400052,-2298.072254,-2367.899104,-12634.368257,1436.501913,0.009000,-0.014000,1.005250,192.000000,0.000000,0.000000,0.000000,0.000000,0.000000,0.000000,0.000000,0.000000,0.000000,1773141540.718231,0.000000
158.000000,8446.545416,6199.368083,-2562.649854,-7616.558089,-5783.268009,3106.356037,-15159.847159,-3237.985461,-859.849257,-1792.676961,-843.487781,-2258.062632,-2382.092462,-2447.605425,-12707.816089,1401.476729,0.009000,-0.014000,1.005250,192.000000,0.000000,0.000000,0.000000,0.000000,0.000000,0.000000,0.000000,0.000000,0.000000,1773141540.718243,0.000000
160.000000,8480.542419,6238.729505,-2524.070743,-7545.345431,-5745.672374,3141.604738,-15113.690807,-3192.901992,-805.065132,-1701.459491,-762.686224,-2171.203753,-2301.022685,-2343.625110,-12634.904699,1433.797352,0.009000,-0.014000,1.005250,192.000000,0.000000,0.000000,0.000000,0.000000,0.000000,0.000000,0.000000,0.000000,0.000000,1773141540.718256,0.000000
162.000000,8414.895346,6178.491554,-2586.566220,-7611.238374,-5815.409817,3075.957665,-15186.266921,-3259.890170,-846.371156,-1745.783001,-812.307097,-2201.088035,-2339.065354,-2415.240099,-12679.362318,1415.670087,0.007500,-0.015000,1.006625,192.000000,0.000000,24.000000,127.500000,64.000000,15.500000,64.000000,0.000000,0.000000,0.000000,1773141540.718268,0.000000
164.000000,8476.653215,6227.777151,-2518.259289,-7566.981920,-5740.822046,3142.990547,-15109.868659,-3193.773710,-841.967862,-1757.070632,-811.010696,-2219.662335,-2334.416191,-2415.016581,-12677.864752,1407.534052,0.007500,-0.015000,1.006625,192.000000,0.000000,0.000000,0.000000,0.000000,0.000000,0.000000,0.000000,0.000000,0.000000,1773141540.718281,0.000000
166.000000,8434.475474,6193.288409,-2558.201856,-7603.281153,-5778.775308,3104.366732,-15155.577976,-3235.213844,-814.966955,-1699.738407,-769.749376,-2181.597314,-2295.948839,-2364.054604,-12628.556803,1433.149151,0.007500,-0.015000,1.006625,192.000000,0.000000,0.000000,0.000000,0.000000,0.000000,0.000000,0.000000,0.000000,0.000000,1773141540.718293,0.000000
168.000000,8429.915718,6179.944417,-2561.062880,-7599.637818,-5771.399232,3107.764197,-15161.210616,-3243.081658,-856.854124,-1781.769309,-841.587882,-2248.250216,-2367.429717,-2432.875625,-12698.294246,1397.364008,0.007500,-0.015000,1.006625,192.000000,0.000000,0.000000,0.000000,0.000000,0.000000,0.000000,0.000000,0.000000,0.000000,1773141540.718306,0.000000
170.000000,8472.451088,6223.038581,-2514.638306,-7570.804068,-5727.947441,3141.470628,-15114.473118,-3198.177004,-808.395542,-1711.987163,-768.900009,-2181.150279,-2291.813766,-2359.517200,-12625.338152,1436.054878,0.007500,-0.015000,1.006625,192.000000,0.000000,0.000000,0.000000,0.000000,0.000000,0.000000,0.000000,0.000000,0.000000,1773141540.718318,0.000000
172.000000,8404.948819,6155.804533,-2579.927752,-7617.072179,-5808.234907,3081.545601,-15184.702299,-3264.829906,-825.964013,-1752.287358,-806.562699,-2219.617631,-2326.481322,-2397.470462,-12667.225321,1414.239575,0.006750,-0.013500,1.004313,192.000000,0.000000,24.000000,127.500000,80.000000,15.500000,40.000000,0.000000,0.000000,0.000000,1773141540.718331,0.000000
174.000000,8458.056564,6202.273810,-2519.309821,-7562.578626,-5729.109732,3141.783552,-15111.477984,-3202.647353,-837.117533,-1763.463231,-815.078713,-2226.747838,-2336.941938,-2413.407256,-12678.468249,1414.284279,0.006750,-0.013500,1.004313,192.000000,0.000000,0.000000,0.000000,0.000000,0.000000,0.000000,0.000000,0.000000,0.000000,1773141540.718343,0.000000
176.000000,8424.238375,6173.797688,-2557.106621,-7603.705836,-5782.798622,3123.499825,-15156.092066,-3240.354745,-810.161330,-1722.358372,-773.996207,-2185.352407,-2294.428920,-2347.313147,-12629.763797,1441.776924,0.006750,-0.013500,1.004313,192.000000,0.000000,0.000000,0.000000,0.000000,0.000000,0.000000,0.000000,0.000000,0.000000,1773141540.718355,0.000000
178.000000,8413.174261,6160.319586,-2560.459383,-7592.932295,-5781.278703,3119.230642,-15164.161046,-3251.262397,-851.355595,-1771.420452,-843.443077,-2254.195780,-2350.710613,-2409.272183,-12696.841383,1407.377590,0.006750,-0.013500,1.004313,192.000000,0.000000,0.000000,0.000000,0.000000,0.000000,0.000000,0.000000,0.000000,0.000000,1773141540.718368,0.000000
180.000000,8454.279119,6193.646037,-2515.934708,-7579.565952,-5731.076685,3150.545436,-15115.881278,-3206.469501,-806.696809,-1723.073628,-771.783384,-2188.213430,-2281.107280,-2350.554150,-12626.612202,1438.379459,0.006750,-0.013500,1.004313,192.000000,0.000000,0.000000,0.000000,0.000000,0.000000,0.000000,0.000000,0.000000,0.000000,1773141540.718380,0.000000
182.000000,8381.792412,6123.528614,-2587.504993,-7628.516272,-5798.109567,3072.984883,-15189.060889,-3277.101013,-823.460617,-1761.317463,-811.122455,-2243.332832,-2302.274382,-2391.770767,-12664.230187,1415.826549,0.008375,-0.010750,1.004156,192.000000,0.000000,40.000000,127.500000,96.000000,15.500000,48.000000,0.000000,0.000000,0.000000,1773141540.718394,0.000000
184.000000,8445.897215,6182.827793,-2514.370086,-7566.579588,-5731.277851,3152.780611,-15113.891973,-3206.201280,-838.413935,-1782.663379,-821.806588,-2232.872216,-2338.193636,-2441.279881,-12676.456592,1410.193909,0.008375,-0.010750,1.004156,192.000000,0.000000,0.000000,0.000000,0.000000,0.000000,0.000000,0.000000,0.000000,0.000000,1773141540.718406,0.000000
186.000000,8402.244258,6142.572301,-2554.357356,-7592.686426,-5763.151439,3112.279250,-15158.818979,-3247.753173,-809.803702,-1735.791771,-774.823222,-2195.813024,-2292.283153,-2371.765956,-12628.713266,1434.356145,0.008375,-0.010750,1.004156,192.000000,0.000000,0.000000,0.000000,0.000000,0.000000,0.000000,0.000000,0.000000,0.000000,1773141540.718421,0.000000
188.000000,8406.111110,6145.925062,-2554.603226,-7611.931278,-5771.220418,3106.244279,-15162.574072,-3249.384850,-848.271054,-1794.286286,-847.175818,-2262.175353,-2357.393784,-2442.241006,-12697.020197,1398.526299,0.008375,-0.010750,1.004156,192.000000,0.000000,0.000000,0.000000,0.000000,0.000000,0.000000,0.000000,0.000000,0.000000,1773141540.718434,0.000000
190.000000,8438.007049,6177.619836,-2512.470187,-7565.327891,-5731.322555,3148.891407,-15110.516859,-3202.312076,-799.477196,-1724.414733,-765.323730,-2192.192041,-2272.300693,-2356.678528,-12632.714228,1431.226901,0.008375,-0.010750,1.004156,192.000000,0.000000,0.000000,0.000000,0.000000,0.000000,0.000000,0.000000,0.000000,0.000000,1773141540.718446,0.000000
192.000000,8364.536865,6102.070940,-2580.955932,-7628.605679,-5805.016256,3080.942104,-15190.111421,-3280.029092,-834.234158,-1779.668245,-814.542271,-2233.900396,-2326.838950,-2397.246945,-12667.515894,1419.201662,0.010188,-0.009375,1.005078,192.000000,0.000000,48.000000,127.500000,96.000000,15.500000,56.000000,0.000000,0.000000,0.000000,1773141540.718460,0.000000
194.000000,8434.564881,6167.405089,-2517.096998,-7575.453231,-5731.635479,3135.592119,-15118.563487,-3211.699809,-833.407144,-1779.578838,-818.967917,-2247.870236,-2322.569766,-2408.556927,-12669.840475,1407.198776,0.010188,-0.009375,1.005078,192.000000,0.000000,0.000000,0.000000,0.000000,0.000000,0.000000,0.000000,0.000000,0.000000,1773141541.198172,0.000000
196.000000,8387.939142,6124.020353,-2557.799525,-7604.778720,-5778.216514,3110.468758,-15163.356383,-3255.978615,-803.209937,-1740.731506,-778.377149,-2197.802329,-2279.609714,-2379.142032,-12630.322591,1437.373631,0.010188,-0.009375,1.005078,192.000000,0.000000,0.000000,0.000000,0.000000,0.000000,0.000000,0.000000,0.000000,0.000000,1773141541.198262,0.000000
198.000000,8375.891551,6106.295419,-2566.092022,-7623.464778,-5779.781136,3104.567898,-15172.185322,-3270.127269,-857.055289,-1827.389220,-858.195228,-2287.902211,-2353.906912,-2437.927119,-12693.958008,1405.790616,0.010188,-0.009375,1.005078,192.000000,0.000000,0.000000,0.000000,0.000000,0.000000,0.000000,0.000000,0.000000,0.000000,1773141541.198327,0.000000
200.000000,8422.919622,6157.793839,-2520.002725,-7570.535847,-5712.748255,3146.298605,-15117.937639,-3214.449074,-807.166196,-1739.278643,-777.773652,-2208.978201,-2278.737995,-2350.934130,-12626.053408,1436.166636,0.010188,-0.009375,1.005078,192.000000,0.000000,0.000000,0.000000,0.000000,0.000000,0.000000,0.000000,0.000000,0.000000,1773141541.198393,0.000000
202.000000,8363.687499,6101.690960,-2581.201801,-7624.939993,-5797.349608,3103.517366,-15192.525410,-3280.274961,-827.863911,-1775.488469,-816.442170,-2239.980071,-2313.763179,-2390.004979,-12664.386650,1419.425180,0.010188,-0.009375,1.005078,192.000000,0.000000,0.000000,0.000000,0.000000,0.000000,0.000000,0.000000,0.000000,0.000000,1773141541.198457,0.000000
204.000000,8424.707761,6162.577112,-2513.990106,-7564.880856,-5724.862900,3146.499770,-15117.200031,-3210.626925,-825.204054,-1778.505955,-816.151597,-2240.315347,-2319.217005,-2387.523936,-12679.094098,1413.680782,0.018000,-0.016000,1.008000,192.000000,0.000000,72.000000,127.500000,64.000000,15.500000,64.000000,0.000000,0.000000,0.000000,1773141541.198522,0.000000
206.000000,8381.479488,6118.208899,-2552.233941,-7610.031379,-5765.476020,3122.002259,-15160.741229,-3254.726917,-803.478158,-1736.551730,-777.863059,-2197.332942,-2275.944027,-2383.657084,-12634.211795,1437.217168,0.018000,-0.016000,1.008000,192.000000,0.000000,0.000000,0.000000,0.000000,0.000000,0.000000,0.000000,0.000000,0.000000,1773141541.198574,0.000000
208.000000,8369.588360,6105.155481,-2562.314577,-7601.493013,-5784.676169,3108.948840,-15168.184360,-3267.132135,-845.946472,-1806.356228,-850.819153,-2277.687463,-2354.890389,-2439.379983,-12700.819993,1401.096749,0.018000,-0.016000,1.008000,192.000000,0.000000,0.000000,0.000000,0.000000,0.000000,0.000000,0.000000,0.000000,0.000000,1773141541.198586,0.000000
210.000000,8408.368636,6149.814266,-2522.148493,-7576.347301,-5730.875520,3144.242244,-15119.591668,-3220.886376,-809.177853,-1745.514780,-781.685207,-2204.954887,-2277.128670,-2361.394746,-12632.155434,1433.193854,0.018000,-0.016000,1.008000,192.000000,0.000000,0.000000,0.000000,0.000000,0.000000,0.000000,0.000000,0.000000,0.000000,1773141541.198598,0.000000
212.000000,8337.379496,6078.758070,-2592.914116,-7636.831121,-5801.059997,3078.148136,-15196.526372,-3292.479014,-834.815304,-1778.349492,-821.851292,-2252.809972,-2316.311278,-2391.949581,-12667.895874,1414.396037,0.018000,-0.016000,1.008000,192.000000,0.000000,0.000000,0.000000,0.000000,0.000000,0.000000,0.000000,0.000000,0.000000,1773141541.198610,0.000000
214.000000,8398.735034,6139.174836,-2526.328269,-7579.498897,-5712.815310,3135.972099,-15121.290400,-3225.021449,-848.740440,-1801.282382,-834.770600,-2262.376519,-2320.848682,-2417.385866,-12682.044528,1404.069531,0.014000,-0.016000,1.010000,192.000000,0.000000,56.000000,127.500000,64.000000,15.500000,72.000000,0.000000,0.000000,0.000000,1773141541.198622,0.000000
216.000000,8358.636005,6093.532573,-2556.972510,-7597.424996,-5769.566389,3110.781683,-15165.591558,-3269.322606,-821.471312,-1746.140629,-788.077806,-2212.107445,-2294.898307,-2380.036101,-12629.964963,1433.730296,0.014000,-0.016000,1.010000,192.000000,0.000000,0.000000,0.000000,0.000000,0.000000,0.000000,0.000000,0.000000,0.000000,1773141541.198634,0.000000
218.000000,8356.356127,6091.140937,-2564.639159,-7608.757330,-5755.082459,3127.791360,-15175.359270,-3277.771566,-857.234103,-1815.855720,-860.720975,-2292.573725,-2350.107116,-2440.184646,-12689.889990,1408.405770,0.014000,-0.016000,1.010000,192.000000,0.000000,0.000000,0.000000,0.000000,0.000000,0.000000,0.000000,0.000000,0.000000,1773141541.198650,0.000000
220.000000,8401.841927,6136.537330,-2522.193196,-7572.748670,-5717.062142,3164.269407,-15124.643162,-3228.195396,-810.854234,-1741.737335,-787.943696,-2209.872271,-2269.149097,-2339.490037,-12623.281792,1442.872160,0.014000,-0.016000,1.010000,192.000000,0.000000,0.000000,0.000000,0.000000,0.000000,0.000000,0.000000,0.000000,0.000000,1773141541.198662,0.000000
222.000000,8330.070475,6075.874695,-2593.674075,-7622.883633,-5803.697503,3108.300639,-15198.247456,-3297.128176,-836.849312,-1772.314521,-829.830865,-2244.472771,-2310.700990,-2392.553078,-12671.181580,1430.086962,0.014000,-0.016000,1.010000,192.000000,0.000000,0.000000,0.000000,0.000000,0.000000,0.000000,0.000000,0.000000,0.000000,1773141541.198673,0.000000
224.000000,8390.598999,6129.563585,-2521.120312,-7594.027530,-5729.601470,3149.494904,-15120.239868,-3223.769751,-852.942568,-1781.724606,-838.548045,-2258.219094,-2338.551264,-2368.301436,-12682.491563,1413.993706,0.012000,-0.020000,1.008000,192.000000,0.000000,48.000000,127.500000,48.000000,15.500000,64.000000,0.000000,0.000000,0.000000,1773141541.198686,0.000000
226.000000,8348.756534,6094.516050,-2562.091060,-7579.722414,-5771.466288,3102.042151,-15162.775238,-3263.935836,-824.980536,-1748.062879,-790.760015,-2207.167710,-2290.584420,-2389.535593,-12641.923146,1433.216206,0.012000,-0.020000,1.008000,192.000000,0.000000,0.000000,0.000000,0.000000,0.000000,0.000000,0.000000,0.000000,0.000000,1773141541.198710,0.000000
228.000000,8351.014060,6084.547172,-2563.499220,-7609.785510,-5765.163096,3111.116959,-15171.559473,-3271.513077,-867.873534,-1821.421304,-863.000853,-2280.772004,-2347.782534,-2438.150637,-12702.608133,1400.470901,0.012000,-0.020000,1.008000,192.000000,0.000000,0.000000,0.000000,0.000000,0.000000,0.000000,0.000000,0.000000,0.000000,1773141541.198722,0.000000
230.000000,8387.894438,6125.942603,-2522.640231,-7573.486277,-5719.207909,3163.956483,-15123.302057,-3228.374210,-812.955298,-1750.946254,-787.317847,-2215.303745,-2272.993597,-2351.828200,-12627.618030,1441.843980,0.012000,-0.020000,1.008000,192.000000,0.000000,0.000000,0.000000,0.000000,0.000000,0.000000,0.000000,0.000000,0.000000,1773141541.198734,0.000000
232.000000,8318.805196,6066.844591,-2589.740168,-7620.581403,-5808.726646,3083.445499,-15197.711014,-3294.378912,-854.686004,-1771.420452,-834.167103,-2248.473733,-2330.415229,-2404.690075,-12670.913359,1422.152093,0.012000,-0.020000,1.008000,192.000000,0.000000,0.000000,0.000000,0.000000,0.000000,0.000000,0.000000,0.000000,0.000000,1773141541.198745,0.000000
234.000000,8379.892514,6119.415893,-2525.210682,-7566.713699,-5727.008668,3147.572654,-15122.653857,-3226.608423,-856.205923,-1796.297943,-838.503341,-2255.268664,-2329.901139,-2412.200262,-12685.062013,1412.049104,0.010000,-0.016000,1.008000,192.000000,0.000000,40.000000,127.500000,64.000000,15.500000,64.000000,0.000000,0.000000,0.000000,1773141541.198758,0.000000
236.000000,8347.817760,6090.962123,-2561.286397,-7608.489109,-5780.943427,3107.272459,-15166.351517,-3266.796859,-822.007754,-1747.839361,-792.279934,-2210.699285,-2292.909001,-2354.331595,-12639.933841,1432.791523,0.010000,-0.016000,1.008000,192.000000,0.000000,0.000000,0.000000,0.000000,0.000000,0.000000,0.000000,0.000000,0.000000,1773141541.198770,0.000000
238.000000,8339.905243,6089.352797,-2565.443822,-7628.069237,-5761.542113,3122.136369,-15173.392317,-3271.937760,-871.896848,-1806.155062,-866.219505,-2287.343417,-2351.224703,-2425.052515,-12697.310769,1399.688590,0.010000,-0.016000,1.008000,192.000000,0.000000,0.000000,0.000000,0.000000,0.000000,0.000000,0.000000,0.000000,0.000000,1773141541.198781,0.000000
240.000000,8373.678729,6112.263335,-2533.078496,-7550.419277,-5703.740502,3147.907930,-15124.821976,-3231.905786,-820.621946,-1745.291262,-792.637562,-2207.301820,-2276.122841,-2346.575540,-12630.970792,1437.619500,0.010000,-0.016000,1.008000,192.000000,0.000000,0.000000,0.000000,0.000000,0.000000,0.000000,0.000000,0.000000,0.000000,1773141541.198793,0.000000
242.000000,8324.616650,6068.610378,-2584.375749,-7616.446330,-5804.524518,3089.681636,-15196.593427,-3294.311857,-855.580074,-1791.112338,-837.475161,-2252.966434,-2320.312240,-2421.543291,-12668.097039,1420.520415,0.010000,-0.016000,1.008000,192.000000,0.000000,0.000000,0.000000,0.000000,0.000000,0.000000,0.000000,0.000000,0.000000,1773141541.198805,0.000000
244.000000,8387.760328,6126.277879,-2524.406019,-7574.916789,-5712.234165,3165.610512,-15125.157252,-3227.971879,-849.053365,-1783.803318,-837.318699,-2257.168562,-2311.796226,-2411.283840,-12677.529475,1409.433950,0.008000,-0.018000,1.004000,192.000000,0.000000,32.000000,127.500000,56.000000,15.500000,48.000000,0.000000,0.000000,0.000000,1773141541.198816,0.000000
246.000000,8362.256987,6103.456748,-2552.815086,-7601.157737,-5762.883218,3133.625166,-15163.222273,-3260.448964,-818.833806,-1736.417620,-787.407254,-2212.152149,-2281.688426,-2334.773819,-12635.195271,1438.155942,0.008000,-0.018000,1.004000,192.000000,0.000000,0.000000,0.000000,0.000000,0.000000,0.000000,0.000000,0.000000,0.000000,1773141541.198828,0.000000
248.000000,8349.896473,6093.577277,-2565.622636,-7602.141214,-5777.322445,3117.688372,-15173.347613,-3273.189458,-858.821077,-1802.422321,-857.815249,-2276.256952,-2355.113906,-2435.468428,-12704.060996,1403.153110,0.008000,-0.018000,1.004000,192.000000,0.000000,0.000000,0.000000,0.000000,0.000000,0.000000,0.000000,0.000000,0.000000,1773141541.198839,0.000000
250.000000,8388.475584,6126.411989,-2530.664507,-7569.977053,-5727.835682,3163.978835,-15125.559583,-3230.676440,-819.034972,-1748.509914,-790.268277,-2215.080227,-2269.417318,-2343.692165,-12639.397399,1437.351279,0.008000,-0.018000,1.004000,192.000000,0.000000,0.000000,0.000000,0.000000,0.000000,0.000000,0.000000,0.000000,0.000000,1773141541.198853,0.000000
252.000000,8328.081170,6071.761974,-2592.712950,-7626.862243,-5791.471099,3092.386197,-15200.974369,-3300.413883,-845.208865,-1783.266876,-833.183626,-2257.012100,-2320.178130,-2395.056474,-12671.941539,1419.626346,0.008000,-0.018000,1.004000,192.000000,0.000000,0.000000,0.000000,0.000000,0.000000,0.000000,0.000000,0.000000,0.000000,1773141541.198864,0.000000
254.000000,8390.420185,6138.236062,-2528.854016,-7565.193780,-5707.808519,3149.316090,-15126.610115,-3232.419876,-848.963958,-1777.544830,-845.186513,-2260.297806,-2314.478435,-2401.136148,-12680.412850,1411.736180,0.008000,-0.014000,1.010000,192.000000,0.000000,32.000000,127.500000,72.000000,15.500000,72.000000,0.000000,0.000000,0.000000,1773141541.198876,0.000000
0.000000,8362.011118,6110.229327,-2553.396231,-7590.317141,-5761.765630,3122.270479,-15163.289328,-3265.254589,-827.550987,-1740.396230,-797.577297,-2208.464111,-2277.195725,-2352.319938,-12631.037847,1438.245349,0.008000,-0.014000,1.010000,192.000000,0.000000,0.000000,0.000000,0.000000,0.000000,0.000000,0.000000,0.000000,0.000000,1773141541.198889,0.000000
2.000000,8361.161752,6112.017466,-2558.783002,-7602.387083,-5776.629541,3122.158721,-15172.297081,-3273.390624,-858.128173,-1798.711932,-860.117478,-2284.169469,-2343.267482,-2428.964070,-12697.511935,1401.521433,0.008000,-0.014000,1.010000,192.000000,0.000000,0.000000,0.000000,0.000000,0.000000,0.000000,0.000000,0.000000,0.000000,1773141541.198901,0.000000
4.000000,8411.631991,6144.494551,-2514.995934,-7568.345376,-5721.688953,3172.025463,-15122.989133,-3226.809588,-809.043742,-1738.518684,-785.797928,-2215.683724,-2272.300693,-2354.219836,-12633.340077,1435.451381,0.008000,-0.014000,1.010000,192.000000,0.000000,0.000000,0.000000,0.000000,0.000000,0.000000,0.000000,0.000000,0.000000,1773141541.198913,0.000000
6.000000,8351.259929,6087.028216,-2596.646857,-7625.655249,-5781.993959,3101.863337,-15201.756680,-3298.402226,-824.712315,-1772.672149,-825.271109,-2255.715699,-2299.011028,-2394.095349,-12666.890045,1415.290107,0.008000,-0.014000,1.010000,192.000000,0.000000,0.000000,0.000000,0.000000,0.000000,0.000000,0.000000,0.000000,0.000000,1773141541.198925,0.000000
8.000000,8417.689314,6151.982385,-2535.626594,-7568.725356,-5723.141816,3163.822372,-15127.057150,-3228.150693,-843.286615,-1775.063786,-846.974653,-2260.431917,-2294.853603,-2396.889317,-12682.513914,1415.178348,0.008000,-0.014000,1.010000,192.000000,0.000000,32.000000,127.500000,72.000000,15.500000,72.000000,0.000000,0.000000,0.000000,1773141541.198938,0.000000
10.000000,8386.978017,6123.439207,-2546.802467,-7599.973094,-5757.407040,3113.598003,-15166.865607,-3262.214752,-823.013583,-1736.439971,-790.312980,-2211.861576,-2302.855528,-2371.363624,-12633.384780,1436.054878,0.008000,-0.014000,1.010000,192.000000,0.000000,0.000000,0.000000,0.000000,0.000000,0.000000,0.000000,0.000000,0.000000,1773141541.198950,0.000000
12.000000,8393.594133,6131.083504,-2570.048281,-7604.376388,-5760.513933,3121.242299,-15177.035651,-3270.283731,-848.472220,-1788.631295,-854.753060,-2279.408548,-2353.750450,-2424.314907,-12698.741281,1401.499081,0.008000,-0.014000,1.010000,192.000000,0.000000,0.000000,0.000000,0.000000,0.000000,0.000000,0.000000,0.000000,0.000000,1773141541.198961,0.000000
14.000000,8447.663003,6172.814211,-2511.620821,-7569.999405,-5715.698685,3161.609550,-15125.045493,-3220.662859,-802.226460,-1739.390402,-779.539440,-2209.894623,-2283.454214,-2360.411270,-12636.648135,1437.440686,0.008000,-0.014000,1.010000,192.000000,0.000000,0.000000,0.000000,0.000000,0.000000,0.000000,0.000000,0.000000,0.000000,1773141541.198974,0.000000
16.000000,8392.722415,6125.584975,-2592.958819,-7623.732999,-5800.165927,3099.225831,-15197.845125,-3284.253572,-807.076789,-1776.270780,-816.844501,-2244.293957,-2292.529022,-2398.632753,-12671.181580,1419.067552,0.008000,-0.014000,1.010000,192.000000,0.000000,0.000000,0.000000,0.000000,0.000000,0.000000,0.000000,0.000000,0.000000,1773141541.198986,0.000000
18.000000,8455.441410,6183.185420,-2529.457513,-7569.999405,-5708.635534,3149.740773,-15125.112548,-3221.847501,-826.880434,-1781.389330,-830.926100,-2253.391117,-2309.650458,-2399.146843,-12684.257350,1413.323154,0.006000,-0.015000,1.012000,192.000000,0.000000,16.000000,127.500000,64.000000,15.500000,88.000000,0.000000,0.000000,0.000000,1773141541.198997,0.000000
20.000000,8431.413285,6161.481877,-2561.353452,-7599.906039,-5764.939578,3108.390046,-15164.451619,-3255.933911,-796.213841,-1735.210626,-778.399501,-2207.726503,-2247.937292,-2356.879694,-12636.223452,1431.293956,0.006000,-0.015000,1.012000,192.000000,0.000000,0.000000,0.000000,0.000000,0.000000,0.000000,0.000000,0.000000,0.000000,1773141541.199009,0.000000
22.000000,8422.383180,6152.585882,-2555.877275,-7610.120786,-5772.561523,3101.818633,-15173.235854,-3265.813382,-852.316720,-1807.965554,-848.293406,-2278.715644,-2371.475383,-2449.415916,-12697.936618,1396.782863,0.006000,-0.015000,1.012000,192.000000,0.000000,0.000000,0.000000,0.000000,0.000000,0.000000,0.000000,0.000000,0.000000,1773141541.199021,0.000000
24.000000,8491.092442,6224.022058,-2519.063952,-7569.172391,-5723.834720,3153.406459,-15118.921115,-3205.083693,-797.689056,-1735.322384,-770.419928,-2201.155090,-2259.001405,-2359.584255,-12635.172920,1427.605918,0.006000,-0.015000,1.012000,192.000000,0.000000,0.000000,0.000000,0.000000,0.000000,0.000000,0.000000,0.000000,0.000000,1773141541.199032,0.000000
26.000000,8442.969137,6179.206810,-2590.030741,-7617.273345,-5805.843271,3080.405662,-15193.195962,-3271.155449,-809.066094,-1751.393289,-805.623925,-2228.804198,-2310.611583,-2393.581258,-12676.098964,1413.077284,0.006000,-0.015000,1.012000,192.000000,0.000000,0.000000,0.000000,0.000000,0.000000,0.000000,0.000000,0.000000,0.000000,1773141541.199053,0.000000
28.000000,8515.120568,6241.054087,-2517.409923,-7568.300673,-5742.565482,3139.749544,-15119.815185,-3202.021504,-815.570452,-1765.966626,-811.658896,-2243.221074,-2329.722325,-2398.476291,-12687.364243,1406.438816,0.011000,-0.017500,1.011000,192.000000,0.000000,64.000000,127.500000,48.000000,15.500000,72.000000,0.000000,0.000000,0.000000,1773141541.199065,0.000000
30.000000,8488.857268,6221.518662,-2557.419545,-7593.424033,-5781.613980,3121.801093,-15159.958918,-3234.476237,-778.488908,-1718.782093,-758.908779,-2190.001570,-2277.598057,-2374.492869,-12644.292431,1432.456247,0.011000,-0.017500,1.011000,192.000000,0.000000,0.000000,0.000000,0.000000,0.000000,0.000000,0.000000,0.000000,0.000000,1773141541.199077,0.000000
32.000000,8489.326655,6218.121197,-2566.360243,-7599.526060,-5770.348700,3101.773930,-15169.681927,-3243.931025,-824.220577,-1777.097795,-828.534463,-2258.956702,-2346.687299,-2429.567567,-12704.888011,1394.927668,0.011000,-0.017500,1.011000,192.000000,0.000000,0.000000,0.000000,0.000000,0.000000,0.000000,0.000000,0.000000,0.000000,1773141541.199089,0.000000
34.000000,8544.758981,6271.363052,-2510.123254,-7556.588358,-5711.250688,3157.250960,-15117.401197,-3189.638637,-766.486021,-1702.733541,-758.260579,-2182.178459,-2276.033434,-2349.771839,-12636.670487,1438.267700,0.011000,-0.017500,1.011000,192.000000,0.000000,0.000000,0.000000,0.000000,0.000000,0.000000,0.000000,0.000000,0.000000,1773141541.199100,0.000000
36.000000,8483.179925,6210.834528,-2570.428261,-7612.221850,-5778.127107,3096.610677,-15192.726575,-3259.219618,-790.581201,-1737.490503,-784.903858,-2217.158939,-2314.389028,-2390.295552,-12664.677222,1420.475712,0.011000,-0.017500,1.011000,192.000000,0.000000,0.000000,0.000000,0.000000,0.000000,0.000000,0.000000,0.000000,0.000000,1773141541.199112,0.000000
38.000000,8551.822132,6273.486468,-2512.403132,-7560.432859,-5727.522758,3150.836009,-15119.412854,-3194.466614,-788.144861,-1745.827704,-795.140957,-2226.546672,-2318.859377,-2395.704674,-12679.339967,1409.389247,0.011500,-0.016750,1.012500,192.000000,0.000000,48.000000,127.500000,64.000000,15.500000,88.000000,0.000000,0.000000,0.000000,1773141541.199124,0.000000
40.000000,8521.848443,6251.738221,-2549.842304,-7584.751556,-5780.071709,3119.655325,-15157.433171,-3227.390734,-762.708576,-1704.320515,-749.677509,-2182.133756,-2270.244333,-2340.786438,-12643.487769,1434.177331,0.011500,-0.016750,1.012500,192.000000,0.000000,0.000000,0.000000,0.000000,0.000000,0.000000,0.000000,0.000000,0.000000,1773141541.199135,0.000000
42.000000,8517.489853,6245.703250,-2582.207630,-7592.932295,-5793.102776,3109.150005,-15171.045383,-3237.627833,-800.818300,-1757.629425,-826.232234,-2244.383364,-2316.355981,-2388.619171,-12712.062921,1397.408712,0.011500,-0.016750,1.012500,192.000000,0.000000,0.000000,0.000000,0.000000,0.000000,0.000000,0.000000,0.000000,0.000000,1773141541.199147,0.000000
44.000000,8565.993138,6294.139480,-2501.830757,-7556.923635,-5714.022304,3146.633881,-15116.305961,-3184.520088,-755.377204,-1696.922087,-745.453029,-2175.003549,-2283.521269,-2353.683395,-12639.643269,1424.700192,0.011500,-0.016750,1.012500,192.000000,0.000000,0.000000,0.000000,0.000000,0.000000,0.000000,0.000000,0.000000,0.000000,1773141541.199158,0.000000
46.000000,8503.430605,6236.136703,-2580.218325,-7612.959458,-5790.107642,3107.339514,-15195.140564,-3257.945568,-786.602591,-1728.885082,-784.613286,-2211.973335,-2313.047923,-2396.308171,-12666.152437,1412.697305,0.011500,-0.016750,1.012500,192.000000,0.000000,0.000000,0.000000,0.000000,0.000000,0.000000,0.000000,0.000000,0.000000,1773141541.199171,0.000000
48.000000,8568.608292,6293.178355,-2510.436178,-7563.204475,-5723.633554,3154.255826,-15122.050359,-3193.460786,-784.345065,-1743.905454,-795.498585,-2229.184178,-2319.038191,-2386.607514,-12677.529475,1406.707037,0.013750,-0.014375,1.012250,192.000000,0.000000,64.000000,127.500000,80.000000,15.500000,80.000000,0.000000,0.000000,0.000000,1773141541.199183,0.000000
50.000000,8548.491722,6274.984035,-2552.926845,-7584.215115,-5765.788944,3111.720456,-15157.544930,-3218.248870,-750.549227,-1698.330247,-744.268387,-2175.964674,-2257.995577,-2350.934130,-12634.882347,1432.545654,0.013750,-0.014375,1.012250,192.000000,0.000000,0.000000,0.000000,0.000000,0.000000,0.000000,0.000000,0.000000,0.000000,1773141541.199197,0.000000
52.000000,8540.310984,6267.116221,-2561.107583,-7592.686426,-5768.359395,3100.701046,-15166.440924,-3227.346030,-787.340198,-1757.003576,-809.490777,-2240.181236,-2340.629976,-2423.599651,-12708.911325,1395.195889,0.013750,-0.014375,1.012250,192.000000,0.000000,0.000000,0.000000,0.000000,0.000000,0.000000,0.000000,0.000000,0.000000,1773141541.199211,0.000000
54.000000,8579.493592,6305.516518,-2511.553766,-7559.382327,-5733.401267,3147.393840,-15115.300133,-3182.284913,-745.676547,-1698.710227,-744.134276,-2170.399090,-2281.666074,-2346.508485,-12646.907585,1429.058782,0.013750,-0.014375,1.012250,192.000000,0.000000,0.000000,0.000000,0.000000,0.000000,0.000000,0.000000,0.000000,0.000000,1773141541.199225,0.000000
56.000000,8514.360608,6240.137665,-2574.742147,-7613.205327,-5797.081387,3091.425072,-15190.513753,-3255.442173,-784.188602,-1742.676108,-782.936905,-2217.985954,-2319.462874,-2379.186735,-12668.633481,1409.590412,0.013750,-0.014375,1.012250,192.000000,0.000000,0.000000,0.000000,0.000000,0.000000,0.000000,0.000000,0.000000,0.000000,1773141541.199236,0.000000
58.000000,8582.891057,6306.097663,-2508.603335,-7561.729260,-5719.453778,3164.180000,-15119.010522,-3186.531745,-781.014655,-1749.582797,-792.548155,-2227.485445,-2307.907022,-2402.857232,-12682.469211,1409.702171,0.014875,-0.014188,1.010125,192.000000,0.000000,64.000000,127.500000,72.000000,15.500000,64.000000,0.000000,0.000000,0.000000,1773141541.678702,0.000000
60.000000,8560.449905,6286.539887,-2540.543978,-7588.685464,-5756.714136,3122.114017,-15157.187302,-3218.137111,-744.849532,-1698.129082,-737.384050,-2173.438927,-2262.912960,-2330.258766,-12632.758931,1431.115142,0.014875,-0.014188,1.010125,192.000000,0.000000,0.000000,0.000000,0.000000,0.000000,0.000000,0.000000,0.000000,0.000000,1773141541.678779,0.000000
62.000000,8547.105914,6270.625445,-2569.333025,-7596.262705,-5772.338006,3113.240375,-15170.061907,-3233.336298,-802.427626,-1766.503068,-815.726914,-2248.116106,-2348.676604,-2423.979631,-12703.971589,1401.007342,0.014875,-0.014188,1.010125,192.000000,0.000000,0.000000,0.000000,0.000000,0.000000,0.000000,0.000000,0.000000,0.000000,1773141541.678822,0.000000
64.000000,8591.809403,6314.904250,-2511.419655,-7561.617501,-5732.641307,3135.502712,-15115.255429,-3182.910762,-747.889369,-1707.114483,-744.760125,-2179.764471,-2281.777833,-2349.436563,-12643.823045,1425.996593,0.014875,-0.014188,1.010125,192.000000,0.000000,0.000000,0.000000,0.000000,0.000000,0.000000,0.000000,0.000000,0.000000,1773141541.678862,0.000000
66.000000,8532.353763,6261.103602,-2566.382595,-7609.785510,-5806.826747,3088.407587,-15187.295102,-3245.473295,-774.890277,-1741.200893,-774.465594,-2212.755646,-2330.124656,-2373.732909,-12674.914321,1408.875157,0.014875,-0.014188,1.010125,192.000000,0.000000,0.000000,0.000000,0.000000,0.000000,0.000000,0.000000,0.000000,0.000000,1773141541.678905,0.000000
68.000000,8603.901697,6322.459140,-2516.448798,-7558.398850,-5717.419769,3158.972044,-15118.362322,-3182.128451,-777.483079,-1747.012347,-786.960219,-2222.724524,-2312.287964,-2383.388863,-12682.759784,1404.494215,0.011437,-0.014094,1.009062,192.000000,0.000000,32.000000,127.500000,72.000000,15.500000,64.000000,0.000000,0.000000,0.000000,1773141541.678946,0.000000
70.000000,8573.168048,6296.285247,-2550.512856,-7584.885667,-5765.610131,3126.114980,-15156.606156,-3215.968992,-739.127486,-1701.191270,-735.618262,-2172.410747,-2259.895475,-2350.777668,-12636.648135,1434.490256,0.011437,-0.014094,1.009062,192.000000,0.000000,0.000000,0.000000,0.000000,0.000000,0.000000,0.000000,0.000000,0.000000,1773141541.678988,0.000000
72.000000,8563.445039,6286.316369,-2555.162019,-7593.759310,-5796.813166,3112.078084,-15164.831598,-3223.725048,-789.061283,-1765.340777,-806.115664,-2241.902321,-2338.774781,-2416.536500,-12712.845232,1400.247383,0.011437,-0.014094,1.009062,192.000000,0.000000,0.000000,0.000000,0.000000,0.000000,0.000000,0.000000,0.000000,0.000000,1773141541.679042,0.000000
74.000000,8605.443967,6327.398876,-2516.940536,-7559.181161,-5727.142778,3135.659174,-15116.909458,-3179.021559,-747.822314,-1711.316611,-739.261596,-2176.165840,-2290.763234,-2349.458915,-12649.254519,1422.129741,0.011437,-0.014094,1.009062,192.000000,0.000000,0.000000,0.000000,0.000000,0.000000,0.000000,0.000000,0.000000,0.000000,1773141541.679086,0.000000
76.000000,8537.807588,6265.573950,-2569.645950,-7610.500766,-5805.776215,3078.841040,-15189.038538,-3249.250740,-777.751300,-1745.917111,-777.013692,-2215.035524,-2327.174226,-2408.109892,-12676.322481,1405.321229,0.011437,-0.014094,1.009062,192.000000,0.000000,0.000000,0.000000,0.000000,0.000000,0.000000,0.000000,0.000000,0.000000,1773141541.679127,0.000000
78.000000,8601.018322,6323.889652,-2517.409923,-7560.566969,-5735.457627,3149.852532,-15120.776310,-3185.145937,-785.060321,-1754.746050,-790.871774,-2226.345506,-2332.650403,-2410.412122,-12687.721871,1403.153110,0.010719,-0.015047,1.008531,192.000000,0.000000,40.000000,127.500000,64.000000,15.500000,64.000000,0.000000,0.000000,0.000000,1773141541.679167,0.000000
80.000000,8580.342958,6305.471814,-2555.094964,-7582.404623,-5771.198067,3119.141235,-15155.019183,-3212.057437,-747.799962,-1706.466282,-742.882579,-2174.467108,-2286.717568,-2345.457953,-12641.431408,1432.545654,0.010719,-0.015047,1.008531,192.000000,0.000000,0.000000,0.000000,0.000000,0.000000,0.000000,0.000000,0.000000,0.000000,1773141541.679208,0.000000
82.000000,8570.485839,6292.284285,-2568.885990,-7593.401682,-5779.557619,3105.819596,-15167.446752,-3224.909690,-785.149727,-1768.201800,-813.737609,-2242.528169,-2335.980813,-2408.199299,-12708.888973,1396.112310,0.010719,-0.015047,1.008531,192.000000,0.000000,0.000000,0.000000,0.000000,0.000000,0.000000,0.000000,0.000000,0.000000,1773141541.679249,0.000000
84.000000,8623.034790,6344.408553,-2506.614030,-7552.050954,-5724.393514,3150.411326,-15112.439109,-3170.214971,-737.272291,-1703.202927,-735.305337,-2170.913180,-2270.177277,-2359.360738,-12651.579100,1422.442665,0.010719,-0.015047,1.008531,192.000000,0.000000,0.000000,0.000000,0.000000,0.000000,0.000000,0.000000,0.000000,0.000000,1773141541.679289,0.000000
86.000000,8559.175856,6286.271666,-2570.562371,-7606.231583,-5797.528422,3087.781738,-15186.870418,-3238.097219,-759.758146,-1736.864655,-771.515163,-2206.921841,-2323.083856,-2387.479232,-12677.283606,1407.332886,0.010719,-0.015047,1.008531,192.000000,0.000000,0.000000,0.000000,0.000000,0.000000,0.000000,0.000000,0.000000,0.000000,1773141541.679330,0.000000
88.000000,8622.833624,6343.268614,-2513.207795,-7550.084001,-5731.367258,3158.659119,-15116.417720,-3171.176096,-771.068128,-1744.084268,-782.713387,-2213.135625,-2325.788418,-2386.071072,-12692.393385,1404.181290,0.010719,-0.015047,1.008531,192.000000,0.000000,0.000000,0.000000,0.000000,0.000000,0.000000,0.000000,0.000000,0.000000,1773141541.679354,0.000000
90.000000,8600.481880,6320.603945,-2541.192179,-7580.035338,-5763.263197,3115.609660,-15153.588671,-3201.239193,-737.674622,-1698.084378,-728.890387,-2161.659558,-2268.120917,-2345.346194,-12643.867748,1433.685593,0.008000,-0.012000,1.004000,192.000000,0.000000,32.000000,127.500000,80.000000,15.500000,48.000000,0.000000,0.000000,0.000000,1773141541.679376,0.000000
92.000000,8582.645188,6303.437806,-2554.893798,-7598.207307,-5788.654779,3091.290962,-15169.056078,-3220.573452,-786.915515,-1765.363129,-800.751245,-2237.655489,-2363.294645,-2404.846538,-12711.772348,1389.831470,0.008000,-0.012000,1.004000,192.000000,0.000000,0.000000,0.000000,0.000000,0.000000,0.000000,0.000000,0.000000,0.000000,1773141541.679389,0.000000
94.000000,8630.477921,6351.941091,-2511.062027,-7551.022774,-5739.749162,3144.666927,-15114.070787,-3167.666872,-739.082782,-1705.058122,-733.964233,-2170.510849,-2281.442557,-2333.343307,-12650.930899,1424.499026,0.008000,-0.012000,1.004000,192.000000,0.000000,0.000000,0.000000,0.000000,0.000000,0.000000,0.000000,0.000000,0.000000,1773141541.679401,0.000000
96.000000,8563.668557,6288.775061,-2580.240676,-7606.253935,-5815.521576,3087.468813,-15190.334939,-3238.790123,-767.089518,-1735.434143,-771.604570,-2203.502024,-2323.799112,-2380.416081,-12684.436164,1413.434912,0.008000,-0.012000,1.004000,192.000000,0.000000,0.000000,0.000000,0.000000,0.000000,0.000000,0.000000,0.000000,0.000000,1773141541.679412,0.000000
98.000000,8635.819988,6352.097553,-2519.108655,-7552.341527,-5740.553825,3163.732965,-15118.474080,-3167.935093,-773.146841,-1744.106620,-786.356722,-2214.342620,-2332.270423,-2395.972895,-12701.714063,1409.344543,0.008000,-0.012000,1.004000,192.000000,0.000000,0.000000,0.000000,0.000000,0.000000,0.000000,0.000000,0.000000,0.000000,1773141541.679424,0.000000
100.000000,8606.338037,6323.174396,-2550.132877,-7581.219981,-5778.104756,3117.196633,-15155.488569,-3203.004980,-732.019631,-1694.083416,-729.717401,-2159.267921,-2276.234600,-2347.827238,-12646.415847,1432.478599,0.008000,-0.016000,1.006000,192.000000,0.000000,32.000000,127.500000,64.000000,15.500000,56.000000,0.000000,0.000000,0.000000,1773141541.679436,0.000000
102.000000,8590.557705,6309.919811,-2553.686804,-7592.731129,-5781.524573,3096.588325,-15167.334994,-3215.454902,-783.361588,-1762.435050,-802.762902,-2234.660355,-2355.717403,-2420.783331,-12716.443862,1392.044293,0.008000,-0.016000,1.006000,192.000000,0.000000,0.000000,0.000000,0.000000,0.000000,0.000000,0.000000,0.000000,0.000000,1773141541.679448,0.000000
104.000000,8632.646040,6355.629129,-2501.987219,-7551.626271,-5733.781246,3143.728154,-15113.288476,-3164.828201,-741.653233,-1699.872518,-728.935090,-2164.498230,-2288.282190,-2345.301490,-12651.735562,1419.760456,0.008000,-0.016000,1.006000,192.000000,0.000000,0.000000,0.000000,0.000000,0.000000,0.000000,0.000000,0.000000,0.000000,1773141541.679460,0.000000
106.000000,8570.910522,6296.709931,-2585.381578,-7604.197574,-5794.734454,3088.206421,-15189.664386,-3237.896054,-768.207105,-1728.259233,-773.839745,-2199.054026,-2323.061505,-2382.181869,-12684.190295,1411.780883,0.008000,-0.016000,1.006000,192.000000,0.000000,0.000000,0.000000,0.000000,0.000000,0.000000,0.000000,0.000000,0.000000,1773141541.679473,0.000000
108.000000,8636.311726,6355.673832,-2512.470187,-7552.855617,-5741.403191,3158.145029,-15115.613057,-3168.449184,-774.376187,-1739.524512,-786.535536,-2212.956812,-2324.067333,-2390.586125,-12701.378787,1403.935421,0.008000,-0.016000,1.006000,192.000000,0.000000,0.000000,0.000000,0.000000,0.000000,0.000000,0.000000,0.000000,0.000000,1773141541.679485,0.000000
110.000000,8604.326380,6325.588384,-2538.465266,-7583.566914,-5769.722851,3124.326840,-15151.956994,-3202.535594,-727.750448,-1689.009570,-724.732962,-2159.089107,-2283.074234,-2327.688316,-12652.272004,1429.863445,0.012000,-0.020000,1.004000,192.000000,0.000000,48.000000,127.500000,48.000000,15.500000,48.000000,0.000000,0.000000,0.000000,1773141541.679497,0.000000
112.000000,8599.207830,6319.665172,-2560.682900,-7588.864277,-5785.681997,3107.875956,-15164.652784,-3212.415065,-779.271219,-1758.925826,-799.812472,-2232.939271,-2364.144011,-2406.075884,-12718.120243,1391.083168,0.012000,-0.020000,1.004000,192.000000,0.000000,0.000000,0.000000,0.000000,0.000000,0.000000,0.000000,0.000000,0.000000,1773141541.679509,0.000000
114.000000,8643.799561,6361.418231,-2506.412864,-7551.223940,-5735.725848,3149.092573,-15110.136880,-3164.112945,-738.345175,-1695.424520,-728.555111,-2162.397166,-2285.398815,-2309.717513,-12652.450818,1423.560253,0.012000,-0.020000,1.004000,192.000000,0.000000,0.000000,0.000000,0.000000,0.000000,0.000000,0.000000,0.000000,0.000000,1773141541.679529,0.000000
116.000000,8582.220505,6306.589402,-2578.251371,-7604.510499,-5800.948238,3084.965418,-15186.915122,-3232.486931,-762.194486,-1727.611032,-769.436451,-2198.182308,-2320.021667,-2394.788253,-12681.083403,1409.344543,0.012000,-0.020000,1.004000,192.000000,0.000000,0.000000,0.000000,0.000000,0.000000,0.000000,0.000000,0.000000,0.000000,1773141541.679540,0.000000
118.000000,8641.631441,6361.887617,-2520.896795,-7551.738030,-5723.700610,3152.311224,-15117.200031,-3168.069204,-769.101175,-1740.105658,-779.986475,-2209.581698,-2333.276252,-2402.968991,-12698.584819,1401.208508,0.012000,-0.020000,1.004000,192.000000,0.000000,0.000000,0.000000,0.000000,0.000000,0.000000,0.000000,0.000000,0.000000,1773141541.679552,0.000000
120.000000,8616.485729,6335.780780,-2544.097906,-7577.442536,-5765.319558,3122.605756,-15152.381677,-3200.300419,-730.499712,-1691.289448,-728.778628,-2156.473953,-2280.034397,-2338.238339,-12644.337135,1434.199683,0.010000,-0.016000,1.002000,192.000000,0.000000,40.000000,127.500000,64.000000,15.500000,40.000000,0.000000,0.000000,0.000000,1773141541.679565,0.000000
122.000000,8600.571287,6317.161777,-2557.821877,-7592.775833,-5783.469174,3107.250107,-15167.893787,-3219.545271,-775.069091,-1757.919998,-798.828995,-2232.469884,-2346.419078,-2397.783386,-12711.213554,1394.391226,0.010000,-0.016000,1.002000,192.000000,0.000000,0.000000,0.000000,0.000000,0.000000,0.000000,0.000000,0.000000,0.000000,1773141541.679578,0.000000
124.000000,8646.079438,6362.804039,-2505.541146,-7550.531036,-5729.333249,3157.340367,-15113.199069,-3169.499716,-737.518160,-1699.514890,-737.093477,-2169.415613,-2277.799222,-2335.667889,-12647.891062,1431.070439,0.010000,-0.016000,1.002000,192.000000,0.000000,0.000000,0.000000,0.000000,0.000000,0.000000,0.000000,0.000000,0.000000,1773141541.679590,0.000000
126.000000,8589.082490,6309.025742,-2573.333987,-7606.812728,-5786.151384,3091.760348,-15187.943302,-3237.024336,-748.872846,-1727.767495,-770.352873,-2201.043332,-2322.368601,-2375.006959,-12676.300129,1414.530148,0.010000,-0.016000,1.002000,192.000000,0.000000,0.000000,0.000000,0.000000,0.000000,0.000000,0.000000,0.000000,0.000000,1773141541.679602,0.000000
128.000000,8648.627537,6363.161667,-2512.134911,-7552.855617,-5715.296354,3155.082840,-15116.373016,-3172.338387,-765.994282,-1740.217416,-779.606495,-2215.259041,-2331.465761,-2386.227535,-12694.114470,1403.488386,0.010000,-0.016000,1.002000,192.000000,0.000000,0.000000,0.000000,0.000000,0.000000,0.000000,0.000000,0.000000,0.000000,1773141541.679614,0.000000
130.000000,8623.101845,6340.429943,-2545.014327,-7580.460022,-5775.355491,3126.696125,-15150.481778,-3202.110911,-723.078933,-1692.004704,-724.218872,-2160.519619,-2271.719548,-2341.099363,-12647.824007,1432.299785,0.012000,-0.016000,1.004000,192.000000,0.000000,48.000000,127.500000,64.000000,15.500000,48.000000,0.000000,0.000000,0.000000,1773141541.679626,0.000000
132.000000,8599.632513,6317.988791,-2554.357356,-7596.977961,-5785.480831,3112.994506,-15167.245587,-3222.987440,-772.968027,-1758.881123,-799.723065,-2236.761419,-2355.940921,-2406.232346,-12717.270877,1394.927668,0.012000,-0.016000,1.004000,192.000000,0.000000,0.000000,0.000000,0.000000,0.000000,0.000000,0.000000,0.000000,0.000000,1773141541.679638,0.000000
134.000000,8645.990031,6362.021728,-2509.966792,-7554.219074,-5721.599546,3158.323843,-15111.388577,-3171.243152,-742.368489,-1705.862785,-735.841779,-2173.751852,-2291.411435,-2332.337479,-12653.657812,1424.297860,0.012000,-0.016000,1.004000,192.000000,0.000000,0.000000,0.000000,0.000000,0.000000,0.000000,0.000000,0.000000,0.000000,1773141541.679650,0.000000
136.000000,8580.901752,6302.722550,-2586.432110,-7606.455100,-5794.957971,3087.982903,-15188.904427,-3241.829961,-754.214913,-1730.382649,-774.465594,-2204.619611,-2306.789435,-2381.041930,-12684.503220,1412.362029,0.012000,-0.016000,1.004000,192.000000,0.000000,0.000000,0.000000,0.000000,0.000000,0.000000,0.000000,0.000000,0.000000,1773141541.679663,0.000000
138.000000,8640.111523,6358.177228,-2506.770492,-7563.360937,-5721.308973,3145.248073,-15117.937639,-3176.562867,-770.442280,-1748.688727,-784.657989,-2221.875158,-2325.631955,-2389.401482,-12695.477926,1400.359142,0.012000,-0.016000,1.004000,192.000000,0.000000,0.000000,0.000000,0.000000,0.000000,0.000000,0.000000,0.000000,0.000000,1773141541.679675,0.000000
140.000000,8613.378836,6332.182149,-2541.147475,-7581.756423,-5760.402174,3116.302564,-15151.107627,-3206.648315,-731.594948,-1697.860861,-729.918567,-2167.247494,-2275.698158,-2347.559017,-12640.291469,1423.716715,0.014000,-0.014000,1.010000,192.000000,0.000000,56.000000,127.500000,72.000000,15.500000,72.000000,0.000000,0.000000,0.000000,1773141541.679687,0.000000
142.000000,8600.660694,6321.252146,-2564.840325,-7589.892458,-5781.837497,3111.631049,-15167.200883,-3222.920385,-783.428643,-1760.825725,-806.272126,-2237.141399,-2350.576502,-2416.022410,-12712.375845,1395.598220,0.014000,-0.014000,1.010000,192.000000,0.000000,0.000000,0.000000,0.000000,0.000000,0.000000,0.000000,0.000000,0.000000,1773141541.679698,0.000000
144.000000,8650.639194,6366.894408,-2513.207795,-7548.698193,-5720.280793,3153.227646,-15112.170888,-3169.969102,-736.624090,-1697.659695,-739.261596,-2168.700358,-2263.739975,-2339.534740,-12647.287565,1428.164712,0.014000,-0.014000,1.010000,192.000000,0.000000,0.000000,0.000000,0.000000,0.000000,0.000000,0.000000,0.000000,0.000000,1773141541.679710,0.000000
146.000000,8584.388624,6305.851794,-2577.402005,-7606.410397,-5807.653762,3099.918735,-15190.267884,-3239.103048,-763.669701,-1728.996841,-771.962198,-2201.535070,-2329.901139,-2372.123584,-12679.697595,1413.390209,0.014000,-0.014000,1.010000,192.000000,0.000000,0.000000,0.000000,0.000000,0.000000,0.000000,0.000000,0.000000,0.000000,1773141541.679722,0.000000
148.000000,8655.444819,6371.744737,-2511.576117,-7553.436763,-5719.833758,3154.456991,-15116.149499,-3166.705747,-769.168230,-1738.965719,-782.355759,-2213.292088,-2330.504636,-2387.389825,-12699.300074,1398.772168,0.014000,-0.014000,1.010000,192.000000,0.000000,0.000000,0.000000,0.000000,0.000000,0.000000,0.000000,0.000000,0.000000,1773141541.679734,0.000000
150.000000,8622.900679,6342.776876,-2546.914225,-7577.822516,-5749.650985,3126.986698,-15152.336973,-3199.071073,-724.509445,-1682.304046,-725.403515,-2155.088145,-2258.956702,-2318.211176,-12643.823045,1431.048087,0.006000,-0.018000,1.010000,192.000000,0.000000,24.000000,127.500000,56.000000,15.500000,72.000000,0.000000,0.000000,0.000000,1773141541.679746,0.000000
152.000000,8604.862822,6322.816768,-2554.491467,-7590.294789,-5773.165020,3105.350209,-15167.290290,-3213.130321,-780.008826,-1750.074536,-800.415969,-2229.720620,-2351.627034,-2390.317904,-12717.494394,1395.307648,0.006000,-0.018000,1.010000,192.000000,0.000000,0.000000,0.000000,0.000000,0.000000,0.000000,0.000000,0.000000,0.000000,1773141541.679758,0.000000
154.000000,8648.784000,6369.688376,-2509.251536,-7550.642794,-5708.367313,3157.809753,-15113.579048,-3163.330634,-735.394744,-1690.127157,-731.282023,-2161.927779,-2279.900286,-2344.318014,-12648.248690,1420.721581,0.006000,-0.018000,1.010000,192.000000,0.000000,0.000000,0.000000,0.000000,0.000000,0.000000,0.000000,0.000000,0.000000,1773141541.679771,0.000000
156.000000,8572.855124,6288.037454,-2577.469060,-7609.137310,-5801.015294,3097.817671,-15191.631340,-3240.779429,-754.505486,-1722.604242,-764.899047,-2200.395131,-2311.930336,-2367.273255,-12683.028005,1413.949002,0.006000,-0.018000,1.010000,192.000000,0.000000,0.000000,0.000000,0.000000,0.000000,0.000000,0.000000,0.000000,0.000000,1773141541.679791,0.000000
158.000000,8615.837528,6335.736076,-2520.785036,-7557.705946,-5736.552863,3151.685375,-15118.831708,-3178.730986,-776.231381,-1758.791716,-793.419873,-2229.519454,-2329.655269,-2399.482119,-12700.976455,1403.354276,0.006000,-0.018000,1.010000,192.000000,0.000000,0.000000,0.000000,0.000000,0.000000,0.000000,0.000000,0.000000,0.000000,1773141541.679803,0.000000
160.000000,8578.510115,6305.382407,-2548.791772,-7582.248161,-5754.009575,3114.760293,-15153.432209,-3210.224594,-751.778573,-1706.041599,-738.434582,-2171.360215,-2284.951780,-2346.486133,-12643.755990,1427.404753,0.008000,-0.016000,1.008000,192.000000,0.000000,40.000000,127.500000,72.000000,15.500000,56.000000,0.000000,0.000000,0.000000,1773141541.679815,0.000000
162.000000,8554.236120,6280.013177,-2563.700386,-7593.513440,-5784.072671,3104.567898,-15169.592520,-3229.335335,-804.104007,-1769.297036,-816.822149,-2244.048088,-2361.215933,-2414.346029,-12714.834537,1390.591430,0.008000,-0.016000,1.008000,192.000000,0.000000,0.000000,0.000000,0.000000,0.000000,0.000000,0.000000,0.000000,0.000000,1773141541.679826,0.000000
164.000000,8603.767586,6325.141349,-2509.832681,-7551.760382,-5722.940650,3165.722271,-15114.070787,-3176.920495,-757.053585,-1715.027000,-748.962253,-2181.731425,-2288.997446,-2345.614415,-12650.059181,1423.023811,0.008000,-0.016000,1.008000,192.000000,0.000000,0.000000,0.000000,0.000000,0.000000,0.000000,0.000000,0.000000,0.000000,1773141541.679838,0.000000
166.000000,8530.722085,6267.943235,-2581.380615,-7602.118862,-5803.116358,3093.168508,-15188.591503,-3241.382926,-774.957332,-1729.756800,-778.265390,-2207.145358,-2310.052789,-2349.704784,-12683.676205,1413.747837,0.008000,-0.016000,1.008000,192.000000,0.000000,0.000000,0.000000,0.000000,0.000000,0.000000,0.000000,0.000000,0.000000,1773141541.679850,0.000000
168.000000,8593.038749,6315.954782,-2518.885138,-7555.604882,-5728.729752,3154.501695,-15118.854060,-3178.351006,-787.362550,-1749.471039,-792.726969,-2222.992745,-2332.002203,-2369.575485,-12705.357397,1402.639020,0.008000,-0.016000,1.008000,192.000000,0.000000,0.000000,0.000000,0.000000,0.000000,0.000000,0.000000,0.000000,0.000000,1773141541.679862,0.000000
170.000000,8550.525731,6284.036491,-2552.055127,-7579.767117,-5766.347738,3130.607680,-15154.527444,-3214.963164,-750.996262,-1701.995933,-741.317957,-2173.975369,-2280.883763,-2334.460894,-12645.477074,1429.237596,0.007000,-0.015000,1.006000,192.000000,0.000000,24.000000,127.500000,72.000000,15.500000,48.000000,0.000000,0.000000,0.000000,1773141541.679874,0.000000
172.000000,8528.710428,6261.930616,-2568.930694,-7594.653379,-5772.583875,3122.672811,-15173.168799,-3233.760981,-810.049571,-1770.660492,-821.694830,-2253.055841,-2358.913703,-2405.450035,-12715.773310,1395.508813,0.007000,-0.015000,1.006000,192.000000,0.000000,0.000000,0.000000,0.000000,0.000000,0.000000,0.000000,0.000000,0.000000,1773141541.679886,0.000000
174.000000,8582.958112,6316.223003,-2516.962888,-7545.390135,-5696.118557,3168.896218,-15114.786043,-3175.311169,-763.826163,-1706.622744,-751.264483,-2180.569134,-2279.587362,-2333.410362,-12651.802618,1427.360049,0.007000,-0.015000,1.006000,192.000000,0.000000,0.000000,0.000000,0.000000,0.000000,0.000000,0.000000,0.000000,0.000000,1773141541.679898,0.000000
176.000000,8518.898013,6256.007404,-2590.120147,-7600.531888,-5778.127107,3105.327857,-15193.084203,-3248.177856,-778.354797,-1727.633384,-782.713387,-2207.659448,-2298.407531,-2370.469555,-12676.568350,1413.189043,0.007000,-0.015000,1.006000,192.000000,0.000000,0.000000,0.000000,0.000000,0.000000,0.000000,0.000000,0.000000,0.000000,1773141541.679910,0.000000
178.000000,8564.383812,6294.519460,-2522.327307,-7555.180199,-5722.538319,3166.437527,-15122.966781,-3189.705692,-794.425701,-1750.298053,-804.126359,-2230.569986,-2320.602813,-2376.839802,-12696.282589,1404.136587,0.007000,-0.015000,1.006000,192.000000,0.000000,0.000000,0.000000,0.000000,0.000000,0.000000,0.000000,0.000000,0.000000,1773141541.679922,0.000000
180.000000,8527.346972,6260.544808,-2554.580874,-7582.426975,-5776.629541,3133.401648,-15155.220348,-3223.121550,-770.241114,-1712.389494,-754.349024,-2181.574962,-2289.936219,-2334.036211,-12654.462475,1434.534959,0.009500,-0.016500,1.009000,192.000000,0.000000,48.000000,127.500000,56.000000,15.500000,80.000000,0.000000,0.000000,0.000000,1773141542.159600,0.000000
182.000000,8500.569582,6238.550691,-2577.089080,-7600.800109,-5786.777233,3104.523194,-15175.605139,-3248.401373,-831.864873,-1786.753748,-834.927062,-2262.085946,-2374.805793,-2425.700715,-12719.684865,1390.636133,0.009500,-0.016500,1.009000,192.000000,0.000000,0.000000,0.000000,0.000000,0.000000,0.000000,0.000000,0.000000,0.000000,1773141542.159705,0.000000
184.000000,8560.449905,6289.669131,-2522.193196,-7556.744821,-5722.717133,3152.758259,-15119.502261,-3193.080806,-788.167213,-1725.755838,-769.145878,-2196.952963,-2293.423092,-2350.285929,-12653.613109,1420.766285,0.009500,-0.016500,1.009000,192.000000,0.000000,0.000000,0.000000,0.000000,0.000000,0.000000,0.000000,0.000000,0.000000,1773141542.159747,0.000000
186.000000,8500.971913,6236.963718,-2593.003523,-7605.292810,-5797.953105,3102.936221,-15195.788764,-3257.252664,-795.453882,-1752.130896,-797.264373,-2224.803236,-2321.519234,-2371.430680,-12677.462420,1410.909165,0.009500,-0.016500,1.009000,192.000000,0.000000,0.000000,0.000000,0.000000,0.000000,0.000000,0.000000,0.000000,0.000000,1773141542.159809,0.000000
188.000000,8567.580112,6299.950933,-2529.636327,-7551.156885,-5716.011610,3166.683396,-15122.720912,-3186.643504,-801.622963,-1753.606111,-810.384847,-2230.815855,-2322.681525,-2371.989473,-12702.250505,1405.500043,0.009500,-0.016500,1.009000,192.000000,0.000000,0.000000,0.000000,0.000000,0.000000,0.000000,0.000000,0.000000,0.000000,1773141542.159850,0.000000
190.000000,8535.103027,6267.786773,-2545.349603,-7579.409490,-5756.669433,3142.364698,-15154.840369,-3220.059361,-764.586123,-1698.531413,-748.962253,-2172.477802,-2287.276362,-2303.637839,-12646.147626,1432.188026,0.008750,-0.014250,1.009500,192.000000,0.000000,32.000000,127.500000,80.000000,15.500000,72.000000,0.000000,0.000000,0.000000,1773141542.159892,0.000000
192.000000,8516.416969,6251.917035,-2569.623598,-7594.563972,-5777.277741,3116.034343,-15176.365099,-3243.886321,-818.096199,-1776.494298,-828.869740,-2257.392080,-2365.283950,-2408.311058,-12715.303924,1396.022903,0.008750,-0.014250,1.009500,192.000000,0.000000,0.000000,0.000000,0.000000,0.000000,0.000000,0.000000,0.000000,0.000000,1773141542.159933,0.000000
194.000000,8557.052440,6291.367864,-2521.790865,-7556.566007,-5712.882365,3170.796117,-15122.676208,-3196.567678,-777.505431,-1716.122236,-765.882524,-2192.639076,-2292.797243,-2343.513351,-12649.992126,1428.969375,0.008750,-0.014250,1.009500,192.000000,0.000000,0.000000,0.000000,0.000000,0.000000,0.000000,0.000000,0.000000,0.000000,1773141542.159974,0.000000
196.000000,8500.614286,6238.841264,-2608.672095,-7606.544507,-5773.880276,3115.877881,-15201.667273,-3266.595693,-801.757074,-1745.894759,-805.735684,-2226.993707,-2307.080007,-2353.750450,-12670.622786,1422.353258,0.008750,-0.014250,1.009500,192.000000,0.000000,0.000000,0.000000,0.000000,0.000000,0.000000,0.000000,0.000000,0.000000,1773141542.160017,0.000000
198.000000,8565.613158,6295.704102,-2527.468208,-7555.783696,-5714.916374,3171.354910,-15127.861813,-3197.707617,-799.097216,-1755.729527,-816.956260,-2235.777943,-2324.022630,-2387.590991,-12697.891915,1411.266793,0.008750,-0.014250,1.009500,192.000000,0.000000,0.000000,0.000000,0.000000,0.000000,0.000000,0.000000,0.000000,0.000000,1773141542.160058,0.000000
200.000000,8537.539367,6274.916980,-2553.172714,-7580.258856,-5748.466343,3141.247111,-15159.333069,-3227.569548,-773.973855,-1701.124215,-757.500620,-2179.987988,-2288.215135,-2331.510464,-12642.101960,1438.871198,0.010375,-0.015125,1.007750,192.000000,0.000000,48.000000,127.500000,64.000000,15.500000,56.000000,0.000000,0.000000,0.000000,1773141542.160095,0.000000
202.000000,8525.715295,6254.576892,-2565.130897,-7594.474565,-5770.661625,3124.572709,-15174.398145,-3239.281862,-811.457731,-1773.543867,-830.970804,-2256.945045,-2355.404479,-2408.735741,-12715.639200,1402.907241,0.010375,-0.015125,1.007750,192.000000,0.000000,0.000000,0.000000,0.000000,0.000000,0.000000,0.000000,0.000000,0.000000,1773141542.160108,0.000000
204.000000,8581.661711,6310.925640,-2509.810330,-7550.888664,-5707.316781,3167.622169,-15117.334141,-3185.101233,-762.328596,-1707.360352,-751.040965,-2185.330055,-2281.978998,-2334.997336,-12652.204949,1427.829436,0.010375,-0.015125,1.007750,192.000000,0.000000,0.000000,0.000000,0.000000,0.000000,0.000000,0.000000,0.000000,0.000000,1773141542.160121,0.000000
206.000000,8518.428626,6248.787790,-2582.922886,-7605.941010,-5788.230096,3101.885689,-15194.000625,-3253.654033,-783.071015,-1741.267948,-787.943696,-2219.215300,-2309.426941,-2365.216895,-12680.144629,1412.183215,0.010375,-0.015125,1.007750,192.000000,0.000000,0.000000,0.000000,0.000000,0.000000,0.000000,0.000000,0.000000,0.000000,1773141542.160134,0.000000
208.000000,8577.101955,6307.952858,-2519.645097,-7560.589321,-5708.590830,3158.301492,-15123.167947,-3189.884506,-795.185661,-1752.443821,-804.126359,-2233.073382,-2328.716496,-2379.209087,-12694.717967,1397.878098,0.010375,-0.015125,1.007750,192.000000,0.000000,0.000000,0.000000,0.000000,0.000000,0.000000,0.000000,0.000000,0.000000,1773141542.160147,0.000000
210.000000,8549.676365,6279.834363,-2552.077478,-7582.315216,-5751.193255,3139.458971,-15157.388467,-3224.529710,-763.557942,-1705.616916,-751.935035,-2181.083224,-2275.429937,-2329.208234,-12638.749199,1430.601052,0.009188,-0.016563,1.005875,192.000000,0.000000,32.000000,127.500000,56.000000,15.500000,48.000000,0.000000,0.000000,0.000000,1773141542.160159,0.000000
212.000000,8539.148693,6266.512724,-2572.059938,-7594.362807,-5773.790869,3116.459026,-15177.885017,-3240.757077,-805.892146,-1778.550658,-825.360516,-2257.414431,-2350.308281,-2418.972840,-12714.119281,1390.546726,0.009188,-0.016563,1.005875,192.000000,0.000000,0.000000,0.000000,0.000000,0.000000,0.000000,0.000000,0.000000,0.000000,1773141542.160171,0.000000
214.000000,8589.596580,6321.319201,-2525.501254,-7552.699155,-5706.601525,3170.818468,-15121.178641,-3185.771785,-767.290684,-1708.813215,-763.088556,-2183.988951,-2274.401757,-2331.935147,-12652.763743,1426.533035,0.009188,-0.016563,1.005875,192.000000,0.000000,0.000000,0.000000,0.000000,0.000000,0.000000,0.000000,0.000000,0.000000,1773141542.160183,0.000000
216.000000,8525.737646,6258.309634,-2586.767386,-7607.460929,-5795.382654,3118.828311,-15199.007416,-3257.900865,-781.864021,-1735.970585,-791.564678,-2215.862538,-2309.024609,-2348.810714,-12675.227246,1419.112255,0.009188,-0.016563,1.005875,192.000000,0.000000,0.000000,0.000000,0.000000,0.000000,0.000000,0.000000,0.000000,0.000000,1773141542.160195,0.000000
218.000000,8594.849240,6319.016971,-2518.907490,-7556.789524,-5702.645266,3167.599817,-15125.961915,-3189.772748,-798.069036,-1755.014271,-806.741513,-2235.107390,-2333.566825,-2374.381110,-12697.243714,1412.630250,0.009188,-0.016563,1.005875,192.000000,0.000000,0.000000,0.000000,0.000000,0.000000,0.000000,0.000000,0.000000,0.000000,1773141542.160209,0.000000
220.000000,8574.039766,6300.599134,-2539.873426,-7576.526115,-5740.620880,3141.224759,-15155.153293,-3212.415065,-746.727079,-1697.771454,-739.440410,-2171.695491,-2278.581533,-2330.258766,-12634.211795,1438.871198,0.006594,-0.014281,1.002938,192.000000,0.000000,16.000000,127.500000,80.000000,15.500000,32.000000,0.000000,0.000000,0.000000,1773141542.160233,0.000000
222.000000,8556.538350,6284.595285,-2569.623598,-7586.964379,-5751.059145,3131.837026,-15175.381622,-3229.894129,-797.286725,-1762.457402,-817.604460,-2242.416411,-2348.475438,-2401.896107,-12706.407929,1399.800348,0.006594,-0.014281,1.002938,192.000000,0.000000,0.000000,0.000000,0.000000,0.000000,0.000000,0.000000,0.000000,0.000000,1773141542.160245,0.000000
224.000000,8615.032865,6342.016917,-2511.151434,-7546.910053,-5708.009685,3174.372396,-15116.998865,-3172.427794,-754.684300,-1698.889041,-747.285872,-2172.030767,-2271.250161,-2322.390952,-12656.921167,1430.869273,0.006594,-0.014281,1.002938,192.000000,0.000000,0.000000,0.000000,0.000000,0.000000,0.000000,0.000000,0.000000,0.000000,1773141542.160258,0.000000
226.000000,8549.989289,6281.063709,-2576.530287,-7606.522156,-5785.927866,3106.333686,-15194.358253,-3245.965033,-765.211971,-1723.610070,-777.214858,-2202.384436,-2307.594098,-2361.081822,-12681.575141,1413.725485,0.006594,-0.014281,1.002938,192.000000,0.000000,0.000000,0.000000,0.000000,0.000000,0.000000,0.000000,0.000000,0.000000,1773141542.160270,0.000000
228.000000,8620.866671,6340.966385,-2516.247632,-7551.089829,-5705.349827,3174.864134,-15120.575144,-3175.802907,-779.450033,-1742.005556,-793.151652,-2223.551538,-2320.781627,-2383.344160,-12696.394348,1397.252249,0.006594,-0.014281,1.002938,192.000000,0.000000,0.000000,0.000000,0.000000,0.000000,0.000000,0.000000,0.000000,0.000000,1773141542.160282,0.000000
230.000000,8595.363330,6320.112207,-2541.303938,-7570.334681,-5745.426505,3139.704840,-15153.163988,-3203.742588,-727.281061,-1685.187421,-728.152779,-2158.507962,-2261.258931,-2315.908947,-12646.505254,1429.259947,0.006594,-0.014281,1.002938,192.000000,0.000000,0.000000,0.000000,0.000000,0.000000,0.000000,0.000000,0.000000,0.000000,1773141542.160294,0.000000
232.000000,8575.716147,6302.744902,-2568.349548,-7587.165545,-5757.630558,3124.662116,-15177.974424,-3227.949527,-782.065187,-1752.376765,-811.122455,-2236.336736,-2328.045944,-2390.452014,-12710.364188,1400.917935,0.006000,-0.014000,1.002000,192.000000,0.000000,24.000000,127.500000,72.000000,15.500000,40.000000,0.000000,0.000000,0.000000,1773141542.160305,0.000000
234.000000,8625.962868,6352.142257,-2514.191272,-7544.406658,-5715.385761,3180.206201,-15120.664551,-3176.451108,-746.011823,-1693.256401,-745.743602,-2171.673140,-2275.407586,-2330.303470,-12651.646155,1426.711849,0.006000,-0.014000,1.002000,192.000000,0.000000,0.000000,0.000000,0.000000,0.000000,0.000000,0.000000,0.000000,0.000000,1773141542.160317,0.000000
