Sample_index,EXG Channel 0,EXG Channel 1,EXG Channel 2,EXG Channel 3,EXG Channel 4,EXG Channel 5,EXG Channel 6,EXG Channel 7,EXG Channel 8,EXG Channel 9,EXG Channel 10,EXG Channel 11,EXG Channel 12,EXG Channel 13,EXG Channel 14,EXG Channel 15,Accel Channel 0,Accel Channel 1,Accel Channel 2,Not Used,Digital Channel 0 (D11),Digital Channel 1 (D12),Digital Channel 2 (D13),Digital Channel 3 (D17),Not Used,Digital Channel 4 (D18),Analog Channel 0,Analog Channel 1,Analog Channel 2,Timestamp,Marker Channel
210.000000,18252.099246,17371.999308,-13697.305464,-23987.981556,-20072.291204,-24080.048392,197.298848,-25704.059089,20539.934402,29762.152405,-24489.889978,-16628.960267,195.778930,18242.555051,-16207.562829,-3126.092628,0.006000,-0.008000,1.010000,192.000000,0.000000,0.000000,0.000000,0.000000,0.000000,0.000000,0.000000,0.000000,0.000000,1771495444.197826,101.000000
212.000000,18221.320894,17342.092674,-13725.826290,-24018.379929,-20099.292111,-24112.704290,170.007368,-25732.848136,20579.586396,29804.553664,-24446.996981,-16587.140153,244.304567,18284.464572,-16164.111038,-3092.229735,0.006000,-0.008000,1.010000,192.000000,0.000000,0.000000,0.000000,0.000000,0.000000,0.000000,0.000000,0.000000,0.000000,1771495444.197928,0.000000
214.000000,18206.166411,17327.318171,-13739.751427,-24032.416824,-20112.211420,-24126.651779,153.780002,-25748.203784,20521.918895,29744.673341,-24507.749022,-16649.278003,173.091909,18222.773757,-16224.170175,-3143.147009,0.006000,-0.008000,1.010000,192.000000,0.000000,0.000000,0.000000,0.000000,0.000000,0.000000,0.000000,0.000000,0.000000,1771495444.198017,0.000000
216.000000,18250.735790,17370.658203,-13695.874953,-23987.154542,-20064.557500,-24075.131008,197.365904,-25707.791830,20571.562120,29798.719859,-24455.133016,-16596.550238,231.787590,18283.525799,-16167.508503,-3099.404645,0.004000,-0.004000,1.002000,192.000000,0.000000,16.000000,127.500000,112.000000,15.500000,40.000000,0.000000,0.000000,0.000000,1771495444.198103,0.000000
218.000000,18195.683443,17317.036368,-13756.224663,-24044.442063,-20123.499051,-24128.506974,133.238749,-25764.453502,20547.466939,29773.596498,-24485.352574,-16624.333456,214.241471,18261.174054,-16196.990454,-3115.855529,0.004000,-0.004000,1.002000,192.000000,0.000000,0.000000,0.000000,0.000000,0.000000,0.000000,0.000000,0.000000,0.000000,1771495444.198192,0.000000
220.000000,18251.875729,17380.492971,-13698.668921,-23983.712373,-20063.194044,-24067.330249,192.694389,-25709.177638,20544.114178,29772.635373,-24493.354499,-16629.742578,195.197784,18263.431580,-16205.819393,-3122.695163,0.004000,-0.004000,1.002000,192.000000,0.000000,0.000000,0.000000,0.000000,0.000000,0.000000,0.000000,0.000000,0.000000,1771495444.198281,0.000000
222.000000,18222.170260,17350.698096,-13731.548337,-24014.937760,-20094.173562,-24103.473020,161.044319,-25741.542964,20581.642757,29815.394260,-24453.546042,-16587.877761,235.945014,18302.301264,-16165.988584,-3089.659284,0.004000,-0.004000,1.002000,192.000000,0.000000,0.000000,0.000000,0.000000,0.000000,0.000000,0.000000,0.000000,0.000000,1771495444.198351,0.000000
224.000000,18207.708682,17337.242345,-13742.970078,-24027.141813,-20106.623483,-24113.732471,148.706156,-25755.132825,20528.289143,29750.887126,-24514.186324,-16649.523872,181.362055,18240.252821,-16229.109911,-3138.363735,0.004000,-0.004000,1.002000,192.000000,0.000000,0.000000,0.000000,0.000000,0.000000,0.000000,0.000000,0.000000,0.000000,1771495444.198376,0.000000
226.000000,18248.835891,17379.777715,-13693.930351,-23982.684193,-20056.175596,-24063.664563,197.902345,-25713.826801,20577.083001,29809.381641,-24461.167987,-16597.421956,235.319166,18299.395537,-16169.564863,-3093.414377,0.002000,-0.008000,1.004000,192.000000,0.000000,8.000000,127.500000,96.000000,15.500000,48.000000,0.000000,0.000000,0.000000,1771495444.198400,0.000000
228.000000,18185.066364,17313.571848,-13757.252843,-24042.698627,-20119.811013,-24123.701349,134.155170,-25774.444732,20554.977126,29785.420571,-24489.666461,-16625.093415,208.206500,18273.512217,-16195.291721,-3106.914831,0.002000,-0.008000,1.004000,192.000000,0.000000,0.000000,0.000000,0.000000,0.000000,0.000000,0.000000,0.000000,0.000000,1771495444.198424,0.000000
230.000000,18240.185766,17367.394849,-13699.942970,-23990.172027,-20066.502102,-24070.146569,198.081159,-25719.794717,20539.040332,29765.236946,-24505.446792,-16642.930107,190.861546,18261.598737,-16213.754262,-3123.678639,0.002000,-0.008000,1.004000,192.000000,0.000000,0.000000,0.000000,0.000000,0.000000,0.000000,0.000000,0.000000,0.000000,1771495444.198448,0.000000
232.000000,18215.911772,17345.668953,-13726.407436,-24016.614141,-20092.698347,-24097.996843,173.874220,-25742.794662,20577.440629,29813.024975,-24454.440111,-16593.510400,237.576692,18298.166191,-16168.067297,-3089.033435,0.002000,-0.008000,1.004000,192.000000,0.000000,0.000000,0.000000,0.000000,0.000000,0.000000,0.000000,0.000000,0.000000,1771495444.198474,0.000000
234.000000,18200.600827,17328.592220,-13740.958421,-24029.645208,-20104.589475,-24114.984168,156.506915,-25757.233889,20522.254172,29752.585858,-24514.007510,-16653.524834,177.808127,18231.334475,-16230.808643,-3139.995413,0.002000,-0.008000,1.004000,192.000000,0.000000,0.000000,0.000000,0.000000,0.000000,0.000000,0.000000,0.000000,0.000000,1771495444.198497,0.000000
236.000000,18241.884499,17373.027488,-13692.231618,-23985.835789,-20057.002611,-24072.001764,203.467930,-25714.743223,20572.478541,29807.124115,-24460.385675,-16601.825249,235.587387,18290.611302,-16171.911797,-3101.505709,0.004000,-0.010000,1.004000,192.000000,0.000000,16.000000,127.500000,88.000000,15.500000,48.000000,0.000000,0.000000,0.000000,1771495444.198521,0.000000
238.000000,18182.540617,17311.940171,-13753.140122,-24045.291429,-20117.799356,-24131.949142,142.067688,-25771.539005,20545.768207,29779.184434,-24487.833618,-16627.820328,203.445578,18264.437409,-16199.315035,-3117.598965,0.004000,-0.010000,1.004000,192.000000,0.000000,0.000000,0.000000,0.000000,0.000000,0.000000,0.000000,0.000000,0.000000,1771495444.198544,0.000000
240.000000,18237.369446,17362.410410,-13695.562028,-23992.518961,-20061.830588,-24076.650927,198.818767,-25717.134859,20534.391169,29763.359399,-24499.612987,-16640.292602,191.576802,18246.667772,-16211.809660,-3130.451218,0.004000,-0.010000,1.004000,192.000000,0.000000,0.000000,0.000000,0.000000,0.000000,0.000000,0.000000,0.000000,0.000000,1771495444.198568,0.000000
242.000000,18213.609542,17338.359933,-13724.865165,-24019.028129,-20089.591454,-24099.226189,169.515630,-25743.353455,20577.150056,29804.330147,-24454.596574,-16598.673653,237.353174,18292.622959,-16166.525026,-3095.582497,0.004000,-0.010000,1.004000,192.000000,0.000000,0.000000,0.000000,0.000000,0.000000,0.000000,0.000000,0.000000,0.000000,1771495444.198591,0.000000
244.000000,18196.689272,17319.763281,-13742.433636,-24034.115557,-20103.494239,-24113.687767,149.644929,-25760.072560,20523.595276,29749.680132,-24514.990987,-16658.822198,181.451461,18236.475377,-16230.071036,-3143.974023,0.004000,-0.010000,1.004000,192.000000,0.000000,0.000000,0.000000,0.000000,0.000000,0.000000,0.000000,0.000000,0.000000,1771495444.198615,0.000000
246.000000,18243.002086,17365.852578,-13692.589246,-23987.400411,-20047.547823,-24068.045505,198.349380,-25715.324368,20572.143265,29799.435115,-24461.056228,-16606.228543,230.714706,18288.711403,-16171.554169,-3101.058674,0.004000,-0.008000,1.001000,192.000000,0.000000,16.000000,127.500000,104.000000,15.500000,24.000000,0.000000,0.000000,0.000000,1771495444.198640,0.000000
248.000000,18183.546446,17308.676816,-13753.073067,-24047.213679,-20112.770213,-24130.295113,136.926787,-25771.024915,20551.557309,29780.994926,-24484.033821,-16629.541413,207.535947,18265.018554,-16196.699881,-3114.514424,0.004000,-0.008000,1.001000,192.000000,0.000000,0.000000,0.000000,0.000000,0.000000,0.000000,0.000000,0.000000,0.000000,1771495444.198663,0.000000
250.000000,18235.201327,17359.012945,-13697.774851,-23992.451905,-20057.449646,-24072.180578,192.292058,-25719.034757,20531.507794,29766.287478,-24499.635339,-16644.092398,187.598191,18250.981659,-16212.457861,-3130.473570,0.004000,-0.008000,1.001000,192.000000,0.000000,0.000000,0.000000,0.000000,0.000000,0.000000,0.000000,0.000000,0.000000,1771495444.198687,0.000000
252.000000,18208.580400,17331.229726,-13729.044942,-24019.788089,-20089.256178,-24104.523552,163.570066,-25745.789796,20571.964451,29811.460353,-24455.602402,-16599.880648,236.034421,18295.394575,-16168.179055,-3093.347322,0.004000,-0.008000,1.001000,192.000000,0.000000,0.000000,0.000000,0.000000,0.000000,0.000000,0.000000,0.000000,0.000000,1771495444.198710,0.000000
254.000000,18191.302501,17318.578639,-13743.126541,-24034.003798,-20102.510763,-24119.476869,147.946197,-25759.759636,20517.672064,29749.233097,-24517.427327,-16661.549111,174.075386,18225.523022,-16232.350914,-3144.085782,0.004000,-0.008000,1.001000,192.000000,0.000000,0.000000,0.000000,0.000000,0.000000,0.000000,0.000000,0.000000,0.000000,1771495444.198734,0.000000
0.000000,18242.264478,17365.517302,-13695.673787,-23988.585054,-20057.516701,-24075.332174,197.187090,-25713.670339,20566.935309,29808.196999,-24460.899766,-16603.345168,235.296814,18289.560770,-16173.968157,-3103.606773,0.005000,-0.007000,0.998500,192.000000,0.000000,24.000000,127.500000,104.000000,15.500000,16.000000,0.000000,0.000000,0.000000,1771495444.198757,0.000000
2.000000,18183.747611,17305.771089,-13757.141084,-24047.683066,-20120.950952,-24137.872355,134.311632,-25770.332011,20543.063646,29783.833597,-24486.246644,-16629.072026,202.126825,18260.011764,-16202.667797,-3123.969212,0.005000,-0.007000,0.998500,192.000000,0.000000,0.000000,0.000000,0.000000,0.000000,0.000000,0.000000,0.000000,0.000000,1771495444.198780,0.000000
4.000000,18242.622106,17362.790389,-13698.691273,-23990.797876,-20062.165864,-24074.125180,192.582630,-25714.117374,20536.022846,29771.853062,-24497.198999,-16638.616221,190.906249,18245.684295,-16215.631809,-3131.792323,0.005000,-0.007000,0.998500,192.000000,0.000000,0.000000,0.000000,0.000000,0.000000,0.000000,0.000000,0.000000,0.000000,1771495444.198804,0.000000
6.000000,18217.744615,17341.355066,-13725.446311,-24016.368272,-20086.462210,-24099.561465,167.146345,-25738.167851,20579.452286,29816.489496,-24451.243812,-16593.264531,239.521294,18299.552000,-16169.251939,-3094.822537,0.005000,-0.007000,0.998500,192.000000,0.000000,0.000000,0.000000,0.000000,0.000000,0.000000,0.000000,0.000000,0.000000,1771495444.198828,0.000000
8.000000,18204.110051,17331.833223,-13740.131407,-24028.348807,-20097.526324,-24110.402061,149.309653,-25754.439921,20528.222087,29763.471158,-24509.268941,-16650.261480,179.305694,18239.649324,-16226.517108,-3140.353041,0.005000,-0.007000,0.998500,192.000000,0.000000,0.000000,0.000000,0.000000,0.000000,0.000000,0.000000,0.000000,0.000000,1771495444.198852,0.000000
10.000000,18250.512272,17378.593073,-13693.192743,-23982.773600,-20045.200890,-24058.858938,197.656476,-25712.888028,20578.848789,29817.160048,-24457.971687,-16598.047805,242.225855,18286.587988,-16170.168360,-3096.722436,0.006500,-0.008500,1.000250,192.000000,0.000000,32.000000,127.500000,88.000000,15.500000,40.000000,0.000000,0.000000,0.000000,1771495444.198876,0.000000
12.000000,18193.247103,17319.316246,-13754.056544,-24040.239935,-20105.952931,-24116.817011,133.886949,-25770.063790,20555.826492,29797.848141,-24485.039650,-16623.059407,214.822616,18271.858188,-16194.464707,-3109.865261,0.006500,-0.008500,1.000250,192.000000,0.000000,0.000000,0.000000,0.000000,0.000000,0.000000,0.000000,0.000000,0.000000,1771495444.198899,0.000000
14.000000,18248.008877,17374.212131,-13698.646569,-23986.014603,-20049.939460,-24063.888081,188.514613,-25717.939522,20541.879003,29780.726705,-24500.328243,-16637.342171,194.527232,18255.474359,-16208.367492,-3119.856491,0.006500,-0.008500,1.000250,192.000000,0.000000,0.000000,0.000000,0.000000,0.000000,0.000000,0.000000,0.000000,0.000000,1771495444.198923,0.000000
16.000000,18223.064330,17352.329773,-13723.479357,-24012.166144,-20078.393230,-24092.654776,166.498144,-25740.492432,20585.464905,29829.945246,-24451.780254,-16587.564836,242.091744,18302.882409,-16158.992488,-3078.885743,0.006500,-0.008500,1.000250,192.000000,0.000000,0.000000,0.000000,0.000000,0.000000,0.000000,0.000000,0.000000,0.000000,1771495444.198947,0.000000
18.000000,18206.345225,17333.062569,-13738.097398,-24026.113632,-20091.312539,-24110.200895,153.891761,-25752.964706,20529.205564,29768.634411,-24512.308778,-16647.132235,173.963627,18239.872842,-16220.303323,-3127.947823,0.006500,-0.008500,1.000250,192.000000,0.000000,0.000000,0.000000,0.000000,0.000000,0.000000,0.000000,0.000000,0.000000,1771495444.198970,0.000000
20.000000,18252.367467,17383.488105,-13695.003235,-23980.896053,-20049.358314,-24067.464360,200.361037,-25708.954121,20575.317213,29820.132830,-24459.335143,-16593.309235,231.541721,18297.428584,-16166.055640,-3090.173374,0.004250,-0.011250,1.000125,192.000000,0.000000,8.000000,127.500000,72.000000,15.500000,32.000000,0.000000,0.000000,0.000000,1771495444.198994,0.000000
22.000000,18195.974016,17327.318171,-13753.184826,-24041.111653,-20109.886838,-24125.891820,138.402002,-25764.229985,20556.184120,29796.708202,-24481.597481,-16616.644456,206.731284,18269.466551,-16194.509410,-3109.529985,0.004250,-0.011250,1.000125,192.000000,0.000000,0.000000,0.000000,0.000000,0.000000,0.000000,0.000000,0.000000,0.000000,1771495444.199017,0.000000
24.000000,18246.600717,17377.430782,-13695.562028,-23989.121495,-20059.014268,-24078.237901,193.476700,-25712.597455,20545.231765,29775.898728,-24494.494438,-16633.095340,190.190994,18240.811615,-16209.239210,-3123.410418,0.004250,-0.011250,1.000125,192.000000,0.000000,0.000000,0.000000,0.000000,0.000000,0.000000,0.000000,0.000000,0.000000,1771495444.199040,0.000000
26.000000,18219.644513,17348.462921,-13722.629991,-24016.457679,-20086.238693,-24106.244636,166.788717,-25737.564354,20583.967338,29817.718842,-24447.399312,-16588.660072,239.454238,18286.140953,-16163.216968,-3087.088834,0.004250,-0.011250,1.000125,192.000000,0.000000,0.000000,0.000000,0.000000,0.000000,0.000000,0.000000,0.000000,0.000000,1771495444.199064,0.000000
28.000000,18207.552219,17337.823491,-13737.471549,-24029.175821,-20098.934483,-24119.231000,151.053089,-25749.254316,20529.920820,29761.303039,-24506.542028,-16647.266346,173.896572,18229.613391,-16226.382998,-3134.742753,0.004250,-0.011250,1.000125,192.000000,0.000000,0.000000,0.000000,0.000000,0.000000,0.000000,0.000000,0.000000,0.000000,1771495444.199087,0.000000
30.000000,18253.976793,17382.728145,-13688.230656,-23980.627832,-20049.447721,-24070.437142,201.344514,-25702.360356,20579.139361,29818.411746,-24450.260335,-16591.878723,231.876997,18282.475267,-16170.682451,-3093.906116,0.006125,-0.012625,0.999062,192.000000,0.000000,32.000000,127.500000,72.000000,15.500000,24.000000,0.000000,0.000000,0.000000,1771495444.199111,0.000000
32.000000,18188.888513,17318.824508,-13752.670735,-24043.838566,-20117.955818,-24133.044378,136.300938,-25764.162930,20559.000440,29789.868568,-24475.718972,-16619.460776,213.235642,18252.300412,-16197.437489,-3111.184014,0.006125,-0.012625,0.999062,192.000000,0.000000,0.000000,0.000000,0.000000,0.000000,0.000000,0.000000,0.000000,0.000000,1771495444.199134,0.000000
34.000000,18248.478263,17380.627081,-13694.332682,-23986.394583,-20059.327192,-24078.684935,194.840156,-25708.663548,20544.225936,29777.440998,-24491.096972,-16633.564727,194.437825,18236.184804,-16216.838803,-3127.634898,0.006125,-0.012625,0.999062,192.000000,0.000000,0.000000,0.000000,0.000000,0.000000,0.000000,0.000000,0.000000,0.000000,1771495444.199158,0.000000
36.000000,18220.069196,17353.715581,-13726.072160,-24015.049519,-20089.703213,-24106.110526,165.425261,-25738.279609,20584.235559,29825.251380,-24445.745283,-16586.380194,241.756468,18295.752203,-16168.335517,-3087.848793,0.006125,-0.012625,0.999062,192.000000,0.000000,0.000000,0.000000,0.000000,0.000000,0.000000,0.000000,0.000000,0.000000,1771495444.199182,0.000000
38.000000,18204.758251,17338.941078,-13741.494863,-24031.165127,-20105.260027,-24122.829631,148.102659,-25753.501147,20529.473785,29763.560565,-24508.106650,-16649.143892,173.203668,18224.830118,-16233.200280,-3136.173265,0.006125,-0.012625,0.999062,192.000000,0.000000,0.000000,0.000000,0.000000,0.000000,0.000000,0.000000,0.000000,0.000000,1771495444.199206,0.000000
40.000000,18258.447141,17391.467678,-13690.309368,-23982.840655,-20054.230994,-24073.901662,199.869299,-25703.142667,20582.514475,29819.574037,-24450.327390,-16595.030319,234.693317,18289.337252,-16173.856398,-3094.397854,0.008063,-0.009313,1.002531,192.000000,0.000000,40.000000,127.500000,104.000000,15.500000,56.000000,0.000000,0.000000,0.000000,1771495444.199230,0.000000
42.000000,18198.946798,17334.247212,-13754.347116,-24041.871612,-20115.273609,-24133.357302,134.065763,-25762.777121,20566.063591,29806.341804,-24471.114513,-16613.425805,211.045171,18265.152665,-16198.242152,-3111.519290,0.008063,-0.009313,1.002531,192.000000,0.000000,0.000000,0.000000,0.000000,0.000000,0.000000,0.000000,0.000000,0.000000,1771495444.199253,0.000000
44.000000,18253.328592,17389.187800,-13694.578552,-23985.656975,-20056.756742,-24076.114485,191.956781,-25708.283568,20550.193852,29785.286461,-24489.711164,-16630.122558,196.427130,18244.253784,-16215.274181,-3128.797189,0.008063,-0.009313,1.002531,192.000000,0.000000,0.000000,0.000000,0.000000,0.000000,0.000000,0.000000,0.000000,0.000000,1771495444.199276,0.000000
46.000000,18236.497728,17368.981823,-13718.964305,-24009.014548,-20080.248425,-24099.069726,167.302807,-25729.540077,20595.992577,29839.534144,-24440.403216,-16580.904017,241.957634,18302.368319,-16164.781590,-3085.546563,0.008063,-0.009313,1.002531,192.000000,0.000000,0.000000,0.000000,0.000000,0.000000,0.000000,0.000000,0.000000,0.000000,1771495444.199300,0.000000
48.000000,18222.706702,17352.039200,-13733.381180,-24025.711301,-20091.938387,-24115.677072,149.533170,-25743.688732,20544.494157,29781.061981,-24497.601330,-16638.035075,187.262915,18239.135234,-16225.846556,-3133.133427,0.008063,-0.009313,1.002531,192.000000,0.000000,0.000000,0.000000,0.000000,0.000000,0.000000,0.000000,0.000000,0.000000,1771495444.199324,0.000000
50.000000,18275.814447,17405.661035,-13685.012005,-23977.744457,-20043.435102,-24066.503235,200.852776,-25693.710231,20597.780716,29832.672159,-24440.760844,-16585.754345,241.711765,18300.423718,-16170.123657,-3093.324970,0.007031,-0.008656,1.005266,192.000000,0.000000,24.000000,127.500000,96.000000,15.500000,64.000000,0.000000,0.000000,0.000000,1771495444.199347,0.000000
52.000000,18215.710606,17346.183043,-13749.161512,-24038.474147,-20111.339702,-24128.506974,135.652737,-25753.970534,20578.871140,29812.443830,-24462.754960,-16607.279075,227.384296,18268.639537,-16196.610474,-3110.893442,0.007031,-0.008656,1.005266,192.000000,0.000000,0.000000,0.000000,0.000000,0.000000,0.000000,0.000000,0.000000,0.000000,1771495444.199370,0.000000
54.000000,18270.785304,17402.352977,-13689.996444,-23980.560777,-20054.074532,-24073.856959,193.275534,-25699.499333,20558.978088,29793.400144,-24481.351612,-16623.349979,206.753636,18251.004011,-16216.257658,-3125.064448,0.007031,-0.008656,1.005266,192.000000,0.000000,0.000000,0.000000,0.000000,0.000000,0.000000,0.000000,0.000000,0.000000,1771495444.199394,0.000000
56.000000,18247.383028,17378.391907,-13712.057616,-24005.974711,-20077.432105,-24091.067802,169.828554,-25723.818031,20608.084870,29846.016150,-24430.277876,-16572.879740,254.295797,18306.682206,-16163.038154,-3084.831308,0.007031,-0.008656,1.005266,192.000000,0.000000,0.000000,0.000000,0.000000,0.000000,0.000000,0.000000,0.000000,0.000000,1771495444.199417,0.000000
58.000000,18227.691141,17355.414314,-13733.470587,-24024.034920,-20095.894646,-24110.782040,146.314519,-25743.912249,20551.222032,29781.196091,-24494.472086,-16636.872785,188.738130,18245.192557,-16225.377169,-3132.373468,0.007031,-0.008656,1.005266,192.000000,0.000000,0.000000,0.000000,0.000000,0.000000,0.000000,0.000000,0.000000,0.000000,1771495444.199441,0.000000
60.000000,18273.579272,17402.420032,-13686.934255,-23975.688097,-20048.799521,-24064.290412,196.784758,-25699.320519,20592.706870,29835.220258,-24447.108739,-16585.039089,233.285157,18296.981549,-16173.051736,-3092.654418,0.007031,-0.008656,1.005266,192.000000,0.000000,0.000000,0.000000,0.000000,0.000000,0.000000,0.000000,0.000000,0.000000,1771495444.199464,0.000000
62.000000,18212.782528,17336.392979,-13748.692125,-24038.831775,-20115.161850,-24126.763538,134.445743,-25761.525424,20570.869216,29812.019147,-24471.807417,-16610.989465,210.039343,18272.796961,-16197.169268,-3106.020761,0.004000,-0.014000,1.012000,192.000000,0.000000,16.000000,127.500000,72.000000,15.500000,80.000000,0.000000,0.000000,0.000000,1771495444.199488,0.000000
64.000000,18267.589005,17396.362710,-13690.197610,-23984.159408,-20059.573061,-24072.806427,193.566107,-25706.808353,20549.791521,29791.880225,-24491.231083,-16632.983581,200.137520,18245.550185,-16216.727044,-3123.589232,0.004000,-0.014000,1.012000,192.000000,0.000000,0.000000,0.000000,0.000000,0.000000,0.000000,0.000000,0.000000,0.000000,1771495444.199526,0.000000
66.000000,18246.287792,17375.642642,-13714.248087,-24007.338167,-20075.398096,-24094.174694,171.326121,-25729.495374,20601.178181,29844.004493,-24437.028103,-16577.752421,250.160724,18298.479116,-16158.925433,-3079.712758,0.004000,-0.014000,1.012000,192.000000,0.000000,0.000000,0.000000,0.000000,0.000000,0.000000,0.000000,0.000000,0.000000,1771495444.199549,0.000000
68.000000,18226.752368,17357.850654,-13734.945802,-24028.795842,-20096.408736,-24109.195067,150.136668,-25748.293191,20542.638963,29784.682963,-24501.356423,-16640.449064,185.050092,18230.507461,-16224.281934,-3130.764142,0.004000,-0.014000,1.012000,192.000000,0.000000,0.000000,0.000000,0.000000,0.000000,0.000000,0.000000,0.000000,0.000000,1771495444.199574,0.000000
70.000000,18283.950482,17410.980750,-13682.463906,-23977.610347,-20045.022076,-24065.005668,203.579688,-25695.900702,20589.376460,29835.734348,-24446.237021,-16587.631892,241.935282,18294.701671,-16170.973023,-3091.067444,0.004000,-0.014000,1.012000,192.000000,0.000000,0.000000,0.000000,0.000000,0.000000,0.000000,0.000000,0.000000,0.000000,1771495444.199597,0.000000
72.000000,18221.119728,17346.428912,-13744.042962,-24038.541202,-20105.684710,-24123.500183,140.234845,-25757.077427,20573.663184,29814.522542,-24464.699562,-16607.636703,220.075276,18265.778514,-16192.341291,-3104.500843,0.006000,-0.012000,1.004000,192.000000,0.000000,24.000000,127.500000,80.000000,15.500000,48.000000,0.000000,0.000000,0.000000,1771495444.199621,0.000000
74.000000,18272.461685,17399.491954,-13690.957569,-23988.585054,-20051.548785,-24071.353563,194.303715,-25707.233036,20556.653506,29793.266033,-24485.889016,-16629.787282,200.316334,18247.383028,-16211.541439,-3122.941032,0.006000,-0.012000,1.004000,192.000000,0.000000,0.000000,0.000000,0.000000,0.000000,0.000000,0.000000,0.000000,0.000000,1771495444.678844,0.000000
76.000000,18248.344153,17373.049840,-13714.292790,-24007.360519,-20075.845131,-24094.979357,171.951970,-25729.025987,20599.792373,29839.601200,-24439.084463,-16581.507514,251.926512,18291.773592,-16162.836988,-3084.183107,0.006000,-0.012000,1.004000,192.000000,0.000000,0.000000,0.000000,0.000000,0.000000,0.000000,0.000000,0.000000,0.000000,1771495444.678927,0.000000
78.000000,18229.769853,17355.168445,-13737.963288,-24026.650074,-20095.179390,-24110.200895,148.393231,-25748.986095,20546.550518,29783.386562,-24499.300063,-16639.018552,187.531136,18233.256725,-16226.427701,-3128.618375,0.006000,-0.012000,1.004000,192.000000,0.000000,0.000000,0.000000,0.000000,0.000000,0.000000,0.000000,0.000000,0.000000,1771495444.679005,0.000000
80.000000,18280.418906,17404.968131,-13685.995482,-23977.431533,-20040.328209,-24062.457569,200.964534,-25700.929844,20591.388117,29832.538048,-24449.656838,-16588.436554,241.331785,18288.778459,-16171.688279,-3089.145194,0.006000,-0.012000,1.004000,192.000000,0.000000,0.000000,0.000000,0.000000,0.000000,0.000000,0.000000,0.000000,0.000000,1771495444.679073,0.000000
82.000000,18217.275228,17342.763226,-13750.502616,-24039.725845,-20108.657492,-24124.416605,136.859731,-25760.519595,20568.969318,29812.086202,-24471.472141,-16609.246029,219.270613,18272.215816,-16193.972968,-3103.025627,0.010000,-0.012000,1.000000,192.000000,0.000000,40.000000,127.500000,80.000000,15.500000,32.000000,0.000000,0.000000,0.000000,1771495444.679150,0.000000
84.000000,18270.897063,17394.082832,-13696.143174,-23986.998080,-20057.024963,-24075.667450,191.576802,-25705.824877,20550.149149,29788.438057,-24489.644109,-16627.909735,198.908174,18244.298487,-16214.536573,-3120.750561,0.010000,-0.012000,1.000000,192.000000,0.000000,0.000000,0.000000,0.000000,0.000000,0.000000,0.000000,0.000000,0.000000,1771495444.679219,0.000000
86.000000,18252.568633,17374.323890,-13716.840889,-24008.366347,-20079.153190,-24095.515799,172.555467,-25725.516763,20595.746707,29840.137641,-24437.966876,-16577.573607,249.601930,18297.853267,-16162.166436,-3082.484374,0.010000,-0.012000,1.000000,192.000000,0.000000,0.000000,0.000000,0.000000,0.000000,0.000000,0.000000,0.000000,0.000000,1771495444.679290,0.000000
88.000000,18229.188708,17346.495968,-13739.483206,-24029.980484,-20099.649739,-24115.408852,148.773211,-25750.953049,20541.454320,29779.743228,-24501.982272,-16642.103093,186.145328,18235.760121,-16224.304286,-3129.065410,0.010000,-0.012000,1.000000,192.000000,0.000000,0.000000,0.000000,0.000000,0.000000,0.000000,0.000000,0.000000,0.000000,1771495444.679344,0.000000
90.000000,18280.262444,17400.631893,-13687.448345,-23978.079734,-20048.821872,-24065.944441,200.763369,-25700.952196,20589.823495,29827.486554,-24449.142748,-16590.090584,243.522256,18288.711403,-16169.229587,-3088.429938,0.010000,-0.012000,1.000000,192.000000,0.000000,0.000000,0.000000,0.000000,0.000000,0.000000,0.000000,0.000000,0.000000,1771495444.679356,0.000000
92.000000,18223.578420,17345.177215,-13747.015744,-24034.607295,-20108.299864,-24117.912247,140.815990,-25754.730493,20565.884777,29809.851028,-24470.980402,-16609.536601,219.337668,18267.007860,-16195.224666,-3102.489186,0.008000,-0.014000,1.002000,192.000000,0.000000,32.000000,127.500000,72.000000,15.500000,40.000000,0.000000,0.000000,0.000000,1771495444.679368,0.000000
94.000000,18270.025345,17394.015776,-13693.840944,-23989.099144,-20057.047314,-24073.633441,192.113244,-25707.523609,20547.198718,29790.069734,-24488.928853,-16628.021494,201.143348,18247.159511,-16214.156594,-3120.638802,0.008000,-0.014000,1.002000,192.000000,0.000000,0.000000,0.000000,0.000000,0.000000,0.000000,0.000000,0.000000,0.000000,1771495444.679380,0.000000
96.000000,18250.065237,17372.915730,-13716.639723,-24009.841562,-20080.471942,-24094.085287,170.677921,-25727.260199,20587.990652,29841.031711,-24440.000885,-16578.110049,252.708823,18304.111755,-16162.479360,-3083.780776,0.008000,-0.014000,1.002000,192.000000,0.000000,0.000000,0.000000,0.000000,0.000000,0.000000,0.000000,0.000000,0.000000,1771495444.679398,0.000000
98.000000,18231.289772,17352.128607,-13737.136273,-24026.493612,-20105.841172,-24111.921979,147.745031,-25745.722740,20535.978143,29788.527463,-24500.887036,-16634.928183,188.201688,18258.849473,-16226.114777,-3129.311279,0.008000,-0.014000,1.002000,192.000000,0.000000,0.000000,0.000000,0.000000,0.000000,0.000000,0.000000,0.000000,0.000000,1771495444.679410,0.000000
100.000000,18278.764877,17404.252875,-13689.795278,-23976.671574,-20054.856843,-24065.095075,198.505843,-25700.415754,20578.468809,29833.856801,-24451.176757,-16585.687290,236.816733,18295.841610,-16175.510427,-3091.089796,0.008000,-0.014000,1.002000,192.000000,0.000000,0.000000,0.000000,0.000000,0.000000,0.000000,0.000000,0.000000,0.000000,1771495444.679421,0.000000
102.000000,18211.597885,17337.264697,-13755.710573,-24041.223412,-20115.385367,-24126.607076,132.121161,-25766.398104,20560.654469,29809.180475,-24475.540158,-16610.989465,219.404724,18276.842627,-16196.454012,-3103.830290,0.008000,-0.010000,1.002000,192.000000,0.000000,32.000000,127.500000,88.000000,15.500000,40.000000,0.000000,0.000000,0.000000,1771495444.679433,0.000000
104.000000,18259.967060,17386.013852,-13703.720415,-23990.954338,-20064.713963,-24078.662584,184.737168,-25719.705310,20534.569983,29780.391429,-24503.099859,-16637.878613,189.140462,18246.556013,-16221.107986,-3122.628107,0.008000,-0.010000,1.002000,192.000000,0.000000,0.000000,0.000000,0.000000,0.000000,0.000000,0.000000,0.000000,0.000000,1771495444.679444,0.000000
106.000000,18237.436502,17365.919634,-13724.775758,-24011.786164,-20084.405850,-24095.381689,161.603112,-25740.783005,20578.871140,29837.701301,-24449.612135,-16585.396717,242.672890,18306.548096,-16166.346212,-3077.701101,0.008000,-0.010000,1.002000,192.000000,0.000000,0.000000,0.000000,0.000000,0.000000,0.000000,0.000000,0.000000,0.000000,1771495444.679456,0.000000
108.000000,18212.894286,17338.874023,-13747.909814,-24033.623819,-20105.215324,-24114.313616,135.697441,-25763.559432,20518.834355,29770.310792,-24515.259208,-16650.484997,182.412586,18247.941822,-16230.093387,-3126.204386,0.008000,-0.010000,1.002000,192.000000,0.000000,0.000000,0.000000,0.000000,0.000000,0.000000,0.000000,0.000000,0.000000,1771495444.679467,0.000000
110.000000,18267.253729,17397.256779,-13693.751537,-23978.862045,-20049.805349,-24061.138816,192.336761,-25709.535266,20563.381381,29823.776165,-24465.571280,-16599.098337,224.232700,18295.796906,-16178.997300,-3088.362883,0.008000,-0.010000,1.002000,192.000000,0.000000,0.000000,0.000000,0.000000,0.000000,0.000000,0.000000,0.000000,0.000000,1771495444.679479,0.000000
112.000000,18206.322873,17337.175290,-13756.895215,-24039.927011,-20113.686635,-24123.209610,128.924862,-25766.733380,20552.183157,29811.594464,-24480.703411,-16610.944761,211.492206,18281.737659,-16196.878695,-3098.577630,0.008000,-0.012000,1.004000,192.000000,0.000000,32.000000,127.500000,80.000000,15.500000,48.000000,0.000000,0.000000,0.000000,1771495444.679491,0.000000
114.000000,18259.117694,17389.746593,-13701.194668,-23988.562702,-20062.210567,-24070.571252,184.066616,-25712.910380,20535.754625,29790.874397,-24500.596464,-16631.038979,190.347456,18255.049676,-16221.979704,-3120.884671,0.008000,-0.012000,1.004000,192.000000,0.000000,0.000000,0.000000,0.000000,0.000000,0.000000,0.000000,0.000000,0.000000,1771495444.679504,0.000000
116.000000,18237.168281,17368.467732,-13722.115901,-24007.718147,-20084.003518,-24093.884122,164.710005,-25731.887011,20576.904187,29840.718787,-24445.968800,-16578.020642,239.633052,18306.503392,-16166.145046,-3078.036377,0.008000,-0.012000,1.004000,192.000000,0.000000,0.000000,0.000000,0.000000,0.000000,0.000000,0.000000,0.000000,0.000000,1771495444.679515,0.000000
118.000000,18214.369501,17343.389075,-13742.165416,-24030.293409,-20103.158963,-24116.302921,140.681880,-25753.009409,20520.108404,29778.223309,-24508.151353,-16642.952459,178.188107,18244.142025,-16226.964143,-3123.969212,0.008000,-0.012000,1.004000,192.000000,0.000000,0.000000,0.000000,0.000000,0.000000,0.000000,0.000000,0.000000,0.000000,1771495444.679527,0.000000
120.000000,18264.817389,17391.177105,-13692.142211,-23981.588957,-20055.885024,-24066.525586,193.208479,-25704.953158,20568.298765,29826.413670,-24457.189376,-16593.622159,238.403706,18295.238113,-16175.778648,-3086.440633,0.008000,-0.012000,1.004000,192.000000,0.000000,0.000000,0.000000,0.000000,0.000000,0.000000,0.000000,0.000000,0.000000,1771495444.679538,0.000000
122.000000,18202.970112,17331.028561,-13755.420000,-24042.966848,-20115.698292,-24130.384520,128.544882,-25765.816959,20550.797349,29806.565321,-24479.228196,-16612.889363,203.870261,18267.566653,-16197.191620,-3099.315238,0.003000,-0.011000,1.003000,192.000000,127.500000,120.000000,127.500000,88.000000,15.500000,40.000000,0.000000,0.000000,0.000000,1771495444.679550,0.000000
124.000000,18256.077857,17386.952625,-13699.630046,-23990.172027,-20066.077419,-24077.656755,183.574877,-25713.044490,20526.702169,29789.957975,-24499.501228,-16632.380084,184.759520,18239.045827,-16218.448129,-3119.834139,0.003000,-0.011000,1.003000,192.000000,0.000000,0.000000,0.000000,0.000000,0.000000,0.000000,0.000000,0.000000,0.000000,1771495444.679561,0.000000
126.000000,18238.643496,17369.294747,-13722.138253,-24010.847391,-20089.859675,-24097.281587,162.608941,-25731.797604,20572.187969,29843.445700,-24446.929925,-16580.255816,237.911968,18299.239075,-16166.972061,-3079.690406,0.003000,-0.011000,1.003000,192.000000,0.000000,0.000000,0.000000,0.000000,0.000000,0.000000,0.000000,0.000000,0.000000,1771495444.679572,0.000000
128.000000,18222.013798,17348.842901,-13743.975907,-24031.880383,-20112.412585,-24121.801450,140.883045,-25750.394255,20517.940285,29781.240795,-24506.564380,-16639.778511,173.494240,18235.178975,-16230.652181,-3126.517311,0.003000,-0.011000,1.003000,192.000000,0.000000,0.000000,0.000000,0.000000,0.000000,0.000000,0.000000,0.000000,0.000000,1771495444.679584,0.000000
130.000000,18273.467514,17399.402547,-13692.365729,-23983.980594,-20062.434085,-24071.577081,193.923735,-25700.393403,20568.835207,29833.298008,-24453.590745,-16588.168334,229.373602,18287.839685,-16177.879712,-3086.798261,0.003000,-0.011000,1.003000,192.000000,0.000000,0.000000,0.000000,0.000000,0.000000,0.000000,0.000000,0.000000,0.000000,1771495444.679595,0.000000
132.000000,18210.457946,17331.989686,-13759.756238,-24046.163147,-20126.740054,-24134.631352,127.226129,-25764.431150,20551.624364,29815.997757,-24473.282632,-16607.524944,209.972287,18260.659964,-16200.007939,-3100.455177,0.004500,-0.008500,1.004500,192.000000,0.000000,24.000000,127.500000,104.000000,15.500000,56.000000,0.000000,0.000000,0.000000,1771495444.679606,0.000000
134.000000,18258.625955,17381.521151,-13708.123709,-23995.715260,-20073.609957,-24083.199988,179.640970,-25717.425432,20526.791576,29785.174702,-24502.898693,-16638.057427,176.645836,18229.009894,-16226.092425,-3126.003221,0.004500,-0.008500,1.004500,192.000000,0.000000,0.000000,0.000000,0.000000,0.000000,0.000000,0.000000,0.000000,0.000000,1771495444.679618,0.000000
136.000000,18248.142987,17367.193683,-13723.434654,-24011.942626,-20087.445687,-24096.745145,166.140517,-25733.295170,20577.261815,29841.568153,-24448.718065,-16582.423935,233.955709,18289.136087,-16168.715497,-3078.617523,0.004500,-0.008500,1.004500,192.000000,0.000000,0.000000,0.000000,0.000000,0.000000,0.000000,0.000000,0.000000,0.000000,1771495444.679629,0.000000
138.000000,18221.678522,17342.651468,-13747.440427,-24035.188441,-20111.943199,-24117.107584,140.592473,-25756.675095,20529.026750,29782.268975,-24508.352519,-16643.220680,177.629313,18230.820385,-16230.763940,-3126.718477,0.004500,-0.008500,1.004500,192.000000,0.000000,0.000000,0.000000,0.000000,0.000000,0.000000,0.000000,0.000000,0.000000,1771495444.679640,0.000000
140.000000,18275.300357,17398.352015,-13696.344339,-23984.673498,-20061.495311,-24066.682049,194.638991,-25704.081440,20572.635004,29836.091976,-24457.748170,-16592.146944,223.070410,18282.721136,-16181.947730,-3090.374540,0.004500,-0.008500,1.004500,192.000000,0.000000,0.000000,0.000000,0.000000,0.000000,0.000000,0.000000,0.000000,0.000000,1771495444.679652,0.000000
142.000000,18212.179030,17331.855575,-13760.426791,-24045.202022,-20124.728397,-24132.820860,131.607071,-25766.219290,20556.050009,29819.842257,-24475.450751,-16610.229505,206.552471,18262.090476,-16202.533686,-3100.768101,0.005250,-0.008250,1.003250,192.000000,0.000000,24.000000,127.500000,96.000000,15.500000,40.000000,0.000000,0.000000,0.000000,1771495444.679664,0.000000
144.000000,18264.929147,17383.465753,-13706.737901,-23994.709431,-20065.608032,-24080.651889,183.708988,-25717.201914,20531.463090,29788.058077,-24503.189266,-16637.744503,178.232810,18236.385970,-16228.193489,-3123.253956,0.005250,-0.008250,1.003250,192.000000,0.000000,0.000000,0.000000,0.000000,0.000000,0.000000,0.000000,0.000000,0.000000,1771495444.679706,0.000000
146.000000,18246.354848,17371.552273,-13723.859337,-24012.479068,-20081.366012,-24099.047375,166.162868,-25733.496336,20583.229731,29845.658522,-24446.505242,-16581.373403,241.510599,18286.833857,-16169.989547,-3079.064557,0.005250,-0.008250,1.003250,192.000000,0.000000,0.000000,0.000000,0.000000,0.000000,0.000000,0.000000,0.000000,0.000000,1771495444.679719,0.000000
148.000000,18219.689217,17342.964392,-13747.798055,-24036.216621,-20107.092870,-24125.265971,141.151266,-25756.585688,20523.125890,29781.486664,-24508.196057,-16643.913584,173.002502,18221.723225,-16235.256640,-3128.551320,0.005250,-0.008250,1.003250,192.000000,0.000000,0.000000,0.000000,0.000000,0.000000,0.000000,0.000000,0.000000,0.000000,1771495444.679730,0.000000
150.000000,18276.864979,17399.648416,-13689.728223,-23979.532597,-20053.180463,-24067.374953,201.277459,-25697.957062,20571.897396,29832.649807,-24455.356533,-16590.515267,230.938224,18281.849418,-16184.696994,-3089.748691,0.005250,-0.008250,1.003250,192.000000,0.000000,0.000000,0.000000,0.000000,0.000000,0.000000,0.000000,0.000000,0.000000,1771495444.679742,0.000000
152.000000,18216.045882,17338.784616,-13752.961308,-24041.066949,-20121.956780,-24129.065767,138.200836,-25756.205709,20557.078190,29821.362176,-24468.655821,-16605.245066,213.526215,18261.934014,-16204.120660,-3100.298715,0.005625,-0.008125,1.004625,192.000000,0.000000,24.000000,127.500000,96.000000,15.500000,56.000000,0.000000,0.000000,0.000000,1771495444.679753,0.000000
154.000000,18263.319822,17384.963320,-13703.698063,-23993.055402,-20072.492370,-24084.630499,187.061749,-25710.272874,20530.457262,29792.036687,-24492.773353,-16632.335381,174.723586,18225.590077,-16232.507376,-3125.667945,0.005625,-0.008125,1.004625,192.000000,0.000000,0.000000,0.000000,0.000000,0.000000,0.000000,0.000000,0.000000,0.000000,1771495444.679765,0.000000
156.000000,18251.316935,17369.250044,-13722.831157,-24011.227371,-20091.290187,-24101.394308,170.007368,-25724.734452,20581.665108,29843.490403,-24439.531498,-16580.971072,235.520331,18281.625900,-16179.801962,-3086.105357,0.005625,-0.008125,1.004625,192.000000,0.000000,0.000000,0.000000,0.000000,0.000000,0.000000,0.000000,0.000000,0.000000,1771495444.679776,0.000000
158.000000,18227.422920,17346.741837,-13743.662982,-24031.880383,-20111.384405,-24121.332064,147.745031,-25746.192127,20533.228878,29789.756809,-24497.064888,-16637.073950,181.071482,18233.212022,-16239.659934,-3130.071238,0.005625,-0.008125,1.004625,192.000000,0.000000,0.000000,0.000000,0.000000,0.000000,0.000000,0.000000,0.000000,0.000000,1771495444.679787,0.000000
160.000000,18283.950482,17406.778622,-13689.594113,-23975.911614,-20051.749951,-24062.122293,202.037418,-25692.458533,20579.251120,29835.957865,-24448.002809,-16587.520133,225.350288,18285.783325,-16185.971044,-3092.989694,0.005625,-0.008125,1.004625,192.000000,0.000000,0.000000,0.000000,0.000000,0.000000,0.000000,0.000000,0.000000,0.000000,1771495444.679799,0.000000
162.000000,18219.465699,17340.371590,-13753.698916,-24040.262287,-20116.748824,-24128.730491,135.339813,-25755.333990,20559.313364,29822.300949,-24464.677210,-16601.601732,207.871223,18265.666755,-16204.210067,-3101.751578,0.004812,-0.010063,1.006312,192.000000,0.000000,16.000000,127.500000,80.000000,15.500000,64.000000,0.000000,0.000000,0.000000,1771495444.679810,0.000000
164.000000,18268.661889,17390.439497,-13702.915752,-23993.368327,-20064.423390,-24079.891930,188.335799,-25708.931769,20533.050064,29792.707240,-24490.895807,-16632.625953,184.379540,18237.972944,-16231.166271,-3127.232567,0.004812,-0.010063,1.006312,192.000000,0.000000,0.000000,0.000000,0.000000,0.000000,0.000000,0.000000,0.000000,0.000000,1771495444.679821,0.000000
166.000000,18252.233357,17369.697078,-13721.981790,-24011.428536,-20086.238693,-24094.957005,170.610865,-25727.170792,20581.441591,29843.244534,-24438.190393,-16582.893322,235.408573,18291.035985,-16175.801000,-3083.937238,0.004812,-0.010063,1.006312,192.000000,0.000000,0.000000,0.000000,0.000000,0.000000,0.000000,0.000000,0.000000,0.000000,1771495444.679833,0.000000
168.000000,18226.640609,17346.272450,-13746.389895,-24034.629647,-20109.350396,-24123.500183,142.872351,-25751.109511,20526.188079,29780.324373,-24499.814153,-16642.639535,177.092871,18231.602696,-16242.811530,-3133.021669,0.004812,-0.010063,1.006312,192.000000,0.000000,0.000000,0.000000,0.000000,0.000000,0.000000,0.000000,0.000000,0.000000,1771495444.679844,0.000000
170.000000,18283.838723,17402.263570,-13689.080022,-23979.778466,-20049.313611,-24069.855996,199.221098,-25695.900702,20572.925576,29828.000644,-24447.868699,-16591.699909,228.054849,18280.620072,-16188.206218,-3095.291924,0.004812,-0.010063,1.006312,192.000000,0.000000,0.000000,0.000000,0.000000,0.000000,0.000000,0.000000,0.000000,0.000000,1771495444.679856,0.000000
172.000000,18217.766967,17334.515433,-13755.889387,-24043.145662,-20116.257085,-24131.345645,131.584720,-25761.413665,20558.598108,29808.375813,-24464.073713,-16609.134270,209.033514,18263.073953,-16206.601704,-3106.512500,0.003406,-0.012031,1.002156,192.000000,0.000000,8.000000,127.500000,72.000000,15.500000,24.000000,0.000000,0.000000,0.000000,1771495444.679868,0.000000
174.000000,18265.376182,17380.224750,-13704.323912,-23994.977652,-20064.110466,-24078.930805,183.060787,-25713.849153,20533.072416,29781.173740,-24494.472086,-16639.599698,178.098700,18233.346132,-16233.468501,-3129.043058,0.003406,-0.012031,1.002156,192.000000,0.000000,0.000000,0.000000,0.000000,0.000000,0.000000,0.000000,0.000000,0.000000,1771495444.679879,0.000000
176.000000,18245.036095,17359.325869,-13720.931258,-24011.920275,-20077.230940,-24098.913264,162.027796,-25734.010426,20586.090754,29832.448641,-24440.157347,-16587.229560,236.861436,18291.974758,-16174.973986,-3082.372616,0.003406,-0.012031,1.002156,192.000000,0.000000,0.000000,0.000000,0.000000,0.000000,0.000000,0.000000,0.000000,0.000000,1771495444.679890,0.000000
178.000000,18224.181917,17338.628154,-13742.835968,-24034.987275,-20100.812030,-24119.365110,135.697441,-25756.228060,20528.423253,29777.932737,-24500.931740,-16646.796959,175.908229,18232.183842,-16236.217765,-3128.305450,0.003406,-0.012031,1.002156,192.000000,0.000000,0.000000,0.000000,0.000000,0.000000,0.000000,0.000000,0.000000,0.000000,1771495444.679904,0.000000
180.000000,18278.384898,17400.073099,-13686.353110,-23982.438324,-20044.239765,-24063.619860,192.940258,-25702.717984,20574.445495,29825.877228,-24451.824957,-16598.740709,233.799247,18282.721136,-16184.741698,-3094.621372,0.003406,-0.012031,1.002156,192.000000,0.000000,0.000000,0.000000,0.000000,0.000000,0.000000,0.000000,0.000000,0.000000,1771495444.679915,0.000000
182.000000,18213.296618,17333.576659,-13750.279099,-24042.430406,-20111.764385,-24131.189183,127.784923,-25765.124055,20558.106370,29810.588635,-24470.421609,-16613.939895,212.296869,18262.626918,-16202.243114,-3107.115997,0.004703,-0.010016,1.000078,192.000000,0.000000,24.000000,127.500000,96.000000,15.500000,24.000000,0.000000,0.000000,0.000000,1771495444.679927,0.000000
184.000000,18260.279985,17381.409393,-13702.580476,-23993.144809,-20062.076457,-24080.674241,178.523383,-25717.201914,20532.021884,29784.839426,-24498.093068,-16639.689105,183.194898,18238.777606,-16229.959277,-3129.579500,0.004703,-0.010016,1.000078,192.000000,0.000000,0.000000,0.000000,0.000000,0.000000,0.000000,0.000000,0.000000,0.000000,1771495444.679938,0.000000
186.000000,18244.097322,17365.137323,-13719.187822,-24007.293464,-20076.694498,-24092.922997,164.911171,-25730.992941,20583.453248,29838.394205,-24444.158309,-16584.882627,231.698183,18296.288645,-16175.197503,-3082.260857,0.004703,-0.010016,1.000078,192.000000,0.000000,0.000000,0.000000,0.000000,0.000000,0.000000,0.000000,0.000000,0.000000,1771495444.679950,0.000000
188.000000,18215.174164,17333.107273,-13748.021573,-24035.523717,-20105.707062,-24120.147421,134.356336,-25760.452540,20524.511698,29778.268013,-24507.525505,-16647.065180,168.599208,18245.125502,-16238.207071,-3126.673773,0.004703,-0.010016,1.000078,192.000000,0.000000,0.000000,0.000000,0.000000,0.000000,0.000000,0.000000,0.000000,0.000000,1771495444.679962,0.000000
190.000000,18274.763915,17392.428803,-13690.599941,-23979.085562,-20051.884061,-24061.630554,194.929563,-25702.963853,20570.131608,29823.217371,-24457.614059,-16600.148869,216.431942,18277.468476,-16189.636730,-3092.140328,0.004703,-0.010016,1.000078,192.000000,0.000000,0.000000,0.000000,0.000000,0.000000,0.000000,0.000000,0.000000,0.000000,1771495444.679973,0.000000
192.000000,18215.598847,17333.666066,-13751.307279,-24038.384740,-20108.612789,-24117.711081,132.165865,-25759.580822,20563.716658,29813.539066,-24468.409952,-16609.447194,211.134578,18271.589967,-16206.109966,-3098.577630,0.004703,-0.010016,1.000078,192.000000,0.000000,0.000000,0.000000,0.000000,0.000000,0.000000,0.000000,0.000000,0.000000,1771495444.679984,0.000000
194.000000,18262.582214,17379.241273,-13701.328778,-23987.713335,-20060.713000,-24071.867653,181.429110,-25712.552752,20541.946059,29785.599385,-24493.578016,-16636.023418,184.536002,18244.052618,-16231.948582,-3119.655325,0.008000,-0.012000,1.006000,192.000000,0.000000,32.000000,127.500000,80.000000,15.500000,56.000000,0.000000,0.000000,0.000000,1771495445.158751,0.000000
196.000000,18245.639592,17362.589224,-13718.830194,-24004.499496,-20077.700326,-24089.994918,164.978226,-25726.924923,20588.840018,29840.607028,-24439.173870,-16583.049784,238.090782,18303.932941,-16178.304395,-3076.784680,0.008000,-0.012000,1.006000,192.000000,0.000000,0.000000,0.000000,0.000000,0.000000,0.000000,0.000000,0.000000,0.000000,1771495445.158820,0.000000
198.000000,18221.969095,17338.337581,-13741.628974,-24029.824022,-20106.019986,-24116.638197,137.574987,-25752.003581,20531.083111,29779.385600,-24499.456525,-16641.231375,182.859621,18234.754292,-16239.659934,-3125.422075,0.008000,-0.012000,1.006000,192.000000,0.000000,0.000000,0.000000,0.000000,0.000000,0.000000,0.000000,0.000000,0.000000,1771495445.158871,0.000000
200.000000,18273.691031,17391.400622,-13688.320063,-23977.520940,-20048.263079,-24062.524624,193.566107,-25701.756859,20574.087867,29827.933589,-24453.233117,-16593.845677,223.383334,18281.491790,-16190.530800,-3090.352188,0.008000,-0.012000,1.006000,192.000000,0.000000,0.000000,0.000000,0.000000,0.000000,0.000000,0.000000,0.000000,0.000000,1771495445.158921,0.000000
202.000000,18212.938990,17332.302610,-13749.541491,-24038.362388,-20105.818821,-24119.119241,131.450609,-25761.279555,20561.347373,29816.511848,-24468.141731,-16607.457889,212.989773,18278.317842,-16202.757204,-3097.996485,0.008000,-0.012000,1.006000,192.000000,0.000000,0.000000,0.000000,0.000000,0.000000,0.000000,0.000000,0.000000,0.000000,1771495445.158968,0.000000
204.000000,18257.553072,17375.553235,-13702.468717,-23993.323623,-20056.801445,-24080.316613,178.165755,-25717.067804,20532.334808,29783.610080,-24499.277711,-16640.560823,181.652627,18238.621144,-16228.864041,-3123.253956,0.008000,-0.010000,1.006000,192.000000,0.000000,32.000000,127.500000,88.000000,15.500000,56.000000,0.000000,0.000000,0.000000,1771495445.159014,0.000000
206.000000,18246.913641,17362.991555,-13717.131462,-24007.092298,-20072.805294,-24092.699479,165.537019,-25728.869525,20587.968300,29843.378644,-24438.033931,-16580.926368,240.527122,18301.653063,-16169.721326,-3074.370691,0.008000,-0.010000,1.006000,192.000000,0.000000,0.000000,0.000000,0.000000,0.000000,0.000000,0.000000,0.000000,0.000000,1771495445.159056,0.000000
208.000000,18215.487089,17333.151976,-13749.161512,-24034.160260,-20103.673053,-24117.331102,135.026888,-25758.127959,20522.120061,29782.067809,-24505.603255,-16644.740599,168.621560,18243.180900,-16235.636620,-3123.589232,0.008000,-0.010000,1.006000,192.000000,0.000000,0.000000,0.000000,0.000000,0.000000,0.000000,0.000000,0.000000,0.000000,1771495445.159069,0.000000
210.000000,18268.326613,17386.550294,-13695.159697,-23980.627832,-20053.515739,-24061.787017,193.387293,-25705.869580,20561.190910,29830.034653,-24460.363324,-16597.600770,217.638936,18284.218703,-16189.748489,-3088.988732,0.008000,-0.010000,1.006000,192.000000,0.000000,0.000000,0.000000,0.000000,0.000000,0.000000,0.000000,0.000000,0.000000,1771495445.159089,0.000000
212.000000,18207.596923,17327.541688,-13756.001145,-24037.714188,-20112.949027,-24122.136727,130.198911,-25765.638145,20544.605916,29821.004548,-24476.255414,-16612.151755,203.803206,18275.769743,-16205.305303,-3097.080063,0.008000,-0.010000,1.006000,192.000000,0.000000,0.000000,0.000000,0.000000,0.000000,0.000000,0.000000,0.000000,0.000000,1771495445.159101,0.000000
214.000000,18253.149778,17376.804933,-13705.508555,-23988.674460,-20068.178483,-24069.386610,181.809089,-25718.386557,20519.571962,29797.155237,-24502.183438,-16639.197366,176.489374,18245.192557,-16234.720198,-3121.130541,0.008000,-0.008000,1.010000,192.000000,0.000000,32.000000,127.500000,96.000000,15.500000,72.000000,0.000000,0.000000,0.000000,1771495445.159112,0.000000
216.000000,18247.003048,17372.356936,-13718.114939,-23999.291539,-20079.622576,-24086.217473,173.650703,-25725.002673,20574.065515,29859.628363,-24441.163175,-16577.283034,236.570863,18303.821183,-16175.644538,-3071.420261,0.008000,-0.008000,1.010000,192.000000,0.000000,0.000000,0.000000,0.000000,0.000000,0.000000,0.000000,0.000000,0.000000,1771495445.159124,0.000000
218.000000,18218.012836,17340.282183,-13745.384067,-24028.460566,-20104.388309,-24117.331102,143.900531,-25754.350514,20524.399939,29798.809266,-24499.836504,-16636.090474,183.194898,18243.113845,-16239.726989,-3118.694200,0.008000,-0.008000,1.010000,192.000000,0.000000,0.000000,0.000000,0.000000,0.000000,0.000000,0.000000,0.000000,0.000000,1771495445.159136,0.000000
220.000000,18279.100153,17403.045881,-13688.968264,-23972.603556,-20049.961811,-24058.456607,200.763369,-25697.353565,20564.923652,29844.585639,-24455.065960,-16592.504572,223.785665,18291.460668,-16191.693090,-3085.457156,0.008000,-0.008000,1.010000,192.000000,0.000000,0.000000,0.000000,0.000000,0.000000,0.000000,0.000000,0.000000,0.000000,1771495445.159148,0.000000
222.000000,18224.114862,17345.020753,-13746.211081,-24031.813327,-20107.472850,-24115.542962,141.330080,-25751.355380,20560.050972,29837.075452,-24461.771484,-16599.701834,214.800264,18283.883427,-16203.494811,-3092.877936,0.008000,-0.008000,1.010000,192.000000,0.000000,0.000000,0.000000,0.000000,0.000000,0.000000,0.000000,0.000000,0.000000,1771495445.159160,0.000000
224.000000,18265.510293,17388.114916,-13699.361825,-23988.115667,-20060.042448,-24068.850168,186.726473,-25709.021176,20534.391169,29813.002624,-24487.252472,-16625.808671,188.179337,18258.245976,-16227.589992,-3114.693238,0.008000,-0.012000,1.006000,192.000000,0.000000,32.000000,127.500000,80.000000,15.500000,56.000000,0.000000,0.000000,0.000000,1771495445.159171,0.000000
226.000000,18256.681354,17376.916692,-13712.482299,-24004.521847,-20072.648832,-24084.742258,172.756633,-25720.867601,20585.174332,29863.271697,-24433.518879,-16574.824342,247.500866,18308.895029,-16174.348137,-3074.750671,0.008000,-0.012000,1.006000,192.000000,0.000000,0.000000,0.000000,0.000000,0.000000,0.000000,0.000000,0.000000,0.000000,1771495445.159183,0.000000
228.000000,18231.535641,17344.841939,-13739.639668,-24029.444042,-20102.086079,-24114.872410,143.297034,-25747.488528,20528.624419,29801.111496,-24495.075583,-16636.246936,183.597229,18249.104112,-16236.128358,-3121.599927,0.008000,-0.012000,1.006000,192.000000,0.000000,0.000000,0.000000,0.000000,0.000000,0.000000,0.000000,0.000000,0.000000,1771495445.159195,0.000000
230.000000,18285.783325,17406.353939,-13686.978958,-23978.057382,-20047.905451,-24063.932784,198.818767,-25692.994975,20574.981937,29848.117214,-24446.482890,-16588.883589,225.305584,18293.405270,-16188.116811,-3085.904191,0.008000,-0.012000,1.006000,192.000000,0.000000,0.000000,0.000000,0.000000,0.000000,0.000000,0.000000,0.000000,0.000000,1771495445.159206,0.000000
232.000000,18230.261592,17351.949793,-13744.937032,-24034.316723,-20105.438841,-24119.610980,139.452534,-25746.348589,20561.637945,29839.444737,-24460.229213,-16598.427784,216.029610,18288.778459,-16203.561867,-3097.325933,0.008000,-0.012000,1.006000,192.000000,0.000000,0.000000,0.000000,0.000000,0.000000,0.000000,0.000000,0.000000,0.000000,1771495445.159217,0.000000
234.000000,18274.763915,17396.519172,-13699.562991,-23989.277958,-20059.215434,-24076.360354,186.570011,-25703.053260,20541.096692,29810.968615,-24482.916234,-16623.059407,191.196822,18254.088551,-16229.154614,-3120.482340,0.006000,-0.014000,1.010000,192.000000,0.000000,24.000000,127.500000,72.000000,15.500000,72.000000,0.000000,0.000000,0.000000,1771495445.159229,0.000000
236.000000,18256.703705,17381.163523,-13715.164508,-24004.208923,-20076.582739,-24087.402116,173.896572,-25719.057109,20588.504742,29861.952944,-24433.541230,-16571.337470,239.275424,18306.168116,-16176.493904,-3079.221020,0.006000,-0.014000,1.010000,192.000000,0.000000,0.000000,0.000000,0.000000,0.000000,0.000000,0.000000,0.000000,0.000000,1771495445.159240,0.000000
238.000000,18225.388911,17348.105293,-13743.394761,-24034.003798,-20109.149231,-24118.091061,142.559426,-25747.577935,20534.324114,29798.943376,-24495.254397,-16634.414093,178.232810,18247.539490,-16240.464597,-3125.936166,0.006000,-0.014000,1.010000,192.000000,0.000000,0.000000,0.000000,0.000000,0.000000,0.000000,0.000000,0.000000,0.000000,1771495445.159252,0.000000
240.000000,18275.859150,17403.649378,-13686.733089,-23975.710449,-20046.854919,-24058.233089,199.019933,-25696.481847,20570.288070,29840.919953,-24449.746245,-16588.503610,226.624337,18286.275063,-16190.977835,-3087.692331,0.006000,-0.014000,1.010000,192.000000,0.000000,0.000000,0.000000,0.000000,0.000000,0.000000,0.000000,0.000000,0.000000,1771495445.159263,0.000000
242.000000,18213.095452,17339.522223,-13751.776666,-24035.523717,-20110.266818,-24116.504087,134.579853,-25758.574993,20554.261870,29829.006473,-24467.739399,-16603.859258,209.391142,18275.926206,-16204.746509,-3094.017874,0.006000,-0.014000,1.010000,192.000000,0.000000,0.000000,0.000000,0.000000,0.000000,0.000000,0.000000,0.000000,0.000000,1771495445.159276,0.000000
244.000000,18259.028287,17384.471582,-13703.698063,-23990.060269,-20062.836416,-24071.264156,182.479642,-25714.027967,20529.317323,29801.759696,-24498.428345,-16634.302334,179.462156,18245.505481,-16234.899012,-3121.175244,0.004000,-0.010000,1.008000,192.000000,0.000000,16.000000,127.500000,88.000000,15.500000,64.000000,0.000000,0.000000,0.000000,1771495445.159288,0.000000
246.000000,18258.469493,17383.219884,-13710.649456,-24000.207961,-20075.778076,-24086.396287,172.823688,-25718.319502,20586.895417,29862.645848,-24434.971742,-16572.544464,251.121849,18304.469383,-16174.906930,-3076.225886,0.004000,-0.010000,1.008000,192.000000,0.000000,0.000000,0.000000,0.000000,0.000000,0.000000,0.000000,0.000000,0.000000,1771495445.159299,0.000000
248.000000,18226.931182,17354.408485,-13739.349096,-24028.214696,-20099.426222,-24108.166886,141.754763,-25747.555583,20533.608858,29809.113420,-24492.169856,-16628.379122,185.452424,18246.131330,-16238.117664,-3126.830235,0.004000,-0.010000,1.008000,192.000000,0.000000,0.000000,0.000000,0.000000,0.000000,0.000000,0.000000,0.000000,0.000000,1771495445.159311,0.000000
250.000000,18282.788191,17411.517192,-13680.832229,-23971.351859,-20040.507023,-24055.372066,201.456273,-25692.123257,20573.886701,29852.207583,-24448.472196,-16585.307310,234.559206,18292.175924,-16187.379204,-3090.665113,0.004000,-0.010000,1.008000,192.000000,0.000000,0.000000,0.000000,0.000000,0.000000,0.000000,0.000000,0.000000,0.000000,1771495445.159322,0.000000
252.000000,18219.197478,17343.500834,-13744.914680,-24031.992141,-20102.399004,-24117.845192,136.904435,-25752.674133,20565.795370,29845.703226,-24460.251565,-16594.896209,223.137465,18274.383935,-16197.191620,-3094.599020,0.004000,-0.010000,1.008000,192.000000,0.000000,0.000000,0.000000,0.000000,0.000000,0.000000,0.000000,0.000000,0.000000,1771495445.159334,0.000000
254.000000,18264.035078,17390.819477,-13698.221886,-23985.545216,-20057.248480,-24067.889043,184.714816,-25706.651891,20534.927611,29814.902522,-24489.979385,-16624.244049,191.219174,18251.562804,-16226.897088,-3116.481378,0.004000,-0.010000,1.008000,192.000000,0.000000,0.000000,127.500000,64.000000,15.500000,40.000000,0.000000,0.000000,0.000000,1771495445.159346,0.000000
0.000000,18255.407304,17382.661090,-13706.626142,-23995.424687,-20068.826684,-24080.830703,175.818822,-25714.296188,20585.822533,29869.776055,-24430.903725,-16565.213092,252.395898,18301.250732,-16169.520160,-3071.934351,0.004000,-0.010000,1.008000,192.000000,0.000000,0.000000,0.000000,0.000000,0.000000,0.000000,0.000000,0.000000,0.000000,1771495445.159358,0.000000
2.000000,18226.282981,17355.123741,-13737.560956,-24024.727824,-20099.582684,-24107.362224,143.788772,-25743.196993,20532.893602,29812.376775,-24489.733516,-16624.445215,188.402854,18245.460778,-16233.312039,-3118.381276,0.004000,-0.010000,1.008000,192.000000,0.000000,0.000000,0.000000,0.000000,0.000000,0.000000,0.000000,0.000000,0.000000,1771495445.159369,0.000000
4.000000,18279.904816,17406.376291,-13682.173333,-23971.441266,-20049.335962,-24053.427464,200.271630,-25691.922091,20575.294861,29854.778034,-24445.924097,-16581.909845,234.022764,18294.835781,-16187.513314,-3082.909057,0.004000,-0.010000,1.008000,192.000000,0.000000,0.000000,0.000000,0.000000,0.000000,0.000000,0.000000,0.000000,0.000000,1771495445.159381,0.000000
6.000000,18217.096414,17345.467787,-13742.724209,-24028.818194,-20107.651664,-24117.308750,137.686746,-25748.427301,20562.219091,29835.130851,-24459.871585,-16597.354901,220.969346,18273.847493,-16203.539515,-3091.425072,0.004000,-0.010000,1.008000,192.000000,0.000000,0.000000,0.000000,0.000000,0.000000,0.000000,0.000000,0.000000,0.000000,1771495445.159392,0.000000
8.000000,18264.750333,17391.959416,-13697.908962,-23986.439286,-20057.874329,-24070.414790,180.803261,-25706.003690,20534.212355,29809.225179,-24488.168894,-16621.941819,191.599153,18248.500615,-16230.249850,-3114.045038,0.003000,-0.010000,1.007000,192.000000,0.000000,8.000000,127.500000,88.000000,15.500000,56.000000,0.000000,0.000000,0.000000,1771495445.159404,0.000000
10.000000,18254.245014,17381.118820,-13709.554220,-23997.838676,-20068.379649,-24083.602319,168.934485,-25716.129031,20586.135457,29861.371799,-24433.921210,-16568.163522,248.551398,18304.089404,-16173.096439,-3071.621427,0.003000,-0.010000,1.007000,192.000000,0.000000,0.000000,0.000000,0.000000,0.000000,0.000000,0.000000,0.000000,0.000000,1771495445.159415,0.000000
12.000000,18225.612429,17354.833168,-13738.611488,-24026.560667,-20095.335853,-24108.345700,138.983147,-25743.644028,20538.012151,29802.251435,-24489.666461,-16626.702741,193.186127,18241.102188,-16231.278030,-3118.023648,0.003000,-0.010000,1.007000,192.000000,0.000000,0.000000,0.000000,0.000000,0.000000,0.000000,0.000000,0.000000,0.000000,1771495445.159426,0.000000
14.000000,18277.379069,17409.639646,-13686.889552,-23971.933004,-20043.882137,-24054.567403,192.873203,-25692.927920,20572.366783,29843.982141,-24449.634486,-16584.100316,234.514503,18294.500505,-16188.720308,-3089.011084,0.003000,-0.010000,1.007000,192.000000,0.000000,0.000000,0.000000,0.000000,0.000000,0.000000,0.000000,0.000000,0.000000,1771495445.159438,0.000000
16.000000,18222.416129,17353.536767,-13743.327706,-24028.013531,-20098.040414,-24110.089136,134.199874,-25748.807281,20560.140378,29836.606066,-24461.905594,-16592.057537,224.366811,18287.549113,-16200.298512,-3094.017874,0.003000,-0.010000,1.007000,192.000000,0.000000,0.000000,0.000000,0.000000,0.000000,0.000000,0.000000,0.000000,0.000000,1771495445.159449,0.000000
18.000000,18264.415057,17396.630930,-13698.043072,-23984.315870,-20057.248480,-24067.464360,178.568086,-25708.797659,20539.710884,29811.370946,-24492.438077,-16623.193517,200.048113,18252.658040,-16227.545289,-3116.190805,0.005500,-0.006000,1.009500,192.000000,0.000000,32.000000,127.500000,120.000000,15.500000,80.000000,0.000000,0.000000,0.000000,1771495445.159461,0.000000
20.000000,18250.333458,17378.213093,-13710.649456,-23994.530618,-20071.486541,-24075.980374,169.381519,-25720.398214,20591.723393,29863.025828,-24436.648123,-16568.632909,252.775878,18309.677340,-16171.934148,-3068.872162,0.005500,-0.006000,1.009500,192.000000,0.000000,0.000000,0.000000,0.000000,0.000000,0.000000,0.000000,0.000000,0.000000,1771495445.159473,0.000000
22.000000,18215.464737,17344.305497,-13743.864148,-24028.259400,-20107.763422,-24111.094965,134.512798,-25753.098816,20533.787672,29798.161065,-24501.132906,-16633.005933,187.665246,18246.891290,-16236.195414,-3117.084875,0.005500,-0.006000,1.009500,192.000000,0.000000,0.000000,0.000000,0.000000,0.000000,0.000000,0.000000,0.000000,0.000000,1771495445.159486,0.000000
24.000000,18281.089459,17408.969093,-13681.033394,-23970.994231,-20047.257250,-24054.545051,198.394084,-25692.369126,20576.367745,29840.361159,-24453.009600,-16588.302444,232.704012,18289.896046,-16191.201352,-3082.730244,0.005500,-0.006000,1.009500,192.000000,0.000000,0.000000,0.000000,0.000000,0.000000,0.000000,0.000000,0.000000,0.000000,1771495445.159499,0.000000
26.000000,18219.532754,17343.098503,-13742.746561,-24031.031016,-20108.031643,-24109.552695,134.468095,-25755.110473,20569.081076,29836.091976,-24462.620850,-16599.813592,222.779837,18284.039889,-16200.343216,-3084.853659,0.005500,-0.006000,1.009500,192.000000,0.000000,0.000000,0.000000,0.000000,0.000000,0.000000,0.000000,0.000000,0.000000,1771495445.159513,0.000000
28.000000,18268.617185,17389.768945,-13696.970188,-23987.713335,-20063.954003,-24065.743275,179.573915,-25709.758784,20536.447529,29803.525484,-24495.276749,-16629.831985,191.710912,18249.484092,-16232.395617,-3110.848738,0.006750,-0.007000,1.011750,192.000000,0.000000,32.000000,127.500000,96.000000,15.500000,88.000000,0.000000,0.000000,0.000000,1771495445.159525,0.000000
30.000000,18263.878615,17385.253893,-13707.028473,-23995.201170,-20072.380611,-24079.400191,171.080252,-25715.681996,20588.549446,29863.741084,-24435.731701,-16568.856426,254.966349,18309.073843,-16172.269424,-3064.513572,0.006750,-0.007000,1.011750,192.000000,0.000000,0.000000,0.000000,0.000000,0.000000,0.000000,0.000000,0.000000,0.000000,1771495445.159536,0.000000
32.000000,18232.317952,17349.088770,-13739.214985,-24028.639380,-20105.505896,-24114.291264,136.390345,-25747.622639,20536.313419,29808.509923,-24492.326318,-16625.540450,199.176395,18250.646383,-16234.720198,-3111.541642,0.006750,-0.007000,1.011750,192.000000,0.000000,0.000000,0.000000,0.000000,0.000000,0.000000,0.000000,0.000000,0.000000,1771495445.159548,0.000000
34.000000,18290.566598,17411.226620,-13677.792392,-23970.569547,-20046.676105,-24059.082456,198.483491,-25688.859902,20575.339565,29855.985028,-24448.606306,-16581.686328,238.649576,18299.552000,-16188.742660,-3082.350264,0.006750,-0.007000,1.011750,192.000000,0.000000,0.000000,0.000000,0.000000,0.000000,0.000000,0.000000,0.000000,0.000000,1771495445.159559,0.000000
36.000000,18229.903964,17347.457093,-13741.316049,-24030.740444,-20105.483545,-24117.465212,134.244577,-25748.047322,20568.030544,29841.814022,-24459.245737,-16592.973959,232.122866,18288.487886,-16199.337387,-3090.575706,0.006750,-0.007000,1.011750,192.000000,0.000000,0.000000,0.000000,0.000000,0.000000,0.000000,0.000000,0.000000,0.000000,1771495445.159571,0.000000
38.000000,18271.679374,17389.098393,-13694.913828,-23987.176894,-20059.103675,-24074.616918,178.746900,-25706.674243,20537.945096,29808.644034,-24489.174722,-16624.713436,198.885822,18253.842682,-16231.836823,-3118.694200,0.005375,-0.010500,1.011875,192.000000,0.000000,16.000000,127.500000,72.000000,15.500000,80.000000,0.000000,0.000000,0.000000,1771495445.159583,0.000000
40.000000,18259.229453,17376.044974,-13703.251028,-23997.570455,-20068.334945,-24083.557616,169.985017,-25717.023100,20594.047975,29869.440778,-24430.300227,-16567.291804,259.660215,18309.565581,-16168.223759,-3070.861467,0.005375,-0.010500,1.011875,192.000000,0.000000,0.000000,0.000000,0.000000,0.000000,0.000000,0.000000,0.000000,0.000000,1771495445.159594,0.000000
42.000000,18224.405435,17342.293840,-13737.426846,-24030.449871,-20102.466059,-24116.481735,133.931653,-25751.824767,20537.810986,29806.855894,-24494.807362,-16634.570555,190.772139,18251.652211,-16233.490853,-3119.141235,0.005375,-0.010500,1.011875,192.000000,0.000000,0.000000,0.000000,0.000000,0.000000,0.000000,0.000000,0.000000,0.000000,1771495445.159605,0.000000
44.000000,18284.062241,17403.694082,-13678.619406,-23970.927175,-20046.765512,-24056.534357,195.175433,-25695.073687,20579.720507,29855.716807,-24449.120396,-16588.324796,241.130619,18286.945616,-16186.373375,-3082.931409,0.005375,-0.010500,1.011875,192.000000,0.000000,0.000000,0.000000,0.000000,0.000000,0.000000,0.000000,0.000000,0.000000,1771495445.159617,0.000000
46.000000,18226.618257,17343.433779,-13740.220814,-24032.327417,-20108.344568,-24116.638197,136.189179,-25753.322333,20563.783713,29845.233839,-24463.201995,-16599.254799,227.250186,18282.005880,-16200.052643,-3088.139366,0.005375,-0.010500,1.011875,192.000000,0.000000,0.000000,0.000000,0.000000,0.000000,0.000000,0.000000,0.000000,0.000000,1771495445.159628,0.000000
48.000000,18271.724078,17389.433669,-13694.176220,-23990.149676,-20062.903471,-24068.649002,184.223078,-25707.702423,20538.861518,29813.874342,-24491.678118,-16628.848508,189.028703,18246.041923,-16233.870832,-3114.626183,0.004687,-0.011250,1.010938,192.000000,0.000000,16.000000,127.500000,80.000000,15.500000,72.000000,0.000000,0.000000,0.000000,1771495445.159640,0.000000
50.000000,18263.900967,17378.414259,-13702.044034,-23998.688042,-20071.575948,-24083.267043,179.506860,-25714.765574,20594.427954,29876.123950,-24429.428509,-16567.515322,254.854590,18305.966950,-16171.308299,-3066.927560,0.004687,-0.011250,1.010938,192.000000,0.000000,0.000000,0.000000,0.000000,0.000000,0.000000,0.000000,0.000000,0.000000,1771495445.159652,0.000000
52.000000,18226.215926,17338.896375,-13738.902061,-24033.065025,-20108.858658,-24120.907381,143.520551,-25751.645953,20538.190965,29809.761621,-24493.980347,-16631.284849,190.816842,18241.549223,-16233.960239,-3116.481378,0.004687,-0.011250,1.010938,192.000000,0.000000,0.000000,0.000000,0.000000,0.000000,0.000000,0.000000,0.000000,0.000000,1771495445.159664,0.000000
54.000000,18288.957273,17401.302445,-13674.149057,-23971.150693,-20038.584773,-24059.060104,208.318258,-25691.050373,20573.193797,29848.318380,-24452.808434,-16589.978825,237.107305,18282.989357,-16188.742660,-3084.853659,0.004687,-0.011250,1.010938,192.000000,0.000000,0.000000,0.000000,0.000000,0.000000,0.000000,0.000000,0.000000,0.000000,1771495445.159675,0.000000
56.000000,18227.579382,17338.628154,-13736.465721,-24030.025188,-20102.957797,-24120.706215,144.705194,-25750.461310,20567.941137,29836.337845,-24458.016391,-16595.164430,227.361945,18274.071011,-16194.017672,-3087.289999,0.004687,-0.011250,1.010938,192.000000,0.000000,0.000000,0.000000,0.000000,0.000000,0.000000,0.000000,0.000000,0.000000,1771495445.159687,0.000000
58.000000,18272.528740,17385.678576,-13691.851639,-23986.551045,-20057.337887,-24072.493502,189.565145,-25707.121278,20536.425178,29804.285443,-24490.158199,-16626.121596,195.197784,18240.297525,-16228.528765,-3114.357962,0.004687,-0.011250,1.010938,192.000000,0.000000,0.000000,127.500000,88.000000,15.500000,72.000000,0.000000,0.000000,0.000000,1771495445.639100,0.000000
60.000000,18261.375220,17370.121762,-13704.770947,-23999.202132,-20070.056030,-24080.182502,177.875182,-25718.945351,20586.157809,29860.365970,-24432.177774,-16568.454095,256.106288,18296.623921,-16170.146009,-3068.514534,0.004687,-0.011250,1.010938,192.000000,0.000000,0.000000,0.000000,0.000000,0.000000,0.000000,0.000000,0.000000,0.000000,1771495445.639166,0.000000
62.000000,18224.494842,17334.895412,-13741.450160,-24031.187478,-20104.097736,-24115.565314,140.883045,-25754.596383,20525.562230,29799.859798,-24499.143600,-16633.318857,186.346494,18235.581307,-16235.524861,-3114.670886,0.004687,-0.011250,1.010938,192.000000,0.000000,0.000000,0.000000,0.000000,0.000000,0.000000,0.000000,0.000000,0.000000,1771495445.639212,0.000000
64.000000,18286.163305,17399.402547,-13678.753517,-23971.351859,-20047.525471,-24056.288487,205.099607,-25693.821990,20572.143265,29842.886906,-24454.060132,-16589.107107,237.487285,18277.401421,-16190.307282,-3082.529078,0.004687,-0.011250,1.010938,192.000000,0.000000,0.000000,0.000000,0.000000,0.000000,0.000000,0.000000,0.000000,0.000000,1771495445.639258,0.000000
66.000000,18221.790281,17334.917764,-13741.941898,-24034.651999,-20109.193934,-24121.019139,142.090040,-25752.964706,20561.347373,29831.509868,-24462.822016,-16599.008930,225.305584,18267.767819,-16201.349044,-3089.547526,0.004687,-0.011250,1.010938,192.000000,0.000000,0.000000,0.000000,0.000000,0.000000,0.000000,0.000000,0.000000,0.000000,1771495445.639304,0.000000
68.000000,18264.660926,17379.308329,-13695.159697,-23991.468429,-20060.221262,-24073.432275,188.156985,-25709.401156,20535.955791,29805.604196,-24490.806400,-16627.462700,196.985924,18248.947650,-16230.451015,-3114.983811,0.005344,-0.009625,1.008469,192.000000,0.000000,24.000000,127.500000,96.000000,15.500000,56.000000,0.000000,0.000000,0.000000,1771495445.639350,0.000000
70.000000,18260.794075,17372.982785,-13701.261723,-23995.000004,-20063.886948,-24082.238863,181.652627,-25715.458478,20590.985786,29865.149243,-24432.289533,-16568.543502,259.302587,18302.167154,-16169.207235,-3067.776926,0.005344,-0.009625,1.008469,192.000000,0.000000,0.000000,0.000000,0.000000,0.000000,0.000000,0.000000,0.000000,0.000000,1771495445.639395,0.000000
72.000000,18223.578420,17338.516395,-13736.353962,-24029.444042,-20104.164792,-24115.341796,144.168752,-25748.628467,20535.776977,29805.693603,-24491.141676,-16625.607506,201.836252,18240.901022,-16231.434492,-3114.737942,0.005344,-0.009625,1.008469,192.000000,0.000000,0.000000,0.000000,0.000000,0.000000,0.000000,0.000000,0.000000,0.000000,1771495445.639407,0.000000
74.000000,18284.241055,17400.386024,-13675.892493,-23970.301327,-20046.050256,-24055.081493,205.591345,-25688.748144,20571.964451,29846.463185,-24449.410969,-16583.429764,240.236549,18279.100153,-16190.553151,-3085.524212,0.005344,-0.009625,1.008469,192.000000,0.000000,0.000000,0.000000,0.000000,0.000000,0.000000,0.000000,0.000000,0.000000,1771495445.639419,0.000000
76.000000,18224.673656,17337.443511,-13738.097398,-24029.734615,-20100.521457,-24118.806317,142.380612,-25747.980267,20567.315288,29839.936476,-24456.585879,-16589.487086,231.564073,18276.663813,-16199.829125,-3089.078139,0.005344,-0.009625,1.008469,192.000000,0.000000,0.000000,0.000000,0.000000,0.000000,0.000000,0.000000,0.000000,0.000000,1771495445.639431,0.000000
78.000000,18267.387839,17384.493933,-13694.623255,-23985.545216,-20061.092980,-24076.270947,185.966514,-25704.461420,20536.693399,29799.591577,-24490.918158,-16622.791186,198.528194,18239.448159,-16235.167233,-3117.107227,0.005344,-0.009625,1.008469,192.000000,0.000000,0.000000,0.000000,0.000000,0.000000,0.000000,0.000000,0.000000,0.000000,1771495445.639443,0.000000
80.000000,18260.056467,17379.397736,-13702.602828,-23990.552007,-20066.882082,-24077.500293,179.305694,-25710.138763,20593.466829,29859.985991,-24426.031044,-16560.586281,258.743794,18305.251694,-16173.856398,-3067.531057,0.006000,-0.006000,1.016000,192.000000,0.000000,24.000000,127.500000,104.000000,15.500000,96.000000,0.000000,0.000000,0.000000,1771495445.639457,0.000000
82.000000,18222.349074,17338.494043,-13739.907889,-24027.410034,-20106.914056,-24111.854924,139.407830,-25749.410778,20539.509718,29802.296138,-24489.264129,-16623.014703,201.344514,18249.037057,-16237.938850,-3112.838043,0.006000,-0.006000,1.016000,192.000000,0.000000,0.000000,0.000000,0.000000,0.000000,0.000000,0.000000,0.000000,0.000000,1771495445.639475,0.000000
84.000000,18278.004918,17395.826268,-13682.620368,-23969.854292,-20049.291259,-24053.650982,201.724494,-25693.173789,20570.422181,29836.628418,-24453.948373,-16586.089621,232.368735,18288.420831,-16199.113870,-3082.216153,0.006000,-0.006000,1.016000,192.000000,0.000000,0.000000,0.000000,0.000000,0.000000,0.000000,0.000000,0.000000,0.000000,1771495445.639487,0.000000
86.000000,18221.745577,17338.203470,-13739.527910,-24026.225391,-20107.137574,-24111.050261,141.330080,-25747.555583,20563.582547,29829.945246,-24460.005696,-16592.616331,225.372639,18282.765839,-16207.272256,-3082.193802,0.006000,-0.006000,1.016000,192.000000,0.000000,0.000000,0.000000,0.000000,0.000000,0.000000,0.000000,0.000000,0.000000,1771495445.639499,0.000000
88.000000,18263.230415,17378.548369,-13697.104299,-23986.819266,-20064.199873,-24074.303993,181.026778,-25706.875409,20539.196794,29795.925891,-24490.135847,-16625.160471,200.785720,18250.311106,-16241.179853,-3111.586346,0.006000,-0.006000,1.016000,192.000000,0.000000,0.000000,0.000000,0.000000,0.000000,0.000000,0.000000,0.000000,0.000000,1771495445.639511,0.000000
90.000000,18258.402438,17375.374422,-13701.127613,-23991.066097,-20066.859730,-24079.266081,177.294037,-25709.736432,20593.891513,29856.275601,-24428.489736,-16563.670822,255.547494,18306.369282,-16178.550265,-3064.915903,0.002000,-0.006000,1.010000,192.000000,0.000000,8.000000,127.500000,104.000000,15.500000,72.000000,0.000000,0.000000,0.000000,1771495445.639524,0.000000
92.000000,18217.722263,17340.528052,-13739.885538,-24028.035882,-20099.716794,-24114.470078,138.200836,-25747.890860,20533.474747,29799.904501,-24490.761696,-16624.154642,196.337723,18244.678467,-16237.961201,-3112.770988,0.002000,-0.006000,1.010000,192.000000,0.000000,0.000000,0.000000,0.000000,0.000000,0.000000,0.000000,0.000000,0.000000,1771495445.639535,0.000000
94.000000,18276.417944,17396.943855,-13680.452249,-23972.000059,-20039.344733,-24057.294316,199.936354,-25692.324423,20565.817722,29834.952037,-24452.361399,-16586.626063,237.777858,18282.363508,-16197.146916,-3087.312351,0.002000,-0.006000,1.010000,192.000000,0.000000,0.000000,0.000000,0.000000,0.000000,0.000000,0.000000,0.000000,0.000000,1771495445.639547,0.000000
96.000000,18222.214964,17340.930383,-13739.796131,-24028.773490,-20094.575893,-24108.569218,138.223188,-25748.293191,20568.365820,29831.576923,-24457.770521,-16593.890380,232.100514,18280.396555,-16202.623093,-3088.407587,0.002000,-0.006000,1.010000,192.000000,0.000000,0.000000,0.000000,0.000000,0.000000,0.000000,0.000000,0.000000,0.000000,1771495445.639559,0.000000
98.000000,18266.963156,17386.550294,-13693.975054,-23986.282824,-20058.477826,-24069.811293,180.847964,-25705.087269,20538.839166,29802.765525,-24489.219426,-16624.914601,203.311468,18253.887386,-16237.894146,-3117.196633,0.002000,-0.006000,1.010000,192.000000,0.000000,0.000000,0.000000,0.000000,0.000000,0.000000,0.000000,0.000000,0.000000,1771495445.639572,0.000000
100.000000,18265.376182,17382.147000,-13699.294770,-23992.697774,-20061.495311,-24077.679107,176.958761,-25711.681034,20592.796277,29865.328057,-24425.718120,-16561.905034,266.499849,18321.188488,-16174.906930,-3067.776926,0.002000,-0.006000,1.010000,192.000000,0.000000,0.000000,127.500000,104.000000,15.500000,48.000000,0.000000,0.000000,0.000000,1771495445.639583,0.000000
102.000000,18230.529813,17344.819587,-13734.319953,-24027.365330,-20095.715832,-24111.273779,139.899569,-25746.080368,20536.492233,29805.112458,-24486.157237,-16622.187689,202.618563,18254.803807,-16238.385885,-3117.107227,0.002000,-0.006000,1.010000,192.000000,0.000000,0.000000,0.000000,0.000000,0.000000,0.000000,0.000000,0.000000,0.000000,1771495445.639594,0.000000
104.000000,18288.443183,17403.828192,-13675.199589,-23965.674515,-20036.997800,-24048.063046,201.679790,-25687.094115,20574.333736,29842.998665,-24445.119434,-16582.088659,246.182113,18295.975720,-16197.102213,-3086.552392,0.002000,-0.006000,1.010000,192.000000,0.000000,0.000000,0.000000,0.000000,0.000000,0.000000,0.000000,0.000000,0.000000,1771495445.639606,0.000000
106.000000,18230.842737,17343.702000,-13736.532776,-24021.576228,-20093.927693,-24105.127049,142.492371,-25743.778139,20563.470788,29839.020054,-24453.121359,-16587.609540,230.133561,18289.426659,-16202.690149,-3085.859488,0.002000,-0.006000,1.010000,192.000000,0.000000,0.000000,0.000000,0.000000,0.000000,0.000000,0.000000,0.000000,0.000000,1771495445.639618,0.000000
108.000000,18268.416019,17381.677613,-13695.047938,-23984.248815,-20052.867538,-24064.469226,183.105491,-25707.031871,20538.034503,29803.033746,-24484.726725,-16621.539488,204.540814,18256.301374,-16234.563736,-3112.502767,0.002000,-0.006000,1.010000,192.000000,0.000000,0.000000,0.000000,0.000000,0.000000,0.000000,0.000000,0.000000,0.000000,1771495445.639630,0.000000
110.000000,18266.136142,17381.096468,-13699.562991,-23987.914501,-20056.622631,-24071.398267,181.540868,-25710.161115,20590.605806,29860.477729,-24427.081576,-16562.575586,261.023672,18327.290514,-16174.996337,-3067.598113,0.006000,-0.002000,1.006000,192.000000,0.000000,24.000000,127.500000,120.000000,15.500000,56.000000,0.000000,0.000000,0.000000,1771495445.639642,0.000000
112.000000,18235.044865,17346.585375,-13733.381180,-24020.950379,-20091.580759,-24103.651834,148.884970,-25741.945296,20537.118082,29802.027917,-24484.346746,-16621.561840,203.669095,18254.669697,-16234.429626,-3110.736979,0.006000,-0.002000,1.006000,192.000000,0.000000,0.000000,0.000000,0.000000,0.000000,0.000000,0.000000,0.000000,0.000000,1771495445.639654,0.000000
114.000000,18299.954331,17412.880649,-13674.082002,-23960.600669,-20033.801500,-24042.408054,210.173453,-25682.959042,20574.713716,29844.496232,-24441.096120,-16579.473505,251.658291,18302.837706,-16193.503582,-3079.221020,0.006000,-0.002000,1.006000,192.000000,0.000000,0.000000,0.000000,0.000000,0.000000,0.000000,0.000000,0.000000,0.000000,1771495445.639667,0.000000
116.000000,18234.374313,17341.511529,-13742.053657,-24026.650074,-20096.319329,-24109.575046,143.900531,-25746.795624,20570.422181,29839.131813,-24448.516899,-16586.693118,234.425096,18294.925188,-16202.824259,-3081.836174,0.006000,-0.002000,1.006000,192.000000,0.000000,0.000000,0.000000,0.000000,0.000000,0.000000,0.000000,0.000000,0.000000,1771495445.639679,0.000000
118.000000,18276.596758,17389.925407,-13696.523153,-23986.528693,-20049.470073,-24063.530453,186.592363,-25703.790868,20536.447529,29800.373888,-24486.090182,-16624.780491,199.690485,18250.065237,-16238.296478,-3115.229680,0.006000,-0.002000,1.006000,192.000000,0.000000,0.000000,0.000000,0.000000,0.000000,0.000000,0.000000,0.000000,0.000000,1771495445.639690,0.000000
120.000000,18269.243034,17385.432707,-13704.860354,-23989.769696,-20061.092980,-24069.163092,180.065653,-25711.166943,20588.728260,29860.768302,-24426.455727,-16562.642641,260.219009,18313.097157,-16177.142105,-3066.234656,0.004000,0.000000,1.010000,192.000000,0.000000,16.000000,0.000000,0.000000,15.500000,72.000000,0.000000,0.000000,0.000000,1771495445.639703,0.000000
122.000000,18231.870917,17348.440569,-13738.142102,-24026.426557,-20090.619634,-24104.501200,141.754763,-25747.533232,20545.410579,29802.474952,-24482.446847,-16619.393721,207.714761,18261.531682,-16233.915536,-3106.601907,0.004000,0.000000,1.010000,192.000000,0.000000,0.000000,0.000000,0.000000,0.000000,0.000000,0.000000,0.000000,0.000000,1771495445.639715,0.000000
124.000000,18290.879523,17408.499707,-13679.938159,-23969.653126,-20034.315590,-24050.365275,203.378523,-25689.977490,20570.042201,29828.380624,-24450.975591,-16589.420031,240.862398,18290.477191,-16199.158573,-3087.245296,0.004000,0.000000,1.010000,192.000000,0.000000,0.000000,0.000000,0.000000,0.000000,0.000000,0.000000,0.000000,0.000000,1771495445.639727,0.000000
126.000000,18227.735845,17348.597032,-13742.165416,-24026.672426,-20092.675995,-24108.748032,141.128914,-25748.539060,20564.990707,29829.073528,-24452.450806,-16588.011871,235.810904,18288.107906,-16200.924361,-3082.797299,0.004000,0.000000,1.010000,192.000000,0.000000,0.000000,0.000000,0.000000,0.000000,0.000000,0.000000,0.000000,0.000000,1771495445.639740,0.000000
128.000000,18268.684240,17388.070212,-13698.914790,-23985.008774,-20049.738294,-24067.106732,182.546697,-25708.954121,20529.093805,29787.096952,-24491.365193,-16628.468529,193.767273,18253.060371,-16239.615231,-3114.894404,0.004000,0.000000,1.010000,192.000000,0.000000,0.000000,0.000000,0.000000,0.000000,0.000000,0.000000,0.000000,0.000000,1771495445.639752,0.000000
130.000000,18266.650232,17387.131439,-13700.188839,-23989.970862,-20055.415637,-24070.884177,179.976246,-25710.965778,20587.677728,29850.687665,-24426.679245,-16564.274319,257.492096,18322.462538,-16173.252901,-3062.256046,0.004000,0.000000,1.010000,192.000000,0.000000,0.000000,127.500000,112.000000,15.500000,64.000000,0.000000,0.000000,0.000000,1771495445.639764,0.000000
132.000000,18228.920487,17347.367686,-13735.973982,-24026.918295,-20092.072498,-24101.707232,141.732412,-25746.639162,20540.470843,29789.555644,-24484.749077,-16622.590020,203.512633,18249.238223,-16232.574431,-3108.971192,0.004000,0.000000,1.010000,192.000000,0.000000,0.000000,0.000000,0.000000,0.000000,0.000000,0.000000,0.000000,0.000000,1771495445.639776,0.000000
134.000000,18290.119563,17409.818460,-13672.897359,-23965.607460,-20032.348637,-24050.231165,205.256069,-25686.311804,20576.613614,29829.006473,-24446.371132,-16584.323834,241.398840,18298.389709,-16193.660044,-3083.847831,0.004000,0.000000,1.010000,192.000000,0.000000,0.000000,0.000000,0.000000,0.000000,0.000000,0.000000,0.000000,0.000000,1771495445.639787,0.000000
136.000000,18230.820385,17350.586337,-13736.421017,-24022.269132,-20095.045280,-24106.401099,143.967586,-25744.202822,20577.574739,29824.647883,-24449.992114,-16586.514304,240.348308,18291.795944,-16200.074995,-3083.825479,0.004000,0.000000,1.010000,192.000000,0.000000,0.000000,0.000000,0.000000,0.000000,0.000000,0.000000,0.000000,0.000000,1771495445.639799,0.000000
138.000000,18270.271214,17387.220846,-13696.232581,-23984.919367,-20054.230994,-24068.358429,184.088967,-25705.646063,20544.382399,29783.543024,-24486.425458,-16623.461738,203.177357,18263.051601,-16238.698809,-3114.357962,0.004000,0.000000,1.010000,192.000000,0.000000,0.000000,0.000000,0.000000,0.000000,0.000000,0.000000,0.000000,0.000000,1771495445.639811,0.000000
140.000000,18267.231377,17384.069250,-13698.668921,-23987.311004,-20056.443817,-24072.851130,184.156023,-25707.769478,20599.591207,29849.547726,-24424.265256,-16560.854502,265.494021,18319.087424,-16173.677584,-3064.848848,0.006000,-0.010000,1.006000,192.000000,0.000000,24.000000,127.500000,88.000000,15.500000,56.000000,0.000000,0.000000,0.000000,1771495445.639822,0.000000
142.000000,18225.098339,17341.109197,-13739.170282,-24026.381853,-20095.782887,-24110.603226,141.285377,-25748.941392,20544.851785,29788.147484,-24487.967728,-16623.238221,202.104473,18253.462702,-16235.435454,-3111.541642,0.006000,-0.010000,1.006000,192.000000,0.000000,0.000000,0.000000,0.000000,0.000000,0.000000,0.000000,0.000000,0.000000,1771495445.639834,0.000000
144.000000,18288.778459,17406.197477,-13672.137400,-23963.215824,-20034.494404,-24045.157319,208.631183,-25684.411905,20580.279300,29825.765470,-24447.488719,-16586.134325,244.036346,18288.890217,-16196.901047,-3085.121880,0.006000,-0.010000,1.006000,192.000000,0.000000,0.000000,0.000000,0.000000,0.000000,0.000000,0.000000,0.000000,0.000000,1771495445.639846,0.000000
146.000000,18224.070158,17342.293840,-13736.063389,-24026.761833,-20091.401946,-24113.464250,141.397135,-25747.756749,20578.178236,29823.060909,-24449.545079,-16589.196514,237.800209,18290.656005,-16198.398614,-3084.987770,0.006000,-0.010000,1.006000,192.000000,0.000000,0.000000,0.000000,0.000000,0.000000,0.000000,0.000000,0.000000,0.000000,1771495445.639859,0.000000
148.000000,18264.906796,17386.282073,-13694.220924,-23987.601577,-20049.604183,-24073.454627,182.211421,-25707.411850,20542.057817,29785.018240,-24489.688812,-16629.496709,199.601078,18251.227528,-16237.916498,-3117.487206,0.006000,-0.010000,1.006000,192.000000,0.000000,0.000000,0.000000,0.000000,0.000000,0.000000,0.000000,0.000000,0.000000,1771495445.639871,0.000000
150.000000,18258.402438,17379.375384,-13699.652398,-23991.602539,-20053.426332,-24073.432275,177.159927,-25714.720871,20591.768097,29848.765415,-24429.450861,-16567.940005,261.805983,18329.123357,-16174.057564,-3068.402775,0.005000,-0.011000,1.005000,192.000000,0.000000,16.000000,127.500000,80.000000,15.500000,48.000000,0.000000,0.000000,0.000000,1771495445.639883,0.000000
152.000000,18220.158603,17342.405598,-13738.119750,-24025.241914,-20094.508838,-24112.078442,136.144475,-25752.338857,20540.426140,29790.092086,-24491.231083,-16628.155604,202.886784,18252.948612,-16236.441283,-3113.173319,0.005000,-0.011000,1.005000,192.000000,0.000000,0.000000,0.000000,0.000000,0.000000,0.000000,0.000000,0.000000,0.000000,1771495445.639925,0.000000
154.000000,18284.263406,17406.868029,-13673.970243,-23964.489873,-20027.431253,-24047.504252,200.405741,-25688.770496,20574.691364,29825.810173,-24452.316696,-16590.358805,239.096610,18296.489811,-16198.510372,-3088.899325,0.005000,-0.011000,1.005000,192.000000,0.000000,0.000000,0.000000,0.000000,0.000000,0.000000,0.000000,0.000000,0.000000,1771495445.639937,0.000000
156.000000,18228.965191,17350.966317,-13731.883613,-24021.173897,-20084.316443,-24099.248540,141.575949,-25745.052188,20574.736068,29830.705205,-24450.819129,-16587.967168,241.823523,18303.083575,-16196.118736,-3084.630142,0.005000,-0.011000,1.005000,192.000000,0.000000,0.000000,0.000000,0.000000,0.000000,0.000000,0.000000,0.000000,0.000000,1771495445.639949,0.000000
158.000000,18267.298432,17386.103259,-13692.678653,-23983.712373,-20047.324305,-24065.631517,179.998598,-25708.529438,20542.527204,29791.433190,-24488.973557,-16625.361636,208.742941,18263.632746,-16232.350914,-3114.313258,0.005000,-0.011000,1.005000,192.000000,0.000000,0.000000,0.000000,0.000000,0.000000,0.000000,0.000000,0.000000,0.000000,1771495445.639961,0.000000
160.000000,18260.503502,17380.135343,-13695.293807,-23985.589920,-20053.560442,-24068.850168,179.238639,-25711.211647,20596.797239,29850.955886,-24427.863887,-16565.704830,265.315207,18325.167099,-16172.247073,-3067.396947,0.003500,-0.009500,1.004500,192.000000,0.000000,8.000000,127.500000,96.000000,15.500000,48.000000,0.000000,0.000000,0.000000,1771495445.639973,0.000000
162.000000,18219.018664,17336.147110,-13736.666886,-24023.878458,-20094.084155,-24106.490506,137.999670,-25751.444787,20543.354218,29789.242719,-24489.085315,-16626.367465,204.719627,18263.476284,-16235.480158,-3110.424055,0.003500,-0.009500,1.004500,192.000000,0.000000,0.000000,0.000000,0.000000,0.000000,0.000000,0.000000,0.000000,0.000000,1771495445.639984,0.000000
164.000000,18283.928130,17400.900114,-13673.791429,-23961.606498,-20029.912297,-24044.352656,202.931488,-25688.882254,20575.965414,29826.212505,-24451.310867,-16587.855409,243.857532,18298.523819,-16196.588122,-3082.193802,0.003500,-0.009500,1.004500,192.000000,0.000000,0.000000,0.000000,0.000000,0.000000,0.000000,0.000000,0.000000,0.000000,1771495445.639996,0.000000
166.000000,18222.214964,17340.013962,-13735.661058,-24025.800708,-20088.876198,-24103.294206,138.044374,-25749.634296,20572.925576,29827.017167,-24453.389579,-16590.559970,240.191846,18299.484944,-16199.136221,-3082.059691,0.003500,-0.009500,1.004500,192.000000,0.000000,0.000000,0.000000,0.000000,0.000000,0.000000,0.000000,0.000000,0.000000,1771495445.640008,0.000000
168.000000,18256.994278,17371.127590,-13693.617427,-23983.444152,-20052.196986,-24060.065932,180.155060,-25712.150420,20535.128776,29782.358382,-24493.689775,-16631.508366,204.764331,18262.872787,-16236.396579,-3113.687410,0.003500,-0.009500,1.004500,192.000000,0.000000,0.000000,0.000000,0.000000,0.000000,0.000000,0.000000,0.000000,0.000000,1771495445.640019,0.000000
170.000000,18254.535586,17369.093581,-13696.009063,-23985.254644,-20052.308744,-24068.492540,179.596267,-25712.351586,20591.701042,29844.250362,-24428.847364,-16566.084810,266.253980,18324.183622,-16173.454067,-3061.026700,0.005750,-0.008750,1.004250,192.000000,0.000000,32.000000,127.500000,96.000000,15.500000,48.000000,0.000000,0.000000,0.000000,1771495445.640031,0.000000
172.000000,18215.285923,17332.123796,-13733.627049,-24022.313836,-20084.830533,-24104.501200,138.871388,-25749.991924,20537.520413,29788.594519,-24488.615929,-16625.674561,205.568994,18267.097267,-16235.211937,-3107.652439,0.005750,-0.008750,1.004250,192.000000,0.000000,0.000000,0.000000,0.000000,0.000000,0.000000,0.000000,0.000000,0.000000,1771495445.640042,0.000000
174.000000,18273.601624,17393.009948,-13672.696194,-23965.562757,-20030.247573,-24042.810386,198.997581,-25694.738411,20570.109257,29825.966635,-24454.283649,-16591.677557,241.734116,18310.705520,-16197.638654,-3081.813822,0.005750,-0.008750,1.004250,192.000000,0.000000,0.000000,0.000000,0.000000,0.000000,0.000000,0.000000,0.000000,0.000000,1771495445.640054,0.000000
176.000000,18212.693121,17332.369665,-13734.968154,-24024.638417,-20091.290187,-24101.863694,138.983147,-25754.126996,20568.835207,29825.944284,-24456.295306,-16593.957435,242.717593,18299.596703,-16200.566733,-3079.355130,0.005750,-0.008750,1.004250,192.000000,0.000000,0.000000,0.000000,0.000000,0.000000,0.000000,0.000000,0.000000,0.000000,1771495445.640065,0.000000
178.000000,18248.031229,17365.606709,-13696.500802,-23988.696812,-20055.706210,-24067.464360,180.825613,-25717.581894,20529.786710,29783.587728,-24495.679080,-16636.112825,197.656476,18256.524891,-16239.503472,-3113.508596,0.005750,-0.008750,1.004250,192.000000,0.000000,0.000000,0.000000,0.000000,0.000000,0.000000,0.000000,0.000000,0.000000,1771495446.119967,0.000000
180.000000,18248.455912,17363.617404,-13698.177182,-23990.395545,-20057.561404,-24071.733543,182.569049,-25718.073632,20586.671899,29842.395168,-24433.943562,-16574.936101,258.006186,18320.987322,-16177.075050,-3066.704043,0.001875,-0.011375,1.001125,192.000000,127.500000,120.000000,127.500000,72.000000,15.500000,24.000000,0.000000,0.000000,0.000000,1771495446.120032,0.000000
182.000000,18203.864182,17325.038293,-13740.623145,-24030.338112,-20096.967530,-24107.585741,138.625519,-25759.580822,20531.396035,29790.270900,-24494.919121,-16632.178918,201.009238,18258.782418,-16236.351876,-3110.826386,0.001875,-0.011375,1.001125,192.000000,0.000000,0.000000,0.000000,0.000000,0.000000,0.000000,0.000000,0.000000,0.000000,1771495446.120080,0.000000
184.000000,18267.812522,17387.533771,-13676.697156,-23970.882472,-20033.488576,-24049.404150,201.992715,-25700.326347,20560.162730,29824.379662,-24460.340972,-16597.556066,237.062602,18292.913531,-16197.750413,-3084.987770,0.001875,-0.011375,1.001125,192.000000,0.000000,0.000000,0.000000,0.000000,0.000000,0.000000,0.000000,0.000000,0.000000,1771495446.120127,0.000000
186.000000,18209.116841,17326.558212,-13737.091570,-24026.962999,-20094.598245,-24105.328215,141.754763,-25757.122130,20553.367800,29819.551685,-24463.604327,-16601.847601,232.525198,18294.411098,-16201.729024,-3083.803127,0.001875,-0.011375,1.001125,192.000000,0.000000,0.000000,0.000000,0.000000,0.000000,0.000000,0.000000,0.000000,0.000000,1771495446.120163,0.000000
188.000000,18248.008877,17365.785523,-13698.937142,-23991.513132,-20057.963736,-24067.889043,179.819784,-25719.414737,20522.030654,29776.815149,-24498.674214,-16639.465587,194.571935,18251.428694,-16241.448074,-3113.776817,0.001875,-0.011375,1.001125,192.000000,0.000000,0.000000,0.000000,0.000000,0.000000,0.000000,0.000000,0.000000,0.000000,1771495446.120210,0.000000
190.000000,18246.734827,17366.478427,-13700.077081,-23991.200208,-20059.506006,-24069.855996,180.155060,-25720.666435,20581.016908,29840.182345,-24435.597591,-16576.143095,253.938169,18309.140898,-16177.007994,-3061.496086,0.002938,-0.009687,1.002563,192.000000,0.000000,16.000000,127.500000,96.000000,15.500000,48.000000,0.000000,0.000000,0.000000,1771495446.120255,0.000000
192.000000,18209.854449,17327.966372,-13738.678543,-24027.186516,-20101.437879,-24109.351529,141.777115,-25755.311639,20525.919858,29783.565376,-24496.282577,-16632.693009,191.934430,18254.624993,-16238.475292,-3107.495976,0.002938,-0.009687,1.002563,192.000000,0.000000,0.000000,0.000000,0.000000,0.000000,0.000000,0.000000,0.000000,0.000000,1771495446.120286,0.000000
194.000000,18270.695897,17389.344262,-13677.591226,-23966.523882,-20038.003628,-24049.895889,204.026723,-25694.716060,20562.554367,29823.463240,-24458.709295,-16594.918560,230.737058,18283.436392,-16200.566733,-3081.657360,0.002938,-0.009687,1.002563,192.000000,0.000000,0.000000,0.000000,0.000000,0.000000,0.000000,0.000000,0.000000,0.000000,1771495446.120298,0.000000
196.000000,18215.598847,17334.515433,-13732.308296,-24022.157374,-20093.212437,-24109.709157,146.336871,-25746.169775,20556.832320,29823.306778,-24456.161196,-16593.845677,228.211311,18283.212874,-16200.879657,-3079.489241,0.002938,-0.009687,1.002563,192.000000,0.000000,0.000000,0.000000,0.000000,0.000000,0.000000,0.000000,0.000000,0.000000,1771495446.120309,0.000000
198.000000,18247.874766,17366.679593,-13697.953665,-23989.277958,-20058.276660,-24072.292336,179.551563,-25716.553714,20526.925686,29784.258280,-24491.141676,-16631.061331,186.972342,18243.963211,-16238.452940,-3108.680619,0.002938,-0.009687,1.002563,192.000000,0.000000,0.000000,0.000000,0.000000,0.000000,0.000000,0.000000,0.000000,0.000000,1771495446.120321,0.000000
200.000000,18251.920432,17371.038183,-13694.153868,-23986.953376,-20053.873367,-24069.408961,181.898496,-25714.609112,20585.666071,29844.920915,-24433.608286,-16574.824342,252.775878,18309.766747,-16176.225683,-3063.865371,0.004469,-0.009844,1.003281,192.000000,0.000000,24.000000,127.500000,88.000000,15.500000,48.000000,0.000000,0.000000,0.000000,1771495446.120332,0.000000
202.000000,18212.089623,17329.530994,-13738.812654,-24028.907601,-20098.129821,-24110.312654,138.603167,-25754.126996,20538.235669,29797.669327,-24489.152371,-16628.133253,194.996619,18254.133255,-16233.736722,-3105.797244,0.004469,-0.009844,1.003281,192.000000,0.000000,0.000000,0.000000,0.000000,0.000000,0.000000,0.000000,0.000000,0.000000,1771495446.120344,0.000000
204.000000,18270.204159,17390.975939,-13677.121839,-23968.289670,-20037.958925,-24049.426502,201.411569,-25694.961929,20561.906166,29829.297045,-24459.066923,-16594.806802,224.724439,18288.174962,-16202.913666,-3084.116052,0.004469,-0.009844,1.003281,192.000000,0.000000,0.000000,0.000000,0.000000,0.000000,0.000000,0.000000,0.000000,0.000000,1771495446.120356,0.000000
206.000000,18218.459871,17335.856537,-13735.839872,-24024.169031,-20098.353338,-24107.362224,142.000633,-25750.193089,20565.638908,29835.399072,-24457.167024,-16591.029357,225.618509,18296.154534,-16201.214934,-3079.578648,0.004469,-0.009844,1.003281,192.000000,0.000000,0.000000,0.000000,0.000000,0.000000,0.000000,0.000000,0.000000,0.000000,1771495446.120367,0.000000
208.000000,18249.372333,17369.093581,-13700.948799,-23988.249777,-20059.014268,-24068.783113,174.589476,-25717.268970,20526.188079,29797.803437,-24497.422516,-16629.921392,183.865450,18259.520025,-16240.241079,-3110.625221,0.004469,-0.009844,1.003281,192.000000,0.000000,0.000000,0.000000,0.000000,0.000000,0.000000,0.000000,0.000000,0.000000,1771495446.120379,0.000000
210.000000,18249.439388,17368.043049,-13701.149964,-23986.931024,-20067.172655,-24068.939575,176.489374,-25717.157211,20581.620405,29854.934496,-24437.385730,-16569.996365,245.735079,18312.471308,-16178.639672,-3061.451383,0.008234,-0.006922,1.001641,192.000000,0.000000,48.000000,127.500000,112.000000,15.500000,32.000000,0.000000,0.000000,0.000000,1771495446.120400,0.000000
212.000000,18214.905943,17330.894450,-13744.445293,-24028.795842,-20108.858658,-24111.542000,133.104638,-25755.155177,20533.698265,29795.277690,-24493.354499,-16626.211003,188.201688,18254.893214,-16239.481120,-3106.043113,0.008234,-0.006922,1.001641,192.000000,0.000000,0.000000,0.000000,0.000000,0.000000,0.000000,0.000000,0.000000,0.000000,1771495446.120412,0.000000
214.000000,18280.105982,17402.040053,-13678.507647,-23965.898033,-20038.808291,-24048.353618,199.958706,-25690.692746,20562.353201,29828.559438,-24459.983344,-16591.275226,219.494131,18292.690014,-16203.561867,-3082.350264,0.008234,-0.006922,1.001641,192.000000,0.000000,0.000000,0.000000,0.000000,0.000000,0.000000,0.000000,0.000000,0.000000,1771495446.120423,0.000000
216.000000,18227.244106,17344.819587,-13733.805863,-24022.179725,-20095.760536,-24102.713061,141.754763,-25742.548793,20565.773018,29833.007435,-24451.914364,-16584.614406,226.691392,18296.087479,-16198.398614,-3074.571857,0.008234,-0.006922,1.001641,192.000000,0.000000,0.000000,0.000000,0.000000,0.000000,0.000000,0.000000,0.000000,0.000000,1771495446.120434,0.000000
218.000000,18262.313993,17381.588206,-13696.076118,-23987.914501,-20054.990954,-24065.050371,177.651665,-25708.082403,20527.238611,29796.194112,-24488.124190,-16622.813537,191.889726,18254.356772,-16236.463635,-3105.886651,0.008234,-0.006922,1.001641,192.000000,0.000000,0.000000,0.000000,0.000000,0.000000,0.000000,0.000000,0.000000,0.000000,1771495446.120446,0.000000
220.000000,18264.012726,17380.649433,-13698.467755,-23988.719164,-20058.053143,-24069.654831,175.952932,-25711.882199,20584.503780,29855.917973,-24429.227344,-16562.776752,257.425041,18322.127261,-16173.454067,-3059.327967,0.008234,-0.006922,1.001641,192.000000,0.000000,0.000000,0.000000,0.000000,0.000000,0.000000,0.000000,0.000000,0.000000,1771495446.120457,0.000000
222.000000,18223.086682,17339.589279,-13741.316049,-24029.466394,-20103.181315,-24112.212552,132.456438,-25752.472967,20531.977180,29797.758734,-24489.912330,-16622.992351,193.186127,18258.245976,-16236.262469,-3105.774892,0.010000,-0.006000,1.000000,192.000000,0.000000,40.000000,127.500000,104.000000,15.500000,32.000000,0.000000,0.000000,0.000000,1771495446.120468,0.000000
224.000000,18284.688089,17401.615370,-13677.412412,-23967.663821,-20037.646000,-24048.152452,198.483491,-25690.156304,20560.810931,29828.939417,-24456.362361,-16589.934121,228.032497,18290.812467,-16201.751375,-3081.433842,0.010000,-0.006000,1.000000,192.000000,0.000000,0.000000,0.000000,0.000000,0.000000,0.000000,0.000000,0.000000,0.000000,1771495446.120479,0.000000
226.000000,18228.071121,17344.350200,-13737.292735,-24026.135984,-20097.235751,-24110.379709,138.022022,-25746.326237,20564.074286,29827.710072,-24454.954202,-16588.727127,224.523273,18290.052508,-16200.052643,-3076.114127,0.010000,-0.006000,1.000000,192.000000,0.000000,0.000000,0.000000,0.000000,0.000000,0.000000,0.000000,0.000000,0.000000,1771495446.120491,0.000000
228.000000,18264.772685,17381.632910,-13699.138307,-23990.954338,-20060.333021,-24069.096037,174.298903,-25710.138763,20530.569021,29788.393353,-24491.968690,-16625.406340,186.413549,18258.648307,-16239.861100,-3109.686447,0.010000,-0.006000,1.000000,192.000000,0.000000,0.000000,0.000000,0.000000,0.000000,0.000000,0.000000,0.000000,0.000000,1771495446.120502,0.000000
230.000000,18265.599700,17380.135343,-13699.026549,-23990.373193,-20059.640117,-24065.407999,175.081214,-25712.418641,20592.840981,29848.296028,-24429.607323,-16565.660127,255.346329,18317.366340,-16174.370488,-3061.764307,0.010000,-0.006000,1.000000,192.000000,0.000000,0.000000,0.000000,0.000000,0.000000,0.000000,0.000000,0.000000,0.000000,1771495446.120514,0.000000
232.000000,18220.806804,17333.733122,-13741.092532,-24030.785147,-20101.504934,-24110.580875,130.824760,-25754.797549,20536.514585,29791.343783,-24490.605234,-16626.523927,198.952877,18258.290679,-16234.049646,-3102.936221,0.006000,-0.006000,1.000000,192.000000,0.000000,24.000000,127.500000,104.000000,15.500000,32.000000,0.000000,0.000000,0.000000,1771495446.120525,0.000000
234.000000,18285.760973,17399.804878,-13673.165580,-23968.848463,-20035.321419,-24047.794825,197.701180,-25691.296243,20566.734143,29825.318435,-24458.731646,-16596.863162,226.557282,18284.956310,-16199.292684,-3079.913924,0.006000,-0.006000,1.000000,192.000000,0.000000,0.000000,0.000000,0.000000,0.000000,0.000000,0.000000,0.000000,0.000000,1771495446.120536,0.000000
236.000000,18228.115824,17338.047008,-13733.425883,-24029.108766,-20094.732355,-24107.697500,137.127952,-25748.315543,20577.597091,29833.745043,-24452.070827,-16590.157639,237.040250,18289.493715,-16197.035157,-3074.124822,0.006000,-0.006000,1.000000,192.000000,0.000000,0.000000,0.000000,0.000000,0.000000,0.000000,0.000000,0.000000,0.000000,1771495446.120547,0.000000
238.000000,18261.129351,17370.524093,-13701.284075,-23997.369289,-20061.160035,-24076.740334,173.069557,-25716.576066,20538.414483,29793.936586,-24494.293272,-16632.313029,191.397988,18246.377199,-16243.102103,-3112.793340,0.006000,-0.006000,1.000000,192.000000,0.000000,0.000000,0.000000,0.000000,0.000000,0.000000,0.000000,0.000000,0.000000,1771495446.120558,0.000000
240.000000,18261.330516,17372.669860,-13699.719453,-23995.067059,-20058.075495,-24071.286508,177.495203,-25715.950217,20593.936216,29856.387360,-24434.859983,-16573.460886,255.905122,18304.536439,-16180.383108,-3063.239522,0.006000,-0.006000,1.000000,192.000000,0.000000,0.000000,0.000000,0.000000,0.000000,0.000000,0.000000,0.000000,0.000000,1771495446.120570,0.000000
242.000000,18216.559972,17331.028561,-13739.952593,-24038.496499,-20100.364995,-24113.330139,133.842246,-25757.435054,20543.778902,29798.965728,-24493.153333,-16630.837814,204.272593,18257.821293,-16237.290649,-3105.573726,0.012000,-0.008000,0.998000,192.000000,0.000000,48.000000,127.500000,96.000000,15.500000,24.000000,0.000000,0.000000,0.000000,1771495446.120582,0.000000
244.000000,18277.021441,17391.266512,-13678.664110,-23977.140960,-20038.338904,-24058.009572,197.052979,-25699.432278,20570.109257,29835.667293,-24460.206862,-16598.316026,232.435791,18278.809581,-16201.304341,-3079.980979,0.012000,-0.008000,0.998000,192.000000,0.000000,0.000000,0.000000,0.000000,0.000000,0.000000,0.000000,0.000000,0.000000,1771495446.120593,0.000000
246.000000,18216.381158,17328.882793,-13739.594965,-24035.791938,-20099.627387,-24117.465212,136.122124,-25757.703275,20572.635004,29828.335920,-24461.950298,-16599.880648,234.268634,18273.735735,-16200.745547,-3079.913924,0.012000,-0.008000,0.998000,192.000000,0.000000,0.000000,0.000000,0.000000,0.000000,0.000000,0.000000,0.000000,0.000000,1771495446.120605,0.000000
248.000000,18253.172130,17364.466770,-13703.116918,-23999.246836,-20062.724657,-24081.456552,172.354301,-25722.968665,20533.921782,29787.119304,-24502.675176,-16642.013686,198.438787,18234.396664,-16241.202204,-3114.425017,0.012000,-0.008000,0.998000,192.000000,0.000000,0.000000,0.000000,0.000000,0.000000,0.000000,0.000000,0.000000,0.000000,1771495446.120616,0.000000
250.000000,18258.558900,17369.317099,-13701.485241,-23994.396507,-20064.043410,-24080.473075,177.428147,-25718.922999,20594.159734,29853.794557,-24438.413911,-16575.472543,259.794326,18298.076784,-16177.969119,-3063.284226,0.012000,-0.008000,0.998000,192.000000,0.000000,0.000000,0.000000,0.000000,0.000000,0.000000,0.000000,0.000000,0.000000,1771495446.120627,0.000000
252.000000,18220.002141,17334.738950,-13741.070180,-24031.366292,-20109.417452,-24115.118279,136.323289,-25754.059941,20543.868309,29803.525484,-24494.002699,-16628.200308,200.673962,18248.612374,-16237.849443,-3104.612601,0.008000,-0.012000,1.000000,192.000000,0.000000,32.000000,127.500000,80.000000,15.500000,32.000000,0.000000,0.000000,0.000000,1771495446.120638,0.000000
254.000000,18281.938825,17395.736861,-13679.044089,-23972.245928,-20053.895718,-24058.546014,200.271630,-25692.570292,20572.567948,29838.573019,-24458.351667,-16592.169296,233.262805,18274.987432,-16207.205201,-3081.389139,0.008000,-0.012000,1.000000,192.000000,0.000000,0.000000,0.000000,0.000000,0.000000,0.000000,0.000000,0.000000,0.000000,1771495446.120650,0.000000
0.000000,18223.868993,17338.203470,-13736.331610,-24029.779319,-20112.256123,-24116.079404,141.017156,-25748.784929,20576.300690,29842.976313,-24455.624754,-16589.867066,231.161741,18281.871770,-16208.501602,-3077.432880,0.008000,-0.012000,1.000000,192.000000,0.000000,0.000000,0.000000,0.000000,0.000000,0.000000,0.000000,0.000000,0.000000,1771495446.120661,0.000000
2.000000,18257.329554,17369.004174,-13700.255895,-23995.536446,-20071.374782,-24078.684935,174.656531,-25716.397252,20542.527204,29801.759696,-24493.063926,-16629.630820,198.550546,18240.386932,-16244.666725,-3105.640782,0.008000,-0.012000,1.000000,192.000000,0.000000,0.000000,0.000000,0.000000,0.000000,0.000000,0.000000,0.000000,0.000000,1771495446.120672,0.000000
4.000000,18262.626918,17375.732049,-13695.763194,-23991.423725,-20056.935556,-24074.393400,178.255162,-25711.211647,20596.171391,29858.913107,-24432.691864,-16570.845732,260.822506,18307.218648,-16178.662023,-3059.976168,0.008000,-0.012000,1.000000,192.000000,0.000000,0.000000,0.000000,0.000000,0.000000,0.000000,0.000000,0.000000,0.000000,1771495446.120683,0.000000
6.000000,18218.750443,17331.944982,-13741.673677,-24033.847336,-20101.750803,-24114.067747,131.450609,-25751.422435,20548.539823,29806.118286,-24486.738382,-16622.679427,207.178319,18254.982621,-16233.960239,-3103.450311,0.008000,-0.014000,1.002000,192.000000,0.000000,32.000000,127.500000,72.000000,15.500000,40.000000,0.000000,0.000000,0.000000,1771495446.120694,0.000000
8.000000,18281.223569,17396.139192,-13676.071307,-23971.441266,-20040.171747,-24055.729694,198.707008,-25689.441048,20574.780771,29838.304798,-24457.055266,-16591.744613,241.175323,18288.823162,-16205.998207,-3082.909057,0.008000,-0.014000,1.002000,192.000000,0.000000,0.000000,0.000000,0.000000,0.000000,0.000000,0.000000,0.000000,0.000000,1771495446.120705,0.000000
10.000000,18222.259667,17335.208337,-13736.845700,-24031.410996,-20105.483545,-24119.163945,138.603167,-25748.986095,20574.512550,29840.048234,-24455.289478,-16590.448211,238.046078,18291.035985,-16203.874791,-3079.958627,0.008000,-0.014000,1.002000,192.000000,0.000000,0.000000,0.000000,0.000000,0.000000,0.000000,0.000000,0.000000,0.000000,1771495446.120717,0.000000
12.000000,18251.473397,17363.639756,-13707.028473,-24000.654996,-20072.268852,-24084.004651,168.487450,-25722.968665,20534.592335,29795.992946,-24500.641167,-16636.224584,195.555412,18253.887386,-16247.751265,-3113.754465,0.008000,-0.014000,1.002000,192.000000,0.000000,0.000000,0.000000,0.000000,0.000000,0.000000,0.000000,0.000000,0.000000,1771495446.120728,0.000000
14.000000,18259.900005,17371.127590,-13705.173278,-23994.888245,-20068.625518,-24072.627613,171.683749,-25718.364205,20586.403678,29854.286296,-24442.727797,-16575.338432,253.848762,18302.793002,-16185.926340,-3060.087926,0.008000,-0.014000,1.002000,192.000000,0.000000,0.000000,0.000000,0.000000,0.000000,0.000000,0.000000,0.000000,0.000000,1771495446.120740,0.000000
16.000000,18221.678522,17331.967334,-13745.540529,-24031.053368,-20105.282379,-24106.311692,129.573063,-25755.110473,20542.527204,29805.470086,-24493.622719,-16624.378160,202.372694,18254.826159,-16240.129321,-3093.548488,-0.002000,-0.012000,1.004000,192.000000,127.500000,120.000000,127.500000,80.000000,15.500000,48.000000,0.000000,0.000000,0.000000,1771495446.120751,0.000000
18.000000,18283.905778,17392.361747,-13679.826400,-23971.105989,-20040.171747,-24044.196194,197.052979,-25694.827818,20571.249195,29836.851935,-24462.464388,-16593.666863,234.045116,18291.885351,-16207.495774,-3074.482450,-0.002000,-0.012000,1.004000,192.000000,0.000000,0.000000,0.000000,0.000000,0.000000,0.000000,0.000000,0.000000,0.000000,1771495446.120763,0.000000
20.000000,18228.473452,17332.481424,-13737.516253,-24030.986313,-20101.817858,-24109.172715,141.911226,-25751.958877,20576.725373,29840.808194,-24458.888109,-16592.705738,242.002337,18290.968930,-16202.399576,-3073.767194,-0.002000,-0.012000,1.004000,192.000000,0.000000,0.000000,0.000000,0.000000,0.000000,0.000000,0.000000,0.000000,0.000000,1771495446.120774,0.000000
22.000000,18258.313031,17366.567834,-13704.458023,-24000.029147,-20073.498198,-24086.150418,174.991807,-25721.560505,20536.089901,29797.378754,-24501.512885,-16636.090474,194.773101,18245.639592,-16245.493739,-3113.598003,-0.002000,-0.012000,1.004000,192.000000,0.000000,0.000000,0.000000,0.000000,0.000000,0.000000,0.000000,0.000000,0.000000,1771495446.120785,0.000000
24.000000,18268.326613,17377.564892,-13698.110127,-23992.004870,-20068.558463,-24079.981337,184.714816,-25712.440993,20593.399774,29862.981124,-24436.961047,-16570.912787,258.989663,18315.444090,-16181.008957,-3063.485392,-0.002000,-0.012000,1.004000,192.000000,0.000000,0.000000,0.000000,0.000000,0.000000,0.000000,0.000000,0.000000,0.000000,1771495446.120797,0.000000
26.000000,18223.846641,17330.737988,-13744.802921,-24036.730711,-20111.116184,-24119.946256,134.557502,-25756.563336,20542.549556,29809.448696,-24492.393374,-16625.138119,199.936354,18260.391743,-16240.442245,-3102.891517,0.004000,-0.010000,1.006000,192.000000,0.000000,16.000000,127.500000,88.000000,15.500000,56.000000,0.000000,0.000000,0.000000,1771495446.120808,0.000000
28.000000,18281.536493,17390.327739,-13679.424069,-23974.212882,-20043.926840,-24051.371104,197.991752,-25696.973586,20574.043164,29838.461261,-24461.682077,-16598.852467,233.106343,18294.254636,-16206.445242,-3079.109261,0.004000,-0.010000,1.006000,192.000000,0.000000,0.000000,0.000000,0.000000,0.000000,0.000000,0.000000,0.000000,0.000000,1771495446.120819,0.000000
30.000000,18225.992409,17331.877927,-13736.242203,-24028.728787,-20101.974321,-24106.177581,140.637176,-25752.405912,20575.697193,29841.791671,-24459.648068,-16594.560932,240.840047,18301.854229,-16200.812602,-3071.621427,0.004000,-0.010000,1.006000,192.000000,0.000000,0.000000,0.000000,0.000000,0.000000,0.000000,0.000000,0.000000,0.000000,1771495446.120830,0.000000
32.000000,18255.474359,17364.109142,-13703.608656,-24000.409126,-20072.246501,-24075.421581,172.533115,-25723.482755,20538.235669,29797.579920,-24503.748060,-16638.795035,198.595249,18261.039944,-16243.795007,-3109.082950,0.004000,-0.010000,1.006000,192.000000,0.000000,0.000000,0.000000,0.000000,0.000000,0.000000,0.000000,0.000000,0.000000,1771495446.120841,0.000000
34.000000,18263.476284,17369.920596,-13698.825383,-23994.709431,-20068.871387,-24080.853055,180.244467,-25716.039624,20596.596074,29866.982087,-24439.039760,-16574.936101,259.973140,18324.831822,-16181.210122,-3060.534961,0.004000,-0.010000,1.006000,192.000000,0.000000,0.000000,0.000000,0.000000,0.000000,0.000000,0.000000,0.000000,0.000000,1771495446.120853,0.000000
36.000000,18220.560935,17325.172403,-13740.086703,-24033.199135,-20111.429109,-24121.421471,137.753801,-25756.295116,20549.769169,29812.421478,-24491.029917,-16627.775625,204.227889,18264.415057,-16238.072960,-3103.740883,0.003000,-0.009000,1.008000,192.000000,0.000000,8.000000,127.500000,96.000000,15.500000,72.000000,0.000000,0.000000,0.000000,1771495446.120864,0.000000
38.000000,18281.312976,17388.114916,-13678.015909,-23973.922309,-20047.927803,-24060.311801,203.177357,-25695.319557,20578.826437,29842.484575,-24460.363324,-16598.092508,237.219064,18306.749261,-16206.624056,-3078.617523,0.003000,-0.009000,1.008000,192.000000,0.000000,0.000000,0.000000,0.000000,0.000000,0.000000,0.000000,0.000000,0.000000,1771495446.120875,0.000000
40.000000,18226.014760,17331.833223,-13733.090607,-24026.001874,-20101.303768,-24112.436070,146.739202,-25744.806319,20581.642757,29842.261057,-24455.490643,-16592.213999,239.677756,18295.238113,-16201.907838,-3069.676825,0.003000,-0.009000,1.008000,192.000000,0.000000,0.000000,0.000000,0.000000,0.000000,0.000000,0.000000,0.000000,0.000000,1771495446.120886,0.000000
42.000000,18257.955403,17364.802046,-13699.585342,-23995.670557,-20068.379649,-24073.007592,176.399967,-25713.290359,20544.538861,29806.610025,-24496.237874,-16630.368427,199.511671,18257.106037,-16245.046704,-3102.332723,0.003000,-0.009000,1.008000,192.000000,0.000000,0.000000,0.000000,0.000000,0.000000,0.000000,0.000000,0.000000,0.000000,1771495446.601894,0.000000
44.000000,18264.124485,17371.485218,-13695.606732,-23990.931987,-20061.785884,-24073.342868,179.998598,-25709.155286,20606.050862,29871.206566,-24431.149594,-16566.531845,265.628131,18327.111700,-16179.578445,-3052.533037,0.003000,-0.009000,1.008000,192.000000,0.000000,0.000000,0.000000,0.000000,0.000000,0.000000,0.000000,0.000000,0.000000,1771495446.601992,0.000000
46.000000,18221.723225,17328.435758,-13738.700895,-24034.115557,-20108.657492,-24113.374843,134.333984,-25749.008447,20552.339620,29819.194057,-24486.984251,-16622.411206,209.458197,18270.964118,-16240.106969,-3098.890555,0.007500,-0.008500,1.010000,192.000000,0.000000,48.000000,127.500000,96.000000,15.500000,80.000000,0.000000,0.000000,0.000000,1771495446.602048,0.000000
48.000000,18289.851342,17393.144058,-13672.427973,-23972.603556,-20045.983201,-24052.712208,199.355209,-25686.602376,20579.653451,29849.905354,-24454.417760,-16591.901075,227.876035,18301.183677,-16211.340274,-3082.573781,0.007500,-0.008500,1.010000,192.000000,0.000000,0.000000,0.000000,0.000000,0.000000,0.000000,0.000000,0.000000,0.000000,1771495446.602092,0.000000
50.000000,18234.307257,17335.923593,-13729.849604,-24028.237048,-20098.867428,-24108.144535,141.307728,-25742.012351,20586.180161,29862.087055,-24446.818167,-16586.201380,247.098535,18310.303189,-16205.774689,-3074.929485,0.007500,-0.008500,1.010000,192.000000,0.000000,0.000000,0.000000,0.000000,0.000000,0.000000,0.000000,0.000000,0.000000,1771495446.602157,0.000000
52.000000,18261.285813,17360.979898,-13699.138307,-23999.202132,-20072.470018,-24082.730601,172.466060,-25713.089193,20545.209413,29812.063850,-24492.639243,-16631.709532,197.701180,18263.520987,-16253.853292,-3110.602869,0.007500,-0.008500,1.010000,192.000000,0.000000,0.000000,0.000000,0.000000,0.000000,0.000000,0.000000,0.000000,0.000000,1771495446.602201,0.000000
54.000000,18264.482112,17361.650450,-13695.047938,-23993.860065,-20067.954966,-24080.160151,179.395101,-25709.714080,20599.524152,29869.820758,-24429.584972,-16567.470618,257.313282,18316.807546,-16189.815544,-3062.591322,0.007500,-0.008500,1.010000,192.000000,0.000000,0.000000,0.000000,0.000000,0.000000,0.000000,0.000000,0.000000,0.000000,1771495446.602246,0.000000
56.000000,18221.924391,17322.758415,-13736.286907,-24032.148603,-20104.500068,-24111.162020,133.864598,-25749.455482,20551.870233,29817.897656,-24486.671327,-16624.244049,203.713799,18263.610394,-16247.103065,-3104.791415,0.006750,-0.011250,1.008000,192.000000,0.000000,24.000000,127.500000,72.000000,15.500000,56.000000,0.000000,0.000000,0.000000,1771495446.602304,0.000000
58.000000,18284.442220,17385.767983,-13674.350223,-23969.407257,-20037.489538,-24049.851185,197.701180,-25690.312766,20578.357050,29854.085130,-24455.490643,-16590.582322,241.689413,18307.106889,-16211.630846,-3079.958627,0.006750,-0.011250,1.008000,192.000000,0.000000,0.000000,0.000000,0.000000,0.000000,0.000000,0.000000,0.000000,0.000000,1771495446.602315,0.000000
60.000000,18232.764987,17336.080055,-13730.609564,-24022.626760,-20094.464135,-24104.255331,142.179446,-25740.268915,20581.240425,29862.198813,-24451.310867,-16582.803915,245.355099,18318.573334,-16209.440375,-3074.415395,0.006750,-0.011250,1.008000,192.000000,0.000000,0.000000,0.000000,0.000000,0.000000,0.000000,0.000000,0.000000,0.000000,1771495446.602381,0.000000
62.000000,18263.520987,17367.417200,-13697.797203,-23991.513132,-20060.042448,-24068.425485,175.125918,-25708.708252,20545.097654,29816.847124,-24492.371022,-16625.026360,197.164738,18285.224531,-16254.255623,-3110.826386,0.006750,-0.011250,1.008000,192.000000,0.000000,0.000000,0.000000,0.000000,0.000000,0.000000,0.000000,0.000000,0.000000,1771495446.602456,0.000000
64.000000,18267.700764,17373.765096,-13692.276322,-23985.902844,-20057.851977,-24063.418694,182.747863,-25704.751993,20604.597998,29883.298860,-24424.958161,-16559.267528,268.332692,18345.373076,-16185.859285,-3058.053918,0.006750,-0.011250,1.008000,192.000000,0.000000,0.000000,0.000000,0.000000,0.000000,0.000000,0.000000,0.000000,0.000000,1771495446.602501,0.000000
66.000000,18216.001179,17322.087863,-13739.527910,-24027.030054,-20103.784812,-24109.373881,136.367993,-25750.930697,20553.233689,29822.502115,-24484.883187,-16616.599752,210.978116,18280.463610,-16245.471388,-3100.522232,0.006375,-0.010625,1.009000,192.000000,0.000000,24.000000,127.500000,88.000000,15.500000,72.000000,0.000000,0.000000,0.000000,1771495446.602546,0.000000
68.000000,18274.160418,17383.197532,-13675.110182,-23968.356725,-20038.875346,-24046.856051,200.472796,-25690.625690,20572.769114,29849.055987,-24460.765655,-16590.738784,232.905177,18310.325540,-16214.357759,-3079.869220,0.006375,-0.010625,1.009000,192.000000,0.000000,0.000000,0.000000,0.000000,0.000000,0.000000,0.000000,0.000000,0.000000,1771495446.602592,0.000000
70.000000,18221.432653,17329.106310,-13728.240279,-24021.173897,-20093.793582,-24102.824819,144.861656,-25740.023046,20578.535864,29853.258115,-24452.920193,-16584.904979,248.193770,18322.820165,-16206.959332,-3070.392081,0.006375,-0.010625,1.009000,192.000000,0.000000,0.000000,0.000000,0.000000,0.000000,0.000000,0.000000,0.000000,0.000000,1771495446.602603,0.000000
72.000000,18251.451045,17360.823436,-13697.037243,-23991.222559,-20060.757704,-24075.980374,174.388310,-25709.557618,20541.677838,29808.331109,-24491.387545,-16628.446177,195.689523,18276.239130,-16250.925213,-3106.780721,0.006375,-0.010625,1.009000,192.000000,0.000000,0.000000,0.000000,0.000000,0.000000,0.000000,0.000000,0.000000,0.000000,1771495446.602614,0.000000
74.000000,18259.542377,17370.144113,-13688.968264,-23986.014603,-20050.632364,-24070.973584,182.725511,-25703.388536,20598.987710,29875.989840,-24427.148631,-16562.106200,267.237457,18346.401256,-16185.121678,-3059.864409,0.006375,-0.010625,1.009000,192.000000,0.000000,0.000000,0.000000,0.000000,0.000000,0.000000,0.000000,0.000000,0.000000,1771495446.602626,0.000000
76.000000,18212.111975,17320.456185,-13738.142102,-24034.651999,-20099.515629,-24117.532267,132.478789,-25750.528365,20548.830396,29820.512810,-24483.184455,-16617.471471,208.184148,18290.946578,-16242.856233,-3104.322029,0.007188,-0.010312,1.009500,192.000000,0.000000,32.000000,127.500000,88.000000,15.500000,72.000000,0.000000,0.000000,0.000000,1771495446.602637,0.000000
78.000000,18271.724078,17382.571683,-13673.232636,-23969.541367,-20034.874384,-24052.220470,202.842081,-25689.441048,20570.556291,29843.088072,-24458.932812,-16592.795145,236.101477,18316.584029,-16215.542402,-3087.692331,0.007188,-0.010312,1.009500,192.000000,0.000000,0.000000,0.000000,0.000000,0.000000,0.000000,0.000000,0.000000,0.000000,1771495446.602648,0.000000
80.000000,18220.002141,17327.809909,-13727.480319,-24022.157374,-20088.183294,-24103.361261,147.946197,-25741.945296,20575.048992,29853.481633,-24453.411931,-16587.587188,242.918759,18330.240945,-16208.501602,-3078.885743,0.007188,-0.010312,1.009500,192.000000,0.000000,0.000000,0.000000,0.000000,0.000000,0.000000,0.000000,0.000000,0.000000,1771495446.602660,0.000000
82.000000,18243.449121,17352.039200,-13698.735976,-23994.910597,-20058.567233,-24077.097962,173.315427,-25715.972569,20548.562175,29818.411746,-24491.365193,-16626.970962,208.139444,18285.224531,-16250.388771,-3112.189843,0.007188,-0.010312,1.009500,192.000000,0.000000,0.000000,0.000000,0.000000,0.000000,0.000000,0.000000,0.000000,0.000000,1771495446.602674,0.000000
84.000000,18241.683333,17348.328811,-13691.225790,-23986.685155,-20051.951117,-24070.615956,180.803261,-25712.351586,20594.115030,29859.784825,-24435.329370,-16572.164485,265.382262,18343.942564,-16184.987567,-3061.049051,0.007188,-0.010312,1.009500,192.000000,0.000000,0.000000,0.000000,0.000000,0.000000,0.000000,0.000000,0.000000,0.000000,1771495446.602685,0.000000
