Sample_index,EXG Channel 0,EXG Channel 1,EXG Channel 2,EXG Channel 3,EXG Channel 4,EXG Channel 5,EXG Channel 6,EXG Channel 7,EXG Channel 8,EXG Channel 9,EXG Channel 10,EXG Channel 11,EXG Channel 12,EXG Channel 13,EXG Channel 14,EXG Channel 15,Accel Channel 0,Accel Channel 1,Accel Channel 2,Not Used,Digital Channel 0 (D11),Digital Channel 1 (D12),Digital Channel 2 (D13),Digital Channel 3 (D17),Not Used,Digital Channel 4 (D18),Analog Channel 0,Analog Channel 1,Analog Channel 2,Timestamp,Marker Channel
90.000000,17347.613555,16840.430121,-19631.648914,-21681.482694,-18656.777579,-24582.605014,-2673.223933,-25573.144921,20686.673604,25971.274194,-23362.266822,-16154.678602,-346.541446,17677.413544,-22578.681717,-12097.054672,0.006000,-0.010000,1.008000,192.000000,0.000000,0.000000,0.000000,0.000000,0.000000,0.000000,0.000000,0.000000,0.000000,1771494647.096685,101.000000
92.000000,17305.860496,16795.883095,-19675.480685,-21725.649741,-18698.485935,-24620.848849,-2721.816626,-25615.099146,20632.783548,25915.595998,-23420.381358,-16214.916553,-405.103017,17615.521564,-22637.533860,-12146.072047,0.006000,-0.010000,1.008000,192.000000,0.000000,0.000000,0.000000,0.000000,0.000000,0.000000,0.000000,0.000000,0.000000,1771494647.096784,0.000000
94.000000,17377.229616,16866.604014,-19609.028948,-21660.382648,-18631.006018,-24553.391284,-2652.347404,-25546.389883,20664.120694,25946.731978,-23387.054907,-16181.768916,-370.994254,17648.065704,-22604.475630,-12118.221774,0.008000,0.000000,1.006000,192.000000,0.000000,32.000000,0.000000,0.000000,15.500000,56.000000,0.000000,0.000000,0.000000,1771494647.096866,0.000000
96.000000,17312.856592,16802.029824,-19673.379621,-21719.950047,-18689.165257,-24603.481543,-2717.145111,-25607.365442,20671.429714,25954.018647,-23379.052982,-16176.136276,-364.378138,17659.286280,-22596.943092,-12106.196535,0.008000,0.000000,1.006000,192.000000,0.000000,0.000000,0.000000,0.000000,0.000000,0.000000,0.000000,0.000000,0.000000,1771494647.096950,0.000000
98.000000,17339.455168,16835.333924,-19644.769388,-21685.081325,-18658.230443,-24570.088037,-2684.377454,-25577.190587,20623.038187,25906.163562,-23432.518355,-16224.416044,-416.748275,17606.379700,-22645.021694,-12142.339306,0.008000,0.000000,1.006000,192.000000,0.000000,0.000000,0.000000,0.000000,0.000000,0.000000,0.000000,0.000000,0.000000,1771494647.097033,0.000000
100.000000,17346.004229,16838.463168,-19641.483681,-21676.364145,-18655.972917,-24565.617688,-2675.950846,-25570.350953,20676.972947,25967.586156,-23368.949994,-16158.858378,-355.929179,17671.579739,-22580.581615,-12080.559084,0.008000,0.000000,1.006000,192.000000,0.000000,0.000000,0.000000,0.000000,0.000000,0.000000,0.000000,0.000000,0.000000,1771494647.097118,0.000000
102.000000,17303.580618,16798.162973,-19683.214388,-21719.257142,-18700.117612,-24611.639930,-2721.458998,-25610.271169,20626.480356,25912.779678,-23425.902239,-16215.385940,-415.295412,17614.247515,-22641.311305,-12128.660039,0.008000,0.000000,1.006000,192.000000,0.000000,0.000000,0.000000,0.000000,0.000000,0.000000,0.000000,0.000000,0.000000,1771494647.097187,0.000000
104.000000,17370.389983,16866.156979,-19613.409890,-21655.264098,-18639.119701,-24551.156110,-2651.699203,-25544.065302,20659.046848,25952.051693,-23387.613700,-16178.349099,-377.118632,17651.105541,-22606.666101,-12104.833079,0.007000,-0.003000,1.006000,192.000000,0.000000,24.000000,127.500000,104.000000,15.500000,56.000000,0.000000,0.000000,0.000000,1771494647.097227,0.000000
106.000000,17320.545592,16815.887906,-19670.183321,-21710.897590,-18698.597693,-24611.952855,-2708.472634,-25594.155561,20666.355868,25963.674601,-23378.203616,-16169.564863,-370.569571,17657.006402,-22604.766203,-12107.694102,0.007000,-0.003000,1.006000,192.000000,0.000000,0.000000,0.000000,0.000000,0.000000,0.000000,0.000000,0.000000,0.000000,1771494647.097251,0.000000
108.000000,17346.920651,16848.074418,-19636.700408,-21682.242654,-18663.796027,-24580.794523,-2677.314303,-25564.651259,20634.102301,25922.614446,-23419.464936,-16211.206163,-412.389685,17610.559477,-22649.559098,-12153.403420,0.007000,-0.003000,1.006000,192.000000,0.000000,0.000000,0.000000,0.000000,0.000000,0.000000,0.000000,0.000000,0.000000,1771494647.097265,0.000000
110.000000,17353.693229,16854.936404,-19631.738321,-21679.359279,-18654.452998,-24580.369840,-2669.357082,-25559.063322,20694.809639,25983.746467,-23355.360133,-16147.436636,-345.848542,17675.468943,-22579.218159,-12100.541544,0.007000,-0.003000,1.006000,192.000000,0.000000,0.000000,0.000000,0.000000,0.000000,0.000000,0.000000,0.000000,0.000000,1771494647.097277,0.000000
112.000000,17300.652540,16799.615836,-19679.727516,-21729.471890,-18702.151621,-24628.068462,-2721.950736,-25611.187591,20639.623182,25923.597923,-23416.134526,-16209.105099,-405.773569,17617.019131,-22638.964372,-12151.078838,0.007000,-0.003000,1.006000,192.000000,0.000000,0.000000,0.000000,0.000000,0.000000,0.000000,0.000000,0.000000,0.000000,1771494647.097288,0.000000
114.000000,17368.400677,16867.989822,-19608.157230,-21660.919089,-18625.909820,-24554.844148,-2651.721555,-25544.713502,20669.418057,25949.704760,-23387.591349,-16183.713518,-375.352845,17645.919936,-22604.721499,-12127.140120,0.006500,-0.005500,1.004000,192.000000,0.000000,24.000000,127.500000,96.000000,15.500000,40.000000,0.000000,0.000000,0.000000,1771494647.097299,0.000000
116.000000,17311.649598,16812.445737,-19666.897615,-21716.418471,-18676.782391,-24605.493200,-2713.501777,-25601.933968,20679.319880,25963.719304,-23377.197787,-16171.442410,-363.461717,17662.795503,-22588.740002,-12111.091567,0.006500,-0.005500,1.004000,192.000000,0.000000,0.000000,0.000000,0.000000,0.000000,0.000000,0.000000,0.000000,0.000000,1771494647.097310,0.000000
118.000000,17336.191813,16836.697380,-19638.935583,-21687.696479,-18646.831053,-24572.032639,-2685.919724,-25578.486988,20633.431749,25915.372481,-23427.645675,-16221.532669,-407.002915,17612.325264,-22635.656313,-12150.676507,0.006500,-0.005500,1.004000,192.000000,0.000000,0.000000,0.000000,0.000000,0.000000,0.000000,0.000000,0.000000,0.000000,1771494647.097321,0.000000
120.000000,17339.924555,16840.117197,-19630.665437,-21681.348584,-18634.805815,-24561.929651,-2676.286122,-25575.558910,20685.757182,25972.347077,-23366.156026,-16163.015802,-346.273225,17675.692460,-22566.745885,-12088.315140,0.006500,-0.005500,1.004000,192.000000,0.000000,0.000000,0.000000,0.000000,0.000000,0.000000,0.000000,0.000000,0.000000,1771494647.097332,0.000000
122.000000,17289.834295,16791.233932,-19682.476781,-21728.957800,-18683.063231,-24607.326044,-2729.147998,-25626.453832,20628.827289,25912.064423,-23427.668026,-16224.952486,-406.980563,17614.448680,-22620.680645,-12128.928259,0.006500,-0.005500,1.004000,192.000000,0.000000,0.000000,0.000000,0.000000,0.000000,0.000000,0.000000,0.000000,0.000000,1771494647.097343,0.000000
124.000000,17362.410410,16862.223072,-19616.650893,-21657.320459,-18620.880678,-24535.666351,-2658.091802,-25558.415122,20650.977868,25940.249972,-23401.628244,-16197.169268,-379.353807,17648.602146,-22598.463011,-12102.754367,0.007250,-0.006750,1.003000,192.000000,0.000000,32.000000,127.500000,96.000000,15.500000,40.000000,0.000000,0.000000,0.000000,1771494647.097354,0.000000
126.000000,17312.007226,16812.110461,-19670.876225,-21709.578837,-18682.236216,-24594.496142,-2715.111102,-25606.292558,20665.573557,25959.628935,-23385.669099,-16178.952596,-366.970940,17670.685669,-22592.428040,-12089.253913,0.007250,-0.006750,1.003000,192.000000,0.000000,0.000000,0.000000,0.000000,0.000000,0.000000,0.000000,0.000000,0.000000,1771494647.097365,0.000000
128.000000,17344.014924,16844.140511,-19637.996809,-21681.147418,-18655.972917,-24573.463151,-2684.422157,-25575.044820,20628.000275,25921.608617,-23427.220992,-16219.632771,-410.690953,17625.088111,-22644.820529,-12139.746504,0.007250,-0.006750,1.003000,192.000000,0.000000,0.000000,0.000000,0.000000,0.000000,0.000000,0.000000,0.000000,0.000000,1771494647.097376,0.000000
130.000000,17359.236462,16856.724543,-19628.698484,-21671.603223,-18650.362629,-24572.502026,-2670.698186,-25563.712485,20690.786325,25985.713421,-23358.198805,-16153.225738,-338.830094,17688.254140,-22579.218159,-12093.836021,0.007250,-0.006750,1.003000,192.000000,0.000000,0.000000,0.000000,0.000000,0.000000,0.000000,0.000000,0.000000,0.000000,1771494647.097388,0.000000
132.000000,17308.967389,16804.264999,-19675.480685,-21720.598247,-18700.363481,-24622.748747,-2720.810797,-25611.276997,20642.663019,25928.202382,-23414.078166,-16207.004035,-402.085531,17625.624552,-22636.215107,-12148.150760,0.007250,-0.006750,1.003000,192.000000,0.000000,0.000000,0.000000,0.000000,0.000000,0.000000,0.000000,0.000000,0.000000,1771494647.097399,0.000000
134.000000,17372.200474,16865.441724,-19612.359358,-21658.750970,-18638.203280,-24561.124988,-2657.622416,-25551.195508,20665.841778,25951.112920,-23390.541779,-16181.880675,-375.129327,17648.780960,-22610.108269,-12129.598812,0.007625,-0.010375,1.005500,192.000000,0.000000,32.000000,127.500000,72.000000,15.500000,64.000000,0.000000,0.000000,0.000000,1771494647.097409,0.000000
136.000000,17316.835203,16809.964694,-19666.987022,-21715.658512,-18690.908693,-24613.025738,-2716.832187,-25608.170105,20673.486075,25962.892290,-23382.226930,-16174.638709,-360.153658,17657.676954,-22597.591293,-12115.047826,0.007625,-0.010375,1.005500,192.000000,0.000000,0.000000,0.000000,0.000000,0.000000,0.000000,0.000000,0.000000,0.000000,1771494647.097420,0.000000
138.000000,17341.153901,16833.702246,-19636.856870,-21689.954005,-18650.854367,-24579.319308,-2687.841974,-25584.387849,20624.871030,25912.153830,-23433.188907,-16226.718274,-417.642345,17604.792727,-22637.399749,-12154.610414,0.007625,-0.010375,1.005500,192.000000,0.000000,0.000000,0.000000,0.000000,0.000000,0.000000,0.000000,0.000000,0.000000,1771494647.097430,0.000000
140.000000,17347.010058,16837.926726,-19629.257277,-21681.929729,-18640.192585,-24568.456360,-2677.649579,-25579.582224,20684.639595,25970.603641,-23372.079238,-16166.212102,-348.262530,17670.797428,-22565.360077,-12094.618332,0.007625,-0.010375,1.005500,192.000000,0.000000,0.000000,0.000000,0.000000,0.000000,0.000000,0.000000,0.000000,0.000000,1771494647.097440,0.000000
142.000000,17288.426136,16782.717917,-19685.024880,-21732.243506,-18683.800838,-24611.081137,-2735.317079,-25636.757986,20629.564897,25914.746632,-23435.960524,-16227.277068,-407.874633,17612.481727,-22622.245267,-12137.131350,0.007625,-0.010375,1.005500,192.000000,0.000000,0.000000,0.000000,0.000000,0.000000,0.000000,0.000000,0.000000,0.000000,1771494647.097451,0.000000
144.000000,17359.303517,16849.080247,-19613.096966,-21661.053200,-18610.464765,-24536.538069,-2662.405689,-25566.238232,20651.804883,25939.869993,-23410.479535,-16201.550210,-380.203173,17641.136663,-22593.299758,-12111.315085,0.007812,-0.012188,1.007750,192.000000,0.000000,32.000000,127.500000,72.000000,15.500000,72.000000,0.000000,0.000000,0.000000,1771494647.097462,0.000000
146.000000,17315.695264,16803.549743,-19669.222196,-21712.238695,-18665.181835,-24587.187122,-2719.402637,-25612.327529,20669.798037,25955.292696,-23394.118058,-16187.848590,-366.076871,17653.541881,-22583.733211,-12092.338454,0.007812,-0.012188,1.007750,192.000000,0.000000,0.000000,0.000000,0.000000,0.000000,0.000000,0.000000,0.000000,0.000000,1771494647.097473,0.000000
148.000000,17349.245232,16837.971430,-19639.874356,-21678.599319,-18642.763036,-24561.057933,-2689.160727,-25579.850445,20635.063426,25917.942931,-23432.630114,-16221.733835,-408.813406,17613.219334,-22633.667008,-12129.196480,0.007812,-0.012188,1.007750,192.000000,0.000000,0.000000,0.000000,0.000000,0.000000,0.000000,0.000000,0.000000,0.000000,1771494647.097484,0.000000
150.000000,17357.873006,16844.386380,-19627.871469,-21670.820912,-18638.024466,-24555.537052,-2676.643750,-25568.518110,20692.216836,25985.780476,-23366.737171,-16152.711648,-341.422897,17681.414507,-22570.791551,-12078.279207,0.007812,-0.012188,1.007750,192.000000,0.000000,0.000000,0.000000,0.000000,0.000000,0.000000,0.000000,0.000000,0.000000,1771494647.097495,0.000000
152.000000,17318.019845,16801.493383,-19673.849007,-21718.184259,-18691.020452,-24612.198724,-2725.974050,-25611.567570,20649.614412,25932.672731,-23419.487288,-16207.719291,-396.788168,17619.969561,-22632.258848,-12138.181882,0.007812,-0.012188,1.007750,192.000000,0.000000,0.000000,0.000000,0.000000,0.000000,0.000000,0.000000,0.000000,0.000000,1771494647.097506,0.000000
154.000000,17385.946797,16869.733258,-19605.609132,-21655.733485,-18625.261620,-24553.167767,-2655.364890,-25545.249944,20677.196464,25964.725133,-23387.278424,-16177.857361,-365.741595,17649.116236,-22605.235589,-12124.815539,0.004906,-0.012094,1.006875,192.000000,0.000000,8.000000,127.500000,80.000000,15.500000,56.000000,0.000000,0.000000,0.000000,1771494647.097516,0.000000
156.000000,17324.121871,16809.115327,-19666.875263,-21713.825669,-18699.938798,-24618.948951,-2714.261736,-25601.151657,20680.526874,25972.212967,-23379.164741,-16169.296642,-362.880571,17650.055009,-22600.027633,-12119.965210,0.004906,-0.012094,1.006875,192.000000,0.000000,0.000000,0.000000,0.000000,0.000000,0.000000,0.000000,0.000000,0.000000,1771494647.097527,0.000000
158.000000,17353.782636,16832.450549,-19637.773292,-21687.048279,-18672.826132,-24590.986918,-2684.757434,-25572.764942,20633.565859,25921.519211,-23426.706901,-16216.257658,-414.691915,17594.779145,-22651.481348,-12166.434487,0.004906,-0.012094,1.006875,192.000000,0.000000,0.000000,0.000000,0.000000,0.000000,0.000000,0.000000,0.000000,0.000000,1771494647.097538,0.000000
160.000000,17360.108180,16839.513700,-19626.575068,-21675.805351,-18657.068152,-24580.414543,-2671.301683,-25564.427741,20692.395650,25981.421886,-23360.590441,-16150.856453,-345.848542,17661.812027,-22580.380449,-12108.588172,0.004906,-0.012094,1.006875,192.000000,0.000000,0.000000,0.000000,0.000000,0.000000,0.000000,0.000000,0.000000,0.000000,1771494647.097548,0.000000
162.000000,17300.607836,16782.293234,-19679.638109,-21726.946143,-18710.801746,-24624.894515,-2725.772885,-25618.720128,20635.197536,25919.552257,-23420.604875,-16211.228515,-409.036924,17602.155221,-22635.388092,-12148.933071,0.004906,-0.012094,1.006875,192.000000,0.000000,0.000000,0.000000,0.000000,0.000000,0.000000,0.000000,0.000000,0.000000,1771494647.097558,0.000000
164.000000,17364.600881,16849.862558,-19616.159155,-21660.896738,-18643.388884,-24556.676991,-2658.069451,-25557.923383,20649.681467,25938.394778,-23399.080145,-16192.520105,-386.238144,17621.064797,-22609.683586,-12124.636725,0.004906,-0.012094,1.006875,192.000000,0.000000,0.000000,0.000000,0.000000,0.000000,0.000000,0.000000,0.000000,0.000000,1771494647.097568,0.000000
166.000000,17305.815793,16788.350557,-19678.788743,-21715.837326,-18701.190496,-24613.539828,-2718.709733,-25615.345015,20653.905946,25949.883574,-23394.207465,-16184.585236,-381.074891,17630.653695,-22599.379432,-12108.007027,0.008000,-0.010000,1.006000,192.000000,0.000000,32.000000,127.500000,88.000000,15.500000,56.000000,0.000000,0.000000,0.000000,1771494647.097578,0.000000
168.000000,17333.442549,16820.648828,-19647.138673,-21682.332061,-18669.428667,-24582.314441,-2686.836146,-25583.940814,20610.163583,25899.659204,-23443.224841,-16229.311076,-429.689935,17586.240779,-22648.039180,-12143.613356,0.008000,-0.010000,1.006000,192.000000,0.000000,0.000000,0.000000,0.000000,0.000000,0.000000,0.000000,0.000000,0.000000,1771494647.097589,0.000000
170.000000,17350.340468,16840.899508,-19632.319466,-21669.278642,-18650.161463,-24566.936441,-2671.815773,-25568.138131,20676.548264,25975.275156,-23370.604023,-16154.835064,-355.772716,17660.314460,-22578.547606,-12081.319044,0.008000,-0.010000,1.006000,192.000000,0.000000,0.000000,0.000000,0.000000,0.000000,0.000000,0.000000,0.000000,0.000000,1771494647.097599,0.000000
172.000000,17307.156897,16796.196019,-19676.866493,-21718.743052,-18692.272150,-24617.071404,-2724.208262,-25613.758041,20632.112996,25931.532792,-23422.393015,-16205.864096,-406.265307,17611.677064,-22634.538726,-12132.482187,0.008000,-0.010000,1.006000,192.000000,0.000000,0.000000,0.000000,0.000000,0.000000,0.000000,0.000000,0.000000,0.000000,1771494647.097610,0.000000
174.000000,17387.354957,16878.249273,-19598.993015,-21646.591621,-18613.996341,-24544.003551,-2648.502904,-25538.991456,20667.853435,25965.708609,-23388.731288,-16175.778648,-368.692025,17647.104579,-22601.212275,-12119.987562,0.008000,-0.010000,1.006000,192.000000,0.000000,0.000000,0.000000,0.000000,0.000000,0.000000,0.000000,0.000000,0.000000,1771494647.097620,0.000000
176.000000,17335.633020,16821.989932,-19657.085199,-21703.610921,-18677.274129,-24601.358128,-2706.975067,-25593.306195,20687.321804,25988.239168,-23371.520444,-16157.830198,-349.894208,17665.745934,-22588.672947,-12111.180974,0.002000,-0.010000,1.008000,192.000000,0.000000,8.000000,127.500000,88.000000,15.500000,64.000000,0.000000,0.000000,0.000000,1771494647.097631,0.000000
178.000000,17362.075134,16849.437874,-19630.307809,-21679.024002,-18655.659992,-24583.588491,-2678.320131,-25568.272241,20646.015781,25939.288847,-23418.548515,-16206.981684,-401.660848,17610.134794,-22640.149014,-12158.521969,0.002000,-0.010000,1.008000,192.000000,0.000000,0.000000,0.000000,0.000000,0.000000,0.000000,0.000000,0.000000,0.000000,1771494647.097641,0.000000
180.000000,17364.578529,16849.393171,-19622.350588,-21671.603223,-18650.206167,-24576.055953,-2668.105384,-25564.807721,20699.324691,25996.621072,-23357.058866,-16145.983773,-337.220769,17671.378573,-22577.787647,-12105.704797,0.002000,-0.010000,1.008000,192.000000,0.000000,0.000000,0.000000,0.000000,0.000000,0.000000,0.000000,0.000000,0.000000,1771494647.097651,0.000000
182.000000,17308.565057,16793.245589,-19675.413629,-21719.257142,-18700.765812,-24620.625331,-2720.453169,-25618.854239,20643.691199,25933.365635,-23421.387186,-16208.926285,-394.575345,17610.403014,-22634.203450,-12146.183806,0.002000,-0.010000,1.008000,192.000000,0.000000,0.000000,0.000000,0.000000,0.000000,0.000000,0.000000,0.000000,0.000000,1771494647.097661,0.000000
184.000000,17372.267529,16858.557386,-19608.336044,-21654.682953,-18636.191623,-24552.988953,-2651.408631,-25556.492872,20665.461798,25959.897156,-23398.700166,-16184.093497,-369.921371,17634.364085,-22604.565037,-12118.780568,0.002000,-0.010000,1.008000,192.000000,0.000000,0.000000,0.000000,0.000000,0.000000,0.000000,0.000000,0.000000,0.000000,1771494647.097671,0.000000
186.000000,17310.375549,16793.983196,-19668.149313,-21714.004483,-18697.033071,-24608.488334,-2711.445416,-25614.652111,20668.501636,25963.585194,-23391.748773,-16180.651329,-360.645397,17640.756683,-22595.825505,-12103.916657,0.006000,-0.008000,1.010000,192.000000,0.000000,24.000000,127.500000,96.000000,15.500000,72.000000,0.000000,0.000000,0.000000,1771494647.097682,0.000000
188.000000,17337.219994,16821.632304,-19641.483681,-21686.780058,-18668.936928,-24579.900453,-2685.137413,-25586.600672,20615.885629,25910.835077,-23443.336599,-16231.836823,-419.206967,17589.168857,-22644.664066,-12144.127446,0.006000,-0.008000,1.010000,192.000000,0.000000,0.000000,0.000000,0.000000,0.000000,0.000000,0.000000,0.000000,0.000000,1771494647.097693,0.000000
190.000000,17353.626174,16840.161901,-19629.190222,-21668.675145,-18654.989440,-24565.394171,-2668.887695,-25569.546291,20680.884502,25984.506426,-23370.492264,-16157.114942,-353.068155,17657.118160,-22575.060734,-12083.375404,0.006000,-0.008000,1.010000,192.000000,0.000000,0.000000,0.000000,0.000000,0.000000,0.000000,0.000000,0.000000,0.000000,1771494647.097703,0.000000
192.000000,17303.982950,16790.451621,-19677.939377,-21716.932561,-18701.078737,-24615.752651,-2721.347239,-25615.993216,20631.084815,25932.337455,-23424.672893,-16209.373320,-407.092322,17604.166878,-22630.984799,-12128.972963,0.006000,-0.008000,1.010000,192.000000,0.000000,0.000000,0.000000,0.000000,0.000000,0.000000,0.000000,0.000000,0.000000,1771494647.097714,0.000000
194.000000,17382.549331,16865.821703,-19603.105736,-21649.854976,-18620.299532,-24545.903450,-2648.301738,-25543.528860,20659.560938,25960.590060,-23394.475686,-16180.427811,-375.285789,17631.011323,-22602.195752,-12111.873878,0.006000,-0.008000,1.010000,192.000000,0.000000,0.000000,0.000000,0.000000,0.000000,0.000000,0.000000,0.000000,0.000000,1771494647.097724,0.000000
196.000000,17328.659276,16812.669255,-19657.040496,-21704.192067,-18664.712449,-24601.983977,-2704.695190,-25596.346032,20684.237264,25980.684278,-23378.270671,-16164.334555,-351.101202,17649.183291,-22582.123885,-12100.295675,0.008000,-0.010000,1.008000,192.000000,0.000000,32.000000,127.500000,88.000000,15.500000,64.000000,0.000000,0.000000,0.000000,1771494647.097735,0.000000
198.000000,17354.699058,16840.519528,-19630.777196,-21680.387459,-18639.991419,-24576.614747,-2678.722463,-25570.797988,20644.786435,25935.354940,-23425.879887,-16211.742605,-395.357656,17602.602256,-22631.521241,-12145.893234,0.008000,-0.010000,1.008000,192.000000,0.000000,0.000000,0.000000,0.000000,0.000000,0.000000,0.000000,0.000000,0.000000,1771494647.097746,0.000000
200.000000,17367.886587,16852.701229,-19619.914248,-21667.848130,-18634.828166,-24563.896604,-2663.679738,-25558.504529,20702.319825,26000.353813,-23359.584613,-16146.430808,-329.464713,17667.846998,-22567.483493,-12090.617369,0.008000,-0.010000,1.008000,192.000000,0.000000,0.000000,0.000000,0.000000,0.000000,0.000000,0.000000,0.000000,0.000000,1771494647.097756,0.000000
202.000000,17318.176307,16801.336920,-19671.144446,-21719.100680,-18692.473315,-24615.819706,-2718.285050,-25607.633663,20651.715476,25947.044903,-23414.681663,-16200.253809,-389.188574,17611.252381,-22625.419214,-12134.560899,0.008000,-0.010000,1.008000,192.000000,0.000000,0.000000,0.000000,0.000000,0.000000,0.000000,0.000000,0.000000,0.000000,1771494647.097767,0.000000
204.000000,17379.554198,16864.704116,-19604.737413,-21654.124159,-18632.436530,-24546.171671,-2648.838180,-25546.255773,20673.843703,25963.518138,-23390.407668,-16178.371451,-366.590961,17630.586640,-22603.715671,-12115.696027,0.008000,-0.010000,1.008000,192.000000,0.000000,0.000000,0.000000,0.000000,0.000000,0.000000,0.000000,0.000000,0.000000,1771494647.097778,0.000000
206.000000,17319.450357,16798.900580,-19665.802379,-21711.746956,-18694.037937,-24611.774041,-2707.444454,-25608.058346,20678.872845,25971.609470,-23386.071430,-16173.342308,-363.148792,17638.275640,-22595.959615,-12099.915695,0.004000,-0.014000,1.008000,192.000000,0.000000,16.000000,127.500000,72.000000,15.500000,64.000000,0.000000,0.000000,0.000000,1771494647.097788,0.000000
208.000000,17338.158767,16820.268848,-19640.455501,-21691.585683,-18675.485990,-24593.289148,-2685.427986,-25588.098238,20628.939048,25912.466754,-23440.497928,-16231.166271,-422.470322,17578.104744,-22646.586316,-12145.267385,0.004000,-0.014000,1.008000,192.000000,0.000000,0.000000,0.000000,0.000000,0.000000,0.000000,0.000000,0.000000,0.000000,1771494647.097798,0.000000
210.000000,17361.605747,16843.112331,-19622.507050,-21672.698459,-18656.755228,-24572.680840,-2665.937265,-25566.998192,20692.440354,25981.645403,-23369.531139,-16160.870035,-350.520057,17650.077361,-22577.362964,-12088.270436,0.004000,-0.014000,1.008000,192.000000,0.000000,0.000000,0.000000,0.000000,0.000000,0.000000,0.000000,0.000000,0.000000,1771494647.576781,0.000000
212.000000,17310.442604,16790.876304,-19675.681850,-21723.839250,-18709.550048,-24622.346416,-2722.755399,-25618.541314,20651.648420,25937.925391,-23420.180192,-16210.356797,-403.381932,17603.831602,-22632.124738,-12131.096379,0.004000,-0.014000,1.008000,192.000000,0.000000,0.000000,0.000000,0.000000,0.000000,0.000000,0.000000,0.000000,0.000000,1771494647.576848,0.000000
214.000000,17385.119782,16865.106447,-19601.496411,-21650.704342,-18636.415140,-24550.440854,-2646.558302,-25546.702808,20673.329612,25963.227566,-23397.224950,-16187.401555,-377.744481,17627.882079,-22607.761336,-12117.439463,0.004000,-0.014000,1.008000,192.000000,0.000000,0.000000,0.000000,0.000000,0.000000,0.000000,0.000000,0.000000,0.000000,1771494647.576891,0.000000
216.000000,17334.291915,16817.340769,-19655.498225,-21704.929674,-18684.337280,-24602.833343,-2701.007152,-25595.898997,20694.139087,25983.925281,-23376.594290,-16167.284985,-356.555028,17646.724599,-22589.879941,-12100.094509,0.004000,-0.012000,1.008000,192.000000,0.000000,16.000000,127.500000,80.000000,15.500000,64.000000,0.000000,0.000000,0.000000,1771494647.576933,0.000000
218.000000,17359.571738,16842.486482,-19632.006542,-21684.008441,-18656.196434,-24578.089962,-2678.566000,-25570.909747,20647.960382,25936.383121,-23422.482422,-16212.837841,-403.940726,17599.361253,-22637.958543,-12147.994298,0.004000,-0.012000,1.008000,192.000000,0.000000,0.000000,0.000000,0.000000,0.000000,0.000000,0.000000,0.000000,0.000000,1771494647.576984,0.000000
220.000000,17375.776753,16860.591395,-19620.361283,-21671.022078,-18638.650315,-24565.908261,-2663.098593,-25557.319886,20704.130316,26000.353813,-23358.936412,-16148.621279,-335.209112,17663.331945,-22571.752676,-12094.663035,0.004000,-0.012000,1.008000,192.000000,0.000000,0.000000,0.000000,0.000000,0.000000,0.000000,0.000000,0.000000,0.000000,1771494647.577024,0.000000
222.000000,17326.088825,16811.439909,-19671.032688,-21719.123032,-18692.272150,-24612.534000,-2716.251041,-25607.097221,20662.131388,25957.416112,-23413.251151,-16198.800945,-388.138042,17617.354407,-22626.760319,-12135.589079,0.004000,-0.012000,1.008000,192.000000,0.000000,0.000000,0.000000,0.000000,0.000000,0.000000,0.000000,0.000000,0.000000,1771494647.577065,0.000000
224.000000,17388.785468,16873.242482,-19603.664530,-21653.386552,-18626.826242,-24545.903450,-2648.189980,-25545.696979,20682.739697,25978.225586,-23392.553436,-16175.242206,-368.535563,17635.302858,-22601.413441,-12113.527908,0.004000,-0.012000,1.008000,192.000000,0.000000,0.000000,0.000000,0.000000,0.000000,0.000000,0.000000,0.000000,0.000000,1771494647.577107,0.000000
226.000000,17327.698151,16814.703264,-19659.320373,-21712.417509,-18682.929120,-24605.247331,-2706.639791,-25602.738631,20692.395650,25981.041906,-23379.969404,-16171.040079,-357.583208,17652.223128,-22586.683641,-12096.764099,0.004000,-0.016000,1.004000,192.000000,0.000000,16.000000,127.500000,64.000000,15.500000,48.000000,0.000000,0.000000,0.000000,1771494647.577148,0.000000
228.000000,17343.880814,16830.215374,-19639.270859,-21693.351471,-18666.500588,-24587.432991,-2685.875021,-25583.784352,20645.702856,25921.675673,-23433.948867,-16227.299419,-406.980563,17587.783049,-22640.126662,-12140.037076,0.004000,-0.016000,1.004000,192.000000,0.000000,0.000000,0.000000,0.000000,0.000000,0.000000,0.000000,0.000000,0.000000,1771494647.577195,0.000000
230.000000,17358.789427,16847.292107,-19621.702388,-21676.319441,-18649.759132,-24573.709020,-2665.289064,-25566.171177,20705.337310,25988.619147,-23368.033572,-16160.870035,-344.686251,17655.017096,-22569.741019,-12078.636834,0.004000,-0.016000,1.004000,192.000000,0.000000,0.000000,0.000000,0.000000,0.000000,0.000000,0.000000,0.000000,0.000000,1771494647.577237,0.000000
232.000000,17306.687511,16796.620702,-19679.235778,-21726.208535,-18708.901847,-24627.889648,-2721.302536,-25616.999044,20648.474473,25931.778661,-23426.215163,-16214.380111,-404.655982,17599.607122,-22631.253020,-12127.855376,0.004000,-0.016000,1.004000,192.000000,0.000000,0.000000,0.000000,0.000000,0.000000,0.000000,0.000000,0.000000,0.000000,1771494647.577274,0.000000
234.000000,17376.380250,16870.247349,-19606.458498,-21650.950211,-18635.789291,-24548.272735,-2645.820695,-25544.914668,20670.066258,25962.914641,-23398.946035,-16183.490000,-378.213868,17628.642038,-22608.700110,-12110.219849,0.004000,-0.016000,1.004000,192.000000,0.000000,0.000000,0.000000,0.000000,0.000000,0.000000,0.000000,0.000000,0.000000,1771494647.577285,0.000000
236.000000,17323.876002,16814.904429,-19664.483626,-21705.242599,-18691.221618,-24606.789602,-2702.996457,-25597.262454,20684.706650,25984.931110,-23383.188055,-16166.212102,-361.137135,17649.227995,-22594.998490,-12094.618332,0.001000,-0.015000,1.007000,192.000000,127.500000,120.000000,127.500000,72.000000,15.500000,72.000000,0.000000,0.000000,0.000000,1771494647.577295,0.000000
238.000000,17344.819587,16836.831491,-19640.589612,-21687.562369,-18671.976766,-24588.707040,-2682.142279,-25576.900015,20634.325818,25927.464775,-23435.625247,-16218.515184,-420.972755,17591.448735,-22649.961430,-12148.597795,0.001000,-0.015000,1.007000,192.000000,0.000000,0.000000,0.000000,0.000000,0.000000,0.000000,0.000000,0.000000,0.000000,1771494647.577306,0.000000
240.000000,17357.694192,16849.057895,-19625.792757,-21673.816046,-18654.631812,-24570.780941,-2666.138430,-25564.472445,20692.507409,25996.531665,-23368.368848,-16150.208253,-350.453001,17657.609899,-22577.877054,-12091.779660,0.001000,-0.015000,1.007000,192.000000,0.000000,0.000000,0.000000,0.000000,0.000000,0.000000,0.000000,0.000000,0.000000,1771494647.577316,0.000000
242.000000,17301.591313,16788.931702,-19679.571054,-21727.504936,-18706.979597,-24618.099584,-2722.174254,-25618.653073,20642.104225,25942.485147,-23427.533916,-16209.418024,-404.454816,17603.339863,-22632.504717,-12136.036114,0.001000,-0.015000,1.007000,192.000000,0.000000,0.000000,0.000000,0.000000,0.000000,0.000000,0.000000,0.000000,0.000000,1771494647.577327,0.000000
244.000000,17367.730125,16857.529206,-19610.973550,-21659.689743,-18634.939925,-24549.971467,-2651.743907,-25555.263526,20658.957441,25963.182862,-23406.366814,-16191.022538,-381.052539,17622.271791,-22609.214200,-12115.763082,0.001000,-0.015000,1.007000,192.000000,0.000000,0.000000,0.000000,0.000000,0.000000,0.000000,0.000000,0.000000,0.000000,1771494647.577337,0.000000
246.000000,17314.376511,16807.818926,-19665.087124,-21713.244523,-18689.701699,-24600.709927,-2706.840957,-25608.706547,20673.016688,25980.304298,-23392.262863,-16176.180980,-364.065214,17641.002553,-22592.159819,-12095.601809,0.001000,-0.015000,1.007000,192.000000,0.000000,0.000000,127.500000,96.000000,15.500000,72.000000,0.000000,0.000000,0.000000,1771494647.577347,0.000000
248.000000,17335.230688,16826.348522,-19644.434112,-21693.642043,-18670.255681,-24588.215302,-2687.841974,-25589.439343,20623.619333,25931.242219,-23445.527070,-16228.729931,-420.592775,17584.340880,-22645.669895,-12138.874786,0.001000,-0.015000,1.007000,192.000000,0.000000,0.000000,0.000000,0.000000,0.000000,0.000000,0.000000,0.000000,0.000000,1771494647.577357,0.000000
250.000000,17348.284107,16839.804273,-19629.301981,-21680.141590,-18657.492835,-24577.352354,-2669.714709,-25576.073000,20686.740659,25994.922339,-23377.890692,-16163.351078,-352.799934,17649.965602,-22578.011164,-12080.782602,0.001000,-0.015000,1.007000,192.000000,0.000000,0.000000,0.000000,0.000000,0.000000,0.000000,0.000000,0.000000,0.000000,1771494647.577368,0.000000
252.000000,17296.696281,16788.037632,-19682.029746,-21732.332913,-18707.940722,-24632.963494,-2724.565890,-25628.934876,20632.448272,25939.244144,-23435.871117,-16220.504489,-410.288621,17583.156238,-22629.822508,-12124.592021,0.001000,-0.015000,1.007000,192.000000,0.000000,0.000000,0.000000,0.000000,0.000000,0.000000,0.000000,0.000000,0.000000,1771494647.577379,0.000000
254.000000,17370.501741,16860.949023,-19609.587742,-21662.461360,-18639.924364,-24563.829549,-2650.581616,-25559.577413,20653.660077,25965.239223,-23413.117041,-16198.912704,-385.053502,17608.346654,-22607.649578,-12110.108091,0.001000,-0.015000,1.007000,192.000000,0.000000,0.000000,0.000000,0.000000,0.000000,0.000000,0.000000,0.000000,0.000000,1771494647.577389,0.000000
0.000000,17323.339560,16815.083243,-19660.706182,-21710.092927,-18689.589940,-24611.416413,-2701.230669,-25605.331433,20675.497732,25993.849456,-23390.877055,-16174.839875,-366.210981,17629.714922,-22588.382374,-12092.897247,0.002500,-0.012500,1.007500,192.000000,0.000000,16.000000,127.500000,88.000000,15.500000,64.000000,0.000000,0.000000,0.000000,1771494647.577399,0.000000
2.000000,17343.634944,16837.122063,-19639.807301,-21687.964700,-18669.898053,-24590.964567,-2679.415367,-25582.175026,20630.503670,25945.592039,-23439.782672,-16220.191565,-412.344982,17584.474991,-22640.752511,-12142.071085,0.002500,-0.012500,1.007500,192.000000,0.000000,0.000000,0.000000,0.000000,0.000000,0.000000,0.000000,0.000000,0.000000,1771494647.577410,0.000000
4.000000,17368.713602,16859.205587,-19618.975475,-21672.273776,-18644.998210,-24568.210491,-2661.936302,-25565.008886,20698.698842,26013.183715,-23372.548625,-16153.069276,-341.892283,17657.721657,-22573.540816,-12090.907942,0.002500,-0.012500,1.007500,192.000000,0.000000,0.000000,0.000000,0.000000,0.000000,0.000000,0.000000,0.000000,0.000000,1771494647.577420,0.000000
6.000000,17315.516450,16808.444775,-19669.669231,-21720.352378,-18699.782336,-24612.221076,-2713.434722,-25613.333358,20664.813598,25970.983621,-23417.632093,-16199.985588,-381.745444,17609.017206,-22620.859459,-12127.855376,0.002500,-0.012500,1.007500,192.000000,0.000000,0.000000,0.000000,0.000000,0.000000,0.000000,0.000000,0.000000,0.000000,1771494647.577431,0.000000
8.000000,17378.391907,16867.252215,-19600.088251,-21654.660601,-18629.754320,-24544.383531,-2643.138485,-25550.569660,20661.997278,25978.046772,-23403.282273,-16187.066279,-377.520964,17621.176555,-22603.156877,-12112.209155,0.002500,-0.012500,1.007500,192.000000,0.000000,0.000000,0.000000,0.000000,0.000000,0.000000,0.000000,0.000000,0.000000,1771494647.577441,0.000000
10.000000,17320.702055,16815.105595,-19660.415609,-21709.288264,-18686.974786,-24600.017023,-2701.744759,-25605.733765,20680.124543,26003.617168,-23387.926625,-16166.077991,-356.689138,17647.149282,-22585.767220,-12089.499782,0.002500,-0.012500,1.007500,192.000000,0.000000,0.000000,127.500000,104.000000,15.500000,88.000000,0.000000,0.000000,0.000000,1771494647.577451,0.000000
12.000000,17341.533880,16839.066665,-19644.769388,-21691.719793,-18675.687155,-24584.236692,-2683.081053,-25586.913596,20626.145080,25949.570650,-23445.169442,-16222.717312,-418.447008,17588.118325,-22644.082921,-12137.712495,0.002500,-0.012500,1.007500,192.000000,0.000000,0.000000,0.000000,0.000000,0.000000,0.000000,0.000000,0.000000,0.000000,1771494647.577461,0.000000
14.000000,17361.292823,16857.842130,-19625.591591,-21674.531302,-18664.623042,-24572.971412,-2660.326977,-25567.355820,20684.974871,26022.459688,-23377.108380,-16153.762180,-355.057461,17656.067628,-22580.313394,-12081.810782,0.002500,-0.012500,1.007500,192.000000,0.000000,0.000000,0.000000,0.000000,0.000000,0.000000,0.000000,0.000000,0.000000,1771494647.577471,0.000000
16.000000,17305.905200,16806.231952,-19679.213426,-21729.293076,-18717.954304,-24630.661265,-2717.100408,-25618.451907,20629.050807,25964.099284,-23431.400768,-16207.786346,-412.792017,17595.941436,-22634.404616,-12127.274230,0.002500,-0.012500,1.007500,192.000000,0.000000,0.000000,0.000000,0.000000,0.000000,0.000000,0.000000,0.000000,0.000000,1771494647.577482,0.000000
18.000000,17371.596977,16875.835285,-19611.733510,-21667.691668,-18647.412198,-24574.312517,-2651.051003,-25557.252831,20645.300525,25982.450066,-23412.245323,-16189.681433,-392.541336,17614.247515,-22611.069394,-12110.845698,0.002500,-0.012500,1.007500,192.000000,0.000000,0.000000,0.000000,0.000000,0.000000,0.000000,0.000000,0.000000,0.000000,1771494647.577492,0.000000
20.000000,17320.344427,16821.855822,-19665.020068,-21718.832459,-18698.463583,-24626.414433,-2703.689361,-25608.840657,20661.706705,25998.766839,-23396.979081,-16175.532779,-376.895115,17626.518622,-22591.489266,-12094.238352,0.000250,-0.011250,1.009750,192.000000,127.500000,120.000000,127.500000,88.000000,15.500000,80.000000,0.000000,0.000000,0.000000,1771494647.577502,0.000000
22.000000,17335.320095,16841.458302,-19644.478815,-21697.687709,-18676.558873,-24605.426145,-2682.499907,-25589.864026,20608.218981,25942.462795,-23451.226765,-16228.528765,-433.668546,17574.751982,-22644.507604,-12144.283908,0.000250,-0.011250,1.009750,192.000000,0.000000,0.000000,0.000000,0.000000,0.000000,0.000000,0.000000,0.000000,0.000000,1771494647.577513,0.000000
24.000000,17365.696116,16872.057840,-19623.959914,-21675.023040,-18658.766885,-24576.994726,-2659.075279,-25564.740666,20672.770819,26012.401403,-23379.991755,-16155.729134,-360.377176,17650.077361,-22576.625356,-12088.292788,0.000250,-0.011250,1.009750,192.000000,0.000000,0.000000,0.000000,0.000000,0.000000,0.000000,0.000000,0.000000,0.000000,1771494647.577523,0.000000
26.000000,17318.198659,16823.621610,-19677.291176,-21724.062768,-18710.242952,-24623.508707,-2715.915765,-25616.328492,20631.196574,25968.837854,-23428.249172,-16202.556038,-410.802711,17602.848125,-22629.442528,-12129.755274,0.000250,-0.011250,1.009750,192.000000,0.000000,0.000000,0.000000,0.000000,0.000000,0.000000,0.000000,0.000000,0.000000,1771494647.577534,0.000000
28.000000,17382.392869,16893.202590,-19610.213591,-21657.208700,-18645.735818,-24552.452511,-2647.742945,-25552.447206,20650.664944,26000.398517,-23408.333767,-16178.617320,-389.434444,17634.297029,-22609.482421,-12111.136271,0.000250,-0.011250,1.009750,192.000000,0.000000,0.000000,0.000000,0.000000,0.000000,0.000000,0.000000,0.000000,0.000000,1771494647.577544,0.000000
30.000000,17330.134491,16839.178424,-19664.774199,-21709.042395,-18698.575342,-24601.536942,-2701.610649,-25604.392660,20664.970060,26019.710424,-23393.827485,-16164.289852,-376.202211,17652.424294,-22597.613644,-12093.813669,0.000250,-0.011250,1.009750,192.000000,0.000000,0.000000,127.500000,96.000000,15.500000,64.000000,0.000000,0.000000,0.000000,1771494647.577555,0.000000
32.000000,17345.847767,16855.852825,-19640.679019,-21692.792677,-18682.660899,-24585.823665,-2682.030521,-25586.421858,20614.298655,25969.039019,-23444.834166,-16219.006922,-424.280813,17592.946302,-22648.039180,-12137.086646,0.000250,-0.011250,1.009750,192.000000,0.000000,0.000000,0.000000,0.000000,0.000000,0.000000,0.000000,0.000000,0.000000,1771494647.577565,0.000000
34.000000,17362.231596,16875.321195,-19623.870507,-21675.425372,-18665.941795,-24570.535072,-2662.048061,-25567.691096,20678.872845,26030.416910,-23376.817808,-16153.896291,-353.023452,17661.700268,-22578.659365,-12079.150925,0.000250,-0.011250,1.009750,192.000000,0.000000,0.000000,0.000000,0.000000,0.000000,0.000000,0.000000,0.000000,0.000000,1771494647.577582,0.000000
36.000000,17310.487307,16824.873307,-19679.347536,-21728.041378,-18717.194345,-24623.642817,-2719.380286,-25619.591846,20627.843812,25980.460761,-23432.026617,-16201.080823,-412.613203,17606.513811,-22633.130566,-12123.385027,0.000250,-0.011250,1.009750,192.000000,0.000000,0.000000,0.000000,0.000000,0.000000,0.000000,0.000000,0.000000,0.000000,1771494647.577592,0.000000
38.000000,17375.195608,16890.766250,-19611.308826,-21661.366124,-18650.832015,-24564.410694,-2647.765296,-25554.749436,20648.049789,26001.136124,-23413.899352,-16182.819448,-387.489842,17628.105596,-22611.114098,-12107.381178,0.000250,-0.011250,1.009750,192.000000,0.000000,0.000000,0.000000,0.000000,0.000000,0.000000,0.000000,0.000000,0.000000,1771494647.577603,0.000000
40.000000,17321.305552,16834.842185,-19666.919967,-21717.625465,-18707.091356,-24622.771099,-2702.370608,-25607.164277,20661.997278,26018.503430,-23396.688509,-16165.630956,-369.854316,17646.210509,-22595.713746,-12087.108146,0.001125,-0.010625,1.005875,192.000000,0.000000,8.000000,127.500000,88.000000,15.500000,40.000000,0.000000,0.000000,0.000000,1771494647.577614,0.000000
42.000000,17337.957601,16856.903357,-19643.584745,-21699.207628,-18684.203170,-24604.062689,-2681.672893,-25586.041878,20611.012949,25961.014743,-23449.259812,-16224.013713,-432.349793,17584.251473,-22648.441511,-12135.320858,0.001125,-0.010625,1.005875,192.000000,0.000000,0.000000,0.000000,0.000000,0.000000,0.000000,0.000000,0.000000,0.000000,1771494647.577625,0.000000
44.000000,17366.120799,16888.821648,-19620.718911,-21675.514779,-18659.012754,-24581.822703,-2657.756526,-25561.432607,20677.598796,26037.189488,-23376.370773,-16148.196596,-355.839772,17656.045277,-22574.814865,-12080.961416,0.001125,-0.010625,1.005875,192.000000,0.000000,0.000000,0.000000,0.000000,0.000000,0.000000,0.000000,0.000000,0.000000,1771494647.577635,0.000000
46.000000,17318.645694,16839.156072,-19672.932586,-21725.985018,-18711.248781,-24632.292942,-2713.457073,-25609.041823,20638.751464,25991.301357,-23425.231686,-16191.871904,-410.869767,17610.403014,-22629.263714,-12130.492882,0.001125,-0.010625,1.005875,192.000000,0.000000,0.000000,0.000000,0.000000,0.000000,0.000000,0.000000,0.000000,0.000000,1771494647.577646,0.000000
48.000000,17388.763116,16908.826460,-19602.278722,-21653.990049,-18648.976821,-24564.298935,-2639.204578,-25539.259677,20662.511368,26012.356700,-23401.024747,-16171.643576,-384.919391,17636.487500,-22610.398842,-12118.579402,0.001125,-0.010625,1.005875,192.000000,0.000000,0.000000,0.000000,0.000000,0.000000,0.000000,0.000000,0.000000,0.000000,1771494647.577657,0.000000
50.000000,17336.862366,16854.556424,-19659.275670,-21706.807221,-18706.219638,-24615.797355,-2694.167518,-25590.646337,20677.442333,26035.110776,-23382.942186,-16150.677639,-362.388833,17652.558405,-22596.652519,-12098.284018,0.001125,-0.010625,1.005875,192.000000,0.000000,0.000000,0.000000,0.000000,0.000000,0.000000,0.000000,0.000000,0.000000,1771494647.577667,0.000000
52.000000,17355.459017,16873.331889,-19637.594478,-21689.082287,-18682.906769,-24594.071459,-2677.001378,-25573.636660,20628.603772,25984.864054,-23435.535840,-16204.254771,-422.716191,17602.289331,-22650.229651,-12144.306260,-0.006000,-0.008000,1.010000,192.000000,127.500000,104.000000,127.500000,96.000000,15.500000,72.000000,0.000000,0.000000,0.000000,1771494647.577678,0.000000
54.000000,17370.904073,16890.028642,-19621.255353,-21671.491465,-18664.958318,-24577.575872,-2656.326015,-25558.035142,20687.791191,26048.745340,-23369.709953,-16140.462892,-353.314025,17671.646794,-22581.565092,-12087.331663,-0.006000,-0.008000,1.010000,192.000000,0.000000,0.000000,0.000000,0.000000,0.000000,0.000000,0.000000,0.000000,0.000000,1771494647.577689,0.000000
56.000000,17317.036368,16832.182328,-19675.346574,-21726.119128,-18718.960132,-24630.370692,-2712.808873,-25609.444154,20638.460891,25996.509313,-23424.605837,-16194.040024,-406.801749,17617.555573,-22637.287991,-12132.661001,-0.006000,-0.008000,1.010000,192.000000,0.000000,0.000000,0.000000,0.000000,0.000000,0.000000,0.000000,0.000000,0.000000,1771494647.577699,0.000000
58.000000,17385.835038,16906.233657,-19603.373957,-21656.158168,-18647.926289,-24557.034619,-2639.338689,-25541.807776,20660.767932,26015.798869,-23401.158857,-16171.487113,-388.160394,17637.940364,-22614.265694,-12113.237335,-0.006000,-0.008000,1.010000,192.000000,0.000000,0.000000,0.000000,0.000000,0.000000,0.000000,0.000000,0.000000,0.000000,1771494647.577711,0.000000
60.000000,17332.526127,16848.566156,-19657.912214,-21712.417509,-18704.252685,-24615.037395,-2696.670913,-25596.904826,20678.403458,26033.724968,-23384.506808,-16154.902119,-365.898057,17655.978221,-22593.590330,-12087.331663,-0.006000,-0.008000,1.010000,192.000000,0.000000,0.000000,0.000000,0.000000,0.000000,0.000000,0.000000,0.000000,0.000000,1771494647.577721,0.000000
62.000000,17349.155825,16865.888758,-19638.510899,-21693.239712,-18683.107934,-24598.005366,-2678.610704,-25579.358706,20628.290847,25971.162435,-23441.034370,-16210.312094,-420.771589,17595.494401,-22647.346276,-12133.175091,-0.004000,-0.012000,1.000000,192.000000,127.500000,112.000000,127.500000,80.000000,15.500000,32.000000,0.000000,0.000000,0.000000,1771494647.577732,0.000000
64.000000,17374.122724,16890.609788,-19617.544963,-21671.558520,-18660.242100,-24576.525340,-2656.370718,-25556.671686,20684.796057,26040.184622,-23372.414514,-16140.842872,-353.358728,17664.985974,-22577.988813,-12074.188837,-0.004000,-0.012000,1.000000,192.000000,0.000000,0.000000,0.000000,0.000000,0.000000,0.000000,0.000000,0.000000,0.000000,1771494647.577742,0.000000
66.000000,17320.322075,16835.400979,-19672.552606,-21724.174526,-18713.573362,-24629.811898,-2711.780693,-25605.711413,20642.975943,25994.229435,-23419.576695,-16190.396689,-402.130234,17615.722730,-22630.448357,-12121.038094,-0.004000,-0.012000,1.000000,192.000000,0.000000,0.000000,0.000000,0.000000,0.000000,0.000000,0.000000,0.000000,0.000000,1771494647.577753,0.000000
68.000000,17390.461849,16910.771061,-19602.032852,-21653.766531,-18646.048742,-24561.214395,-2637.841122,-25534.677569,20658.175130,26011.976720,-23397.180247,-16168.402573,-384.874688,17634.386436,-22612.544610,-12110.488070,-0.004000,-0.012000,1.000000,192.000000,0.000000,0.000000,0.000000,0.000000,0.000000,0.000000,0.000000,0.000000,0.000000,1771494647.577764,0.000000
70.000000,17343.053799,16862.558348,-19652.391333,-21701.085174,-18700.989330,-24606.275512,-2687.417291,-25579.761038,20682.806752,26038.463538,-23374.292061,-16144.016819,-361.986501,17659.308631,-22597.323072,-12092.941951,-0.004000,-0.012000,1.000000,192.000000,0.000000,0.000000,0.000000,0.000000,0.000000,0.000000,0.000000,0.000000,0.000000,1771494647.577774,0.000000
72.000000,17361.359878,16882.116125,-19634.666399,-21686.288319,-18688.762926,-24593.333851,-2670.541724,-25561.678477,20637.097435,25986.853360,-23423.711768,-16194.665872,-422.783246,17607.385529,-22653.202433,-12141.042905,0.002000,-0.006000,1.004000,192.000000,0.000000,8.000000,127.500000,104.000000,15.500000,48.000000,0.000000,0.000000,0.000000,1771494647.577785,0.000000
74.000000,17380.984709,16901.159811,-19615.063919,-21667.669316,-18670.881530,-24575.273642,-2648.815828,-25544.311171,20698.318863,26055.361456,-23357.416494,-16127.320066,-354.185743,17675.625405,-22585.744868,-12085.074137,0.002000,-0.006000,1.004000,192.000000,0.000000,0.000000,0.000000,0.000000,0.000000,0.000000,0.000000,0.000000,0.000000,1771494648.057621,0.000000
76.000000,17320.925572,16841.547709,-19672.083220,-21722.587552,-18719.742444,-24627.643779,-2708.673800,-25601.643396,20646.574574,26003.214837,-23413.787593,-16183.355890,-407.114674,17620.304837,-22639.389055,-12128.101245,0.002000,-0.006000,1.004000,192.000000,0.000000,0.000000,0.000000,0.000000,0.000000,0.000000,0.000000,0.000000,0.000000,1771494648.057686,0.000000
78.000000,17390.439497,16909.094680,-19601.339948,-21654.012400,-18645.042914,-24556.028790,-2636.812942,-25534.185831,20663.830121,26019.933941,-23395.101535,-16168.536683,-385.724054,17640.086131,-22617.506697,-12112.589134,0.002000,-0.006000,1.004000,192.000000,0.000000,0.000000,0.000000,0.000000,0.000000,0.000000,0.000000,0.000000,0.000000,1771494648.057735,0.000000
80.000000,17333.800177,16855.606956,-19655.989964,-21707.902456,-18699.648225,-24608.331872,-2690.971218,-25587.159465,20680.392764,26037.681226,-23376.460180,-16147.123712,-364.802821,17655.933518,-22595.669043,-12090.751480,0.002000,-0.006000,1.004000,192.000000,0.000000,0.000000,0.000000,0.000000,0.000000,0.000000,0.000000,0.000000,0.000000,1771494648.057783,0.000000
82.000000,17346.987706,16867.051049,-19638.332085,-21694.603168,-18682.437382,-24600.821686,-2676.509640,-25573.480198,20628.134385,25977.644441,-23433.390073,-16206.780518,-428.214720,17601.238799,-22652.375418,-12141.333478,0.004000,-0.010000,1.006000,192.000000,0.000000,16.000000,127.500000,88.000000,15.500000,56.000000,0.000000,0.000000,0.000000,1771494648.057831,0.000000
84.000000,17368.043049,16890.319215,-19617.522611,-21671.647927,-18667.059382,-24584.571968,-2651.855666,-25550.614363,20688.998185,26043.738549,-23365.463122,-16137.981848,-352.866990,17658.906300,-22583.509694,-12080.536733,0.004000,-0.010000,1.006000,192.000000,0.000000,0.000000,0.000000,0.000000,0.000000,0.000000,0.000000,0.000000,0.000000,1771494648.057858,0.000000
86.000000,17317.215182,16839.938383,-19668.484589,-21723.280456,-18712.433423,-24633.030550,-2706.796254,-25601.822210,20642.417150,25995.972871,-23413.944055,-16186.641596,-407.785226,17611.051215,-22628.704921,-12119.965210,0.004000,-0.010000,1.006000,192.000000,0.000000,0.000000,0.000000,0.000000,0.000000,0.000000,0.000000,0.000000,0.000000,1771494648.057882,0.000000
88.000000,17386.594997,16910.659303,-19599.663568,-21656.716961,-18640.438454,-24561.147339,-2637.841122,-25534.945790,20659.940917,26012.982549,-23395.056831,-16169.676622,-384.606467,17631.234840,-22609.571828,-12109.348131,0.004000,-0.010000,1.006000,192.000000,0.000000,0.000000,0.000000,0.000000,0.000000,0.000000,0.000000,0.000000,0.000000,1771494648.057905,0.000000
90.000000,17341.109197,16866.536959,-19648.770350,-21703.387404,-18685.879551,-24601.983977,-2686.903201,-25579.269299,20681.040964,26036.004846,-23371.229872,-16143.413322,-359.997196,17658.593376,-22589.164685,-12091.869067,0.004000,-0.010000,1.006000,192.000000,0.000000,0.000000,0.000000,0.000000,0.000000,0.000000,0.000000,0.000000,0.000000,1771494648.057939,0.000000
92.000000,17356.956584,16880.596206,-19632.341818,-21687.048279,-18670.188626,-24581.107447,-2672.531029,-25563.801892,20633.990542,25989.066182,-23422.795346,-16194.397651,-411.696781,17609.061910,-22642.808872,-12138.673620,0.008000,-0.010000,1.008000,192.000000,0.000000,32.000000,127.500000,88.000000,15.500000,64.000000,0.000000,0.000000,0.000000,1771494648.057962,0.000000
94.000000,17379.196570,16902.076233,-19611.532344,-21663.131912,-18653.871853,-24561.683781,-2650.536913,-25542.612439,20695.524895,26059.250660,-23354.667229,-16126.291886,-345.021527,17678.285262,-22580.045173,-12082.347224,0.008000,-0.010000,1.008000,192.000000,0.000000,0.000000,0.000000,0.000000,0.000000,0.000000,0.000000,0.000000,0.000000,1771494648.057986,0.000000
96.000000,17321.640828,16845.548671,-19669.199845,-21717.401948,-18712.455775,-24616.602017,-2708.606745,-25597.798896,20644.652324,26007.081688,-23407.909084,-16177.723250,-400.409150,17627.636209,-22631.722406,-12122.066274,0.008000,-0.010000,1.008000,192.000000,0.000000,0.000000,0.000000,0.000000,0.000000,0.000000,0.000000,0.000000,0.000000,1771494648.058009,0.000000
98.000000,17387.153791,16909.027625,-19599.372995,-21649.966735,-18643.791216,-24550.463206,-2636.634128,-25532.196526,20661.170263,26022.392633,-23391.882884,-16161.875863,-385.589944,17641.784864,-22614.757432,-12110.421015,0.008000,-0.010000,1.008000,192.000000,0.000000,0.000000,0.000000,0.000000,0.000000,0.000000,0.000000,0.000000,0.000000,1771494648.058033,0.000000
100.000000,17334.515433,16856.813950,-19652.883071,-21703.342700,-18694.417917,-24601.000500,-2690.479480,-25583.024392,20676.503560,26042.822128,-23374.515578,-16140.887575,-359.930141,17662.840207,-22593.970310,-12088.784526,0.008000,-0.010000,1.008000,192.000000,0.000000,0.000000,0.000000,0.000000,0.000000,0.000000,0.000000,0.000000,0.000000,1771494648.058056,0.000000
102.000000,17346.786540,16870.090886,-19636.096911,-21691.272758,-18671.775600,-24587.812971,-2677.090785,-25571.245023,20619.998350,25984.841703,-23428.606800,-16198.376262,-422.962060,17600.076509,-22644.306438,-12137.556033,0.008000,-0.010000,1.006000,192.000000,0.000000,32.000000,127.500000,88.000000,15.500000,56.000000,0.000000,0.000000,0.000000,1771494648.058079,0.000000
104.000000,17362.276299,16885.424183,-19614.885105,-21673.860749,-18653.111893,-24573.887834,-2654.113192,-25555.844671,20672.860226,26043.872660,-23367.519482,-16137.937145,-357.985539,17663.063724,-22573.786685,-12080.424974,0.008000,-0.010000,1.006000,192.000000,0.000000,0.000000,0.000000,0.000000,0.000000,0.000000,0.000000,0.000000,0.000000,1771494648.058103,0.000000
106.000000,17302.664197,16826.013246,-19674.586615,-21729.091910,-18713.081624,-24631.667093,-2713.278259,-25613.713338,20625.787452,25993.380069,-23423.398843,-16192.408346,-410.847415,17611.922933,-22626.425043,-12119.495823,0.008000,-0.010000,1.006000,192.000000,0.000000,0.000000,0.000000,0.000000,0.000000,0.000000,0.000000,0.000000,0.000000,1771494648.058127,0.000000
108.000000,17374.770924,16899.595189,-19604.044509,-21659.600337,-18640.729027,-24558.152206,-2642.467933,-25545.696979,20638.282077,26005.114735,-23408.758451,-16178.036175,-393.882441,17626.809195,-22611.315264,-12108.521117,0.008000,-0.010000,1.006000,192.000000,0.000000,0.000000,0.000000,0.000000,0.000000,0.000000,0.000000,0.000000,0.000000,1771494648.058138,0.000000
110.000000,17331.699113,16855.249328,-19652.056057,-21706.293131,-18691.936873,-24605.984939,-2690.702998,-25586.712430,20664.344211,26033.121471,-23382.584558,-16151.862282,-366.680368,17655.307669,-22588.762354,-12087.532829,0.008000,-0.010000,1.006000,192.000000,0.000000,0.000000,0.000000,0.000000,0.000000,0.000000,0.000000,0.000000,0.000000,1771494648.058149,0.000000
112.000000,17347.121817,16869.465038,-19637.370960,-21691.853904,-18676.402411,-24592.842113,-2676.107308,-25570.641526,20620.177164,25983.008860,-23433.077149,-16199.873829,-422.403267,17601.127041,-22647.927421,-12140.327649,0.006000,-0.004000,1.010000,192.000000,0.000000,24.000000,127.500000,112.000000,15.500000,72.000000,0.000000,0.000000,0.000000,1771494648.058160,0.000000
114.000000,17370.948776,16894.923674,-19608.827783,-21665.568252,-18658.588071,-24563.941308,-2645.261901,-25542.903011,20686.405383,26051.226384,-23361.260994,-16130.672828,-350.967091,17673.390230,-22578.793475,-12083.330701,0.006000,-0.004000,1.010000,192.000000,0.000000,0.000000,0.000000,0.000000,0.000000,0.000000,0.000000,0.000000,0.000000,1771494648.058171,0.000000
116.000000,17312.767185,16840.005438,-19669.624528,-21720.419433,-18720.502403,-24623.687520,-2707.064474,-25598.312986,20641.970115,26002.521932,-23410.300721,-16179.421983,-399.604487,17626.004532,-22631.521241,-12125.016704,0.006000,-0.004000,1.010000,192.000000,0.000000,0.000000,0.000000,0.000000,0.000000,0.000000,0.000000,0.000000,0.000000,1771494648.058181,0.000000
118.000000,17377.140209,16901.875067,-19602.859867,-21656.135816,-18654.721219,-24565.371819,-2638.422267,-25534.208183,20647.356885,26012.915494,-23398.677814,-16168.760201,-398.106920,17634.274678,-22618.780746,-12117.014780,0.006000,-0.004000,1.010000,192.000000,0.000000,0.000000,0.000000,0.000000,0.000000,0.000000,0.000000,0.000000,0.000000,1771494648.058192,0.000000
120.000000,17322.534898,16847.247404,-19654.268879,-21707.477773,-18703.358615,-24617.116108,-2689.652466,-25586.466561,20667.942842,26033.412043,-23377.823636,-16148.330706,-372.961208,17654.212434,-22596.339595,-12096.853506,0.006000,-0.004000,1.010000,192.000000,0.000000,0.000000,0.000000,0.000000,0.000000,0.000000,0.000000,0.000000,0.000000,1771494648.058203,0.000000
122.000000,17336.214165,16862.021907,-19637.393312,-21692.613863,-18682.929120,-24601.380480,-2675.727329,-25574.463674,20623.127594,25977.823255,-23433.926515,-16203.986550,-426.359525,17597.975445,-22649.067360,-12144.976812,0.006000,-0.007000,1.010000,192.000000,0.000000,24.000000,127.500000,88.000000,15.500000,72.000000,0.000000,0.000000,0.000000,1771494648.058216,0.000000
124.000000,17355.168445,16882.652567,-19616.382672,-21671.111485,-18661.762018,-24579.967508,-2651.229817,-25555.576450,20683.410249,26043.693846,-23371.811017,-16140.909927,-360.623045,17663.846035,-22580.492208,-12088.203381,0.006000,-0.007000,1.010000,192.000000,0.000000,0.000000,0.000000,0.000000,0.000000,0.000000,0.000000,0.000000,0.000000,1771494648.058233,0.000000
126.000000,17296.539819,16820.246496,-19676.553568,-21728.935448,-18715.763833,-24633.164660,-2714.284088,-25614.763870,20641.143100,25994.028270,-23422.415366,-16192.475401,-410.243918,17614.068701,-22627.944962,-12126.089588,0.006000,-0.007000,1.010000,192.000000,0.000000,0.000000,0.000000,0.000000,0.000000,0.000000,0.000000,0.000000,0.000000,1771494648.058244,0.000000
128.000000,17359.214110,16886.586474,-19608.425451,-21665.747066,-18650.563794,-24570.132741,-2648.234683,-25553.385979,20647.893327,25998.073935,-23413.608779,-16186.999224,-398.665714,17621.109500,-22615.986778,-12116.321876,0.006000,-0.007000,1.010000,192.000000,0.000000,0.000000,0.000000,0.000000,0.000000,0.000000,0.000000,0.000000,0.000000,1771494648.058256,0.000000
130.000000,17310.911991,16841.860633,-19658.783932,-21715.323235,-18691.065155,-24613.986863,-2700.448358,-25600.972843,20673.486075,26019.330444,-23389.737116,-16162.233491,-370.457813,17646.992820,-22590.729307,-12088.650416,0.006000,-0.007000,1.010000,192.000000,0.000000,0.000000,0.000000,0.000000,0.000000,0.000000,0.000000,0.000000,0.000000,1771494648.058267,0.000000
132.000000,17326.267639,16861.127837,-19644.389408,-21699.006462,-18674.390754,-24594.250273,-2686.813794,-25583.985518,20622.613504,25974.515197,-23444.811814,-16213.620152,-422.939709,17598.064852,-22643.971162,-12139.791207,0.007000,-0.008500,1.008000,192.000000,0.000000,32.000000,127.500000,88.000000,15.500000,56.000000,0.000000,0.000000,0.000000,1771494648.058278,0.000000
134.000000,17356.643660,16890.609788,-19615.533306,-21669.993898,-18646.361666,-24561.102636,-2655.856628,-25555.576450,20684.013746,26045.034950,-23374.694392,-16142.809825,-355.571551,17676.720640,-22575.351307,-12082.861314,0.007000,-0.008500,1.008000,192.000000,0.000000,0.000000,0.000000,0.000000,0.000000,0.000000,0.000000,0.000000,0.000000,1771494648.058289,0.000000
136.000000,17297.433889,16835.289220,-19673.469028,-21721.693483,-18703.984464,-24620.066538,-2713.457073,-25609.421803,20650.374371,26003.281892,-23419.777861,-16185.971044,-403.314877,17631.637172,-22624.547496,-12122.535661,0.007000,-0.008500,1.008000,192.000000,0.000000,0.000000,0.000000,0.000000,0.000000,0.000000,0.000000,0.000000,0.000000,1771494648.058299,0.000000
138.000000,17360.957546,16900.198686,-19609.431280,-21656.672258,-18645.847576,-24553.570098,-2643.406706,-25546.859270,20658.935089,26003.214837,-23410.725404,-16176.404497,-395.089435,17632.866518,-22615.048005,-12116.880669,0.007000,-0.008500,1.008000,192.000000,0.000000,0.000000,0.000000,0.000000,0.000000,0.000000,0.000000,0.000000,0.000000,1771494648.058310,0.000000
140.000000,17313.728310,16848.968488,-19661.130865,-21704.326177,-18704.163278,-24607.527209,-2693.742835,-25595.451962,20677.554092,26024.069014,-23387.479590,-16152.041096,-374.972865,17652.960736,-22595.534932,-12091.556143,0.007000,-0.008500,1.008000,192.000000,0.000000,0.000000,0.000000,0.000000,0.000000,0.000000,0.000000,0.000000,0.000000,1771494648.058320,0.000000
142.000000,17327.787558,16863.564177,-19643.651801,-21690.959834,-18686.483048,-24591.635119,-2679.661236,-25583.247910,20626.435653,25966.714438,-23442.889564,-16208.300437,-429.466418,17598.467183,-22651.816625,-12137.846606,0.006500,-0.008250,1.008000,192.000000,0.000000,24.000000,127.500000,96.000000,15.500000,64.000000,0.000000,0.000000,0.000000,1771494648.058331,0.000000
144.000000,17351.994497,16887.234674,-19617.947294,-21670.887967,-18663.728972,-24571.518549,-2655.163724,-25562.326677,20683.812581,26038.731758,-23376.951918,-16145.313221,-358.633740,17667.265852,-22581.699202,-12083.800087,0.006500,-0.008250,1.008000,192.000000,0.000000,0.000000,0.000000,0.000000,0.000000,0.000000,0.000000,0.000000,0.000000,1771494648.058343,0.000000
146.000000,17303.044176,16836.227994,-19672.686717,-21727.124957,-18713.238086,-24629.029587,-2713.904108,-25612.752213,20643.557089,25997.872770,-23425.678721,-16192.006015,-402.018476,17620.103672,-22628.369645,-12124.212041,0.006500,-0.008250,1.008000,192.000000,0.000000,0.000000,0.000000,0.000000,0.000000,0.000000,0.000000,0.000000,0.000000,1771494648.058354,0.000000
148.000000,17366.277262,16901.204515,-19606.033815,-21662.528415,-18645.489948,-24561.974354,-2645.284253,-25548.759168,20660.276194,26011.619092,-23406.903256,-16176.672718,-392.250763,17632.218317,-22609.795345,-12113.214983,0.006500,-0.008250,1.008000,192.000000,0.000000,0.000000,0.000000,0.000000,0.000000,0.000000,0.000000,0.000000,0.000000,1771494648.058364,0.000000
150.000000,17316.812851,16851.717752,-19658.158083,-21708.751823,-18697.904789,-24614.053919,-2695.419216,-25595.966053,20676.235339,26030.238096,-23387.345479,-16155.192692,-372.178897,17657.229919,-22586.728345,-12083.665977,0.006500,-0.008250,1.008000,192.000000,0.000000,0.000000,0.000000,0.000000,0.000000,0.000000,0.000000,0.000000,0.000000,1771494648.058375,0.000000
152.000000,17333.487252,16865.911110,-19643.450635,-21692.815029,-18680.805705,-24594.607901,-2682.544611,-25582.175026,20626.905039,25975.610432,-23444.208317,-16209.507431,-429.824046,17601.998759,-22646.161633,-12131.297544,0.008250,-0.006125,1.012000,192.000000,0.000000,40.000000,127.500000,112.000000,15.500000,96.000000,0.000000,0.000000,0.000000,1771494648.058386,0.000000
154.000000,17361.963375,16894.119012,-19616.159155,-21667.065819,-18651.279050,-24564.701267,-2655.163724,-25557.588107,20692.283892,26047.471291,-23373.196825,-16140.731113,-356.420917,17678.955815,-22575.686583,-12073.361823,0.008250,-0.006125,1.012000,192.000000,0.000000,0.000000,0.000000,0.000000,0.000000,0.000000,0.000000,0.000000,0.000000,1771494648.058398,0.000000
156.000000,17306.553400,16838.127892,-19673.312565,-21723.213401,-18704.118574,-24619.843020,-2715.200509,-25611.992253,20652.721304,26006.209970,-23420.537820,-16188.742660,-406.868804,17632.553593,-22624.078110,-12115.181937,0.008250,-0.006125,1.012000,192.000000,0.000000,0.000000,0.000000,0.000000,0.000000,0.000000,0.000000,0.000000,0.000000,1771494648.058409,0.000000
158.000000,17374.390945,16907.552410,-19604.446841,-21657.543976,-18640.125530,-24555.045313,-2646.535950,-25545.249944,20663.383086,26018.726947,-23405.852724,-16176.695070,-390.306162,17641.248422,-22612.008168,-12112.633838,0.008250,-0.006125,1.012000,192.000000,0.000000,0.000000,0.000000,0.000000,0.000000,0.000000,0.000000,0.000000,0.000000,1771494648.058420,0.000000
160.000000,17326.021770,16860.345526,-19653.754789,-21705.980206,-18694.797897,-24604.867352,-2693.094634,-25590.869855,20689.825200,26044.587915,-23379.187093,-16149.582404,-361.472411,17672.831437,-22588.069449,-12091.109108,0.008250,-0.006125,1.012000,192.000000,0.000000,0.000000,0.000000,0.000000,0.000000,0.000000,0.000000,0.000000,0.000000,1771494648.058431,0.000000
162.000000,17328.793386,16864.771171,-19645.328181,-21696.883046,-18690.685176,-24601.425183,-2683.103404,-25585.661898,20633.543507,25984.595833,-23441.324942,-16209.753300,-427.544168,17607.989026,-22649.916726,-12146.787303,0.007125,-0.009063,1.009000,192.000000,0.000000,24.000000,127.500000,80.000000,15.500000,56.000000,0.000000,0.000000,0.000000,1771494648.058442,0.000000
164.000000,17352.642697,16888.888703,-19615.957989,-21671.983203,-18662.566681,-24578.671107,-2651.810962,-25562.773712,20691.121601,26046.487814,-23374.828503,-16145.559090,-359.371347,17677.704117,-22579.888711,-12087.868105,0.007125,-0.009063,1.009000,192.000000,0.000000,0.000000,0.000000,0.000000,0.000000,0.000000,0.000000,0.000000,0.000000,1771494648.058453,0.000000
166.000000,17302.775956,16836.764435,-19668.596347,-21724.912134,-18715.406205,-24628.426090,-2706.796254,-25614.406242,20653.324801,26002.767802,-23422.504773,-16195.805811,-399.716246,17630.787805,-22628.816680,-12127.721265,0.007125,-0.009063,1.009000,192.000000,0.000000,0.000000,0.000000,0.000000,0.000000,0.000000,0.000000,0.000000,0.000000,1771494648.058463,0.000000
168.000000,17360.845788,16897.874105,-19605.296207,-21663.243671,-18640.684323,-24562.309630,-2640.925663,-25554.078883,20669.172188,26013.966026,-23410.770108,-16184.093497,-390.037941,17639.594393,-22611.516429,-12115.159585,0.007125,-0.009063,1.009000,192.000000,0.000000,0.000000,0.000000,0.000000,0.000000,0.000000,0.000000,0.000000,0.000000,1771494648.058474,0.000000
170.000000,17320.322075,16851.561290,-19654.917080,-21710.338796,-18691.400432,-24608.868314,-2687.305532,-25597.173047,20689.132296,26040.385788,-23388.351308,-16158.701916,-366.054519,17664.002498,-22586.035441,-12087.130497,0.007125,-0.009063,1.009000,192.000000,0.000000,0.000000,0.000000,0.000000,0.000000,0.000000,0.000000,0.000000,0.000000,1771494648.058484,0.000000
172.000000,17326.468805,16861.708982,-19645.350533,-21701.129878,-18681.945644,-24596.552503,-2676.487288,-25587.807666,20638.885574,25984.506426,-23441.570811,-16214.067187,-420.682182,17609.441889,-22642.138319,-12130.694047,0.010563,-0.008531,1.009500,192.000000,0.000000,56.000000,127.500000,96.000000,15.500000,72.000000,0.000000,0.000000,0.000000,1771494648.058495,0.000000
174.000000,17355.011982,16890.073346,-19616.695597,-21672.631404,-18649.870890,-24569.998630,-2647.027689,-25560.918517,20694.161438,26049.080616,-23377.890692,-16149.627107,-352.419955,17674.597225,-22575.753638,-12074.010023,0.010563,-0.008531,1.009500,192.000000,0.000000,0.000000,0.000000,0.000000,0.000000,0.000000,0.000000,0.000000,0.000000,1771494648.058506,0.000000
176.000000,17306.061662,16838.798444,-19668.641051,-21723.928657,-18698.865914,-24622.592285,-2704.963410,-25611.344053,20657.705743,26007.171095,-23421.945980,-16192.676567,-394.620048,17629.983143,-22621.708825,-12112.678541,0.010563,-0.008531,1.009500,192.000000,0.000000,0.000000,0.000000,0.000000,0.000000,0.000000,0.000000,0.000000,0.000000,1771494648.058517,0.000000
178.000000,17375.419125,16909.809936,-19597.137820,-21655.934650,-18629.955486,-24555.648810,-2635.158913,-25543.506508,20676.481208,26026.058319,-23402.567017,-16174.839875,-376.045749,17647.171634,-22604.877961,-12107.582344,0.010563,-0.008531,1.009500,192.000000,0.000000,0.000000,0.000000,0.000000,0.000000,0.000000,0.000000,0.000000,0.000000,1771494648.058527,0.000000
180.000000,17318.489232,16857.685668,-19650.938469,-21705.533171,-18684.292577,-24604.174448,-2686.411463,-25594.379079,20698.229456,26054.780311,-23380.192921,-16148.509520,-356.800897,17672.786733,-22580.536912,-12086.929332,0.010563,-0.008531,1.009500,192.000000,0.000000,0.000000,0.000000,0.000000,0.000000,0.000000,0.000000,0.000000,0.000000,1771494648.058538,0.000000
182.000000,17326.066473,16868.235692,-19641.148405,-21690.848075,-18683.219693,-24591.657471,-2674.252114,-25582.756172,20638.125615,25995.414078,-23443.470710,-16206.020559,-420.682182,17610.827698,-22642.138319,-12136.237280,0.009281,-0.009266,1.007750,192.000000,0.000000,32.000000,127.500000,88.000000,15.500000,56.000000,0.000000,0.000000,0.000000,1771494648.058549,0.000000
184.000000,17357.493026,16897.337663,-19612.448765,-21662.886043,-18655.212957,-24558.420427,-2644.032555,-25554.794139,20700.196409,26061.217613,-23375.320241,-16136.216061,-357.605560,17686.957739,-22576.982984,-12077.206323,0.009281,-0.009266,1.007750,192.000000,0.000000,0.000000,0.000000,0.000000,0.000000,0.000000,0.000000,0.000000,0.000000,1771494648.058560,0.000000
186.000000,17303.401804,16836.719732,-19669.222196,-21720.285323,-18720.480051,-24622.704044,-2703.577602,-25609.801782,20660.432656,26014.077784,-23418.570866,-16183.758221,-405.930031,17640.868442,-22624.346331,-12116.098358,0.009281,-0.009266,1.007750,192.000000,0.000000,0.000000,0.000000,0.000000,0.000000,0.000000,0.000000,0.000000,0.000000,1771494648.058572,0.000000
188.000000,17370.546445,16906.390119,-19597.830724,-21654.727656,-18642.628925,-24556.051142,-2632.253186,-25543.528860,20666.042944,26018.838706,-23407.193828,-16174.482247,-392.541336,17651.664335,-22611.158801,-12111.672713,0.009281,-0.009266,1.007750,192.000000,0.000000,0.000000,0.000000,0.000000,0.000000,0.000000,0.000000,0.000000,0.000000,1771494648.058583,0.000000
190.000000,17322.959581,16859.540863,-19646.602231,-21702.269817,-18687.935911,-24602.408660,-2681.047044,-25591.942739,20695.234322,26046.867793,-23380.863474,-16147.347229,-363.528772,17677.838227,-22580.849836,-12082.883666,0.009281,-0.009266,1.007750,192.000000,0.000000,0.000000,0.000000,0.000000,0.000000,0.000000,0.000000,0.000000,0.000000,1771494648.058594,0.000000
192.000000,17322.601953,16860.434933,-19641.506033,-21694.759631,-18683.689080,-24592.931520,-2676.531992,-25590.221654,20635.733978,25989.692031,-23443.068378,-16205.551172,-421.196273,17617.332055,-22638.204412,-12124.480262,0.009281,-0.009266,1.007750,192.000000,0.000000,0.000000,0.000000,0.000000,0.000000,0.000000,0.000000,0.000000,0.000000,1771494648.058605,0.000000
194.000000,17346.853596,16884.418355,-19614.885105,-21669.435104,-18655.458826,-24563.360162,-2646.178323,-25564.830073,20684.885464,26045.772558,-23384.260939,-16146.833139,-368.602618,17677.949986,-22569.718667,-12065.739878,0.010000,-0.012000,1.010000,192.000000,0.000000,40.000000,127.500000,80.000000,15.500000,72.000000,0.000000,0.000000,0.000000,1771494648.538058,0.000000
196.000000,17286.459182,16824.918011,-19675.279519,-21724.800375,-18714.400377,-24624.380425,-2706.773902,-25620.575323,20635.957496,25995.078802,-23432.473651,-16194.062375,-416.457703,17632.441835,-22617.640807,-12103.648437,0.010000,-0.012000,1.010000,192.000000,0.000000,0.000000,0.000000,0.000000,0.000000,0.000000,0.000000,0.000000,0.000000,1771494648.538134,0.000000
198.000000,17359.281166,16897.516477,-19603.753937,-21659.667392,-18640.684323,-24558.018095,-2637.684660,-25551.530785,20653.391856,26003.483057,-23419.599047,-16183.132372,-403.694857,17644.735294,-22607.515467,-12098.909867,0.010000,-0.012000,1.010000,192.000000,0.000000,0.000000,0.000000,0.000000,0.000000,0.000000,0.000000,0.000000,0.000000,1771494648.538204,0.000000
200.000000,17318.958619,16859.451456,-19646.937507,-21701.867485,-18682.638548,-24604.442668,-2683.639846,-25591.361593,20679.163418,26031.512145,-23386.540817,-16151.996392,-373.520002,17675.871274,-22578.949938,-12079.508552,0.010000,-0.012000,1.010000,192.000000,0.000000,0.000000,0.000000,0.000000,0.000000,0.000000,0.000000,0.000000,0.000000,1771494648.538266,0.000000
202.000000,17332.235555,16874.650642,-19633.504109,-21689.931654,-18678.458772,-24599.033546,-2671.972236,-25578.554044,20636.248068,25984.595833,-23436.944000,-16200.767899,-423.520854,17621.534183,-22635.231630,-12132.616297,0.010000,-0.012000,1.010000,192.000000,0.000000,0.000000,0.000000,0.000000,0.000000,0.000000,0.000000,0.000000,0.000000,1771494648.538336,0.000000
204.000000,17363.863273,16900.131631,-19607.978416,-21659.913261,-18660.085638,-24569.842168,-2639.852779,-25550.793177,20695.994281,26058.624811,-23368.882938,-16132.639782,-355.303330,17689.259969,-22570.523330,-12079.508552,0.010000,-0.012000,1.010000,192.000000,0.000000,40.000000,127.500000,80.000000,15.500000,72.000000,0.000000,0.000000,0.000000,1771494648.538399,0.000000
206.000000,17299.378490,16835.512738,-19673.357269,-21719.592419,-18725.397435,-24626.347378,-2703.242326,-25613.333358,20646.731037,26011.775555,-23421.789518,-16180.852494,-408.969868,17643.684762,-22623.653427,-12116.411283,0.010000,-0.012000,1.010000,192.000000,0.000000,0.000000,0.000000,0.000000,0.000000,0.000000,0.000000,0.000000,0.000000,1771494648.538461,0.000000
208.000000,17363.326831,16900.288093,-19602.569294,-21653.699476,-18656.196434,-24558.710999,-2631.023840,-25549.072093,20649.525005,26013.697805,-23416.894486,-16176.873884,-403.605450,17647.886890,-22616.992607,-12113.125576,0.010000,-0.012000,1.010000,192.000000,0.000000,0.000000,0.000000,0.000000,0.000000,0.000000,0.000000,0.000000,0.000000,1771494648.538510,0.000000
210.000000,17315.717616,16850.644869,-19649.329144,-21700.258160,-18701.637531,-24605.336738,-2680.085919,-25596.346032,20679.275176,26041.726892,-23386.786686,-16147.950727,-377.945647,17673.501989,-22582.436810,-12081.251989,0.010000,-0.012000,1.010000,192.000000,0.000000,0.000000,0.000000,0.000000,0.000000,0.000000,0.000000,0.000000,0.000000,1771494648.538521,0.000000
212.000000,17318.444528,16850.086075,-19642.467158,-21695.206665,-18692.406260,-24594.876122,-2676.040253,-25593.797933,20619.886591,25979.969022,-23453.126663,-16214.983608,-438.831799,17609.732462,-22646.362799,-12133.622126,0.010000,-0.012000,1.010000,192.000000,0.000000,0.000000,0.000000,0.000000,0.000000,0.000000,0.000000,0.000000,0.000000,1771494648.538531,0.000000
214.000000,17349.535805,16879.568026,-19614.192201,-21665.232976,-18661.292632,-24561.437912,-2643.674927,-25565.992363,20686.651252,26045.951372,-23385.713802,-16147.391933,-369.764909,17681.749783,-22573.362002,-12068.287977,0.004000,-0.010000,1.010000,192.000000,0.000000,16.000000,127.500000,88.000000,15.500000,72.000000,0.000000,0.000000,0.000000,1771494648.538542,0.000000
216.000000,17291.868304,16824.783900,-19675.815961,-21724.688616,-18717.373159,-24617.540791,-2707.690323,-25624.844506,20635.443406,25998.498618,-23434.597067,-16195.984625,-422.157398,17635.638134,-22619.496002,-12102.754367,0.004000,-0.010000,1.010000,192.000000,0.000000,0.000000,0.000000,0.000000,0.000000,0.000000,0.000000,0.000000,0.000000,1771494648.538553,0.000000
218.000000,17356.263680,16888.866352,-19609.364225,-21659.041543,-18652.776617,-24558.375723,-2639.919834,-25559.979744,20647.066313,26011.060299,-23424.941114,-16185.166381,-410.690953,17647.484559,-22607.336653,-12095.221829,0.004000,-0.010000,1.010000,192.000000,0.000000,0.000000,0.000000,0.000000,0.000000,0.000000,0.000000,0.000000,0.000000,1771494648.538572,0.000000
220.000000,17317.393996,16849.035543,-19654.939432,-21703.119183,-18696.384871,-24602.408660,-2683.371625,-25600.190532,20670.937976,26036.675398,-23395.928549,-16157.114942,-380.270228,17673.412582,-22581.363926,-12070.880779,0.004000,-0.010000,1.010000,192.000000,0.000000,0.000000,0.000000,0.000000,0.000000,0.000000,0.000000,0.000000,0.000000,1771494648.538584,0.000000
222.000000,17322.445491,16850.063723,-19644.501167,-21701.465154,-18690.394603,-24603.950930,-2676.152012,-25594.982576,20620.065405,25981.645403,-23452.478463,-16213.866021,-435.322575,17612.794651,-22641.557174,-12129.665867,0.004000,-0.010000,1.010000,192.000000,0.000000,0.000000,0.000000,0.000000,0.000000,0.000000,0.000000,0.000000,0.000000,1771494648.538594,0.000000
224.000000,17362.879796,16890.319215,-19607.106698,-21665.702363,-18654.430646,-24569.842168,-2638.489322,-25557.386942,20686.092458,26047.404235,-23381.265805,-16146.475511,-369.764909,17678.732297,-22573.004374,-12079.150925,0.004000,-0.008000,1.014000,192.000000,0.000000,16.000000,127.500000,96.000000,15.500000,88.000000,0.000000,0.000000,0.000000,1771494648.538606,0.000000
226.000000,17296.830392,16821.252325,-19674.832484,-21727.795509,-18721.552935,-24627.308503,-2708.271469,-25622.296407,20648.385066,26006.992281,-23425.879887,-16188.206218,-409.528662,17636.040465,-22619.808927,-12116.478338,0.004000,-0.008000,1.014000,192.000000,0.000000,0.000000,0.000000,0.000000,0.000000,0.000000,0.000000,0.000000,0.000000,1771494648.538630,0.000000
228.000000,17359.951718,16884.977148,-19608.447803,-21657.163996,-18653.670687,-24556.609935,-2640.009241,-25558.571584,20644.987600,26008.512200,-23426.684550,-16186.887465,-404.544223,17644.176500,-22617.797270,-12112.633838,0.004000,-0.008000,1.014000,192.000000,0.000000,0.000000,0.000000,0.000000,0.000000,0.000000,0.000000,0.000000,0.000000,1771494648.538641,0.000000
230.000000,17319.249191,16843.089979,-19657.979269,-21701.420450,-18708.477164,-24600.352299,-2686.389111,-25600.726974,20675.765953,26038.083558,-23391.257035,-16153.292793,-375.822231,17680.386326,-22585.610758,-12079.173276,0.004000,-0.008000,1.014000,192.000000,0.000000,0.000000,0.000000,0.000000,0.000000,0.000000,0.000000,0.000000,0.000000,1771494648.538652,0.000000
232.000000,17320.769110,16852.410657,-19647.876280,-21694.692575,-18702.889228,-24591.366898,-2677.202544,-25592.210959,20613.896324,25979.901967,-23453.596050,-16212.010826,-446.520799,17619.075491,-22651.257831,-12133.465664,0.004000,-0.008000,1.014000,192.000000,0.000000,0.000000,0.000000,0.000000,0.000000,0.000000,0.000000,0.000000,0.000000,1771494648.538663,0.000000
234.000000,17345.154863,16877.623424,-19619.422510,-21670.217415,-18679.531655,-24566.802331,-2646.670061,-25568.249889,20668.434580,26044.118529,-23387.904273,-16146.833139,-382.013664,17689.729356,-22579.978118,-12075.239369,0.006000,-0.006000,1.014000,192.000000,0.000000,24.000000,127.500000,104.000000,15.500000,88.000000,0.000000,0.000000,0.000000,1771494648.538674,0.000000
236.000000,17281.027708,16811.842240,-19682.834409,-21731.684712,-18742.563575,-24628.739015,-2710.618402,-25630.365387,20625.630990,25992.553054,-23438.016884,-16200.052643,-424.213758,17638.432102,-22629.666046,-12112.142099,0.006000,-0.006000,1.014000,192.000000,0.000000,0.000000,0.000000,0.000000,0.000000,0.000000,0.000000,0.000000,0.000000,1771494648.538684,0.000000
238.000000,17350.586337,16880.104468,-19614.169850,-21663.489540,-18666.232367,-24560.521491,-2642.445581,-25565.210052,20628.447310,26001.314938,-23434.105329,-16195.045852,-427.030078,17645.338791,-22620.390072,-12102.128518,0.006000,-0.006000,1.014000,192.000000,0.000000,0.000000,0.000000,0.000000,0.000000,0.000000,0.000000,0.000000,0.000000,1771494648.538695,0.000000
240.000000,17312.297799,16844.766360,-19654.693562,-21705.644930,-18706.778432,-24614.098622,-2686.947904,-25604.280901,20659.203310,26043.380921,-23398.811924,-16159.059543,-386.238144,17680.475733,-22582.347403,-12068.355032,0.006000,-0.006000,1.014000,192.000000,0.000000,0.000000,0.000000,0.000000,0.000000,0.000000,0.000000,0.000000,0.000000,1771494648.538706,0.000000
242.000000,17320.836165,16851.337773,-19645.618754,-21701.219285,-18697.904789,-24613.808049,-2682.097576,-25596.100163,20609.694196,25993.044793,-23454.668934,-16214.670684,-444.397383,17624.596372,-22640.774863,-12126.938954,0.006000,-0.006000,1.014000,192.000000,0.000000,0.000000,0.000000,0.000000,0.000000,0.000000,0.000000,0.000000,0.000000,1771494648.538716,0.000000
244.000000,17354.162616,16885.155962,-19611.554696,-21670.507988,-18666.880568,-24582.917939,-2646.513599,-25562.460788,20672.636708,26061.083503,-23386.250244,-16146.430808,-375.554010,17695.160829,-22575.440714,-12079.419146,0.006000,-0.012000,1.010000,192.000000,0.000000,24.000000,127.500000,80.000000,15.500000,72.000000,0.000000,0.000000,0.000000,1771494648.538727,0.000000
246.000000,17289.700185,16819.821813,-19678.364060,-21733.428148,-18726.671484,-24643.871146,-2713.010038,-25626.699701,20633.744673,26014.703633,-23432.920686,-16193.280064,-422.582081,17647.171634,-22620.859459,-12118.713512,0.006000,-0.012000,1.010000,192.000000,0.000000,0.000000,0.000000,0.000000,0.000000,0.000000,0.000000,0.000000,0.000000,1771494648.538738,0.000000
248.000000,17358.454151,16893.180238,-19609.364225,-21663.377781,-18658.431608,-24568.210491,-2639.338689,-25559.979744,20634.862260,26021.900895,-23430.618457,-16186.976872,-421.710363,17650.814968,-22618.065490,-12119.629934,0.006000,-0.012000,1.010000,192.000000,0.000000,0.000000,0.000000,0.000000,0.000000,0.000000,0.000000,0.000000,0.000000,1771494648.538749,0.000000
250.000000,17317.997494,16848.968488,-19652.123112,-21704.281474,-18705.258513,-24604.353262,-2681.292913,-25601.397526,20670.200368,26053.126282,-23394.810962,-16152.130503,-388.428615,17691.115164,-22582.570920,-12083.330701,0.006000,-0.012000,1.010000,192.000000,0.000000,0.000000,0.000000,0.000000,0.000000,0.000000,0.000000,0.000000,0.000000,1771494648.538761,0.000000
252.000000,17321.506717,16854.087037,-19648.971516,-21699.699366,-18703.246856,-24594.652604,-2679.437718,-25597.664785,20615.528001,25995.637595,-23457.217033,-16214.223649,-455.416793,17633.157090,-22647.994476,-12136.147873,0.006000,-0.012000,1.010000,192.000000,0.000000,0.000000,0.000000,0.000000,0.000000,0.000000,0.000000,0.000000,0.000000,1771494648.538772,0.000000
254.000000,17356.777770,16889.022814,-19618.640199,-21665.322383,-18670.881530,-24559.761531,-2645.373660,-25564.584203,20679.498694,26064.458616,-23387.412535,-16145.112055,-386.662827,17703.162754,-22581.632147,-12074.479410,0.008000,-0.014000,1.008000,192.000000,0.000000,32.000000,127.500000,72.000000,15.500000,64.000000,0.000000,0.000000,0.000000,1771494648.538783,0.000000
0.000000,17294.304644,16820.157089,-19682.767353,-21724.979189,-18733.935801,-24616.959645,-2712.138320,-25627.370253,20638.505595,26020.336273,-23435.781710,-16190.933131,-433.556787,17656.201739,-22629.800156,-12106.352998,0.008000,-0.014000,1.008000,192.000000,0.000000,0.000000,0.000000,0.000000,0.000000,0.000000,0.000000,0.000000,0.000000,1771494648.538795,0.000000
2.000000,17356.978936,16882.272587,-19613.633408,-21659.645040,-18663.371344,-24549.323267,-2643.026727,-25563.824244,20640.517252,26022.169116,-23430.864326,-16185.255788,-429.913453,17658.258099,-22622.178211,-12096.339416,0.008000,-0.014000,1.008000,192.000000,0.000000,0.000000,0.000000,0.000000,0.000000,0.000000,0.000000,0.000000,0.000000,1771494648.538805,0.000000
4.000000,17313.393034,16840.206604,-19653.441865,-21706.650759,-18702.151621,-24600.531113,-2685.718559,-25606.158448,20667.585214,26050.242907,-23401.337671,-16159.350116,-398.464548,17685.638986,-22584.671984,-12067.907997,0.008000,-0.014000,1.008000,192.000000,0.000000,0.000000,0.000000,0.000000,0.000000,0.000000,0.000000,0.000000,0.000000,1771494648.538815,0.000000
6.000000,17319.115081,16844.676953,-19645.641106,-21703.119183,-18695.535504,-24605.940235,-2681.337617,-25601.665747,20620.154812,25997.269272,-23455.853576,-16218.001094,-454.098040,17620.975390,-22637.533860,-12121.865108,0.008000,-0.014000,1.008000,192.000000,0.000000,0.000000,0.000000,0.000000,0.000000,0.000000,0.000000,0.000000,0.000000,1771494648.538826,0.000000
8.000000,17357.180102,16885.513590,-19613.834573,-21671.603223,-18661.404391,-24579.542825,-2647.161799,-25566.595860,20681.644461,26061.955221,-23389.938282,-16152.331668,-381.454871,17686.533056,-22572.266766,-12071.707794,0.007000,-0.012000,1.010000,192.000000,0.000000,24.000000,127.500000,88.000000,15.500000,80.000000,0.000000,0.000000,0.000000,1771494648.538837,0.000000
10.000000,17308.162726,16836.563270,-19669.445714,-21724.375692,-18708.633627,-24633.254067,-2705.678666,-25615.345015,20647.490996,26027.757052,-23427.176288,-16188.116811,-431.411020,17649.607974,-22613.259865,-12111.650361,0.007000,-0.012000,1.010000,192.000000,0.000000,0.000000,0.000000,0.000000,0.000000,0.000000,0.000000,0.000000,0.000000,1771494648.538848,0.000000
12.000000,17370.255872,16898.969340,-19603.731585,-21659.175653,-18653.983611,-24570.088037,-2636.254148,-25548.558003,20656.722266,26036.004846,-23415.128698,-16176.873884,-416.860034,17660.269756,-22609.571828,-12113.662018,0.007000,-0.012000,1.010000,192.000000,0.000000,0.000000,0.000000,0.000000,0.000000,0.000000,0.000000,0.000000,0.000000,1771494648.538858,0.000000
14.000000,17329.821566,16858.378572,-19646.043437,-21696.748936,-18693.166219,-24604.576779,-2678.118965,-25587.427686,20684.997223,26066.693791,-23381.511674,-16142.586308,-384.718226,17690.109335,-22583.397935,-12085.252951,0.007000,-0.012000,1.010000,192.000000,0.000000,0.000000,0.000000,0.000000,0.000000,0.000000,0.000000,0.000000,0.000000,1771494648.538869,0.000000
16.000000,17334.783654,16860.613747,-19643.115359,-21690.825724,-18691.311025,-24585.689555,-2676.755509,-25585.416029,20632.805900,26009.696842,-23440.699093,-16201.639617,-443.279796,17635.436968,-22642.875927,-12127.967134,0.007000,-0.012000,1.010000,192.000000,0.000000,0.000000,0.000000,0.000000,0.000000,0.000000,0.000000,0.000000,0.000000,1771494648.538880,0.000000
18.000000,17362.544520,16890.989767,-19614.393367,-21659.510930,-18665.315946,-24554.419464,-2643.250244,-25556.001133,20687.232397,26068.437227,-23377.734229,-16137.512462,-379.107938,17695.674920,-22576.714763,-12065.963395,0.006500,-0.009000,1.012000,192.000000,0.000000,24.000000,127.500000,104.000000,15.500000,88.000000,0.000000,0.000000,0.000000,1771494648.538891,0.000000
20.000000,17304.362929,16833.009342,-19675.793609,-21719.301846,-18728.191403,-24612.623407,-2707.824434,-25615.032091,20650.754351,26028.919343,-23422.974160,-16178.907893,-424.929014,17652.312535,-22624.525145,-12099.692178,0.006500,-0.009000,1.012000,192.000000,0.000000,0.000000,0.000000,0.000000,0.000000,0.000000,0.000000,0.000000,0.000000,1771494648.538902,0.000000
22.000000,17364.958509,16896.354186,-19611.800565,-21655.532319,-18664.690097,-24546.484595,-2640.545683,-25554.481215,20648.787397,26031.154517,-23421.074262,-16178.483209,-421.598604,17656.872291,-22623.027578,-12099.021625,0.006500,-0.009000,1.012000,192.000000,0.000000,0.000000,0.000000,0.000000,0.000000,0.000000,0.000000,0.000000,0.000000,1771494648.538913,0.000000
24.000000,17327.005247,16857.685668,-19653.665382,-21695.474886,-18705.459679,-24593.870293,-2681.851707,-25593.373250,20676.101229,26063.497491,-23390.117096,-16143.815654,-394.061255,17692.791545,-22589.321147,-12063.325890,0.006500,-0.009000,1.012000,192.000000,0.000000,0.000000,0.000000,0.000000,0.000000,0.000000,0.000000,0.000000,0.000000,1771494648.538924,0.000000
26.000000,17330.358008,16858.959718,-19646.356362,-21698.425317,-18702.106917,-24603.570950,-2678.968332,-25589.506398,20621.093586,25998.968005,-23448.119873,-16204.791213,-454.768593,17624.752834,-22646.541613,-12119.406416,0.006500,-0.009000,1.012000,192.000000,0.000000,0.000000,0.000000,0.000000,0.000000,0.000000,0.000000,0.000000,0.000000,1771494648.538936,0.000000
28.000000,17366.366669,16893.247294,-19607.084347,-21670.329174,-18661.605556,-24581.710944,-2642.065602,-25555.621154,20680.392764,26059.921212,-23378.762410,-16139.032380,-383.041845,17681.973300,-22573.652574,-12072.490105,0.006250,-0.008500,1.014000,192.000000,0.000000,24.000000,127.500000,96.000000,15.500000,96.000000,0.000000,0.000000,0.000000,1771494648.538948,0.000000
30.000000,17306.754566,16834.842185,-19666.674097,-21731.528250,-18714.601542,-24646.620410,-2706.125701,-25614.897980,20644.451159,26018.570485,-23419.353177,-16186.507486,-421.017459,17638.476806,-22611.717595,-12112.700893,0.006250,-0.008500,1.014000,192.000000,0.000000,0.000000,0.000000,0.000000,0.000000,0.000000,0.000000,0.000000,0.000000,1771494648.538959,0.000000
32.000000,17372.714564,16898.969340,-19597.227227,-21665.568252,-18644.327658,-24576.391229,-2638.556378,-25549.474424,20647.960382,26021.520915,-23415.218105,-16183.758221,-413.842549,17641.695457,-22607.470764,-12118.154719,0.006250,-0.008500,1.014000,192.000000,0.000000,0.000000,0.000000,0.000000,0.000000,0.000000,0.000000,0.000000,0.000000,1771494648.538970,0.000000
34.000000,17330.492119,16854.399962,-19644.590574,-21708.081270,-18695.155525,-24617.429032,-2683.908067,-25592.143904,20680.102191,26056.121416,-23380.259976,-16149.470645,-378.705606,17681.593321,-22574.568996,-12085.811744,0.006250,-0.008500,1.014000,192.000000,0.000000,0.000000,0.000000,0.000000,0.000000,0.000000,0.000000,0.000000,0.000000,1771494648.538980,0.000000
36.000000,17327.564040,16851.628345,-19649.463254,-21703.432107,-18700.899923,-24611.148192,-2682.656370,-25594.155561,20622.412339,25995.861113,-23445.907050,-16210.870887,-449.180657,17615.074529,-22642.786520,-12140.148835,0.006250,-0.008500,1.014000,192.000000,0.000000,0.000000,0.000000,0.000000,0.000000,0.000000,0.000000,0.000000,0.000000,1771494648.538991,0.000000
38.000000,17356.978936,16884.351299,-19620.316579,-21668.563386,-18675.485990,-24564.477749,-2648.011166,-25562.773712,20672.279080,26058.021314,-23387.099610,-16147.727209,-387.691008,17688.544713,-22586.348365,-12082.146058,0.007125,-0.009250,1.014000,192.000000,0.000000,32.000000,127.500000,88.000000,15.500000,88.000000,0.000000,0.000000,0.000000,1771494648.539001,0.000000
40.000000,17289.834295,16821.878174,-19684.019051,-21728.354302,-18739.836662,-24622.905209,-2714.887585,-25626.967922,20629.989580,26015.709462,-23432.138375,-16192.073070,-440.284662,17640.756683,-22630.269543,-12109.594001,0.007125,-0.009250,1.014000,192.000000,0.000000,0.000000,0.000000,0.000000,0.000000,0.000000,0.000000,0.000000,0.000000,1771494648.539012,0.000000
42.000000,17354.587299,16887.927578,-19616.695597,-21662.595470,-18669.920405,-24548.585659,-2645.619529,-25564.785369,20629.877821,26019.218686,-23432.384244,-16190.709614,-436.238997,17644.601183,-22627.341464,-12106.285942,0.007125,-0.009250,1.014000,192.000000,0.000000,0.000000,0.000000,0.000000,0.000000,0.000000,0.000000,0.000000,0.000000,1771494648.539022,0.000000
44.000000,17320.322075,16848.432046,-19658.918042,-21697.285378,-18707.605446,-24579.565177,-2687.126718,-25603.275073,20662.623127,26061.016448,-23399.080145,-16155.505616,-397.123444,17683.023832,-22591.511618,-12065.695174,0.007125,-0.009250,1.014000,192.000000,0.000000,0.000000,0.000000,0.000000,0.000000,0.000000,0.000000,0.000000,0.000000,1771494648.539033,0.000000
46.000000,17325.842956,16852.880043,-19654.179472,-21695.340776,-18701.481068,-24582.940290,-2685.606800,-25599.318814,20610.588266,26003.505409,-23459.183986,-16212.770785,-455.506200,17624.574020,-22650.430816,-12111.359788,0.007125,-0.009250,1.014000,192.000000,0.000000,0.000000,0.000000,0.000000,0.000000,0.000000,0.000000,0.000000,0.000000,1771494648.539044,0.000000
48.000000,17364.220901,16889.000462,-19617.902591,-21664.473017,-18663.103123,-24557.325191,-2647.452372,-25563.757189,20675.788304,26072.304079,-23390.094744,-16145.536738,-386.416958,17690.355204,-22581.766257,-12060.330756,0.006563,-0.008625,1.016000,192.000000,0.000000,24.000000,127.500000,96.000000,15.500000,104.000000,0.000000,0.000000,0.000000,1771494648.539055,0.000000
50.000000,17304.385281,16828.293124,-19676.777086,-21729.382483,-18721.396473,-24635.042207,-2709.165538,-25623.838678,20640.785472,26025.208953,-23432.048968,-16190.150820,-429.511121,17639.035599,-22621.105328,-12101.368559,0.006563,-0.008625,1.016000,192.000000,0.000000,0.000000,0.000000,0.000000,0.000000,0.000000,0.000000,0.000000,0.000000,1771494648.539066,0.000000
52.000000,17362.812741,16892.263817,-19609.855963,-21668.965717,-18654.721219,-24579.922805,-2643.987852,-25563.734837,20644.339400,26027.444127,-23429.120890,-16189.100288,-422.246805,17639.147358,-22613.349272,-12110.063387,0.006563,-0.008625,1.016000,192.000000,0.000000,0.000000,0.000000,0.000000,0.000000,0.000000,0.000000,0.000000,0.000000,1771494648.539077,0.000000
54.000000,17327.184060,16856.590433,-19649.262088,-21706.382538,-18691.601597,-24619.127765,-2683.036349,-25599.117648,20677.442333,26065.017410,-23394.028651,-16152.510482,-384.092377,17672.004422,-22576.379487,-12083.062480,0.006563,-0.008625,1.016000,192.000000,0.000000,0.000000,0.000000,0.000000,0.000000,0.000000,0.000000,0.000000,0.000000,1771494648.539087,0.000000
56.000000,17328.525165,16853.572947,-19650.133806,-21706.382538,-18693.836772,-24613.361015,-2686.813794,-25600.257587,20624.669865,26006.411136,-23453.372533,-16213.083710,-446.297282,17612.526430,-22639.411406,-12139.344172,0.006563,-0.008625,1.016000,192.000000,0.000000,0.000000,0.000000,0.000000,0.000000,0.000000,0.000000,0.000000,0.000000,1771494648.539098,0.000000
58.000000,17363.505645,16889.715718,-19614.125146,-21668.786903,-18660.979707,-24572.837302,-2650.223988,-25565.634735,20682.851456,26068.258413,-23390.675889,-16148.397761,-384.874688,17685.706042,-22577.653537,-12084.291826,0.005281,-0.010313,1.016000,192.000000,0.000000,16.000000,127.500000,80.000000,15.500000,96.000000,0.000000,0.000000,0.000000,1771494649.018899,0.000000
60.000000,17305.838145,16836.116235,-19672.597310,-21725.917962,-18726.045635,-24620.066538,-2711.512472,-25622.072890,20647.982734,26037.614171,-23426.617494,-16184.652291,-422.850302,17652.692515,-22619.630113,-12108.677579,0.005281,-0.010313,1.016000,192.000000,0.000000,0.000000,0.000000,0.000000,0.000000,0.000000,0.000000,0.000000,0.000000,1771494649.018954,0.000000
62.000000,17368.601843,16899.818706,-19604.804469,-21661.790807,-18660.420914,-24546.238726,-2642.534988,-25558.772750,20647.289830,26031.020407,-23425.075224,-16186.462782,-423.476150,17651.038486,-22622.625246,-12108.409358,0.005281,-0.010313,1.016000,192.000000,0.000000,0.000000,0.000000,0.000000,0.000000,0.000000,0.000000,0.000000,0.000000,1771494649.018991,0.000000
64.000000,17325.686494,16852.455360,-19649.239737,-21704.192067,-18701.548124,-24577.866444,-2684.489213,-25602.470410,20675.251862,26060.077674,-23393.067526,-16153.963346,-389.635609,17684.968434,-22586.728345,-12068.466791,0.005281,-0.010313,1.016000,192.000000,0.000000,0.000000,0.000000,0.000000,0.000000,0.000000,0.000000,0.000000,0.000000,1771494649.019032,0.000000
66.000000,17320.053854,16847.873252,-19654.090065,-21705.421413,-18711.427595,-24586.047183,-2684.578620,-25606.136096,20614.075138,25994.899988,-23459.385152,-16219.141033,-460.736508,17624.395206,-22650.810796,-12117.841794,0.005281,-0.010313,1.016000,192.000000,0.000000,0.000000,0.000000,0.000000,0.000000,0.000000,0.000000,0.000000,0.000000,1771494649.019069,0.000000
68.000000,17348.172349,16880.037413,-19621.590629,-21671.290299,-18676.424763,-24566.288241,-2647.340613,-25574.508378,20668.814560,26056.166119,-23396.442639,-16158.009012,-397.034037,17681.034527,-22584.649633,-12061.984785,0.003641,-0.012156,1.015000,192.000000,0.000000,8.000000,127.500000,72.000000,15.500000,88.000000,0.000000,0.000000,0.000000,1771494649.019110,0.000000
70.000000,17281.385336,16816.983142,-19689.070545,-21732.914058,-18740.037827,-24636.562125,-2716.161634,-25638.523774,20621.250048,26006.522895,-23445.772939,-16203.517163,-446.341985,17630.676047,-22629.598991,-12096.115899,0.003641,-0.012156,1.015000,192.000000,0.000000,0.000000,0.000000,0.000000,0.000000,0.000000,0.000000,0.000000,0.000000,1771494649.019147,0.000000
72.000000,17348.373514,16883.457230,-19620.048358,-21668.786903,-18667.841693,-24577.039430,-2647.430020,-25574.798951,20619.059577,26008.355738,-23445.303553,-16201.639617,-450.410003,17636.867480,-22621.462956,-12093.120765,0.003641,-0.012156,1.015000,192.000000,0.000000,0.000000,0.000000,0.000000,0.000000,0.000000,0.000000,0.000000,0.000000,1771494649.019158,0.000000
74.000000,17311.269618,16844.162863,-19658.091028,-21712.283398,-18702.933932,-24620.357111,-2687.774919,-25610.919370,20652.833063,26045.459634,-23409.853686,-16166.949709,-410.690953,17676.072440,-22583.152066,-12067.975052,0.003641,-0.012156,1.015000,192.000000,0.000000,0.000000,0.000000,0.000000,0.000000,0.000000,0.000000,0.000000,0.000000,1771494649.019169,0.000000
76.000000,17321.551421,16852.634174,-19650.379676,-21707.991863,-18696.541333,-24617.876067,-2683.617495,-25602.269244,20607.481373,25990.854322,-23461.821492,-16221.510318,-463.910456,17615.812137,-22639.903145,-12130.850510,0.003641,-0.012156,1.015000,192.000000,0.000000,0.000000,0.000000,0.000000,0.000000,0.000000,0.000000,0.000000,0.000000,1771494649.019180,0.000000
78.000000,17356.241328,16884.507762,-19615.622713,-21673.905453,-18658.789236,-24586.762439,-2648.435849,-25569.479235,20670.401534,26055.048532,-23392.955767,-16154.544491,-390.909659,17683.560274,-22573.183188,-12083.151887,0.003641,-0.012156,1.015000,192.000000,0.000000,0.000000,0.000000,0.000000,0.000000,0.000000,0.000000,0.000000,0.000000,1771494649.019190,0.000000
80.000000,17294.058775,16824.225107,-19678.386411,-21729.114262,-18725.576249,-24642.150061,-2711.333658,-25627.571419,20629.408435,26016.201200,-23434.552364,-16193.682396,-435.747258,17643.371838,-22619.339540,-12116.880669,0.008000,-0.006000,1.008000,192.000000,0.000000,32.000000,127.500000,104.000000,15.500000,64.000000,0.000000,0.000000,0.000000,1771494649.019201,0.000000
82.000000,17354.006154,16886.251198,-19616.025044,-21662.975450,-18666.992327,-24564.276584,-2646.066564,-25567.221709,20621.227696,26016.782345,-23438.061588,-16191.894256,-437.401287,17646.858710,-22622.513488,-12114.936067,0.008000,-0.006000,1.008000,192.000000,0.000000,0.000000,0.000000,0.000000,0.000000,0.000000,0.000000,0.000000,0.000000,1771494649.019212,0.000000
84.000000,17316.119947,16848.610860,-19657.755751,-21699.609959,-18704.498554,-24586.538921,-2687.797271,-25606.560779,20654.263574,26055.406160,-23404.288102,-16155.907948,-400.990296,17686.711870,-22587.890635,-12072.445401,0.008000,-0.006000,1.008000,192.000000,0.000000,0.000000,0.000000,0.000000,0.000000,0.000000,0.000000,0.000000,0.000000,1771494649.019222,0.000000
86.000000,17316.164650,16850.041372,-19658.850987,-21698.090040,-18702.911580,-24574.893662,-2690.613591,-25607.320739,20604.016853,25997.895121,-23464.682515,-16214.469518,-457.964892,17633.000628,-22647.927421,-12114.220812,0.008000,-0.006000,1.008000,192.000000,0.000000,0.000000,0.000000,0.000000,0.000000,0.000000,0.000000,0.000000,0.000000,1771494649.019233,0.000000
88.000000,17348.775846,16885.424183,-19621.657684,-21665.232976,-18667.394658,-24539.443796,-2652.570921,-25574.597785,20662.757237,26060.368247,-23402.209389,-16153.493959,-397.704589,17698.513591,-22581.565092,-12057.983823,0.008000,-0.006000,1.008000,192.000000,0.000000,0.000000,0.000000,0.000000,0.000000,0.000000,0.000000,0.000000,0.000000,1771494649.019244,0.000000
90.000000,17282.257054,16813.317455,-19686.678909,-21733.562259,-18735.589830,-24615.082099,-2718.933251,-25639.373140,20628.044978,26017.743470,-23443.448358,-16195.537590,-439.278834,17655.844111,-22621.373549,-12088.449250,0.016000,-0.002000,1.006000,192.000000,0.000000,64.000000,127.500000,120.000000,15.500000,56.000000,0.000000,0.000000,0.000000,1771494649.019262,0.000000
92.000000,17338.717561,16873.667165,-19621.992960,-21671.178540,-18672.312042,-24564.611860,-2652.816791,-25579.112837,20616.310312,26001.650214,-23452.098483,-16204.746509,-446.677261,17637.403922,-22624.614552,-12096.048843,0.016000,-0.002000,1.006000,192.000000,0.000000,0.000000,0.000000,0.000000,0.000000,0.000000,0.000000,0.000000,0.000000,1771494649.019278,0.000000
94.000000,17309.168554,16844.028752,-19655.252356,-21705.376709,-18705.325568,-24607.907189,-2687.841974,-25608.617140,20650.553185,26042.285686,-23411.127736,-16163.775762,-410.601546,17674.507818,-22584.068487,-12061.984785,0.016000,-0.002000,1.006000,192.000000,0.000000,0.000000,0.000000,0.000000,0.000000,0.000000,0.000000,0.000000,0.000000,1771494649.019288,0.000000
96.000000,17317.416348,16854.645831,-19652.681905,-21705.913151,-18699.067080,-24617.250218,-2687.998436,-25603.453887,20610.431804,25989.647328,-23461.374457,-16215.855326,-456.333215,17619.902506,-22639.098482,-12116.277172,0.016000,-0.002000,1.006000,192.000000,0.000000,0.000000,0.000000,0.000000,0.000000,0.000000,0.000000,0.000000,0.000000,1771494649.019299,0.000000
98.000000,17358.297689,16896.018910,-19613.946332,-21670.463284,-18660.085638,-24588.751744,-2646.334785,-25564.472445,20671.429714,26060.055323,-23394.363927,-16146.251994,-390.172051,17687.002443,-22571.797379,-12073.808858,0.016000,-0.002000,1.006000,192.000000,0.000000,0.000000,0.000000,0.000000,0.000000,0.000000,0.000000,0.000000,0.000000,1771494649.019310,0.000000
100.000000,17301.099575,16840.340714,-19677.358231,-21728.488413,-18727.274981,-24648.565012,-2709.411408,-25622.721091,20636.985676,26028.695825,-23434.507660,-16182.774744,-431.321613,17648.646849,-22614.779784,-12116.008951,0.012000,-0.008000,1.004000,192.000000,0.000000,48.000000,127.500000,96.000000,15.500000,48.000000,0.000000,0.000000,0.000000,1771494649.019320,0.000000
102.000000,17365.651413,16906.256009,-19612.985207,-21660.002668,-18665.137132,-24573.150226,-2640.500979,-25556.403465,20637.544470,26034.350817,-23431.780747,-16178.282044,-428.192369,17656.469960,-22618.423118,-12117.752387,0.012000,-0.008000,1.004000,192.000000,0.000000,0.000000,0.000000,0.000000,0.000000,0.000000,0.000000,0.000000,0.000000,1771494649.019331,0.000000
104.000000,17328.323999,16866.805180,-19651.653725,-21696.503067,-18712.209906,-24611.416413,-2679.929457,-25593.373250,20671.899101,26074.226329,-23393.738078,-16139.747636,-397.414016,17698.424184,-22582.503865,-12080.179105,0.012000,-0.008000,1.004000,192.000000,0.000000,0.000000,0.000000,0.000000,0.000000,0.000000,0.000000,0.000000,0.000000,1771494649.019341,0.000000
106.000000,17326.312342,16867.542787,-19652.525443,-21694.983148,-18709.527696,-24599.659395,-2682.745777,-25594.624948,20615.438594,26015.329482,-23455.093617,-16200.164402,-461.161192,17637.426274,-22649.000305,-12127.654210,0.012000,-0.008000,1.004000,192.000000,0.000000,0.000000,0.000000,0.000000,0.000000,0.000000,0.000000,0.000000,0.000000,1771494649.019351,0.000000
108.000000,17362.499817,16904.378462,-19618.371978,-21658.505101,-18670.143923,-24547.468072,-2646.714764,-25560.650296,20675.274214,26075.075695,-23391.033517,-16136.417226,-389.859127,17707.074309,-22582.548569,-12064.577587,0.012000,-0.008000,1.004000,192.000000,0.000000,0.000000,0.000000,0.000000,0.000000,0.000000,0.000000,0.000000,0.000000,1771494649.019361,0.000000
110.000000,17292.404746,16833.434025,-19685.114287,-21725.135651,-18733.242897,-24601.000500,-2716.385152,-25628.912524,20639.265554,26034.596686,-23432.250134,-16179.980776,-428.035906,17663.689573,-22621.731177,-12083.196590,0.014000,-0.008000,1.004000,192.000000,0.000000,56.000000,127.500000,96.000000,15.500000,48.000000,0.000000,0.000000,0.000000,1771494649.019371,0.000000
112.000000,17353.760285,16895.035433,-19619.333103,-21665.970584,-18661.739667,-24531.687740,-2650.045174,-25572.250852,20628.871993,26017.564656,-23443.582468,-16194.732928,-434.249691,17648.356277,-22624.212220,-12086.772869,0.014000,-0.008000,1.004000,192.000000,0.000000,0.000000,0.000000,0.000000,0.000000,0.000000,0.000000,0.000000,0.000000,1771494649.019381,0.000000
114.000000,17310.576714,16850.980145,-19658.985097,-21709.400023,-18703.850353,-24583.432029,-2692.066454,-25616.037919,20670.669755,26057.417817,-23404.846895,-16159.841855,-392.541336,17690.109335,-22578.592310,-12048.193759,0.014000,-0.008000,1.004000,192.000000,0.000000,0.000000,0.000000,0.000000,0.000000,0.000000,0.000000,0.000000,0.000000,1771494649.019392,0.000000
116.000000,17303.692377,16843.760531,-19660.840292,-21712.842192,-18703.917408,-24595.457267,-2696.335637,-25621.223524,20600.909960,25992.463647,-23474.740800,-16228.484062,-459.082479,17623.836413,-22645.446377,-12106.665922,0.014000,-0.008000,1.004000,192.000000,0.000000,0.000000,0.000000,0.000000,0.000000,0.000000,0.000000,0.000000,0.000000,1771494649.019402,0.000000
118.000000,17345.087808,16885.580645,-19616.785004,-21674.777171,-18662.589033,-24569.171616,-2650.827485,-25577.637622,20655.828197,26051.785177,-23409.227837,-16163.932224,-395.558822,17685.929559,-22575.798342,-12055.681593,0.014000,-0.008000,1.004000,192.000000,0.000000,0.000000,0.000000,0.000000,0.000000,0.000000,0.000000,0.000000,0.000000,1771494649.019412,0.000000
120.000000,17283.866380,16826.639095,-19680.666289,-21739.530175,-18730.471281,-24646.441596,-2717.458036,-25635.796861,20630.637781,26018.592837,-23441.637867,-16197.102213,-425.934842,17646.501082,-22612.835182,-12094.506573,0.014000,-0.012000,1.004000,192.000000,0.000000,56.000000,127.500000,80.000000,15.500000,48.000000,0.000000,0.000000,0.000000,1771494649.019422,0.000000
122.000000,17354.006154,16894.454288,-19611.599399,-21673.503122,-18666.500588,-24591.143381,-2648.212331,-25567.713448,20630.123690,26016.558828,-23440.497928,-16195.872867,-435.926072,17639.907317,-22619.540706,-12113.840832,0.014000,-0.012000,1.004000,192.000000,0.000000,0.000000,0.000000,0.000000,0.000000,0.000000,0.000000,0.000000,0.000000,1771494649.019434,0.000000
124.000000,17325.619438,16865.128799,-19648.211556,-21705.443764,-18701.369310,-24624.603942,-2681.650541,-25598.894131,20670.602700,26061.687000,-23396.330881,-16150.364715,-391.870784,17682.755611,-22578.368792,-12082.079003,0.014000,-0.012000,1.004000,192.000000,0.000000,0.000000,0.000000,0.000000,0.000000,0.000000,0.000000,0.000000,0.000000,1771494649.019444,0.000000
126.000000,17325.373569,16866.760476,-19650.178510,-21703.633273,-18705.347920,-24620.871201,-2684.511564,-25599.162352,20616.645588,26009.339214,-23454.445416,-16206.646407,-449.158305,17630.497233,-22642.518299,-12134.002105,0.014000,-0.012000,1.004000,192.000000,0.000000,0.000000,0.000000,0.000000,0.000000,0.000000,0.000000,0.000000,0.000000,1771494649.019455,0.000000
128.000000,17364.511474,16906.747747,-19611.308826,-21664.160092,-18667.752286,-24572.211453,-2642.400878,-25561.097331,20675.587139,26075.567433,-23389.647709,-16141.312258,-383.801804,17702.000463,-22580.089877,-12077.966282,0.014000,-0.012000,1.004000,192.000000,0.000000,0.000000,0.000000,0.000000,0.000000,0.000000,0.000000,0.000000,0.000000,1771494649.019465,0.000000
130.000000,17306.084014,16846.107465,-19672.306737,-21722.609904,-18729.711322,-24618.591323,-2705.969239,-25619.390681,20644.384103,26035.289590,-23426.259867,-16178.170285,-421.308031,17666.885873,-22618.289008,-12101.390910,0.012000,-0.010000,1.002000,192.000000,0.000000,48.000000,127.500000,88.000000,15.500000,40.000000,0.000000,0.000000,0.000000,1771494649.019475,0.000000
132.000000,17366.411372,16905.876029,-19611.822916,-21662.684877,-18671.105048,-24551.580793,-2643.764334,-25561.499663,20639.287906,26033.188526,-23430.082015,-16179.846666,-422.783246,17669.344565,-22621.038273,-12098.015797,0.012000,-0.010000,1.002000,192.000000,0.000000,0.000000,0.000000,0.000000,0.000000,0.000000,0.000000,0.000000,0.000000,1771494649.019485,0.000000
134.000000,17322.199621,16861.261947,-19655.900557,-21700.906360,-18705.973769,-24580.973337,-2686.411463,-25606.694890,20667.071124,26068.571337,-23399.907160,-16149.895328,-390.395569,17700.860524,-22584.560226,-12058.564968,0.012000,-0.010000,1.002000,192.000000,0.000000,0.000000,0.000000,0.000000,0.000000,0.000000,0.000000,0.000000,0.000000,1771494649.019495,0.000000
136.000000,17314.734139,16854.511720,-19660.952051,-21704.147363,-18708.879496,-24577.173540,-2690.971218,-25615.523829,20611.482336,26004.667700,-23468.929347,-16215.631809,-451.326424,17646.612840,-22642.987686,-12101.770890,0.012000,-0.010000,1.002000,192.000000,0.000000,0.000000,0.000000,0.000000,0.000000,0.000000,0.000000,0.000000,0.000000,1771494649.019505,0.000000
138.000000,17352.083904,16890.989767,-19620.741263,-21667.848130,-18669.875702,-24540.069644,-2651.878017,-25579.895148,20666.288813,26060.703523,-23405.495096,-16157.629032,-393.971848,17705.464984,-22576.714763,-12043.276375,0.012000,-0.010000,1.002000,192.000000,0.000000,0.000000,0.000000,0.000000,0.000000,0.000000,0.000000,0.000000,0.000000,1771494649.019515,0.000000
140.000000,17293.254112,16828.069607,-19680.442772,-21734.255163,-18733.019380,-24608.600093,-2715.960469,-25638.501422,20634.839908,26022.012654,-23441.950791,-16198.175096,-431.835703,17660.694439,-22615.360929,-12074.792334,0.009000,-0.011000,1.002000,192.000000,0.000000,24.000000,127.500000,80.000000,15.500000,40.000000,0.000000,0.000000,0.000000,1771494649.019525,0.000000
142.000000,17358.565910,16894.163715,-19613.141669,-21670.575043,-18664.935966,-24566.332944,-2647.117096,-25571.580299,20635.599868,26011.529685,-23443.470710,-16199.203277,-431.969813,17650.144416,-22615.651502,-12088.292788,0.009000,-0.011000,1.002000,192.000000,0.000000,0.000000,0.000000,0.000000,0.000000,0.000000,0.000000,0.000000,0.000000,1771494649.019535,0.000000
144.000000,17326.468805,16864.324136,-19646.579879,-21705.197895,-18699.894094,-24612.578703,-2681.136451,-25600.861085,20679.476342,26058.982439,-23395.570921,-16147.682506,-378.973827,17699.206495,-22574.233720,-12061.202474,0.009000,-0.011000,1.002000,192.000000,0.000000,0.000000,0.000000,0.000000,0.000000,0.000000,0.000000,0.000000,0.000000,1771494649.019545,0.000000
146.000000,17325.284162,16858.244462,-19651.161987,-21706.471945,-18702.509249,-24619.440689,-2683.706902,-25602.872742,20623.284057,25992.709517,-23459.586317,-16211.384977,-449.739450,17634.453492,-22640.864270,-12129.084722,0.009000,-0.011000,1.002000,192.000000,0.000000,0.000000,0.000000,0.000000,0.000000,0.000000,0.000000,0.000000,0.000000,1771494649.019555,0.000000
148.000000,17369.652375,16907.775928,-19609.833611,-21663.243671,-18663.147827,-24577.709982,-2637.975232,-25559.689171,20686.763011,26058.669514,-23389.312433,-16140.507596,-378.504441,17703.542734,-22576.290080,-12076.334605,0.009000,-0.011000,1.002000,192.000000,0.000000,0.000000,0.000000,0.000000,0.000000,0.000000,0.000000,0.000000,0.000000,1771494649.019565,0.000000
150.000000,17307.581581,16844.140511,-19673.647842,-21727.259067,-18730.314819,-24634.483413,-2704.114044,-25620.888248,20657.281060,26027.131203,-23425.544611,-16175.152800,-415.228357,17666.148265,-22617.551400,-12109.035207,0.010500,-0.009500,1.002000,192.000000,0.000000,48.000000,127.500000,96.000000,15.500000,40.000000,0.000000,0.000000,0.000000,1771494649.019576,0.000000
152.000000,17377.095506,16909.407605,-19605.385614,-21660.762627,-18664.153655,-24565.371819,-2634.689526,-25554.592974,20655.314106,26022.504392,-23428.517393,-16178.974948,-418.067028,17661.856730,-22621.664121,-12109.772814,0.010500,-0.009500,1.002000,192.000000,0.000000,0.000000,0.000000,0.000000,0.000000,0.000000,0.000000,0.000000,0.000000,1771494649.019586,0.000000
154.000000,17337.063532,16870.873197,-19645.216423,-21698.782945,-18699.827039,-24595.747840,-2674.475631,-25594.446134,20694.630825,26058.758921,-23387.032555,-16137.311296,-375.956342,17703.095699,-22579.195807,-12065.359898,0.010500,-0.009500,1.002000,192.000000,0.000000,0.000000,0.000000,0.000000,0.000000,0.000000,0.000000,0.000000,0.000000,1771494649.019597,0.000000
156.000000,17326.669970,16861.641927,-19653.330106,-21707.187200,-18710.332359,-24596.396040,-2685.003303,-25603.297425,20636.784510,25990.899025,-23453.797216,-16205.327655,-443.123334,17635.369913,-22643.121796,-12113.147928,0.010500,-0.009500,1.002000,192.000000,0.000000,0.000000,0.000000,0.000000,0.000000,0.000000,0.000000,0.000000,0.000000,1771494649.019607,0.000000
158.000000,17357.604785,16893.068480,-19616.159155,-21670.217415,-18670.278033,-24551.692552,-2645.083087,-25570.082732,20689.132296,26049.125320,-23393.581616,-16146.900195,-381.946609,17696.367824,-22581.565092,-12056.642718,0.010500,-0.009500,1.002000,192.000000,0.000000,0.000000,0.000000,0.000000,0.000000,0.000000,0.000000,0.000000,0.000000,1771494649.019617,0.000000
160.000000,17290.393089,16824.649790,-19680.554531,-21732.288209,-18734.896926,-24605.984939,-2712.473597,-25633.181707,20649.972039,26007.104040,-23436.586372,-16189.212047,-424.347868,17656.067628,-22617.350235,-12077.765116,0.011250,-0.009750,1.006000,192.000000,0.000000,48.000000,127.500000,88.000000,15.500000,72.000000,0.000000,0.000000,0.000000,1771494649.019627,0.000000
162.000000,17354.855520,16891.369747,-19612.784041,-21666.194101,-18664.153655,-24540.762549,-2645.261901,-25568.920442,20644.697028,26003.371299,-23439.849727,-16191.737794,-429.108790,17652.871329,-22616.947903,-12080.603788,0.011250,-0.009750,1.006000,192.000000,0.000000,0.000000,0.000000,0.000000,0.000000,0.000000,0.000000,0.000000,0.000000,1771494649.019637,0.000000
164.000000,17321.126738,16855.450494,-19650.603193,-21702.739203,-18700.519943,-24584.214340,-2682.388149,-25604.012681,20680.772743,26044.319695,-23400.622416,-16150.141197,-387.266324,17694.959664,-22573.563167,-12043.254023,0.011250,-0.009750,1.006000,192.000000,0.000000,0.000000,0.000000,0.000000,0.000000,0.000000,0.000000,0.000000,0.000000,1771494649.019647,0.000000
166.000000,17320.590296,16858.043296,-19653.352458,-21706.315482,-18708.745385,-24596.463096,-2686.634980,-25603.140962,20628.067330,25990.586101,-23459.027524,-16207.696939,-448.867732,17633.693532,-22638.517337,-12104.475451,0.011250,-0.009750,1.006000,192.000000,0.000000,0.000000,0.000000,0.000000,0.000000,0.000000,0.000000,0.000000,0.000000,1771494649.019657,0.000000
168.000000,17367.551311,16903.864372,-19610.727681,-21665.702363,-18665.561815,-24558.778055,-2642.512636,-25560.404427,20688.685261,26059.921212,-23392.151104,-16139.680581,-377.073929,17702.939237,-22577.675888,-12062.454171,0.011250,-0.009750,1.006000,192.000000,0.000000,0.000000,0.000000,0.000000,0.000000,0.000000,0.000000,0.000000,0.000000,1771494649.019667,0.000000
170.000000,17308.855630,16842.821758,-19675.815961,-21728.533116,-18732.348827,-24625.676826,-2708.137358,-25620.776489,20655.627031,26026.348892,-23426.505736,-16171.777686,-421.576252,17667.489370,-22613.729252,-12097.166431,0.008625,-0.009875,1.007000,192.000000,0.000000,24.000000,127.500000,88.000000,15.500000,64.000000,0.000000,0.000000,0.000000,1771494649.019677,0.000000
172.000000,17370.747610,16909.854640,-19610.861791,-21660.315592,-18670.747420,-24565.550633,-2640.188055,-25557.185776,20649.815577,26017.676415,-23432.116024,-16176.851532,-425.845435,17662.504931,-22624.301627,-12108.878745,0.008625,-0.009875,1.007000,192.000000,0.000000,0.000000,0.000000,0.000000,0.000000,0.000000,0.000000,0.000000,0.000000,1771494649.019687,0.000000
174.000000,17329.463938,16868.705078,-19652.234870,-21698.358261,-18713.036920,-24605.604959,-2679.281256,-25598.044765,20684.639595,26059.273012,-23394.006299,-16135.299639,-381.834851,17703.565085,-22584.157894,-12070.277282,0.008625,-0.009875,1.007000,192.000000,0.000000,0.000000,0.000000,0.000000,0.000000,0.000000,0.000000,0.000000,0.000000,1771494649.019698,0.000000
176.000000,17324.255982,16860.367878,-19656.928737,-21705.600227,-18719.809499,-24610.656453,-2684.824489,-25603.386832,20626.502708,25996.844589,-23458.804006,-16203.003073,-449.694747,17637.090997,-22649.402636,-12120.680466,0.008625,-0.009875,1.007000,192.000000,0.000000,0.000000,0.000000,0.000000,0.000000,0.000000,0.000000,0.000000,0.000000,1771494649.019708,0.000000
178.000000,17366.545482,16898.522305,-19614.929809,-21667.714020,-18675.441286,-24568.165787,-2641.484456,-25563.086636,20688.349985,26056.255526,-23392.173456,-16141.558128,-385.366426,17696.412527,-22581.967423,-12064.555235,0.008625,-0.009875,1.007000,192.000000,0.000000,0.000000,0.000000,0.000000,0.000000,0.000000,0.000000,0.000000,0.000000,1771494649.499918,0.000000
180.000000,17302.083051,16830.193023,-19676.866493,-21731.818823,-18728.727845,-24622.972265,-2707.444454,-25626.520887,20654.934127,26021.453860,-23429.791442,-16179.600797,-424.593738,17657.587547,-22617.126717,-12089.969169,0.006313,-0.007938,1.009500,192.000000,0.000000,16.000000,127.500000,104.000000,15.500000,80.000000,0.000000,0.000000,0.000000,1771494649.500001,0.000000
182.000000,17360.622270,16887.771116,-19612.247600,-21672.810217,-18663.885434,-24552.251345,-2644.256073,-25569.568642,20649.659115,26016.558828,-23435.938172,-16188.697957,-425.487807,17653.631288,-22613.483383,-12088.896285,0.006313,-0.007938,1.009500,192.000000,0.000000,0.000000,0.000000,0.000000,0.000000,0.000000,0.000000,0.000000,0.000000,1771494649.500077,0.000000
184.000000,17323.585430,16846.956831,-19654.850025,-21711.076404,-18709.997083,-24589.534055,-2684.377454,-25609.086527,20680.593929,26050.444073,-23401.538837,-16154.656250,-389.456795,17688.008271,-22575.597176,-12051.926500,0.006313,-0.007938,1.009500,192.000000,0.000000,0.000000,0.000000,0.000000,0.000000,0.000000,0.000000,0.000000,0.000000,1771494649.500154,0.000000
186.000000,17317.818680,16843.313497,-19657.688696,-21713.199820,-18711.561705,-24591.456305,-2690.099500,-25612.953378,20623.217001,25991.234301,-23463.743742,-16217.107024,-458.031947,17625.490442,-22642.071264,-12104.207230,0.006313,-0.007938,1.009500,192.000000,0.000000,0.000000,0.000000,0.000000,0.000000,0.000000,0.000000,0.000000,0.000000,1771494649.500220,0.000000
188.000000,17366.389020,16892.174410,-19613.789870,-21670.172712,-18666.478236,-24552.676028,-2645.731288,-25567.132302,20680.236301,26056.456692,-23399.303663,-16151.951689,-393.994200,17691.517495,-22580.291042,-12055.301613,0.006313,-0.007938,1.009500,192.000000,0.000000,0.000000,0.000000,0.000000,0.000000,0.000000,0.000000,0.000000,0.000000,1771494649.500274,0.000000
190.000000,17315.672912,16839.089017,-19672.686717,-21726.208535,-18727.140871,-24614.970340,-2706.259812,-25619.211867,20658.666868,26030.238096,-23423.689416,-16173.476419,-418.223491,17662.147303,-22616.120889,-12087.219904,0.006313,-0.007938,1.009500,192.000000,0.000000,0.000000,127.500000,80.000000,15.500000,56.000000,0.000000,0.000000,0.000000,1771494649.500328,0.000000
192.000000,17380.492971,16906.814803,-19606.436146,-21659.466226,-18663.281937,-24548.160976,-2637.461142,-25554.034180,20655.470569,26029.478136,-23426.282218,-16176.359794,-421.151569,17659.621556,-22625.508621,-12100.116861,0.006313,-0.007938,1.009500,192.000000,0.000000,0.000000,0.000000,0.000000,0.000000,0.000000,0.000000,0.000000,0.000000,1771494649.500383,0.000000
194.000000,17346.294802,16865.709944,-19642.869490,-21695.586645,-18702.911580,-24594.429087,-2670.251151,-25586.868893,20694.094383,26071.119436,-23380.170569,-16131.276325,-373.899981,17701.642835,-22579.866359,-12059.704907,0.006313,-0.007938,1.009500,192.000000,0.000000,0.000000,0.000000,0.000000,0.000000,0.000000,0.000000,0.000000,0.000000,1771494649.500437,0.000000
196.000000,17331.162671,16853.058857,-19651.407856,-21710.182334,-18713.126327,-24611.327006,-2679.974160,-25598.402393,20632.738844,25999.862075,-23444.811814,-16200.030291,-446.006709,17633.537070,-22645.647543,-12123.094454,0.006313,-0.007938,1.009500,192.000000,0.000000,0.000000,0.000000,0.000000,0.000000,0.000000,0.000000,0.000000,0.000000,1771494649.500482,0.000000
198.000000,17366.478427,16890.363919,-19610.772384,-21671.245595,-18674.994251,-24574.223110,-2636.812942,-25560.426779,20679.632804,26053.126282,-23388.373660,-16141.960459,-389.255630,17692.120992,-22583.107362,-12075.775811,0.006313,-0.007938,1.009500,192.000000,0.000000,0.000000,0.000000,0.000000,0.000000,0.000000,0.000000,0.000000,0.000000,1771494649.500493,0.000000
200.000000,17303.759432,16827.533165,-19675.480685,-21731.058864,-18738.942592,-24632.091776,-2702.325905,-25622.475221,20646.306353,26015.038909,-23426.528087,-16178.170285,-423.252633,17655.665297,-22618.624284,-12102.396739,0.004156,-0.010969,1.010750,192.000000,0.000000,8.000000,127.500000,72.000000,15.500000,80.000000,0.000000,0.000000,0.000000,1771494649.500503,0.000000
202.000000,17365.785523,16889.603959,-19608.023120,-21668.786903,-18660.018582,-24564.254232,-2637.818770,-25561.477311,20647.915679,26009.205104,-23431.646637,-16184.987567,-422.738543,17651.887852,-22620.524182,-12105.369521,0.004156,-0.010969,1.010750,192.000000,0.000000,0.000000,0.000000,0.000000,0.000000,0.000000,0.000000,0.000000,0.000000,1771494649.500514,0.000000
204.000000,17333.956639,16853.505892,-19640.120225,-21699.095869,-18688.897036,-24590.629290,-2672.307512,-25592.881512,20687.768839,26058.334238,-23387.636052,-16139.300601,-384.561763,17695.987844,-22574.077257,-12060.107238,0.004156,-0.010969,1.010750,192.000000,0.000000,0.000000,0.000000,0.000000,0.000000,0.000000,0.000000,0.000000,0.000000,1771494649.500524,0.000000
206.000000,17319.539764,16837.971430,-19650.737304,-21707.097793,-18702.285731,-24598.832381,-2683.125756,-25601.844561,20631.040112,25992.553054,-23450.712675,-16202.891314,-446.341985,17626.384512,-22636.908011,-12109.169317,0.004156,-0.010969,1.010750,192.000000,0.000000,0.000000,0.000000,0.000000,0.000000,0.000000,0.000000,0.000000,0.000000,1771494649.500534,0.000000
208.000000,17364.422067,16883.993671,-19607.643140,-21663.176616,-18663.550158,-24556.498177,-2634.354250,-25556.068189,20686.695956,26053.394503,-23387.233721,-16140.328782,-384.293542,17688.634120,-22576.558301,-12058.050878,0.004156,-0.010969,1.010750,192.000000,0.000000,0.000000,0.000000,0.000000,0.000000,0.000000,0.000000,0.000000,0.000000,1771494649.500544,0.000000
210.000000,17293.812906,16816.022017,-19676.642975,-21727.817861,-18732.393531,-24623.754576,-2703.465844,-25621.737614,20650.016743,26020.380976,-23424.471727,-16173.543474,-423.610261,17651.731390,-22614.265694,-12087.733994,0.004156,-0.010969,1.010750,192.000000,0.000000,0.000000,0.000000,0.000000,0.000000,0.000000,0.000000,0.000000,0.000000,1771494649.500555,0.000000
212.000000,17358.297689,16880.551503,-19608.514858,-21661.746104,-18664.690097,-24561.840244,-2634.041325,-25558.102197,20642.841833,26011.350871,-23432.518355,-16180.651329,-433.266215,17647.685724,-22622.558191,-12099.043977,0.006000,-0.012000,1.008000,192.000000,0.000000,24.000000,127.500000,80.000000,15.500000,64.000000,0.000000,0.000000,0.000000,1771494649.500565,0.000000
