Sample_index,EXG Channel 0,EXG Channel 1,EXG Channel 2,EXG Channel 3,EXG Channel 4,EXG Channel 5,EXG Channel 6,EXG Channel 7,EXG Channel 8,EXG Channel 9,EXG Channel 10,EXG Channel 11,EXG Channel 12,EXG Channel 13,EXG Channel 14,EXG Channel 15,Accel Channel 0,Accel Channel 1,Accel Channel 2,Not Used,Digital Channel 0 (D11),Digital Channel 1 (D12),Digital Channel 2 (D13),Digital Channel 3 (D17),Not Used,Digital Channel 4 (D18),Analog Channel 0,Analog Channel 1,Analog Channel 2,Timestamp,Marker Channel
90.000000,18124.426082,16303.004778,-13231.584517,-25579.269299,-19504.959226,-22568.109342,-1811.117150,-25621.961131,20383.047507,35363.208993,-24622.346416,-16445.743018,1649.625796,18950.703019,-20666.713496,-1493.364751,0.004000,-0.012000,1.004000,192.000000,0.000000,0.000000,0.000000,0.000000,0.000000,0.000000,0.000000,0.000000,0.000000,1771496462.318058,101.000000
92.000000,18202.657187,16376.698479,-13161.020060,-25512.191714,-19429.119757,-22499.780059,-1742.497294,-25553.743607,20412.328292,35390.612232,-24590.584587,-16416.976323,1675.665578,18992.612540,-20636.784510,-1478.925524,0.004000,-0.012000,1.004000,192.000000,0.000000,0.000000,0.000000,0.000000,0.000000,0.000000,0.000000,0.000000,0.000000,1771496462.318168,0.000000
94.000000,18150.622326,16321.579077,-13219.492223,-25570.932099,-19489.335357,-22567.036458,-1802.578783,-25609.958245,20431.371979,35398.211825,-24578.067610,-16406.381596,1689.925991,18964.538749,-20624.423996,-1473.985788,0.008000,-0.010000,1.000000,192.000000,0.000000,32.000000,127.500000,88.000000,15.500000,32.000000,0.000000,0.000000,0.000000,1771496462.318225,0.000000
96.000000,18190.833114,16358.995898,-13187.708043,-25543.260639,-19449.415141,-22551.054961,-1771.800431,-25577.659974,20398.894894,35350.893182,-24621.787622,-16451.889748,1651.212770,18924.864402,-20672.860226,-1509.726227,0.008000,-0.010000,1.000000,192.000000,0.000000,0.000000,0.000000,0.000000,0.000000,0.000000,0.000000,0.000000,0.000000,1771496462.318266,0.000000
98.000000,18194.007062,16361.611052,-13178.722641,-25540.354912,-19443.894260,-22550.004429,-1764.022024,-25574.396619,20456.070656,35404.939700,-24553.972430,-16388.880180,1705.818082,18995.786488,-20602.608693,-1478.210268,0.008000,-0.010000,1.000000,192.000000,0.000000,0.000000,0.000000,0.000000,0.000000,0.000000,0.000000,0.000000,0.000000,1771496462.318308,0.000000
100.000000,18150.152940,16314.828851,-13228.008238,-25589.640509,-19497.069060,-22606.129659,-1814.492263,-25622.095242,20407.880295,35349.820298,-24613.718642,-16448.179358,1650.117534,18931.882850,-20660.365601,-1515.045943,0.008000,-0.010000,1.000000,192.000000,0.000000,0.000000,0.000000,0.000000,0.000000,0.000000,0.000000,0.000000,0.000000,1771496462.318358,0.000000
102.000000,18216.358807,16383.135782,-13156.505007,-25523.792270,-19421.453109,-22531.184260,-1744.464248,-25557.699866,20434.501223,35372.686133,-24584.415505,-16423.346570,1687.243782,18971.311327,-20631.397740,-1502.417207,0.008000,-0.010000,1.000000,192.000000,0.000000,0.000000,0.000000,0.000000,0.000000,0.000000,0.000000,0.000000,0.000000,1771496462.318399,0.000000
104.000000,18160.255928,16325.356522,-13216.787662,-25578.062305,-19483.389793,-22583.889673,-1803.517557,-25614.629759,20442.391389,35376.485929,-24575.564215,-16415.635218,1695.469224,18946.098560,-20619.774833,-1488.179146,0.006000,-0.006000,1.004000,192.000000,0.000000,24.000000,127.500000,104.000000,15.500000,48.000000,0.000000,0.000000,0.000000,1771496462.318438,0.000000
106.000000,18186.340414,16351.351601,-13193.251275,-25547.306305,-19457.372362,-22560.330935,-1775.734338,-25587.695907,20396.503257,35324.920455,-24627.174393,-16463.624413,1634.091334,18911.095728,-20672.077915,-1516.364696,0.006000,-0.006000,1.004000,192.000000,0.000000,0.000000,0.000000,0.000000,0.000000,0.000000,0.000000,0.000000,0.000000,1771496462.318480,0.000000
108.000000,18204.221809,16366.953119,-13186.054013,-25536.264543,-19457.551176,-22542.248373,-1766.771289,-25577.369401,20451.756770,35379.481063,-24561.147339,-16398.871410,1698.643172,18968.763229,-20610.342397,-1472.398814,0.006000,-0.006000,1.004000,192.000000,0.000000,0.000000,0.000000,0.000000,0.000000,0.000000,0.000000,0.000000,0.000000,1771496462.318518,0.000000
110.000000,18164.234539,16323.277810,-13233.886747,-25584.857236,-19500.757098,-22589.544665,-1815.676906,-25622.318759,20406.181563,35333.771745,-24615.663244,-16451.219195,1642.070906,18932.463996,-20668.144008,-1499.511480,0.006000,-0.006000,1.004000,192.000000,0.000000,0.000000,0.000000,0.000000,0.000000,0.000000,0.000000,0.000000,0.000000,1771496462.318530,0.000000
112.000000,18239.671676,16397.642064,-13162.070592,-25517.399671,-19428.963295,-22518.376710,-1742.899626,-25551.039046,20435.350589,35362.381978,-24582.694421,-16421.513727,1673.810384,18943.997496,-20635.532813,-1484.669922,0.006000,-0.006000,1.004000,192.000000,0.000000,0.000000,0.000000,0.000000,0.000000,0.000000,0.000000,0.000000,0.000000,1771496462.318540,0.000000
114.000000,18185.334585,16343.215566,-13220.028665,-25578.688154,-19486.206113,-22578.927586,-1802.131748,-25606.158448,20441.072636,35372.574374,-24571.339735,-16412.863602,1688.339017,18952.312345,-20628.894344,-1482.993541,0.005000,-0.008000,1.005000,192.000000,0.000000,16.000000,127.500000,88.000000,15.500000,56.000000,0.000000,0.000000,0.000000,1771496462.318551,0.000000
116.000000,18214.168336,16372.563407,-13190.569066,-25552.178985,-19458.691115,-22543.611830,-1774.549696,-25578.352878,20403.477002,35327.848533,-24616.222038,-16458.282347,1637.622909,18908.033539,-20674.111923,-1521.684411,0.005000,-0.008000,1.005000,192.000000,0.000000,0.000000,0.000000,0.000000,0.000000,0.000000,0.000000,0.000000,0.000000,1771496462.318561,0.000000
118.000000,18230.753330,16385.147439,-13176.398060,-25538.387959,-19451.560909,-22558.699257,-1758.232922,-25561.633773,20462.820883,35390.969859,-24545.210546,-16387.919055,1708.924974,18978.441534,-20607.011987,-1482.725320,0.005000,-0.008000,1.005000,192.000000,0.000000,0.000000,0.000000,0.000000,0.000000,0.000000,0.000000,0.000000,0.000000,1771496462.318572,0.000000
120.000000,18178.383193,16332.442025,-13227.941183,-25588.321756,-19504.109860,-22605.459107,-1812.637068,-25612.461640,20415.502240,35334.732870,-24602.542770,-16442.390256,1650.117534,18927.390150,-20667.182883,-1517.929318,0.005000,-0.008000,1.005000,192.000000,0.000000,0.000000,0.000000,0.000000,0.000000,0.000000,0.000000,0.000000,0.000000,1771496462.318582,0.000000
122.000000,18242.108016,16398.245561,-13161.310632,-25522.451165,-19429.231516,-22539.230888,-1745.067745,-25548.781520,20436.602287,35354.670626,-24577.911148,-16420.194974,1673.005721,18939.147167,-20639.466720,-1503.668905,0.005000,-0.008000,1.005000,192.000000,0.000000,0.000000,0.000000,0.000000,0.000000,0.000000,0.000000,0.000000,0.000000,1771496462.318593,0.000000
124.000000,18190.475487,16345.338982,-13214.485432,-25577.235291,-19476.438400,-22597.300720,-1800.544775,-25603.386832,20445.610040,35366.986438,-24567.562290,-16410.628427,1691.803538,18959.576662,-20626.279190,-1494.012951,0.004500,-0.009000,1.008500,192.000000,0.000000,16.000000,127.500000,88.000000,15.500000,80.000000,0.000000,0.000000,0.000000,1771496462.318604,0.000000
126.000000,18217.968132,16372.094020,-13185.226999,-25551.217860,-19455.852444,-22568.109342,-1773.923847,-25577.659974,20410.741319,35321.187713,-24612.422241,-16458.125884,1646.049517,18905.328978,-20671.921453,-1520.075085,0.004500,-0.009000,1.008500,192.000000,0.000000,0.000000,0.000000,0.000000,0.000000,0.000000,0.000000,0.000000,0.000000,1771496462.318615,0.000000
128.000000,18229.993371,16385.482715,-13174.006423,-25539.639657,-19443.782502,-22545.869356,-1761.518629,-25565.433570,20467.112418,35386.141883,-24545.165842,-16392.277645,1722.492483,18984.565912,-20606.229676,-1478.523192,0.004500,-0.009000,1.008500,192.000000,0.000000,0.000000,0.000000,0.000000,0.000000,0.000000,0.000000,0.000000,0.000000,1771496462.318625,0.000000
130.000000,18173.599920,16328.329304,-13229.192880,-25585.103105,-19497.672558,-22593.255054,-1816.459217,-25619.882419,20418.631484,35331.760088,-24604.420317,-16447.464102,1653.358537,18913.733234,-20661.974926,-1502.685428,0.004500,-0.009000,1.008500,192.000000,0.000000,0.000000,0.000000,0.000000,0.000000,0.000000,0.000000,0.000000,0.000000,1771496462.318636,0.000000
132.000000,18234.866051,16392.076479,-13162.137647,-25521.490040,-19431.712560,-22525.126937,-1748.509914,-25557.006962,20430.656723,35349.239153,-24586.650680,-16428.219250,1677.118442,18934.408597,-20637.253897,-1488.737939,0.004500,-0.009000,1.008500,192.000000,0.000000,0.000000,0.000000,0.000000,0.000000,0.000000,0.000000,0.000000,0.000000,1771496462.318646,0.000000
134.000000,18177.243254,16336.130063,-13218.329932,-25578.107009,-19486.407278,-22584.247301,-1805.216289,-25612.305178,20442.749017,35358.448071,-24573.865482,-16414.539983,1689.300142,18973.457095,-20624.312237,-1478.947875,0.005250,-0.009500,1.007250,192.000000,0.000000,24.000000,127.500000,88.000000,15.500000,56.000000,0.000000,0.000000,0.000000,1771496462.318657,0.000000
136.000000,18201.740766,16362.549825,-13191.843115,-25552.178985,-19457.729990,-22540.951972,-1778.617713,-25587.964128,20402.672339,35307.664908,-24624.626294,-16466.016050,1639.388697,18900.746870,-20672.279080,-1510.508539,0.005250,-0.009500,1.007250,192.000000,0.000000,0.000000,0.000000,0.000000,0.000000,0.000000,0.000000,0.000000,0.000000,1771496462.318667,0.000000
138.000000,18213.497783,16378.173694,-13179.706118,-25540.041988,-19450.532728,-22540.795510,-1765.027853,-25573.636660,20454.997773,35375.547156,-24557.705171,-16398.558485,1703.940535,18972.943005,-20606.810821,-1476.042149,0.005250,-0.009500,1.007250,192.000000,0.000000,0.000000,0.000000,0.000000,0.000000,0.000000,0.000000,0.000000,0.000000,1771496462.318678,0.000000
140.000000,18166.693230,16327.681104,-13229.304639,-25587.114762,-19502.031148,-22610.175325,-1814.581670,-25620.240047,20411.903609,35327.066222,-24609.248294,-16449.185187,1653.894979,18930.474690,-20662.466665,-1509.145082,0.005250,-0.009500,1.007250,192.000000,0.000000,0.000000,0.000000,0.000000,0.000000,0.000000,0.000000,0.000000,0.000000,1771496462.318689,0.000000
142.000000,18229.993371,16394.289302,-13160.327156,-25521.780613,-19428.583315,-22543.634181,-1745.000690,-25555.487043,20430.164984,35345.774632,-24585.868369,-16427.660457,1678.347788,18955.530996,-20639.131443,-1499.377370,0.005250,-0.009500,1.007250,192.000000,0.000000,0.000000,0.000000,0.000000,0.000000,0.000000,0.000000,0.000000,0.000000,1771496462.318699,0.000000
144.000000,18174.963376,16339.214604,-13218.329932,-25577.391753,-19488.865970,-22594.573807,-1803.964591,-25610.785259,20438.368075,35363.097234,-24572.703191,-16413.444747,1698.218488,18980.006156,-20624.379292,-1485.407530,0.006625,-0.006750,1.007625,192.000000,0.000000,32.000000,127.500000,112.000000,15.500000,64.000000,0.000000,0.000000,0.000000,1771496462.318710,0.000000
146.000000,18188.709699,16356.604261,-13198.146307,-25554.704732,-19463.384982,-22558.609850,-1782.395158,-25593.306195,20386.735545,35315.197446,-24629.588381,-16467.245396,1632.102028,18925.423196,-20676.861188,-1518.018725,0.006625,-0.006750,1.007625,192.000000,0.000000,0.000000,0.000000,0.000000,0.000000,0.000000,0.000000,0.000000,0.000000,1771496462.318720,0.000000
148.000000,18200.064385,16366.439029,-13186.322234,-25541.561907,-19452.812606,-22552.127844,-1767.710062,-25581.415067,20436.468176,35377.290592,-24566.735276,-16405.152250,1700.051332,18993.975996,-20609.291865,-1476.288018,0.006625,-0.006750,1.007625,192.000000,0.000000,0.000000,0.000000,0.000000,0.000000,0.000000,0.000000,0.000000,0.000000,1771496462.318731,0.000000
150.000000,18150.287050,16315.231182,-13238.938241,-25590.959262,-19509.228409,-22596.272540,-1819.789627,-25629.605428,20394.715118,35322.886446,-24619.194820,-16459.645803,1650.408107,18933.402769,-20667.696973,-1507.222832,0.006625,-0.006750,1.007625,192.000000,0.000000,0.000000,0.000000,0.000000,0.000000,0.000000,0.000000,0.000000,0.000000,1771496462.318741,0.000000
152.000000,18218.638685,16387.874351,-13168.172618,-25521.646502,-19436.317019,-22525.059882,-1749.962777,-25563.466616,20408.394385,35348.881525,-24594.093811,-16433.360151,1659.862895,18956.782693,-20642.126577,-1492.873012,0.006625,-0.006750,1.007625,192.000000,0.000000,0.000000,0.000000,0.000000,0.000000,0.000000,0.000000,0.000000,0.000000,1771496462.318752,0.000000
154.000000,18165.374478,16329.715112,-13225.750712,-25579.291651,-19487.189589,-22576.670060,-1808.390237,-25620.597675,20415.032853,35359.632714,-24585.197817,-16422.027817,1684.539221,18983.180104,-20624.960437,-1478.836117,0.006313,-0.009375,1.006813,192.000000,0.000000,24.000000,127.500000,80.000000,15.500000,56.000000,0.000000,0.000000,0.000000,1771496462.318763,0.000000
156.000000,18188.195609,16355.151398,-13198.503935,-25552.670724,-19456.254775,-22546.405798,-1781.724606,-25595.697832,20375.291452,35314.415135,-24636.718587,-16472.922739,1625.865892,18924.730292,-20675.520083,-1507.155777,0.006313,-0.009375,1.006813,192.000000,0.000000,0.000000,0.000000,0.000000,0.000000,0.000000,0.000000,0.000000,0.000000,1771496462.318774,0.000000
158.000000,18207.574571,16374.373898,-13181.561313,-25541.248982,-19442.620211,-22540.750806,-1763.887914,-25576.721201,20434.367112,35380.553947,-24562.242575,-16401.195991,1711.942460,18998.111069,-20603.905094,-1469.828364,0.006313,-0.009375,1.006813,192.000000,0.000000,0.000000,0.000000,0.000000,0.000000,0.000000,0.000000,0.000000,0.000000,1771496462.318784,0.000000
160.000000,18151.002306,16315.901734,-13234.758465,-25594.021451,-19496.599674,-22589.701127,-1818.180301,-25629.337207,20385.640310,35328.474382,-24618.390157,-16456.673021,1653.917331,18929.491213,-20662.511368,-1504.585326,0.006313,-0.009375,1.006813,192.000000,0.000000,0.000000,0.000000,0.000000,0.000000,0.000000,0.000000,0.000000,0.000000,1771496462.318795,0.000000
162.000000,18214.861240,16381.660567,-13171.547731,-25533.001188,-19434.841804,-22524.255219,-1751.527399,-25567.624041,20404.438127,35347.138089,-24597.535979,-16438.433997,1671.217581,18964.047010,-20638.684409,-1496.963381,0.006313,-0.009375,1.006813,192.000000,0.000000,0.000000,0.000000,0.000000,0.000000,0.000000,0.000000,0.000000,0.000000,1771496462.318806,0.000000
164.000000,18163.295765,16331.682066,-13221.213308,-25576.385924,-19478.785333,-22592.629205,-1805.909193,-25618.362500,20414.608170,35362.359627,-24586.918901,-16424.754730,1686.036788,18991.517304,-20625.251010,-1486.122785,0.005156,-0.012688,1.004406,192.000000,0.000000,16.000000,127.500000,64.000000,15.500000,40.000000,0.000000,0.000000,0.000000,1771496462.318816,0.000000
166.000000,18184.999309,16353.787941,-13197.542810,-25553.073055,-19456.232423,-22551.703161,-1782.641027,-25595.049631,20376.051411,35313.878693,-24634.170489,-16467.692431,1633.621947,18923.903277,-20671.899101,-1511.112036,0.005156,-0.012688,1.004406,192.000000,0.000000,0.000000,0.000000,0.000000,0.000000,0.000000,0.000000,0.000000,0.000000,1771496462.318827,0.000000
168.000000,18196.979844,16370.417639,-13187.596284,-25546.345180,-19445.548289,-22536.638085,-1770.258161,-25584.209035,20423.906496,35378.385827,-24570.088037,-16405.085195,1698.576116,18997.127592,-20607.816649,-1473.359939,0.005156,-0.012688,1.004406,192.000000,0.000000,0.000000,0.000000,0.000000,0.000000,0.000000,0.000000,0.000000,0.000000,1771496462.318838,0.000000
170.000000,18150.532919,16319.925048,-13236.568956,-25587.651204,-19501.338244,-22587.644766,-1818.135597,-25630.186573,20384.209798,35331.089536,-24622.078195,-16458.796437,1657.583017,18973.501798,-20660.656173,-1498.528004,0.005156,-0.012688,1.004406,192.000000,0.000000,0.000000,0.000000,0.000000,0.000000,0.000000,0.000000,0.000000,0.000000,1771496462.318848,0.000000
172.000000,18210.860278,16380.677090,-13169.379612,-25523.077014,-19437.233441,-22531.050149,-1751.281530,-25567.825206,20406.516839,35350.714368,-24601.045203,-16433.695428,1675.129136,18954.994554,-20641.143100,-1489.341437,0.005156,-0.012688,1.004406,192.000000,0.000000,0.000000,0.000000,0.000000,0.000000,0.000000,0.000000,0.000000,0.000000,1771496462.318858,0.000000
174.000000,18159.652431,16331.682066,-13220.922735,-25575.871834,-19486.451982,-22578.480551,-1803.539908,-25617.379024,20416.798641,35365.667685,-24585.890721,-16420.977285,1707.248593,18992.165505,-20626.547411,-1479.238448,0.003578,-0.015344,1.005203,192.000000,0.000000,8.000000,127.500000,56.000000,15.500000,56.000000,0.000000,0.000000,0.000000,1771496462.318869,0.000000
176.000000,18182.160638,16355.777246,-13196.291112,-25549.943811,-19464.144941,-22559.705086,-1778.237734,-25592.166256,20371.625766,35318.393745,-24635.623352,-16467.290100,1649.670500,18922.472766,-20676.883540,-1508.519233,0.003578,-0.015344,1.005203,192.000000,0.000000,0.000000,0.000000,0.000000,0.000000,0.000000,0.000000,0.000000,0.000000,1771496462.318880,0.000000
178.000000,18195.057594,16369.143590,-13179.795525,-25536.733930,-19442.195528,-22546.115225,-1762.993844,-25578.598747,20433.629505,35384.443150,-24564.924784,-16400.033700,1726.426390,18997.328758,-20605.045033,-1471.661207,0.003578,-0.015344,1.005203,192.000000,0.000000,0.000000,0.000000,0.000000,0.000000,0.000000,0.000000,0.000000,0.000000,1771496462.318890,0.000000
180.000000,18142.441588,16315.253534,-13230.310468,-25590.489875,-19491.324662,-22591.623377,-1815.140464,-25629.605428,20387.227283,35335.984568,-24621.385291,-16453.275556,1671.038767,18942.544632,-20657.370467,-1505.054713,0.003578,-0.015344,1.005203,192.000000,0.000000,0.000000,0.000000,0.000000,0.000000,0.000000,0.000000,0.000000,0.000000,1771496462.318901,0.000000
182.000000,18207.663978,16381.057069,-13164.328118,-25524.708691,-19422.749510,-22530.759577,-1746.855884,-25563.220747,20403.588760,35356.816394,-24598.877084,-16433.561317,1694.150471,18951.194757,-20636.136310,-1497.924506,0.003578,-0.015344,1.005203,192.000000,0.000000,0.000000,0.000000,0.000000,0.000000,0.000000,0.000000,0.000000,0.000000,1771496462.318911,0.000000
184.000000,18155.271489,16328.172842,-13218.575802,-25581.593881,-19475.141999,-22589.455258,-1803.674019,-25615.926160,20421.581915,35370.875641,-24583.834360,-16419.300904,1706.399227,18964.426990,-20620.624199,-1486.368655,0.003578,-0.015344,1.005203,192.000000,0.000000,0.000000,0.000000,0.000000,0.000000,0.000000,0.000000,0.000000,0.000000,1771496462.318922,0.000000
186.000000,18173.689326,16348.647040,-13195.844078,-25556.157596,-19447.001153,-22566.991754,-1781.299923,-25595.027279,20383.494542,35318.281987,-24635.221021,-16470.911082,1665.562590,18935.459129,-20669.775685,-1516.029419,0.003578,-0.015344,1.005203,192.000000,0.000000,0.000000,127.500000,48.000000,15.500000,64.000000,0.000000,0.000000,0.000000,1771496462.318932,0.000000
188.000000,18189.112030,16367.780133,-13184.422336,-25538.410311,-19441.010885,-22547.143405,-1764.334949,-25579.693983,20439.955049,35391.729819,-24569.931575,-16401.844192,1729.309765,18991.807877,-20604.910923,-1474.790451,0.003578,-0.015344,1.005203,192.000000,0.000000,0.000000,0.000000,0.000000,0.000000,0.000000,0.000000,0.000000,0.000000,1771496462.318943,0.000000
190.000000,18141.256945,16315.544106,-13236.904232,-25585.147808,-19504.020453,-22594.707918,-1816.816845,-25630.901829,20397.844362,35338.130336,-24622.011140,-16452.806169,1688.920163,18947.149092,-20664.165397,-1499.645591,0.003578,-0.015344,1.005203,192.000000,0.000000,0.000000,0.000000,0.000000,0.000000,0.000000,0.000000,0.000000,0.000000,1771496462.318953,0.000000
192.000000,18204.579437,16380.118296,-13167.010327,-25520.640674,-19439.088635,-22519.561353,-1749.359280,-25568.540462,20411.769499,35356.704635,-24602.989805,-16433.091931,1685.522698,18975.401697,-20643.244164,-1488.693236,0.003578,-0.015344,1.005203,192.000000,0.000000,0.000000,0.000000,0.000000,0.000000,0.000000,0.000000,0.000000,0.000000,1771496462.318964,0.000000
194.000000,18152.924556,16328.865746,-13221.459177,-25574.128398,-19486.899017,-22562.208481,-1803.964591,-25619.971826,20423.928848,35367.925211,-24588.796447,-16421.334913,1712.858881,18992.232560,-20625.921562,-1473.963436,0.003578,-0.015344,1.005203,192.000000,0.000000,0.000000,0.000000,0.000000,0.000000,0.000000,0.000000,0.000000,0.000000,1771496462.318974,0.000000
196.000000,18174.337527,16345.361334,-13194.055938,-25552.447206,-19454.623098,-22555.055923,-1781.992827,-25598.715317,20383.606301,35323.534646,-24638.663189,-16469.726440,1658.968825,18925.602010,-20674.983642,-1503.803015,0.003578,-0.015344,1.005203,192.000000,0.000000,0.000000,127.500000,24.000000,15.500000,56.000000,0.000000,0.000000,0.000000,1771496462.318985,0.000000
198.000000,18187.949739,16359.755857,-13179.147324,-25540.466671,-19437.725179,-22551.792568,-1767.821821,-25584.387849,20439.776235,35387.170063,-24570.333906,-16407.566238,1721.598413,18991.182028,-20604.218019,-1469.426032,0.003578,-0.015344,1.005203,192.000000,0.000000,0.000000,0.000000,0.000000,0.000000,0.000000,0.000000,0.000000,0.000000,1771496462.318996,0.000000
200.000000,18140.564041,16313.443042,-13224.007276,-25585.483084,-19484.909711,-22600.072336,-1814.916946,-25628.554896,20404.438127,35341.527801,-24619.574799,-16453.476721,1688.920163,18950.412446,-20651.201385,-1497.499823,0.003578,-0.015344,1.005203,192.000000,0.000000,0.000000,0.000000,0.000000,0.000000,0.000000,0.000000,0.000000,0.000000,1771496462.319007,0.000000
202.000000,18202.388966,16378.464267,-13159.924824,-25523.814621,-19421.922496,-22521.729472,-1749.828666,-25565.902956,20417.782118,35350.490850,-24599.748802,-16436.824672,1703.359390,18972.898301,-20630.593077,-1487.173317,0.003578,-0.015344,1.005203,192.000000,0.000000,0.000000,0.000000,0.000000,0.000000,0.000000,0.000000,0.000000,0.000000,1771496462.319017,0.000000
204.000000,18158.512492,16332.956115,-13212.250258,-25571.312078,-19460.702772,-22578.212330,-1801.282382,-25613.065137,20433.763615,35373.960182,-24582.537959,-16416.395177,1729.376820,18978.307423,-20614.388062,-1475.326893,0.003578,-0.015344,1.005203,192.000000,0.000000,0.000000,0.000000,0.000000,0.000000,0.000000,0.000000,0.000000,0.000000,1771496462.319028,0.000000
206.000000,18185.155771,16357.408924,-13183.371804,-25549.049741,-19437.814586,-22552.932507,-1775.488469,-25586.600672,20406.807412,35330.083708,-24624.827459,-16461.232777,1680.024168,18941.717618,-20663.159569,-1506.105245,0.004000,-0.018000,1.006000,192.000000,0.000000,16.000000,127.500000,56.000000,15.500000,56.000000,0.000000,0.000000,0.000000,1771496462.319039,0.000000
208.000000,18196.018719,16370.909377,-13171.279510,-25533.895258,-19432.025484,-22543.276554,-1759.372861,-25572.183796,20459.289308,35386.611269,-24555.626459,-16394.535171,1744.173675,19011.455060,-20594.964396,-1466.900285,0.004000,-0.018000,1.006000,192.000000,0.000000,0.000000,0.000000,0.000000,0.000000,0.000000,0.000000,0.000000,0.000000,1771496462.319049,0.000000
210.000000,18143.156844,16316.460528,-13226.264802,-25588.142942,-19496.510267,-22594.596159,-1812.815882,-25622.922256,20415.211667,35335.738699,-24611.528171,-16446.502977,1690.931820,18977.681575,-20656.834025,-1496.873974,0.004000,-0.018000,1.006000,192.000000,0.000000,0.000000,0.000000,0.000000,0.000000,0.000000,0.000000,0.000000,0.000000,1771496462.799000,0.000000
212.000000,18210.614408,16381.906436,-13160.729487,-25521.266523,-19431.287877,-22529.463175,-1743.927806,-25559.510357,20427.393368,35353.240115,-24591.746878,-16430.499128,1705.728675,18991.427897,-20639.176147,-1486.905096,0.004000,-0.018000,1.006000,192.000000,0.000000,0.000000,0.000000,0.000000,0.000000,0.000000,0.000000,0.000000,0.000000,1771496462.799061,0.000000
214.000000,18152.701038,16326.250592,-13218.531098,-25570.529767,-19480.215845,-22572.177359,-1800.656533,-25616.015567,20432.981304,35364.818318,-24582.716773,-16416.596343,1709.193195,18984.923540,-20623.172298,-1471.281227,0.004000,-0.018000,1.006000,192.000000,0.000000,0.000000,0.000000,0.000000,0.000000,0.000000,0.000000,0.000000,0.000000,1771496462.799102,0.000000
216.000000,18173.666975,16342.857938,-13197.140479,-25550.122625,-19457.841749,-22539.923792,-1781.545792,-25597.754192,20388.546036,35319.891312,-24636.271553,-16469.681736,1658.275921,18931.189946,-20672.077915,-1496.918678,0.004000,-0.018000,1.006000,192.000000,0.000000,0.000000,127.500000,72.000000,15.500000,64.000000,0.000000,0.000000,0.000000,1771496462.799145,0.000000
218.000000,18198.030376,16367.824837,-13179.169676,-25534.766976,-19436.182909,-22540.169661,-1761.540981,-25577.414105,20447.755807,35387.684153,-24568.031677,-16402.358282,1745.939463,19012.974979,-20603.167487,-1458.652491,0.004000,-0.018000,1.006000,192.000000,0.000000,0.000000,0.000000,0.000000,0.000000,0.000000,0.000000,0.000000,0.000000,1771496462.799212,0.000000
220.000000,18146.621364,16314.515926,-13228.365866,-25588.657032,-19485.602616,-22598.351252,-1816.705086,-25629.694835,20402.001786,35341.684263,-24616.870238,-16452.783817,1683.309875,18967.667993,-20651.380199,-1491.062521,0.004000,-0.018000,1.006000,192.000000,0.000000,0.000000,0.000000,0.000000,0.000000,0.000000,0.000000,0.000000,0.000000,1771496462.799247,0.000000
222.000000,18215.643551,16386.309729,-13159.947176,-25517.891409,-19413.361777,-22527.675036,-1745.380669,-25561.142035,20427.840403,35359.230382,-24594.317328,-16432.354323,1708.075608,18979.760287,-20629.520193,-1487.642704,0.004000,-0.018000,1.006000,192.000000,0.000000,0.000000,0.000000,0.000000,0.000000,0.000000,0.000000,0.000000,0.000000,1771496462.799259,0.000000
224.000000,18160.278280,16334.073703,-13213.680770,-25569.546291,-19470.559892,-22576.938281,-1799.248373,-25613.266303,20439.686828,35377.491758,-24580.012212,-16412.125994,1726.873425,18998.982787,-20611.974074,-1475.885686,0.004000,-0.018000,1.006000,192.000000,0.000000,0.000000,0.000000,0.000000,0.000000,0.000000,0.000000,0.000000,0.000000,1771496462.799271,0.000000
226.000000,18183.501742,16353.497369,-13189.630293,-25549.273258,-19444.676571,-22551.390237,-1779.154155,-25591.495704,20398.537266,35331.245998,-24629.566029,-16461.389239,1681.320570,18951.910013,-20662.377258,-1504.540623,0.002000,-0.014000,1.002000,192.000000,0.000000,8.000000,127.500000,72.000000,15.500000,40.000000,0.000000,0.000000,0.000000,1771496462.799282,0.000000
228.000000,18199.326777,16367.020174,-13174.565217,-25537.583296,-19427.175156,-22539.856737,-1764.513763,-25579.068134,20453.589613,35392.042743,-24562.153168,-16399.474907,1745.157152,19023.927334,-20594.852638,-1466.542657,0.002000,-0.014000,1.002000,192.000000,0.000000,0.000000,0.000000,0.000000,0.000000,0.000000,0.000000,0.000000,0.000000,1771496462.799293,0.000000
230.000000,18143.782692,16315.007665,-13228.276459,-25586.064230,-19487.815438,-22594.082069,-1816.459217,-25630.365387,20412.507106,35343.248885,-24618.457212,-16453.722591,1698.821986,18971.020755,-20653.235394,-1494.303524,0.002000,-0.014000,1.002000,192.000000,0.000000,0.000000,0.000000,0.000000,0.000000,0.000000,0.000000,0.000000,0.000000,1771496462.799304,0.000000
232.000000,18208.334530,16380.744145,-13161.176522,-25516.527953,-19429.455033,-22516.521515,-1745.604187,-25562.997229,20422.565391,35362.292571,-24596.776020,-16432.153157,1704.342866,18980.140266,-20635.018722,-1482.658265,0.002000,-0.014000,1.002000,192.000000,0.000000,0.000000,0.000000,0.000000,0.000000,0.000000,0.000000,0.000000,0.000000,1771496462.799316,0.000000
234.000000,18156.500835,16326.943496,-13216.921773,-25572.228500,-19486.183761,-22568.534025,-1801.617658,-25615.434422,20433.964781,35379.279897,-24582.001517,-16416.909268,1717.530396,19013.354959,-20620.333626,-1468.107279,0.002000,-0.014000,1.002000,192.000000,0.000000,0.000000,0.000000,0.000000,0.000000,0.000000,0.000000,0.000000,0.000000,1771496462.799327,0.000000
236.000000,18175.410411,16345.629554,-13197.363996,-25552.313096,-19460.658069,-22557.536967,-1783.378635,-25596.413087,20389.484810,35327.021519,-24636.606829,-16466.820713,1665.651997,18966.773923,-20675.117752,-1498.259783,0.004000,-0.014000,1.004000,192.000000,0.000000,16.000000,127.500000,72.000000,15.500000,48.000000,0.000000,0.000000,0.000000,1771496462.799339,0.000000
238.000000,18198.186838,16361.968680,-13173.358223,-25531.682435,-19432.628981,-22535.967533,-1762.166829,-25576.005945,20456.674153,35402.078676,-24564.008363,-16397.463250,1741.983204,19016.260685,-20601.513457,-1458.652491,0.004000,-0.014000,1.004000,192.000000,0.000000,0.000000,0.000000,0.000000,0.000000,0.000000,0.000000,0.000000,0.000000,1771496462.799350,0.000000
240.000000,18141.547518,16302.825964,-13230.109302,-25588.299404,-19487.435459,-22594.439697,-1817.308583,-25629.963056,20406.628598,35342.600684,-24619.485393,-16454.639012,1687.377892,18961.878891,-20653.995353,-1490.637838,0.004000,-0.014000,1.004000,192.000000,0.000000,0.000000,0.000000,0.000000,0.000000,0.000000,0.000000,0.000000,0.000000,1771496462.799361,0.000000
242.000000,18196.488106,16357.721848,-13164.015193,-25524.775746,-19419.106176,-22531.094853,-1747.325271,-25567.422875,20427.527479,35361.264391,-24601.201666,-16438.009314,1709.930803,18999.876857,-20634.772853,-1486.234544,0.004000,-0.014000,1.004000,192.000000,0.000000,0.000000,0.000000,0.000000,0.000000,0.000000,0.000000,0.000000,0.000000,1771496462.799373,0.000000
244.000000,18156.053800,16315.499403,-13214.239563,-25576.676497,-19469.263490,-22576.290080,-1800.097740,-25613.020434,20441.743188,35368.573412,-24581.330965,-16424.218288,1723.207739,18994.490086,-20615.215077,-1474.790451,0.004000,-0.014000,1.004000,192.000000,0.000000,0.000000,0.000000,0.000000,0.000000,0.000000,0.000000,0.000000,0.000000,1771496462.799384,0.000000
246.000000,18162.558158,16330.966810,-13197.453403,-25553.006000,-19452.700848,-22559.436865,-1780.986998,-25594.692003,20400.772441,35336.185734,-24630.460099,-16466.127809,1676.470241,18942.030542,-20672.346136,-1504.384161,0.005000,-0.012000,1.005000,192.000000,0.000000,24.000000,127.500000,88.000000,15.500000,56.000000,0.000000,0.000000,0.000000,1771496462.799396,0.000000
248.000000,18184.440516,16346.188348,-13176.107487,-25532.732967,-19436.361723,-22541.242545,-1758.523495,-25573.323735,20446.101778,35383.906708,-24565.282412,-16403.967607,1739.502160,19011.544467,-20604.218019,-1463.435765,0.005000,-0.012000,1.005000,192.000000,0.000000,0.000000,0.000000,0.000000,0.000000,0.000000,0.000000,0.000000,0.000000,1771496462.799407,0.000000
250.000000,18140.608745,16303.407109,-13229.885784,-25583.069096,-19488.217770,-22593.009185,-1811.072446,-25622.072890,20418.363263,35347.786289,-24611.461116,-16449.721628,1695.536279,18968.405601,-20658.644516,-1494.147062,0.005000,-0.012000,1.005000,192.000000,0.000000,0.000000,0.000000,0.000000,0.000000,0.000000,0.000000,0.000000,0.000000,1771496462.799420,0.000000
252.000000,18193.068289,16355.129046,-13163.523455,-25519.679549,-19421.475461,-22519.181373,-1744.687765,-25562.013753,20428.578011,35371.121510,-24597.044241,-16431.393198,1713.708247,18982.911883,-20641.634839,-1483.440576,0.005000,-0.012000,1.005000,192.000000,0.000000,0.000000,0.000000,0.000000,0.000000,0.000000,0.000000,0.000000,0.000000,1771496462.799432,0.000000
254.000000,18150.778788,16313.375987,-13216.944124,-25566.551157,-19473.331508,-22561.493225,-1797.862565,-25607.857181,20435.037665,35387.639450,-24579.945157,-16416.194012,1725.889948,19013.556124,-20625.273362,-1471.303579,0.005000,-0.012000,1.005000,192.000000,0.000000,0.000000,0.000000,0.000000,0.000000,0.000000,0.000000,0.000000,0.000000,1771496462.799443,0.000000
0.000000,18166.916748,16333.984296,-13197.632217,-25546.345180,-19462.222691,-22546.316391,-1779.221210,-25587.360631,20397.620845,35346.221667,-24625.654474,-16457.745905,1670.524677,18958.302612,-20675.363621,-1497.544527,0.007500,-0.012000,1.007500,192.000000,0.000000,40.000000,127.500000,80.000000,15.500000,72.000000,0.000000,0.000000,0.000000,1771496462.799455,0.000000
2.000000,18176.215074,16343.327325,-13179.259083,-25529.916648,-19436.875813,-22538.158004,-1758.590550,-25572.563776,20448.582822,35403.419781,-24562.533148,-16397.239732,1733.489541,19016.171278,-20606.117917,-1457.803125,0.007500,-0.012000,1.007500,192.000000,0.000000,0.000000,0.000000,0.000000,0.000000,0.000000,0.000000,0.000000,0.000000,1771496462.799467,0.000000
4.000000,18125.521317,16290.532504,-13231.562165,-25584.857236,-19486.943720,-22586.370717,-1813.799359,-25624.129251,20404.393423,35348.523897,-24617.205515,-16450.548643,1680.001817,18962.236519,-20659.940917,-1493.811785,0.007500,-0.012000,1.007500,192.000000,0.000000,0.000000,0.000000,0.000000,0.000000,0.000000,0.000000,0.000000,0.000000,1771496462.799479,0.000000
6.000000,18189.939045,16362.572177,-13163.478752,-25518.494906,-19413.629998,-22521.818879,-1746.699422,-25558.750398,20426.521650,35372.820243,-24594.742011,-16427.973381,1703.113521,18980.944929,-20640.718417,-1489.140271,0.007500,-0.012000,1.007500,192.000000,0.000000,0.000000,0.000000,0.000000,0.000000,0.000000,0.000000,0.000000,0.000000,1771496462.799491,0.000000
8.000000,18127.510622,16302.982426,-13220.453348,-25573.994288,-19465.798970,-22576.871225,-1801.975286,-25615.389718,20433.227173,35386.119531,-24581.979165,-16415.903439,1728.549806,19010.113956,-20619.685426,-1479.149041,0.007500,-0.012000,1.007500,192.000000,0.000000,0.000000,0.000000,0.000000,0.000000,0.000000,0.000000,0.000000,0.000000,1771496462.799502,0.000000
10.000000,18147.806006,16324.373045,-13203.041339,-25554.168290,-19453.796083,-22570.255109,-1785.032664,-25598.357689,20386.467324,35338.934998,-24638.976114,-16467.938300,1679.465375,18943.148129,-20675.922415,-1512.676658,0.007750,-0.010000,1.009750,192.000000,0.000000,32.000000,127.500000,96.000000,15.500000,80.000000,0.000000,0.000000,0.000000,1771496462.799514,0.000000
12.000000,18163.675745,16341.248613,-13182.723604,-25534.297590,-19429.544440,-22543.097740,-1764.402004,-25580.006907,20445.185357,35398.591804,-24572.434970,-16402.961779,1732.461361,19005.285979,-20606.162620,-1473.896381,0.007750,-0.010000,1.009750,192.000000,0.000000,0.000000,0.000000,0.000000,0.000000,0.000000,0.000000,0.000000,0.000000,1771496462.799525,0.000000
14.000000,18114.300741,16288.967882,-13233.439712,-25587.025355,-19480.908749,-22585.275481,-1817.487397,-25629.940704,20402.806449,35354.223592,-24621.787622,-16450.727457,1683.131061,18969.456133,-20655.559976,-1498.192727,0.007750,-0.010000,1.009750,192.000000,0.000000,0.000000,0.000000,0.000000,0.000000,0.000000,0.000000,0.000000,0.000000,1771496462.799537,0.000000
16.000000,18174.404582,16351.150435,-13168.776115,-25519.500735,-19417.027464,-22521.394196,-1752.108544,-25571.021506,20416.664531,35365.131243,-24606.253160,-16439.395122,1706.063951,18981.816647,-20638.505595,-1486.659227,0.007750,-0.010000,1.009750,192.000000,0.000000,0.000000,0.000000,0.000000,0.000000,0.000000,0.000000,0.000000,0.000000,1771496462.799549,0.000000
18.000000,18120.045140,16295.896923,-13222.263840,-25571.513244,-19467.028316,-22567.528196,-1804.098702,-25622.654035,20427.683941,35390.344011,-24592.797410,-16421.983114,1725.353506,19027.235392,-20619.864240,-1469.761308,0.007750,-0.010000,1.009750,192.000000,0.000000,0.000000,0.000000,0.000000,0.000000,0.000000,0.000000,0.000000,0.000000,1771496462.799560,0.000000
20.000000,18138.507681,16313.331284,-13201.923752,-25555.285878,-19452.477330,-22538.940315,-1786.217306,-25604.146791,20377.236054,35333.771745,-24645.569878,-16476.253149,1663.997968,18954.145188,-20670.848569,-1499.489129,0.006875,-0.011000,1.006875,192.000000,0.000000,24.000000,127.500000,80.000000,15.500000,48.000000,0.000000,0.000000,0.000000,1771496462.799571,0.000000
22.000000,18166.112085,16341.874461,-13177.694461,-25528.955523,-19423.665932,-22522.690597,-1759.529324,-25577.078828,20440.133863,35400.223482,-24572.099694,-16403.297055,1737.669317,19003.855467,-20602.407527,-1459.792430,0.006875,-0.011000,1.006875,192.000000,0.000000,0.000000,0.000000,0.000000,0.000000,0.000000,0.000000,0.000000,0.000000,1771496462.799583,0.000000
24.000000,18116.021826,16289.347862,-13233.305601,-25584.790180,-19477.421877,-22571.193882,-1817.710914,-25631.259457,20401.442993,35351.787251,-24619.597151,-16450.436884,1694.910430,18977.435705,-20651.067275,-1483.172355,0.006875,-0.011000,1.006875,192.000000,0.000000,0.000000,0.000000,0.000000,0.000000,0.000000,0.000000,0.000000,0.000000,1771496462.799594,0.000000
26.000000,18185.491048,16365.634366,-13166.540941,-25516.170325,-19410.701920,-22507.692576,-1750.543922,-25565.992363,20414.094080,35369.467481,-24608.220113,-16438.344590,1701.861823,18991.450249,-20636.851565,-1479.439614,0.006875,-0.011000,1.006875,192.000000,0.000000,0.000000,0.000000,0.000000,0.000000,0.000000,0.000000,0.000000,0.000000,1771496462.799606,0.000000
28.000000,18122.347369,16299.137926,-13219.335761,-25568.607517,-19466.156598,-22571.350345,-1800.790644,-25618.742480,20424.241772,35396.490740,-24586.695383,-16415.009369,1727.231053,19012.237371,-20613.203420,-1465.000387,0.006875,-0.011000,1.006875,192.000000,0.000000,0.000000,0.000000,0.000000,0.000000,0.000000,0.000000,0.000000,0.000000,1771496462.799618,0.000000
30.000000,18140.988724,16317.019322,-13204.538906,-25554.101235,-19452.633792,-22553.021914,-1785.434995,-25602.001024,20378.353641,35337.370376,-24643.513518,-16473.302719,1666.724881,18955.687458,-20671.921453,-1505.322934,0.008438,-0.009500,1.004437,192.000000,0.000000,40.000000,127.500000,96.000000,15.500000,40.000000,0.000000,0.000000,0.000000,1771496462.799629,0.000000
32.000000,18175.455114,16353.117389,-13176.956854,-25531.794194,-19427.622190,-22527.898553,-1759.283454,-25571.647355,20433.048360,35406.169046,-24569.439837,-16402.559448,1728.952137,19003.676653,-20604.732109,-1470.565971,0.008438,-0.009500,1.004437,192.000000,0.000000,0.000000,0.000000,0.000000,0.000000,0.000000,0.000000,0.000000,0.000000,1771496462.799640,0.000000
34.000000,18110.500945,16284.519885,-13239.005296,-25588.120590,-19485.446153,-22593.567979,-1818.806150,-25631.035940,20395.564484,35361.197336,-24617.026701,-16447.329992,1681.521735,18972.473618,-20652.408380,-1494.035303,0.008438,-0.009500,1.004437,192.000000,0.000000,0.000000,0.000000,0.000000,0.000000,0.000000,0.000000,0.000000,0.000000,1771496462.799651,0.000000
36.000000,18182.630024,16357.744200,-13168.619653,-25519.500735,-19418.480327,-22525.730434,-1747.302919,-25562.840767,20404.505182,35365.265353,-24608.465982,-16439.216309,1692.787015,18981.816647,-20641.254859,-1488.290905,0.008438,-0.009500,1.004437,192.000000,0.000000,0.000000,0.000000,0.000000,0.000000,0.000000,0.000000,0.000000,0.000000,1771496462.799662,0.000000
38.000000,18130.393997,16306.134022,-13219.738092,-25568.406352,-19481.266377,-22575.440714,-1798.421359,-25614.786221,20423.750034,35391.394543,-24580.638061,-16412.997712,1714.557614,19005.241275,-20620.020702,-1471.460041,0.008438,-0.009500,1.004437,192.000000,0.000000,0.000000,0.000000,0.000000,0.000000,0.000000,0.000000,0.000000,0.000000,1771496462.799674,0.000000
40.000000,18141.480463,16316.616990,-13203.667188,-25554.347104,-19463.675554,-22556.061751,-1784.943257,-25603.744460,20371.156379,35334.487001,-24642.261820,-16471.179303,1654.230255,18959.353144,-20677.196464,-1504.987658,0.008219,-0.008750,1.005219,192.000000,0.000000,32.000000,127.500000,96.000000,15.500000,56.000000,0.000000,0.000000,0.000000,1771496462.799686,0.000000
42.000000,18159.607727,16330.810348,-13183.304749,-25534.588162,-19439.401560,-22532.257144,-1763.217361,-25584.611366,20427.058092,35392.780351,-24575.966546,-16409.264971,1728.795675,19003.251970,-20605.670882,-1463.346358,0.008219,-0.008750,1.005219,192.000000,0.000000,0.000000,0.000000,0.000000,0.000000,0.000000,0.000000,0.000000,0.000000,1771496462.799697,0.000000
44.000000,18117.385282,16287.604426,-13236.434845,-25585.013698,-19488.173066,-22583.822618,-1817.397990,-25633.271114,20392.144667,35341.058414,-24628.247276,-16460.539873,1670.658788,18967.153903,-20656.364638,-1489.207326,0.008219,-0.008750,1.005219,192.000000,0.000000,0.000000,0.000000,0.000000,0.000000,0.000000,0.000000,0.000000,0.000000,1771496462.799709,0.000000
46.000000,18184.909902,16357.855959,-13171.279510,-25518.673720,-19420.581391,-22511.425318,-1748.912245,-25567.177006,20414.451708,35365.108891,-24606.923712,-16437.584631,1700.945401,18976.563987,-20636.650400,-1478.456137,0.008219,-0.008750,1.005219,192.000000,0.000000,0.000000,0.000000,0.000000,0.000000,0.000000,0.000000,0.000000,0.000000,1771496462.799720,0.000000
48.000000,18125.208393,16295.628702,-13220.162776,-25568.540462,-19463.273223,-22561.448522,-1800.880051,-25622.363463,20426.901630,35374.898955,-24590.003442,-16422.877183,1713.238861,18981.123743,-20618.567838,-1463.771041,0.008219,-0.008750,1.005219,192.000000,0.000000,0.000000,0.000000,0.000000,0.000000,0.000000,0.000000,0.000000,0.000000,1771496462.799731,0.000000
50.000000,18141.480463,16315.186479,-13205.991770,-25553.855366,-19451.225633,-22555.435903,-1788.675998,-25610.204114,20385.930882,35329.010824,-24645.681637,-16477.437792,1662.031014,18930.005304,-20670.580348,-1499.198556,0.005109,-0.009375,1.007609,192.000000,0.000000,8.000000,127.500000,88.000000,15.500000,72.000000,0.000000,0.000000,0.000000,1771496462.799742,0.000000
52.000000,18159.965355,16333.559612,-13181.628368,-25532.330636,-19431.846670,-22537.018065,-1762.457402,-25586.913596,20436.445825,35389.718162,-24582.023869,-16412.841250,1736.082344,19008.370520,-20602.519286,-1461.155887,0.005109,-0.009375,1.007609,192.000000,0.000000,0.000000,0.000000,0.000000,0.000000,0.000000,0.000000,0.000000,0.000000,1771496462.799754,0.000000
54.000000,18108.846916,16279.580150,-13236.010162,-25587.964128,-19482.607482,-22588.672947,-1821.220138,-25640.066044,20389.998900,35340.141993,-24633.946971,-16461.769219,1677.006683,18955.240423,-20653.481263,-1487.352131,0.005109,-0.009375,1.007609,192.000000,0.000000,0.000000,0.000000,0.000000,0.000000,0.000000,0.000000,0.000000,0.000000,1771496462.799765,0.000000
56.000000,18181.780658,16352.424485,-13167.502066,-25520.350101,-19415.798118,-22516.029777,-1750.789791,-25569.501587,20416.999807,35360.795004,-24609.874142,-16442.770236,1703.381741,18976.429877,-20637.164490,-1478.456137,0.005109,-0.009375,1.007609,192.000000,0.000000,0.000000,0.000000,0.000000,0.000000,0.000000,0.000000,0.000000,0.000000,1771496462.799776,0.000000
58.000000,18132.629172,16300.680196,-13216.698255,-25566.104122,-19469.107028,-22565.002449,-1799.382484,-25617.759003,20432.467214,35383.549080,-24587.745915,-16419.457366,1717.396285,18999.630988,-20614.656283,-1460.842962,0.005109,-0.009375,1.007609,192.000000,0.000000,0.000000,0.000000,0.000000,0.000000,0.000000,0.000000,0.000000,0.000000,1771496462.799789,0.000000
60.000000,18140.429931,16312.817194,-13206.707025,-25556.403465,-19464.457865,-22555.167682,-1791.224097,-25608.393622,20389.842437,35332.654158,-24643.334704,-16474.330899,1668.960055,18947.819644,-20674.268386,-1498.371541,0.005109,-0.009375,1.007609,192.000000,0.000000,0.000000,0.000000,0.000000,0.000000,0.000000,0.000000,0.000000,0.000000,1771496462.799800,0.000000
62.000000,18170.314213,16343.148511,-13179.728470,-25527.748528,-19438.082807,-22532.503013,-1762.703271,-25579.403410,20440.647953,35387.527691,-24578.067610,-16408.013273,1732.170788,19015.970113,-20608.710719,-1460.619445,0.006000,-0.008000,1.010000,192.000000,0.000000,24.000000,127.500000,96.000000,15.500000,72.000000,0.000000,0.000000,0.000000,1771496462.799812,0.000000
64.000000,18116.714730,16284.989272,-13237.105398,-25582.242081,-19492.464601,-22585.633109,-1820.974269,-25633.852259,20399.833667,35344.277065,-24621.228829,-16452.046210,1683.287523,18952.334696,-20657.951612,-1486.368655,0.006000,-0.008000,1.010000,192.000000,0.000000,0.000000,0.000000,0.000000,0.000000,0.000000,0.000000,0.000000,0.000000,1771496462.799823,0.000000
66.000000,18183.278225,16353.944403,-13167.837342,-25519.366624,-19420.246115,-22518.019082,-1752.533228,-25569.747456,20409.489621,35350.669664,-24608.913017,-16441.585593,1703.158224,18976.072249,-20642.752426,-1483.999370,0.006000,-0.008000,1.010000,192.000000,0.000000,0.000000,0.000000,0.000000,0.000000,0.000000,0.000000,0.000000,0.000000,1771496462.799834,0.000000
68.000000,18131.265716,16300.814307,-13215.938296,-25568.808683,-19464.480217,-22556.419379,-1799.918926,-25618.965998,20427.371016,35376.061246,-24586.740087,-16418.920925,1719.720867,18998.200476,-20613.561048,-1468.330797,0.006000,-0.008000,1.010000,192.000000,0.000000,0.000000,0.000000,0.000000,0.000000,0.000000,0.000000,0.000000,0.000000,1771496462.799845,0.000000
70.000000,18145.526128,16311.565496,-13202.661360,-25559.286840,-19451.471502,-22559.816844,-1790.017103,-25607.365442,20382.153437,35315.420963,-24644.429939,-16478.801248,1664.489706,18934.989743,-20668.635746,-1506.217004,0.006000,-0.008000,1.010000,192.000000,0.000000,0.000000,0.000000,0.000000,0.000000,0.000000,0.000000,0.000000,0.000000,1771496462.799856,0.000000
72.000000,18171.901187,16341.069799,-13177.761516,-25534.610514,-19430.930249,-22538.180356,-1763.887914,-25580.141017,20440.558546,35386.968897,-24572.256156,-16405.621637,1732.997803,19000.770927,-20602.899266,-1468.062576,0.010000,-0.010000,1.010000,192.000000,0.000000,40.000000,127.500000,88.000000,15.500000,72.000000,0.000000,0.000000,0.000000,1771496462.799867,0.000000
74.000000,18115.485384,16285.525714,-13232.366828,-25586.935948,-19485.110877,-22596.786630,-1819.253185,-25633.047597,20395.005690,35338.867943,-24621.161773,-16451.174492,1682.974599,18950.054818,-20650.173205,-1494.549393,0.010000,-0.010000,1.010000,192.000000,0.000000,0.000000,0.000000,0.000000,0.000000,0.000000,0.000000,0.000000,0.000000,1771496463.279111,0.000000
76.000000,18181.579492,16351.686877,-13167.256196,-25522.674682,-19426.392844,-22532.413606,-1751.594454,-25567.244061,20408.036757,35343.718272,-24609.672977,-16440.803282,1703.448797,18956.380362,-20642.081874,-1493.700027,0.010000,-0.010000,1.010000,192.000000,0.000000,0.000000,0.000000,0.000000,0.000000,0.000000,0.000000,0.000000,0.000000,1771496463.279167,0.000000
78.000000,18143.045085,16314.918258,-13214.105453,-25564.360686,-19474.158522,-22575.351307,-1797.884917,-25607.231332,20433.853022,35376.173005,-24580.392191,-16409.466137,1717.463340,19012.215020,-20618.053748,-1471.996483,0.010000,-0.010000,1.010000,192.000000,0.000000,0.000000,0.000000,0.000000,0.000000,0.000000,0.000000,0.000000,0.000000,1771496463.279209,0.000000
80.000000,18143.335658,16318.874516,-13205.880011,-25553.855366,-19465.798970,-22562.275536,-1789.927696,-25600.794029,20381.818161,35326.887408,-24636.360960,-16462.439771,1660.242875,18933.514528,-20675.453028,-1501.769006,0.010000,-0.010000,1.010000,192.000000,0.000000,0.000000,0.000000,0.000000,0.000000,0.000000,0.000000,0.000000,0.000000,1771496463.279252,0.000000
82.000000,18169.755419,16349.809331,-13183.304749,-25531.257752,-19441.882603,-22536.369865,-1763.597341,-25577.347049,20428.443900,35381.358609,-24577.642927,-16403.766442,1724.079457,19001.709700,-20611.795260,-1463.301654,0.006000,-0.008000,1.008000,192.000000,0.000000,24.000000,127.500000,96.000000,15.500000,64.000000,0.000000,0.000000,0.000000,1771496463.279297,0.000000
84.000000,18112.490250,16291.605388,-13237.060694,-25583.918462,-19497.560799,-22594.663214,-1817.129769,-25631.326512,20394.469249,35345.796984,-24623.598113,-16444.603079,1675.486764,18943.572813,-20655.604679,-1486.122785,0.006000,-0.008000,1.008000,192.000000,0.000000,0.000000,0.000000,0.000000,0.000000,0.000000,0.000000,0.000000,0.000000,1771496463.279333,0.000000
86.000000,18178.003213,16357.364220,-13171.055993,-25523.166421,-19431.310228,-22535.587553,-1751.661509,-25568.607517,20391.697632,35344.031196,-24614.098622,-16440.780931,1687.512003,18965.589281,-20645.568746,-1487.150966,0.006000,-0.008000,1.008000,192.000000,0.000000,0.000000,0.000000,0.000000,0.000000,0.000000,0.000000,0.000000,0.000000,1771496463.279347,0.000000
88.000000,18139.468806,16319.567420,-13217.458214,-25562.147863,-19472.348031,-22580.648670,-1797.348475,-25610.584093,20422.833612,35373.021409,-24583.677898,-16413.780023,1717.865672,18978.933272,-20620.177164,-1470.543619,0.006000,-0.008000,1.008000,192.000000,0.000000,0.000000,0.000000,0.000000,0.000000,0.000000,0.000000,0.000000,0.000000,1771496463.279362,0.000000
90.000000,18147.649544,16331.905583,-13207.958723,-25548.893279,-19463.876720,-22567.081161,-1786.597286,-25597.843599,20372.653946,35330.173115,-24638.909058,-16459.712858,1657.135982,18928.910068,-20672.927281,-1499.220908,0.006000,-0.008000,1.008000,192.000000,0.000000,0.000000,0.000000,0.000000,0.000000,0.000000,0.000000,0.000000,0.000000,1771496463.279380,0.000000
92.000000,18177.869103,16362.795694,-13182.276569,-25528.329674,-19442.888432,-22545.377618,-1760.535152,-25571.602651,20422.923019,35391.327487,-24575.385401,-16397.552657,1724.414733,18996.032357,-20611.147059,-1466.967340,0.006000,-0.012000,1.006000,192.000000,0.000000,24.000000,127.500000,80.000000,15.500000,56.000000,0.000000,0.000000,0.000000,1771496463.279392,0.000000
94.000000,18114.501907,16300.188458,-13238.424151,-25582.264433,-19500.734747,-22604.967368,-1816.973307,-25627.437309,20381.885216,35356.168193,-24620.714738,-16439.730399,1678.481898,18964.203473,-20657.504577,-1493.610620,0.006000,-0.012000,1.006000,192.000000,0.000000,0.000000,0.000000,0.000000,0.000000,0.000000,0.000000,0.000000,0.000000,1771496463.279404,0.000000
96.000000,18182.361803,16370.864674,-13175.794563,-25519.903066,-19436.987571,-22531.050149,-1752.309710,-25565.813549,20388.546036,35365.332409,-24612.198724,-16429.403893,1690.015398,18971.557197,-20649.525005,-1490.883707,0.006000,-0.012000,1.006000,192.000000,0.000000,0.000000,0.000000,0.000000,0.000000,0.000000,0.000000,0.000000,0.000000,1771496463.279416,0.000000
98.000000,18133.992628,16323.657790,-13219.358113,-25564.718314,-19481.914578,-22569.249281,-1798.555469,-25611.813439,20400.146592,35392.445075,-24590.718697,-16408.572067,1704.253459,18996.367633,-20626.234487,-1470.387157,0.006000,-0.012000,1.006000,192.000000,0.000000,0.000000,0.000000,0.000000,0.000000,0.000000,0.000000,0.000000,0.000000,1771496463.279428,0.000000
100.000000,18147.627192,16340.220432,-13205.812956,-25550.971991,-19467.430647,-22560.800321,-1784.026835,-25597.508323,20358.125312,35343.092423,-24640.406625,-16461.568053,1653.336186,18954.905147,-20678.090534,-1499.690294,0.006000,-0.012000,1.006000,192.000000,0.000000,0.000000,0.000000,0.000000,0.000000,0.000000,0.000000,0.000000,0.000000,1771496463.279440,0.000000
102.000000,18164.525111,16361.633403,-13182.254217,-25530.050758,-19447.358781,-22541.153138,-1759.417565,-25574.866006,20410.406042,35408.471275,-24576.793561,-16397.507953,1719.720867,19023.189726,-20612.957551,-1461.133535,0.008000,-0.018000,1.004000,192.000000,0.000000,32.000000,127.500000,56.000000,15.500000,48.000000,0.000000,0.000000,0.000000,1771496463.279452,0.000000
104.000000,18117.899372,16319.008627,-13237.597136,-25581.705640,-19507.440270,-22597.434830,-1814.559318,-25623.503402,20365.501388,35371.747359,-24622.547581,-16439.775102,1669.027110,18949.719542,-20663.003106,-1489.922582,0.008000,-0.018000,1.004000,192.000000,0.000000,0.000000,0.000000,0.000000,0.000000,0.000000,0.000000,0.000000,0.000000,1771496463.279463,0.000000
106.000000,18182.630024,16390.288340,-13171.458324,-25517.310264,-19438.038103,-22533.240620,-1745.894759,-25557.476349,20373.972699,35392.109798,-24610.276474,-16421.111395,1685.589753,18973.390040,-20651.000220,-1483.261762,0.008000,-0.018000,1.004000,192.000000,0.000000,0.000000,0.000000,0.000000,0.000000,0.000000,0.000000,0.000000,0.000000,1771496463.279475,0.000000
108.000000,18133.925573,16337.761740,-13218.240526,-25560.806758,-19482.629834,-22580.000470,-1791.827594,-25604.727936,20398.380804,35414.819171,-24585.600148,-16397.127974,1712.925936,18991.651415,-20622.144118,-1465.626236,0.008000,-0.018000,1.004000,192.000000,0.000000,0.000000,0.000000,0.000000,0.000000,0.000000,0.000000,0.000000,0.000000,1771496463.279486,0.000000
110.000000,18144.587355,16347.820025,-13208.159889,-25550.457901,-19469.151732,-22570.344516,-1783.557449,-25595.697832,20352.425617,35365.645333,-24642.440634,-16451.442713,1653.403241,18945.919746,-20676.727078,-1498.885631,0.008000,-0.018000,1.004000,192.000000,0.000000,0.000000,0.000000,0.000000,0.000000,0.000000,0.000000,0.000000,0.000000,1771496463.279498,0.000000
112.000000,18169.621309,16374.463305,-13183.125935,-25523.479345,-19441.502624,-22541.108434,-1755.751879,-25571.267375,20403.812278,35424.273959,-24581.152151,-16390.467154,1714.647021,19012.729110,-20610.118879,-1461.982901,0.002000,-0.012000,1.002000,192.000000,0.000000,8.000000,127.500000,80.000000,15.500000,40.000000,0.000000,0.000000,0.000000,1771496463.279509,0.000000
114.000000,18113.674893,16322.763720,-13238.558261,-25575.044820,-19493.828058,-22586.929510,-1810.491301,-25624.442175,20364.406152,35394.814360,-24626.123861,-16431.661419,1673.162183,18974.887606,-20657.817502,-1485.519288,0.002000,-0.012000,1.002000,192.000000,0.000000,0.000000,0.000000,0.000000,0.000000,0.000000,0.000000,0.000000,0.000000,1771496463.279521,0.000000
116.000000,18176.975033,16391.987072,-13175.347528,-25509.397746,-19431.131414,-22518.577876,-1744.576006,-25559.040971,20363.355620,35404.805589,-24618.568971,-16418.272724,1680.873535,18976.921615,-20648.519176,-1479.283152,0.002000,-0.012000,1.002000,192.000000,0.000000,0.000000,0.000000,0.000000,0.000000,0.000000,0.000000,0.000000,0.000000,1771496463.279533,0.000000
118.000000,18132.450358,16348.401171,-13222.956744,-25556.045837,-19482.205150,-22564.153083,-1792.095815,-25603.073907,20388.702499,35441.753023,-24589.511703,-16388.164924,1708.366180,19015.433671,-20624.312237,-1464.016910,0.002000,-0.012000,1.002000,192.000000,0.000000,0.000000,0.000000,0.000000,0.000000,0.000000,0.000000,0.000000,0.000000,1771496463.279544,0.000000
120.000000,18141.480463,16357.341869,-13215.021874,-25545.853441,-19475.298461,-22560.286231,-1782.685731,-25593.954396,20341.965001,35392.713296,-24645.614582,-16441.429131,1656.644244,18971.825417,-20683.231435,-1500.383198,0.002000,-0.012000,1.002000,192.000000,0.000000,0.000000,0.000000,0.000000,0.000000,0.000000,0.000000,0.000000,0.000000,1771496463.279557,0.000000
122.000000,18167.855521,16384.521590,-13185.651682,-25517.422023,-19453.572566,-22535.073463,-1754.611940,-25568.160482,20395.206856,35450.984293,-24583.409677,-16378.866598,1713.484730,19023.189726,-20619.081929,-1460.842962,0.006000,-0.008000,1.002000,192.000000,0.000000,24.000000,127.500000,96.000000,15.500000,40.000000,0.000000,0.000000,0.000000,1771496463.279570,0.000000
124.000000,18117.340579,16329.469243,-13245.129674,-25576.140055,-19507.820250,-22586.840103,-1816.503920,-25623.548105,20356.247766,35410.125304,-24628.247276,-16423.033646,1674.525639,18957.587356,-20666.579386,-1487.508594,0.006000,-0.008000,1.002000,192.000000,0.000000,0.000000,0.000000,0.000000,0.000000,0.000000,0.000000,0.000000,0.000000,1771496463.279582,0.000000
126.000000,18183.725260,16393.328177,-13174.766383,-25515.700938,-19440.586202,-22525.417510,-1749.135762,-25561.030276,20369.144722,35415.780296,-24617.004349,-16417.780986,1671.597561,18974.999365,-20654.978830,-1489.877878,0.006000,-0.008000,1.002000,192.000000,0.000000,0.000000,0.000000,0.000000,0.000000,0.000000,0.000000,0.000000,0.000000,1771496463.279593,0.000000
128.000000,18143.246251,16351.664525,-13217.257049,-25560.404427,-19479.142961,-22571.931490,-1790.866469,-25601.442230,20388.590740,35441.551857,-24588.751744,-16391.227113,1701.861823,19010.069252,-20624.491051,-1467.794355,0.006000,-0.008000,1.002000,192.000000,0.000000,0.000000,0.000000,0.000000,0.000000,0.000000,0.000000,0.000000,0.000000,1771496463.279604,0.000000
130.000000,18147.761303,16357.610089,-13208.204592,-25553.162462,-19463.608499,-22566.991754,-1785.546754,-25597.463619,20351.240975,35392.646240,-24642.015951,-16444.312506,1651.123363,18952.535862,-20677.308223,-1501.277268,0.006000,-0.008000,1.002000,192.000000,0.000000,0.000000,0.000000,0.000000,0.000000,0.000000,0.000000,0.000000,0.000000,1771496463.279616,0.000000
132.000000,18176.259777,16388.321386,-13181.784830,-25523.792270,-19438.775711,-22535.341684,-1757.517667,-25571.647355,20400.213647,35452.146584,-24581.778000,-16383.873389,1724.682954,19025.044921,-20610.498859,-1463.838096,0.006000,-0.010000,1.004000,192.000000,0.000000,24.000000,127.500000,80.000000,15.500000,56.000000,0.000000,0.000000,0.000000,1771496463.279628,0.000000
134.000000,18120.603933,16333.358447,-13235.831348,-25579.157541,-19494.431555,-22595.736098,-1815.386333,-25625.604466,20365.389629,35415.601482,-24625.073329,-16426.073483,1673.609218,19001.285017,-20657.281060,-1489.050864,0.006000,-0.010000,1.004000,192.000000,0.000000,0.000000,0.000000,0.000000,0.000000,0.000000,0.000000,0.000000,0.000000,1771496463.279639,0.000000
136.000000,18180.730126,16393.395232,-13170.296034,-25515.857400,-19434.350066,-22532.748882,-1747.951120,-25563.913651,20373.235091,35418.194284,-24616.825535,-16419.792643,1680.180631,18975.871083,-20646.663981,-1488.223849,0.006000,-0.010000,1.004000,192.000000,0.000000,0.000000,0.000000,0.000000,0.000000,0.000000,0.000000,0.000000,0.000000,1771496463.279650,0.000000
138.000000,18137.457149,16351.932746,-13216.005351,-25561.834939,-19478.092429,-22581.565092,-1793.123995,-25607.700718,20395.855057,35441.440098,-24590.025793,-16395.541000,1711.808349,19007.789374,-20618.590190,-1470.610675,0.006000,-0.010000,1.004000,192.000000,0.000000,0.000000,0.000000,0.000000,0.000000,0.000000,0.000000,0.000000,0.000000,1771496463.279680,0.000000
140.000000,18140.899317,16354.369087,-13211.199726,-25551.620192,-19475.164351,-22564.555414,-1786.619638,-25601.933968,20343.999010,35387.706505,-24645.994561,-16450.548643,1653.269130,18955.240423,-20677.062354,-1504.071236,0.006000,-0.010000,1.004000,192.000000,0.000000,0.000000,0.000000,0.000000,0.000000,0.000000,0.000000,0.000000,0.000000,1771496463.279692,0.000000
142.000000,18166.000326,16381.727622,-13184.757612,-25524.529877,-19444.184833,-22536.459271,-1757.160039,-25575.558910,20393.396365,35442.803555,-24587.432991,-16391.405927,1711.160149,19010.829212,-20615.192725,-1468.688425,0.005000,-0.012000,1.004000,192.000000,0.000000,16.000000,127.500000,72.000000,15.500000,48.000000,0.000000,0.000000,0.000000,1771496463.279704,0.000000
144.000000,18115.373625,16327.524641,-13238.379447,-25582.644413,-19497.471392,-22593.031537,-1816.347458,-25629.471317,20366.931899,35405.878473,-24630.281285,-16432.443730,1672.916314,18988.209246,-20657.772798,-1491.420149,0.005000,-0.012000,1.004000,192.000000,0.000000,0.000000,0.000000,0.000000,0.000000,0.000000,0.000000,0.000000,0.000000,1771496463.279721,0.000000
146.000000,18178.986690,16391.160058,-13172.240635,-25518.159630,-19435.221784,-22532.368902,-1748.889893,-25566.238232,20375.380859,35414.729764,-24620.625331,-16423.838308,1683.332227,18973.121819,-20648.697990,-1488.313256,0.005000,-0.012000,1.004000,192.000000,0.000000,0.000000,0.000000,0.000000,0.000000,0.000000,0.000000,0.000000,0.000000,1771496463.279733,0.000000
148.000000,18136.093692,16348.758799,-13215.938296,-25562.706657,-19477.846560,-22570.031592,-1791.559373,-25606.270207,20395.117449,35437.483840,-24593.847942,-16398.133802,1706.913317,19008.012892,-20623.105243,-1472.823497,0.005000,-0.012000,1.004000,192.000000,0.000000,0.000000,0.000000,0.000000,0.000000,0.000000,0.000000,0.000000,0.000000,1771496463.279744,0.000000
150.000000,18153.013963,16365.120276,-13207.288171,-25551.150805,-19469.196435,-22570.813903,-1782.573972,-25593.149733,20355.241937,35392.109798,-24643.468814,-16444.670134,1662.343939,18963.354106,-20678.515217,-1503.490091,0.005000,-0.012000,1.004000,192.000000,0.000000,0.000000,0.000000,0.000000,0.000000,0.000000,0.000000,0.000000,0.000000,1771496463.279756,0.000000
152.000000,18176.080963,16389.260160,-13181.181333,-25523.881677,-19447.157615,-22547.232812,-1754.366071,-25567.825206,20404.371071,35452.973599,-24579.207549,-16382.129953,1716.837492,19034.298543,-20616.086795,-1468.487259,0.005500,-0.010000,1.003000,192.000000,0.000000,24.000000,127.500000,96.000000,15.500000,40.000000,0.000000,0.000000,0.000000,1771496463.279768,0.000000
154.000000,18116.938247,16335.571269,-13238.602965,-25580.185721,-19498.924255,-22604.207409,-1812.368847,-25621.983483,20362.550958,35408.895959,-24627.912000,-16426.431111,1678.593657,18966.684516,-20663.986583,-1497.209251,0.005500,-0.010000,1.003000,192.000000,0.000000,0.000000,0.000000,0.000000,0.000000,0.000000,0.000000,0.000000,0.000000,1771496463.279781,0.000000
156.000000,18177.846751,16393.775212,-13175.124010,-25519.165459,-19438.686304,-22533.061806,-1750.029832,-25562.214918,20367.960080,35417.076697,-24619.060709,-16419.412663,1678.146622,18984.230636,-20649.793226,-1492.761253,0.005500,-0.010000,1.003000,192.000000,0.000000,0.000000,0.000000,0.000000,0.000000,0.000000,0.000000,0.000000,0.000000,1771496463.279792,0.000000
158.000000,18140.564041,16355.598432,-13218.106415,-25557.476349,-19483.613310,-22575.910100,-1791.134690,-25599.274111,20395.475077,35448.212677,-24591.903340,-16391.785907,1706.153358,19009.845735,-20625.966266,-1473.047015,0.005500,-0.010000,1.003000,192.000000,0.000000,0.000000,0.000000,0.000000,0.000000,0.000000,0.000000,0.000000,0.000000,1771496463.279804,0.000000
160.000000,18146.621364,16364.561482,-13209.679807,-25548.870927,-19480.126438,-22570.210406,-1782.909248,-25589.595805,20350.145739,35398.658860,-24639.579611,-16439.998620,1653.492648,18961.633022,-20681.979738,-1506.485225,0.005500,-0.010000,1.003000,192.000000,0.000000,0.000000,0.000000,0.000000,0.000000,0.000000,0.000000,0.000000,0.000000,1771496463.279816,0.000000
162.000000,18172.370574,16390.422450,-13186.277531,-25520.595970,-19453.885490,-22539.521460,-1755.997748,-25566.104122,20398.179638,35449.419671,-24580.079267,-16379.827723,1707.248593,19019.725206,-20623.172298,-1468.196686,0.005750,-0.010000,1.002500,192.000000,0.000000,24.000000,127.500000,88.000000,15.500000,40.000000,0.000000,0.000000,0.000000,1771496463.279828,0.000000
164.000000,18114.814832,16333.313743,-13239.899366,-25574.553081,-19503.439308,-22590.908121,-1814.089932,-25621.491745,20361.209853,35411.444057,-24627.152041,-16424.151233,1665.629645,18987.024604,-20663.517197,-1488.648532,0.005750,-0.010000,1.002500,192.000000,0.000000,0.000000,0.000000,0.000000,0.000000,0.000000,0.000000,0.000000,0.000000,1771496463.279839,0.000000
166.000000,18181.646548,16402.693558,-13177.560351,-25513.242246,-19445.660048,-22530.156080,-1749.314576,-25557.744570,20365.479036,35418.395450,-24618.501916,-16418.004503,1669.228276,19002.089679,-20655.895252,-1490.414320,0.005750,-0.010000,1.002500,192.000000,0.000000,0.000000,0.000000,0.000000,0.000000,0.000000,0.000000,0.000000,0.000000,1771496463.279851,0.000000
168.000000,18142.866271,16363.689764,-13219.022837,-25552.424854,-19486.317871,-22565.404781,-1789.681827,-25596.636605,20394.044565,35452.615971,-24586.181293,-16385.281549,1701.861823,19022.183898,-20628.469661,-1469.694253,0.005750,-0.010000,1.002500,192.000000,0.000000,0.000000,0.000000,0.000000,0.000000,0.000000,0.000000,0.000000,0.000000,1771496463.279862,0.000000
170.000000,18143.961506,16364.807351,-13213.144328,-25547.507471,-19473.286804,-22552.194900,-1785.434995,-25593.440305,20351.106864,35403.173912,-24641.770082,-16439.775102,1646.474200,18970.976051,-20683.007918,-1504.451216,0.005750,-0.010000,1.002500,192.000000,0.000000,0.000000,0.000000,0.000000,0.000000,0.000000,0.000000,0.000000,0.000000,1771496463.279874,0.000000
172.000000,18176.103315,16396.837401,-13184.578798,-25513.599874,-19441.480272,-22541.846042,-1753.762573,-25563.779541,20400.347757,35463.456567,-24581.286261,-16379.715965,1714.445855,19042.233413,-20619.685426,-1466.565009,0.006875,-0.010000,1.005250,192.000000,0.000000,32.000000,127.500000,88.000000,15.500000,64.000000,0.000000,0.000000,0.000000,1771496463.279886,0.000000
174.000000,18117.362930,16338.141720,-13241.642802,-25571.982631,-19504.355729,-22596.004319,-1812.815882,-25619.837716,20365.747257,35419.110706,-24622.815802,-16417.669227,1669.250628,18985.817610,-20663.785418,-1490.324913,0.006875,-0.010000,1.005250,192.000000,0.000000,0.000000,0.000000,0.000000,0.000000,0.000000,0.000000,0.000000,0.000000,1771496463.279898,0.000000
176.000000,18177.466771,16397.820878,-13175.571045,-25512.348177,-19439.535670,-22528.747920,-1748.845190,-25558.817453,20368.854149,35425.369194,-24618.054881,-16416.104605,1681.611142,18989.863275,-20659.180958,-1494.504690,0.006875,-0.010000,1.005250,192.000000,0.000000,0.000000,0.000000,0.000000,0.000000,0.000000,0.000000,0.000000,0.000000,1771496463.279910,0.000000
178.000000,18137.345390,16360.225244,-13219.067540,-25552.290744,-19485.870836,-22576.982984,-1790.687655,-25597.933006,20395.028042,35451.543087,-24586.270700,-16387.114392,1707.092131,19014.629008,-20629.207269,-1472.488221,0.006875,-0.010000,1.005250,192.000000,0.000000,0.000000,0.000000,0.000000,0.000000,0.000000,0.000000,0.000000,0.000000,1771496463.279921,0.000000
180.000000,18143.715637,16364.337965,-13214.999523,-25545.227593,-19470.716354,-22564.242490,-1786.329065,-25593.641471,20353.342039,35399.150598,-24642.798262,-16441.675000,1650.050479,18963.912900,-20684.416078,-1504.406512,0.006875,-0.010000,1.005250,192.000000,0.000000,0.000000,0.000000,0.000000,0.000000,0.000000,0.000000,0.000000,0.000000,1771496463.279933,0.000000
182.000000,18168.280204,16390.601264,-13187.596284,-25519.165459,-19443.737798,-22521.595361,-1757.741184,-25567.042895,20405.555714,35457.309837,-24582.649718,-16382.174657,1714.758779,19034.723226,-20620.713606,-1463.502820,0.008438,-0.009000,1.001625,192.000000,0.000000,40.000000,127.500000,96.000000,15.500000,24.000000,0.000000,0.000000,0.000000,1771496463.279944,0.000000
184.000000,18117.765262,16343.595546,-13238.401799,-25572.049686,-19496.756136,-22585.878978,-1810.178376,-25614.763870,20372.877463,35423.134020,-24621.877029,-16419.077387,1671.284636,18990.958511,-20662.868996,-1488.089739,0.008438,-0.009000,1.001625,192.000000,0.000000,0.000000,0.000000,0.000000,0.000000,0.000000,0.000000,0.000000,0.000000,1771496463.279956,0.000000
186.000000,18174.114010,16406.113375,-13176.219246,-25509.733022,-19437.009923,-22531.139556,-1748.442858,-25555.710561,20377.548978,35427.760831,-24616.266741,-16412.349512,1681.611142,18979.872046,-20656.141121,-1486.838041,0.008438,-0.009000,1.001625,192.000000,0.000000,0.000000,0.000000,0.000000,0.000000,0.000000,0.000000,0.000000,0.000000,1771496463.279969,0.000000
188.000000,18136.674838,16363.868578,-13219.268706,-25548.580354,-19480.037031,-22565.985926,-1790.754711,-25595.340204,20402.828801,35459.343846,-24586.203645,-16382.711099,1709.819044,19015.277209,-20627.396778,-1463.167544,0.008438,-0.009000,1.001625,192.000000,0.000000,0.000000,0.000000,0.000000,0.000000,0.000000,0.000000,0.000000,0.000000,1771496463.279981,0.000000
190.000000,18147.470730,16371.848151,-13207.757557,-25542.791252,-19464.502569,-22545.847004,-1781.657551,-25584.946643,20360.963984,35416.741421,-24638.774948,-16433.427207,1660.756965,18972.294804,-20684.103153,-1501.210213,0.008438,-0.009000,1.001625,192.000000,0.000000,0.000000,0.000000,0.000000,0.000000,0.000000,0.000000,0.000000,0.000000,1771496463.279993,0.000000
192.000000,18178.047917,16403.587628,-13176.845095,-25511.610569,-19431.958429,-22521.349492,-1748.353451,-25554.190642,20414.094080,35472.486672,-24574.089000,-16373.211607,1729.309765,19026.721302,-20617.629065,-1466.050919,0.009219,-0.009500,1.002813,192.000000,0.000000,40.000000,127.500000,88.000000,15.500000,48.000000,0.000000,0.000000,0.000000,1771496463.280005,0.000000
194.000000,18125.208393,16347.283584,-13233.663229,-25564.919479,-19480.484066,-22587.935339,-1805.439807,-25606.605483,20384.232150,35434.131078,-24610.790564,-16409.823765,1681.409977,18979.626176,-20658.555109,-1486.681579,0.009219,-0.009500,1.002813,192.000000,0.000000,0.000000,0.000000,0.000000,0.000000,0.000000,0.000000,0.000000,0.000000,1771496463.761019,0.000000
196.000000,18183.948777,16407.700349,-13168.709060,-25507.944883,-19423.151842,-22526.892725,-1746.140629,-25549.854404,20393.239903,35437.997930,-24605.180276,-16407.230962,1703.202927,18996.412336,-20651.626069,-1489.319085,0.009219,-0.009500,1.002813,192.000000,0.000000,0.000000,0.000000,0.000000,0.000000,0.000000,0.000000,0.000000,0.000000,1771496463.761075,0.000000
198.000000,18143.514471,16367.131933,-13210.305656,-25547.485119,-19466.246005,-22569.517502,-1788.094853,-25592.725050,20410.920133,35465.065892,-24579.028735,-16382.219360,1713.104750,19019.501688,-20620.266571,-1470.185992,0.009219,-0.009500,1.002813,192.000000,0.000000,0.000000,0.000000,0.000000,0.000000,0.000000,0.000000,0.000000,0.000000,1771496463.761121,0.000000
200.000000,18149.974126,16370.015308,-13204.829479,-25543.573564,-19463.362630,-22561.225004,-1782.506917,-25588.880550,20370.798751,35412.606348,-24634.416358,-16437.584631,1664.221485,18965.812798,-20675.095400,-1498.796224,0.009219,-0.009500,1.002813,192.000000,0.000000,0.000000,0.000000,0.000000,0.000000,0.000000,0.000000,0.000000,0.000000,1771496463.761158,0.000000
202.000000,18178.159675,16398.647892,-13176.666281,-25512.817563,-19437.658124,-22528.233830,-1751.795620,-25561.007924,20421.313694,35469.178613,-24573.641965,-16378.039584,1726.471093,19030.789319,-20614.633931,-1457.490201,0.009219,-0.009500,1.002813,192.000000,0.000000,0.000000,0.000000,0.000000,0.000000,0.000000,0.000000,0.000000,0.000000,1771496463.761203,0.000000
204.000000,18120.983913,16343.126159,-13234.333782,-25565.813549,-19496.465563,-22578.659365,-1809.329010,-25615.389718,20380.991147,35430.219523,-24618.010177,-16417.222192,1684.315703,18983.202455,-20659.337420,-1478.545544,0.010000,-0.010000,1.004000,192.000000,0.000000,40.000000,127.500000,88.000000,15.500000,48.000000,0.000000,0.000000,0.000000,1771496463.761246,0.000000
206.000000,18179.903111,16404.951084,-13172.799429,-25505.240322,-19436.026446,-22524.858716,-1747.146457,-25557.118721,20385.640310,35436.790936,-24614.344491,-16413.332988,1687.199078,18990.891456,-20653.458912,-1476.131556,0.010000,-0.010000,1.004000,192.000000,0.000000,0.000000,0.000000,0.000000,0.000000,0.000000,0.000000,0.000000,0.000000,1771496463.761294,0.000000
208.000000,18151.158768,16374.396250,-13209.344531,-25546.680456,-19465.888377,-22565.605946,-1785.233830,-25588.791143,20410.696615,35471.302029,-24583.499084,-16382.576988,1711.115445,19027.660075,-20621.875897,-1458.428974,0.010000,-0.010000,1.004000,192.000000,0.000000,0.000000,0.000000,0.000000,0.000000,0.000000,0.000000,0.000000,0.000000,1771496463.761306,0.000000
210.000000,18153.975088,16376.877293,-13202.348435,-25539.393787,-19464.167293,-22562.431999,-1779.556487,-25583.560834,20375.134990,35422.284653,-24630.482451,-16431.259087,1664.288540,18974.731144,-20671.787342,-1495.689332,0.010000,-0.010000,1.004000,192.000000,0.000000,0.000000,0.000000,0.000000,0.000000,0.000000,0.000000,0.000000,0.000000,1771496463.761317,0.000000
212.000000,18186.429821,16408.482660,-13172.978243,-25511.230589,-19426.906935,-22529.329065,-1748.442858,-25553.497738,20424.442938,35477.135834,-24571.205624,-16373.077497,1723.833588,19024.620238,-20609.537734,-1461.088832,0.010000,-0.010000,1.004000,192.000000,0.000000,0.000000,0.000000,0.000000,0.000000,0.000000,0.000000,0.000000,0.000000,1771496463.761329,0.000000
214.000000,18136.116044,16358.191235,-13228.924659,-25565.545328,-19481.691060,-22574.479589,-1804.813958,-25605.376137,20394.871580,35443.764680,-24610.298826,-16411.164869,1688.160203,18990.578531,-20649.212080,-1483.351169,0.008000,-0.010000,1.004000,192.000000,0.000000,32.000000,127.500000,88.000000,15.500000,48.000000,0.000000,0.000000,0.000000,1771496463.761347,0.000000
216.000000,18195.035242,16418.406834,-13167.189141,-25506.648482,-19420.626094,-22520.298960,-1742.296129,-25546.032255,20400.548923,35443.362348,-24604.174448,-16406.202782,1696.251535,18993.104278,-20647.133368,-1481.943009,0.008000,-0.010000,1.004000,192.000000,0.000000,0.000000,0.000000,0.000000,0.000000,0.000000,0.000000,0.000000,0.000000,1771496463.761359,0.000000
218.000000,18153.326887,16378.106639,-13211.959685,-25550.055569,-19465.977784,-22567.818769,-1786.016141,-25587.606500,20421.358397,35464.462395,-24573.843130,-16380.252407,1725.375858,19029.917601,-20619.528964,-1464.218076,0.008000,-0.010000,1.004000,192.000000,0.000000,0.000000,0.000000,0.000000,0.000000,0.000000,0.000000,0.000000,0.000000,1771496463.761379,0.000000
220.000000,18150.868195,16379.403040,-13207.310522,-25543.618267,-19462.602671,-22561.292060,-1783.378635,-25585.214863,20375.313804,35412.382831,-24631.264762,-16433.471910,1666.411956,18969.813760,-20676.347098,-1497.142195,0.008000,-0.010000,1.004000,192.000000,0.000000,0.000000,0.000000,0.000000,0.000000,0.000000,0.000000,0.000000,0.000000,1771496463.761391,0.000000
222.000000,18179.389021,16405.934561,-13176.085135,-25513.130488,-19435.199432,-22521.081271,-1750.052184,-25556.761093,20419.592609,35468.351599,-24573.418447,-16377.056107,1719.698515,19045.586174,-20614.410414,-1457.490201,0.008000,-0.010000,1.004000,192.000000,0.000000,0.000000,0.000000,0.000000,0.000000,0.000000,0.000000,0.000000,0.000000,1771496463.761403,0.000000
224.000000,18123.330846,16351.820988,-13231.785683,-25564.897128,-19484.686194,-22579.978118,-1807.205594,-25610.293521,20391.719984,35434.153430,-24611.885799,-16412.841250,1691.647076,18982.442496,-20652.900118,-1475.818631,0.006000,-0.010000,1.006000,192.000000,0.000000,24.000000,127.500000,88.000000,15.500000,56.000000,0.000000,0.000000,0.000000,1771496463.761414,0.000000
226.000000,18184.395812,16412.684788,-13173.313519,-25507.475496,-19420.670798,-22520.522478,-1748.845190,-25551.553136,20393.776345,35433.773450,-24609.449459,-16411.701311,1692.362331,18995.741784,-20648.027438,-1475.170431,0.006000,-0.010000,1.006000,192.000000,0.000000,0.000000,0.000000,0.000000,0.000000,0.000000,0.000000,0.000000,0.000000,1771496463.761425,0.000000
228.000000,18143.156844,16373.323366,-13213.166680,-25549.295610,-19459.741647,-22558.587498,-1790.173565,-25593.507361,20421.604266,35461.757834,-24579.364011,-16383.046375,1723.274794,19038.120692,-20616.220905,-1456.350262,0.006000,-0.010000,1.006000,192.000000,0.000000,0.000000,0.000000,0.000000,0.000000,0.000000,0.000000,0.000000,0.000000,1771496463.761437,0.000000
230.000000,18146.487253,16378.844247,-13204.740072,-25544.579392,-19458.378191,-22561.783798,-1784.295056,-25586.265395,20372.229263,35410.214711,-24636.405663,-16438.478701,1662.768622,18976.899263,-20674.022516,-1495.197594,0.006000,-0.010000,1.006000,192.000000,0.000000,0.000000,0.000000,0.000000,0.000000,0.000000,0.000000,0.000000,0.000000,1771496463.761449,0.000000
232.000000,18178.785524,16411.298980,-13173.693499,-25512.705804,-19428.069225,-22527.160946,-1750.141591,-25553.833014,20419.905534,35468.396302,-24570.356258,-16372.608110,1735.747067,19037.405436,-20612.175240,-1462.005253,0.006000,-0.010000,1.006000,192.000000,0.000000,0.000000,0.000000,0.000000,0.000000,0.000000,0.000000,0.000000,0.000000,1771496463.761460,0.000000
234.000000,18130.572811,16362.549825,-13229.684619,-25565.567680,-19479.657052,-22581.989775,-1805.931545,-25604.258550,20393.038737,35429.124287,-24607.057823,-16411.075462,1690.373026,19000.525057,-20650.530833,-1483.284114,0.004000,-0.010000,1.002000,192.000000,0.000000,16.000000,127.500000,88.000000,15.500000,40.000000,0.000000,0.000000,0.000000,1771496463.761472,0.000000
236.000000,18188.888513,16425.157061,-13173.849961,-25506.402612,-19425.364664,-22517.303826,-1746.878236,-25544.802909,20395.855057,35435.539238,-24604.465020,-16406.471003,1695.133948,19012.662055,-20649.793226,-1485.273419,0.004000,-0.010000,1.002000,192.000000,0.000000,0.000000,0.000000,0.000000,0.000000,0.000000,0.000000,0.000000,0.000000,1771496463.761484,0.000000
238.000000,18152.633983,16389.684843,-13211.624409,-25541.561907,-19460.188682,-22559.548624,-1783.445690,-25580.856273,20423.459461,35470.095035,-24572.949061,-16371.982261,1726.627556,19039.998238,-20620.937123,-1463.435765,0.004000,-0.010000,1.002000,192.000000,0.000000,0.000000,0.000000,0.000000,0.000000,0.000000,0.000000,0.000000,0.000000,1771496463.761496,0.000000
240.000000,18155.204434,16392.568218,-13206.259990,-25538.298552,-19461.082752,-22556.240565,-1780.875239,-25578.084657,20380.432353,35418.440153,-24625.408605,-16425.425282,1674.570343,18999.921560,-20675.989470,-1495.219945,0.004000,-0.010000,1.002000,192.000000,0.000000,0.000000,0.000000,0.000000,0.000000,0.000000,0.000000,0.000000,0.000000,1771496463.761507,0.000000
242.000000,18185.401641,16421.379616,-13171.480676,-25503.921569,-19426.415196,-22526.535097,-1746.788829,-25547.038084,20428.443900,35476.286468,-24565.774151,-16365.276738,1724.191216,19027.861241,-20613.315179,-1458.786602,0.004000,-0.010000,1.002000,192.000000,0.000000,0.000000,0.000000,0.000000,0.000000,0.000000,0.000000,0.000000,0.000000,1771496463.761519,0.000000
244.000000,18122.883811,16358.727677,-13231.092779,-25563.488968,-19484.730898,-22581.721554,-1805.797435,-25605.957282,20388.881312,35436.388604,-24606.811953,-16406.605113,1688.271962,18994.087755,-20653.235394,-1480.356035,0.006000,-0.010000,1.006000,192.000000,0.000000,24.000000,127.500000,88.000000,15.500000,56.000000,0.000000,0.000000,0.000000,1771496463.761530,0.000000
246.000000,18176.326832,16414.025892,-13172.508856,-25509.665967,-19429.678551,-22521.841231,-1747.571140,-25550.122625,20382.287548,35434.265188,-24607.817782,-16408.929695,1685.947381,19004.123688,-20651.111978,-1482.881782,0.006000,-0.010000,1.006000,192.000000,0.000000,0.000000,0.000000,0.000000,0.000000,0.000000,0.000000,0.000000,0.000000,1771496463.761542,0.000000
248.000000,18144.252079,16377.436087,-13208.673979,-25546.166366,-19462.759133,-22565.963574,-1785.882030,-25585.818361,20406.628598,35467.971619,-24577.978203,-16379.023061,1724.191216,19025.246087,-20619.081929,-1463.122840,0.006000,-0.010000,1.006000,192.000000,0.000000,0.000000,0.000000,0.000000,0.000000,0.000000,0.000000,0.000000,0.000000,1771496463.761553,0.000000
250.000000,18151.002306,16373.144552,-13209.500993,-25542.724197,-19457.126493,-22558.095760,-1785.032664,-25585.259567,20368.697687,35415.914406,-24632.292942,-16430.588535,1678.884230,18987.918674,-20670.982679,-1496.426940,0.006000,-0.010000,1.006000,192.000000,0.000000,0.000000,0.000000,0.000000,0.000000,0.000000,0.000000,0.000000,0.000000,1771496463.761566,0.000000
252.000000,18187.994443,16411.500145,-13171.391269,-25508.660139,-19426.325789,-22532.324199,-1749.024004,-25550.077921,20416.642179,35470.564421,-24571.652659,-16371.356412,1729.399172,19026.520136,-20609.537734,-1461.334701,0.006000,-0.010000,1.006000,192.000000,0.000000,0.000000,0.000000,0.000000,0.000000,0.000000,0.000000,0.000000,0.000000,1771496463.761578,0.000000
254.000000,18134.663181,16360.135837,-13225.080159,-25561.320849,-19478.561816,-22586.527179,-1802.310562,-25598.692965,20388.478981,35442.445927,-24603.950930,-16404.459346,1691.982352,18998.871028,-20647.602755,-1480.758367,0.004000,-0.010000,1.010000,192.000000,0.000000,16.000000,127.500000,88.000000,15.500000,72.000000,0.000000,0.000000,0.000000,1771496463.761590,0.000000
0.000000,18191.816591,16417.043378,-13166.987975,-25505.016804,-19424.224725,-22527.943257,-1741.066783,-25543.171232,20398.604321,35441.171878,-24598.631215,-16403.185296,1699.470186,19005.509496,-20646.596926,-1485.072253,0.004000,-0.010000,1.010000,192.000000,0.000000,0.000000,0.000000,0.000000,0.000000,0.000000,0.000000,0.000000,0.000000,1771496463.761601,0.000000
2.000000,18151.024658,16375.960872,-13205.500031,-25541.383093,-19466.782447,-22569.293984,-1779.131803,-25581.124494,20421.961894,35469.804462,-24570.624479,-16373.569235,1724.951175,19032.555107,-20617.249086,-1463.458116,0.004000,-0.010000,1.010000,192.000000,0.000000,0.000000,0.000000,0.000000,0.000000,0.000000,0.000000,0.000000,0.000000,1771496463.761613,0.000000
4.000000,18150.845844,16374.552712,-13206.639970,-25541.830127,-19469.129380,-22562.230833,-1780.472908,-25582.912634,20376.431391,35412.002851,-24627.241448,-16429.672114,1670.591732,18988.164543,-20673.553130,-1494.884669,0.004000,-0.010000,1.010000,192.000000,0.000000,0.000000,0.000000,0.000000,0.000000,0.000000,0.000000,0.000000,0.000000,1771496463.761624,0.000000
6.000000,18187.212132,16410.449613,-13167.569121,-25505.977929,-19428.605667,-22521.260085,-1743.793695,-25548.423892,20422.028950,35467.524584,-24567.405828,-16371.088191,1727.611032,19034.432654,-20610.521210,-1453.422183,0.004000,-0.010000,1.010000,192.000000,0.000000,0.000000,0.000000,0.000000,0.000000,0.000000,0.000000,0.000000,0.000000,1771496463.761636,0.000000
8.000000,18130.393997,16357.900662,-13226.845947,-25559.420950,-19481.355784,-22571.819731,-1802.467025,-25603.252721,20393.508124,35434.712223,-24605.448497,-16406.694520,1697.257363,19001.352072,-20647.960382,-1471.437689,0.008000,-0.014000,1.010000,192.000000,0.000000,32.000000,127.500000,72.000000,15.500000,72.000000,0.000000,0.000000,0.000000,1771496463.761647,0.000000
10.000000,18186.206303,16413.243581,-13166.272720,-25500.658214,-19418.681493,-22513.973417,-1741.156190,-25546.814566,20393.865751,35434.734575,-24605.739070,-16408.035625,1704.074646,19005.621255,-20645.725208,-1470.454212,0.008000,-0.014000,1.010000,192.000000,0.000000,0.000000,0.000000,0.000000,0.000000,0.000000,0.000000,0.000000,0.000000,1771496463.761658,0.000000
12.000000,18147.984820,16376.944348,-13208.271647,-25543.730026,-19462.379153,-22559.660382,-1782.439862,-25585.214863,20417.938580,35466.027017,-24574.379572,-16374.485657,1727.633384,19051.576442,-20613.784565,-1452.975148,0.008000,-0.014000,1.010000,192.000000,0.000000,0.000000,0.000000,0.000000,0.000000,0.000000,0.000000,0.000000,0.000000,1771496463.761670,0.000000
14.000000,18152.164597,16381.079421,-13205.611790,-25537.180965,-19465.351935,-22562.566109,-1779.534135,-25581.638584,20371.134027,35407.308985,-24633.030550,-16430.007390,1661.874552,18974.418220,-20676.101229,-1495.287001,0.008000,-0.014000,1.010000,192.000000,0.000000,0.000000,0.000000,0.000000,0.000000,0.000000,0.000000,0.000000,0.000000,1771496463.761681,0.000000
16.000000,18179.165504,16410.069634,-13175.258121,-25507.587255,-19432.271353,-22533.508841,-1746.140629,-25552.156633,20422.140708,35473.492500,-24571.272680,-16369.367107,1731.299070,19039.975886,-20613.941027,-1457.870180,0.008000,-0.014000,1.010000,192.000000,0.000000,0.000000,0.000000,0.000000,0.000000,0.000000,0.000000,0.000000,0.000000,1771496463.761692,0.000000
18.000000,18126.549497,16352.849168,-13227.069465,-25560.650296,-19475.343165,-22584.828446,-1802.981115,-25604.683233,20392.859923,35434.756927,-24608.130706,-16407.342721,1697.860861,19012.684406,-20648.474473,-1475.773928,0.007000,-0.013000,1.009000,192.000000,0.000000,24.000000,127.500000,80.000000,15.500000,64.000000,0.000000,0.000000,0.000000,1771496463.761704,0.000000
20.000000,18192.241274,16419.032683,-13162.852903,-25497.685432,-19409.986664,-22517.683806,-1742.206722,-25542.701845,20397.844362,35436.030976,-24604.845000,-16405.643988,1699.492538,19011.276246,-20643.288868,-1478.098509,0.007000,-0.013000,1.009000,192.000000,0.000000,0.000000,0.000000,0.000000,0.000000,0.000000,0.000000,0.000000,0.000000,1771496463.761715,0.000000
22.000000,18157.797236,16384.700404,-13200.113261,-25534.834031,-19445.972973,-22547.322219,-1781.255219,-25579.336355,20424.085310,35471.659657,-24567.919918,-16368.696555,1743.950158,19056.963212,-20606.944931,-1448.482448,0.007000,-0.013000,1.009000,192.000000,0.000000,0.000000,0.000000,0.000000,0.000000,0.000000,0.000000,0.000000,0.000000,1771496463.761727,0.000000
24.000000,18157.774884,16382.442878,-13199.755633,-25536.152784,-19454.645449,-22547.679847,-1781.210516,-25580.029259,20382.868693,35416.473200,-24625.207439,-16425.469986,1684.516869,18998.491049,-20666.266461,-1485.005198,0.007000,-0.013000,1.009000,192.000000,0.000000,0.000000,0.000000,0.000000,0.000000,0.000000,0.000000,0.000000,0.000000,1771496463.761738,0.000000
26.000000,18180.797181,16409.644951,-13175.481638,-25503.899217,-19432.226650,-22525.037530,-1749.381632,-25554.682381,20421.827784,35467.390474,-24572.256156,-16370.372936,1732.573120,19036.399607,-20611.705853,-1450.672919,0.007000,-0.013000,1.009000,192.000000,0.000000,0.000000,0.000000,0.000000,0.000000,0.000000,0.000000,0.000000,0.000000,1771496463.761751,0.000000
28.000000,18126.929477,16355.196101,-13230.846909,-25558.325715,-19488.396584,-22577.340612,-1805.484510,-25608.147753,20392.301129,35428.163162,-24610.455288,-16409.086157,1696.497404,19002.916694,-20653.235394,-1469.426032,0.008500,-0.010500,1.005500,192.000000,0.000000,40.000000,127.500000,96.000000,15.500000,40.000000,0.000000,0.000000,0.000000,1771496463.761763,0.000000
30.000000,18187.212132,16415.098776,-13167.949100,-25500.702918,-19422.570696,-22502.752841,-1743.681937,-25550.927287,20398.179638,35433.281712,-24609.382404,-16407.007445,1696.989143,19009.801031,-20650.463778,-1466.676768,0.008500,-0.010500,1.005500,192.000000,0.000000,0.000000,0.000000,0.000000,0.000000,0.000000,0.000000,0.000000,0.000000,1771496463.761775,0.000000
32.000000,18154.064495,16381.325290,-13204.807127,-25536.085729,-19459.898109,-22545.399969,-1782.551620,-25587.450038,20429.114452,35465.535279,-24578.000555,-16376.094982,1740.485637,19049.788302,-20613.739862,-1443.073326,0.008500,-0.010500,1.005500,192.000000,0.000000,0.000000,0.000000,0.000000,0.000000,0.000000,0.000000,0.000000,0.000000,1771496463.761786,0.000000
34.000000,18153.818626,16379.961834,-13202.706063,-25538.544421,-19459.316964,-22560.062714,-1784.943257,-25587.338279,20382.980452,35421.547046,-24632.114128,-16429.135672,1675.352654,18998.960435,-20667.741676,-1483.731149,0.008500,-0.010500,1.005500,192.000000,0.000000,0.000000,0.000000,0.000000,0.000000,0.000000,0.000000,0.000000,0.000000,1771496463.761798,0.000000
36.000000,18191.883646,16418.384483,-13166.406830,-25503.474534,-19417.943885,-22525.484565,-1747.571140,-25549.899107,20437.116377,35477.471111,-24570.356258,-16369.747087,1742.005556,19042.144006,-20607.928408,-1455.836172,0.008500,-0.010500,1.005500,192.000000,0.000000,0.000000,0.000000,0.000000,0.000000,0.000000,0.000000,0.000000,0.000000,1771496463.761810,0.000000
38.000000,18139.401750,16361.655755,-13222.420302,-25558.839805,-19465.754266,-22579.285214,-1804.881013,-25602.805686,20414.317598,35448.369139,-24601.045203,-16401.307750,1716.323401,19022.496822,-20643.042999,-1473.874029,0.007250,-0.010250,1.003750,192.000000,0.000000,24.000000,127.500000,88.000000,15.500000,40.000000,0.000000,0.000000,0.000000,1771496463.761822,0.000000
40.000000,18191.928350,16413.288285,-13165.132781,-25501.462877,-19406.633902,-22526.065710,-1746.610015,-25549.519128,20411.143650,35445.195192,-24603.883875,-16404.861677,1708.097960,19020.172241,-20641.433673,-1477.159736,0.007250,-0.010250,1.003750,192.000000,0.000000,0.000000,0.000000,0.000000,0.000000,0.000000,0.000000,0.000000,0.000000,1771496463.761833,0.000000
42.000000,18146.777826,16371.132895,-13206.125880,-25539.729063,-19450.353915,-22556.508786,-1785.703216,-25590.735744,20430.299095,35468.128081,-24576.190063,-16376.676128,1740.731506,19060.070105,-20607.056690,-1453.153962,0.007250,-0.010250,1.003750,192.000000,0.000000,0.000000,0.000000,0.000000,0.000000,0.000000,0.000000,0.000000,0.000000,1771496463.761845,0.000000
44.000000,18143.894451,16368.875369,-13210.819746,-25546.211069,-19453.483159,-22556.285269,-1791.335856,-25597.463619,20380.789981,35412.136961,-24640.093701,-16438.590460,1679.554782,19015.456023,-20667.361697,-1487.307428,0.007250,-0.010250,1.003750,192.000000,0.000000,0.000000,0.000000,0.000000,0.000000,0.000000,0.000000,0.000000,0.000000,1771496463.761856,0.000000
46.000000,18176.036260,16393.484639,-13173.894665,-25505.307377,-19418.703844,-22513.548733,-1750.923902,-25561.343200,20425.694636,35462.338980,-24580.816875,-16382.711099,1741.580873,19042.546337,-20606.810821,-1445.867294,0.007250,-0.010250,1.003750,192.000000,0.000000,0.000000,0.000000,0.000000,0.000000,0.000000,0.000000,0.000000,0.000000,1771496463.761868,0.000000
48.000000,18120.581582,16337.068836,-13232.545642,-25563.287802,-19479.187665,-22558.118112,-1809.887804,-25615.121498,20396.369147,35425.615063,-24615.439727,-16414.629390,1699.000800,19033.806805,-20646.373409,-1463.994558,0.005625,-0.009125,1.006875,192.000000,0.000000,16.000000,127.500000,96.000000,15.500000,72.000000,0.000000,0.000000,0.000000,1771496463.761880,0.000000
50.000000,18177.578530,16391.629445,-13170.899531,-25503.318072,-19423.285952,-22507.759632,-1747.124105,-25557.476349,20399.006653,35425.480953,-24614.545657,-16415.434052,1702.152396,19013.533773,-20650.396723,-1467.123803,0.005625,-0.009125,1.006875,192.000000,0.000000,0.000000,0.000000,0.000000,0.000000,0.000000,0.000000,0.000000,0.000000,1771496463.761892,0.000000
52.000000,18138.060646,16354.212624,-13206.885839,-25538.410311,-19462.066229,-22551.032609,-1783.132766,-25593.864989,20421.783080,35458.293314,-24582.716773,-16383.694575,1732.796637,19044.669753,-20618.143155,-1448.437744,0.005625,-0.009125,1.006875,192.000000,0.000000,0.000000,0.000000,0.000000,0.000000,0.000000,0.000000,0.000000,0.000000,1771496463.761904,0.000000
54.000000,18128.337637,16337.694685,-13208.606924,-25544.110005,-19458.579357,-22561.917908,-1787.625466,-25599.408221,20378.845379,35396.066057,-24637.322085,-16441.742056,1691.177689,18993.037223,-20672.077915,-1488.536774,0.005625,-0.009125,1.006875,192.000000,0.000000,0.000000,0.000000,0.000000,0.000000,0.000000,0.000000,0.000000,0.000000,1771496463.761915,0.000000
56.000000,18164.614518,16374.016270,-13172.151228,-25509.911836,-19420.424929,-22529.843155,-1750.387460,-25564.248927,20422.230115,35444.926971,-24584.437857,-16387.561427,1732.193140,19047.396666,-20610.990597,-1461.535866,0.005625,-0.009125,1.006875,192.000000,0.000000,0.000000,0.000000,0.000000,0.000000,0.000000,0.000000,0.000000,0.000000,1771496463.761927,0.000000
58.000000,18108.109308,16318.002798,-13227.315334,-25564.897128,-19475.164351,-22585.297833,-1805.462158,-25617.021396,20398.492563,35417.702546,-24614.389195,-16418.429186,1703.292334,19016.327741,-20643.579441,-1479.886649,0.005812,-0.009563,1.007437,192.000000,0.000000,24.000000,127.500000,88.000000,15.500000,64.000000,0.000000,0.000000,0.000000,1771496464.240425,0.000000
60.000000,18156.523187,16365.790828,-13167.256196,-25511.029424,-19416.692187,-22529.239658,-1746.744126,-25561.879642,20388.210760,35411.153485,-24620.111241,-16423.458329,1700.051332,19009.286941,-20646.596926,-1484.736977,0.005812,-0.009563,1.007437,192.000000,0.000000,0.000000,0.000000,0.000000,0.000000,0.000000,0.000000,0.000000,0.000000,1771496464.240539,0.000000
62.000000,18127.376512,16330.653886,-13202.147270,-25542.612439,-19457.662935,-22562.655516,-1780.741129,-25594.043803,20418.340912,35434.868686,-24582.828532,-16391.450631,1735.098867,19057.477302,-20608.330740,-1459.010119,0.005812,-0.009563,1.007437,192.000000,0.000000,0.000000,0.000000,0.000000,0.000000,0.000000,0.000000,0.000000,0.000000,1771496464.240593,0.000000
64.000000,18119.799271,16323.814252,-13209.255124,-25544.333523,-19466.670688,-22563.728400,-1785.770272,-25598.961186,20370.016440,35388.399409,-24639.914887,-16444.424265,1680.694721,18982.956586,-20670.893272,-1491.487204,0.005812,-0.009563,1.007437,192.000000,0.000000,0.000000,0.000000,0.000000,0.000000,0.000000,0.000000,0.000000,0.000000,1771496464.240656,0.000000
66.000000,18149.080056,16353.698534,-13175.839266,-25512.817563,-19433.165423,-22520.388367,-1751.125068,-25568.741628,20410.204877,35433.214656,-24588.438819,-16394.088136,1722.425428,19050.123578,-20615.282132,-1454.338605,0.005812,-0.009563,1.007437,192.000000,0.000000,0.000000,0.000000,0.000000,0.000000,0.000000,0.000000,0.000000,0.000000,1771496464.240730,0.000000
68.000000,18097.983968,16299.830830,-13235.205500,-25569.188663,-19491.056441,-22574.837217,-1810.714818,-25624.397471,20383.852170,35402.860988,-24623.508707,-16427.369884,1698.710227,18999.474525,-20652.229566,-1468.822535,0.006906,-0.008781,1.007719,192.000000,0.000000,32.000000,127.500000,96.000000,15.500000,64.000000,0.000000,0.000000,0.000000,1771496464.240793,0.000000
70.000000,18152.611631,16356.000764,-13177.515647,-25510.202409,-19433.053664,-22518.488469,-1752.577931,-25568.942793,20385.617958,35398.614156,-24627.040282,-16432.801358,1689.501308,19010.583342,-20656.543452,-1473.985788,0.006906,-0.008781,1.007719,192.000000,0.000000,0.000000,0.000000,0.000000,0.000000,0.000000,0.000000,0.000000,0.000000,1771496464.240849,0.000000
72.000000,18115.574791,16317.198136,-13211.803223,-25545.026427,-19466.402467,-22557.536967,-1786.552583,-25603.856218,20415.859868,35426.486781,-24591.478657,-16399.698424,1730.114428,19048.290735,-20619.975998,-1447.297805,0.006906,-0.008781,1.007719,192.000000,0.000000,0.000000,0.000000,0.000000,0.000000,0.000000,0.000000,0.000000,0.000000,1771496464.240932,0.000000
74.000000,18111.216201,16311.520792,-13214.776005,-25551.821357,-19472.728011,-22567.528196,-1791.984056,-25608.483029,20363.020344,35371.836766,-24652.968306,-16458.416457,1664.042671,18985.370575,-20679.476342,-1489.967285,0.006906,-0.008781,1.007719,192.000000,0.000000,0.000000,0.000000,0.000000,0.000000,0.000000,0.000000,0.000000,0.000000,1771496464.241006,0.000000
76.000000,18150.108236,16348.937613,-13176.845095,-25516.460898,-19431.690208,-22528.457347,-1753.315539,-25570.641526,20420.844307,35428.252569,-24589.422296,-16399.988997,1732.371954,19039.372389,-20618.858411,-1461.938198,0.006906,-0.008781,1.007719,192.000000,0.000000,0.000000,0.000000,0.000000,0.000000,0.000000,0.000000,0.000000,0.000000,1771496464.241072,0.000000
78.000000,18095.346462,16293.393528,-13232.590345,-25574.709544,-19485.602616,-22591.802191,-1812.994696,-25625.962094,20395.475077,35402.190435,-24621.228829,-16429.605058,1706.779207,19007.722319,-20650.977868,-1482.121823,0.005453,-0.010391,1.008859,192.000000,0.000000,16.000000,127.500000,80.000000,15.500000,72.000000,0.000000,0.000000,0.000000,1771496464.241091,0.000000
80.000000,18150.376457,16346.903604,-13172.307691,-25516.237380,-19419.486155,-22532.570068,-1753.829629,-25570.328602,20392.569350,35389.852272,-24627.286151,-16440.244489,1693.234049,19001.039148,-20654.330630,-1490.950762,0.005453,-0.010391,1.008859,192.000000,0.000000,0.000000,0.000000,0.000000,0.000000,0.000000,0.000000,0.000000,0.000000,1771496464.241110,0.000000
82.000000,18118.413462,16315.991141,-13209.500993,-25549.608535,-19461.261566,-22558.587498,-1787.357245,-25604.571474,20421.559563,35423.402241,-24588.796447,-16402.090061,1734.271852,19039.975886,-20612.890495,-1460.060651,0.005453,-0.010391,1.008859,192.000000,0.000000,0.000000,0.000000,0.000000,0.000000,0.000000,0.000000,0.000000,0.000000,1771496464.241130,0.000000
84.000000,18109.428061,16302.423632,-13219.492223,-25557.655163,-19468.704697,-22569.696315,-1796.432054,-25613.646282,20374.196216,35364.997132,-24651.202518,-16463.311489,1670.077642,19005.755366,-20677.643499,-1496.516347,0.005453,-0.010391,1.008859,192.000000,0.000000,0.000000,0.000000,0.000000,0.000000,0.000000,0.000000,0.000000,0.000000,1771496464.241150,0.000000
86.000000,18154.779751,16346.791845,-13179.907284,-25517.958464,-19433.523051,-22522.780004,-1757.137687,-25571.423837,20421.425452,35411.511113,-24592.596244,-16407.298017,1727.566329,19025.536659,-20623.909905,-1461.200590,0.005453,-0.010391,1.008859,192.000000,0.000000,0.000000,0.000000,0.000000,0.000000,0.000000,0.000000,0.000000,0.000000,1771496464.241171,0.000000
88.000000,18100.397956,16293.907618,-13237.194805,-25571.379134,-19487.569569,-22565.740057,-1815.185167,-25623.704567,20404.281664,35394.680249,-24617.652549,-16428.062788,1698.978448,19030.208174,-20654.330630,-1473.158774,0.005453,-0.010391,1.008859,192.000000,0.000000,0.000000,0.000000,0.000000,0.000000,0.000000,0.000000,0.000000,0.000000,1771496464.241190,0.000000
90.000000,18162.356992,16358.034773,-13176.241598,-25510.671796,-19427.532783,-22516.789736,-1754.410774,-25563.779541,20403.141725,35382.207976,-24621.318236,-16435.192994,1699.425483,19000.703871,-20658.108074,-1476.444480,0.002000,-0.018000,1.006000,192.000000,0.000000,8.000000,127.500000,56.000000,15.500000,56.000000,0.000000,0.000000,0.000000,1771496464.241216,0.000000
92.000000,18127.711788,16325.133005,-13209.858621,-25545.518165,-19463.876720,-22561.090894,-1788.430129,-25595.854294,20439.262144,35423.603406,-24581.263909,-16396.457421,1736.507027,19050.950593,-20623.775795,-1454.919750,0.002000,-0.018000,1.006000,192.000000,0.000000,0.000000,0.000000,0.000000,0.000000,0.000000,0.000000,0.000000,0.000000,1771496464.241235,0.000000
94.000000,18126.437739,16323.478976,-13213.591363,-25548.088616,-19470.716354,-22566.835292,-1790.955876,-25595.943701,20395.340967,35361.130281,-24634.215192,-16448.916966,1674.726805,18993.126630,-20681.823275,-1494.616448,0.002000,-0.018000,1.006000,192.000000,0.000000,0.000000,0.000000,0.000000,0.000000,0.000000,0.000000,0.000000,0.000000,1771496464.241254,0.000000
96.000000,18170.336565,16367.511912,-13173.604092,-25509.822429,-19432.673685,-22530.603114,-1750.007480,-25555.844671,20445.498281,35419.781258,-24574.938366,-16390.042471,1746.006518,19062.282927,-20623.239353,-1465.805050,0.002000,-0.018000,1.006000,192.000000,0.000000,0.000000,0.000000,0.000000,0.000000,0.000000,0.000000,0.000000,0.000000,1771496464.241273,0.000000
98.000000,18112.065567,16307.720996,-13233.998505,-25569.881567,-19490.654110,-22591.422211,-1813.531138,-25614.562704,20419.972589,35390.254604,-24603.772116,-16419.524422,1698.821986,19024.150851,-20657.146949,-1483.507631,0.002000,-0.018000,1.006000,192.000000,0.000000,0.000000,0.000000,0.000000,0.000000,0.000000,0.000000,0.000000,0.000000,1771496464.241292,0.000000
100.000000,18170.783600,16365.455552,-13172.240635,-25514.337482,-19426.839879,-22527.764443,-1753.941387,-25558.258660,20411.814202,35375.681266,-24613.338663,-16431.661419,1690.909468,19023.055616,-20659.762104,-1492.560088,0.006000,-0.014000,1.000000,192.000000,0.000000,24.000000,127.500000,72.000000,15.500000,32.000000,0.000000,0.000000,0.000000,1771496464.241311,0.000000
102.000000,18135.803120,16331.056217,-13204.203630,-25547.954505,-19451.225633,-22557.872243,-1786.887859,-25592.456829,20449.700409,35411.958148,-24572.032639,-16392.612921,1732.506064,19058.997221,-20615.170373,-1463.815744,0.006000,-0.014000,1.000000,192.000000,0.000000,0.000000,0.000000,0.000000,0.000000,0.000000,0.000000,0.000000,0.000000,1771496464.241330,0.000000
104.000000,18127.868250,16324.842432,-13213.144328,-25554.011828,-19461.060400,-22570.143350,-1794.845080,-25600.972843,20399.006653,35355.721158,-24635.131614,-16454.840178,1667.261322,19007.990540,-20676.503560,-1499.265611,0.006000,-0.014000,1.000000,192.000000,0.000000,0.000000,0.000000,0.000000,0.000000,0.000000,0.000000,0.000000,0.000000,1771496464.241349,0.000000
106.000000,18167.676707,16365.522607,-13174.364051,-25511.252941,-19427.666894,-22525.819841,-1753.069669,-25560.717352,20441.117339,35414.305081,-24578.469941,-16396.032738,1723.699477,19064.004012,-20619.171336,-1460.284169,0.006000,-0.014000,1.000000,192.000000,0.000000,0.000000,0.000000,0.000000,0.000000,0.000000,0.000000,0.000000,0.000000,1771496464.241367,0.000000
108.000000,18106.499983,16302.490688,-13236.814825,-25569.568642,-19488.553046,-22580.268691,-1816.392161,-25620.396509,20415.435185,35376.955316,-24610.030605,-16428.643933,1699.157262,19022.541526,-20654.487092,-1474.499878,0.006000,-0.014000,1.000000,192.000000,0.000000,0.000000,0.000000,0.000000,0.000000,0.000000,0.000000,0.000000,0.000000,1771496464.241386,0.000000
110.000000,18170.470675,16364.114447,-13177.672109,-25514.806868,-19426.594010,-22513.638140,-1758.970530,-25564.025410,20411.456574,35366.829975,-24618.971302,-16435.036532,1676.202020,19023.904982,-20661.259670,-1482.121823,0.002000,-0.010000,0.998000,192.000000,0.000000,8.000000,127.500000,88.000000,15.500000,24.000000,0.000000,0.000000,0.000000,1771496464.241404,0.000000
112.000000,18136.943059,16334.453682,-13212.049092,-25548.133319,-19462.245043,-22541.376655,-1790.821766,-25595.206093,20441.832595,35403.486836,-24579.833398,-16398.893762,1719.430294,19055.644459,-20622.479394,-1456.394965,0.002000,-0.010000,0.998000,192.000000,0.000000,0.000000,0.000000,0.000000,0.000000,0.000000,0.000000,0.000000,0.000000,1771496464.241423,0.000000
114.000000,18128.695265,16322.897830,-13217.569973,-25555.934078,-19470.626947,-22562.856682,-1797.974324,-25601.755154,20395.139801,35349.149746,-24635.913925,-16453.700239,1660.734613,18986.778735,-20682.985566,-1491.777777,0.002000,-0.010000,0.998000,192.000000,0.000000,0.000000,0.000000,0.000000,0.000000,0.000000,0.000000,0.000000,0.000000,1771496464.241442,0.000000
116.000000,18171.700021,16369.724735,-13175.191066,-25517.958464,-19428.493908,-22525.529268,-1755.729527,-25560.449131,20441.899650,35395.350801,-24577.844093,-16403.252352,1715.027000,19050.861186,-20624.066368,-1460.172410,0.002000,-0.010000,0.998000,192.000000,0.000000,0.000000,0.000000,0.000000,0.000000,0.000000,0.000000,0.000000,0.000000,1771496464.241460,0.000000
118.000000,18118.189945,16315.231182,-13233.305601,-25574.620137,-19481.869874,-22598.619473,-1816.727438,-25616.373195,20425.292304,35381.537423,-24603.995634,-16425.425282,1687.109671,19018.205287,-20652.877766,-1480.177221,0.002000,-0.010000,0.998000,192.000000,0.000000,0.000000,0.000000,0.000000,0.000000,0.000000,0.000000,0.000000,0.000000,1771496464.241478,0.000000
120.000000,18174.046954,16370.350584,-13175.526342,-25519.433680,-19426.169327,-22541.600173,-1758.925826,-25563.332506,20411.456574,35367.969914,-24616.020872,-16437.070541,1681.432328,19010.560991,-20659.426827,-1490.861355,0.002000,-0.010000,0.998000,192.000000,0.000000,0.000000,127.500000,112.000000,15.500000,40.000000,0.000000,0.000000,0.000000,1771496464.241498,0.000000
122.000000,18142.955678,16336.890022,-13208.137537,-25547.485119,-19457.394714,-22572.892615,-1791.984056,-25596.703660,20444.358342,35406.571377,-24578.268776,-16399.787831,1725.644079,19050.771779,-20618.389025,-1466.497954,0.002000,-0.010000,0.998000,192.000000,0.000000,0.000000,0.000000,0.000000,0.000000,0.000000,0.000000,0.000000,0.000000,1771496464.241517,0.000000
124.000000,18140.139358,16332.687894,-13213.256086,-25558.839805,-19458.624060,-22575.217196,-1797.817862,-25601.799858,20398.693728,35348.032158,-24635.511593,-16458.327050,1661.852200,19017.870011,-20675.073048,-1499.310315,0.002000,-0.010000,0.998000,192.000000,0.000000,0.000000,0.000000,0.000000,0.000000,0.000000,0.000000,0.000000,0.000000,1771496464.241536,0.000000
126.000000,18180.975995,16375.178561,-13172.575912,-25517.712595,-19421.184888,-22533.262972,-1756.534190,-25562.192567,20449.074560,35402.056325,-24575.117180,-16402.335930,1720.167902,19047.530776,-20616.153850,-1466.676768,0.002000,-0.010000,0.998000,192.000000,0.000000,0.000000,0.000000,0.000000,0.000000,0.000000,0.000000,0.000000,0.000000,1771496464.241555,0.000000
128.000000,18123.532012,16315.409996,-13231.495110,-25573.435494,-19482.205150,-22585.275481,-1816.146292,-25620.038881,20422.028950,35372.999057,-24606.923712,-16429.850928,1690.305971,19006.448270,-20647.468644,-1479.171393,0.002000,-0.010000,0.998000,192.000000,0.000000,0.000000,0.000000,0.000000,0.000000,0.000000,0.000000,0.000000,0.000000,1771496464.241573,0.000000
130.000000,18176.416239,16369.367107,-13174.721679,-25516.818525,-19430.349103,-22536.705141,-1759.261103,-25567.109950,20415.926923,35365.958257,-24617.563142,-16442.166739,1684.382759,18996.926427,-20658.063371,-1482.993541,0.006000,-0.004000,1.006000,192.000000,0.000000,24.000000,127.500000,112.000000,15.500000,56.000000,0.000000,0.000000,0.000000,1771496464.241594,0.000000
132.000000,18151.203472,16346.300107,-13206.729377,-25543.640619,-19459.942813,-22556.017048,-1786.776100,-25591.898035,20450.549775,35404.827941,-24575.765380,-16399.072575,1726.962832,19045.787340,-20618.232562,-1450.270587,0.006000,-0.004000,1.006000,192.000000,0.000000,0.000000,0.000000,0.000000,0.000000,0.000000,0.000000,0.000000,0.000000,1771496464.241613,0.000000
134.000000,18140.452282,16337.828796,-13217.100587,-25553.989476,-19469.375249,-22564.868339,-1798.913097,-25600.682271,20405.600417,35351.899010,-24633.634047,-16453.163797,1665.786107,18994.557142,-20681.443296,-1487.240373,0.006000,-0.004000,1.006000,192.000000,0.000000,0.000000,0.000000,0.000000,0.000000,0.000000,0.000000,0.000000,0.000000,1771496464.241632,0.000000
136.000000,18183.121763,16382.934616,-13173.157057,-25511.677624,-19427.242211,-22527.049187,-1752.980262,-25557.945735,20455.131883,35404.738534,-24575.139532,-16396.144497,1734.182445,19051.174110,-20621.495917,-1452.706927,0.006000,-0.004000,1.006000,192.000000,0.000000,0.000000,0.000000,0.000000,0.000000,0.000000,0.000000,0.000000,0.000000,1771496464.241651,0.000000
138.000000,18123.889640,16322.406092,-13231.383351,-25570.418009,-19486.116706,-22584.917853,-1812.659420,-25616.596713,20432.400159,35380.799816,-24603.325081,-16425.045303,1696.028018,19018.719377,-20651.402551,-1470.610675,0.006000,-0.004000,1.006000,192.000000,0.000000,0.000000,0.000000,0.000000,0.000000,0.000000,0.000000,0.000000,0.000000,1771496464.241670,0.000000
140.000000,18178.092620,16380.654738,-13173.380574,-25514.113964,-19430.460862,-22531.474832,-1755.506010,-25563.287802,20424.174717,35370.562717,-24613.539828,-16436.355285,1687.064968,19009.063424,-20660.455008,-1485.698102,0.006000,-0.008000,1.008000,192.000000,0.000000,24.000000,127.500000,96.000000,15.500000,64.000000,0.000000,0.000000,0.000000,1771496464.241689,0.000000
142.000000,18149.057704,16351.306898,-13207.355226,-25546.993380,-19460.345144,-22558.609850,-1786.619638,-25592.255663,20453.209633,35410.304118,-24574.044296,-16395.541000,1727.208701,19064.294584,-20622.568801,-1462.452288,0.006000,-0.008000,1.008000,192.000000,0.000000,0.000000,0.000000,0.000000,0.000000,0.000000,0.000000,0.000000,0.000000,1771496464.241708,0.000000
144.000000,18142.195719,16343.752008,-13216.318275,-25550.949639,-19475.298461,-22578.547606,-1795.269763,-25599.922311,20407.880295,35353.195411,-24631.331817,-16451.129788,1670.681139,19011.142136,-20681.912682,-1497.902155,0.006000,-0.008000,1.008000,192.000000,0.000000,0.000000,0.000000,0.000000,0.000000,0.000000,0.000000,0.000000,0.000000,1771496464.241726,0.000000
146.000000,18184.820495,16386.689709,-13174.699327,-25509.241284,-19429.879717,-22534.313504,-1752.890855,-25557.833976,20456.964726,35407.130171,-24573.060819,-16393.797564,1731.522588,19049.475378,-20623.440519,-1460.373576,0.006000,-0.008000,1.008000,192.000000,0.000000,0.000000,0.000000,0.000000,0.000000,0.000000,0.000000,0.000000,0.000000,1771496464.241745,0.000000
148.000000,18125.633076,16326.138833,-13232.523290,-25569.099256,-19486.072002,-22594.909083,-1813.039400,-25615.032091,20430.187336,35377.514109,-24603.727413,-16421.983114,1710.176672,19020.105186,-20652.207214,-1475.773928,0.006000,-0.008000,1.008000,192.000000,0.000000,0.000000,0.000000,0.000000,0.000000,0.000000,0.000000,0.000000,0.000000,1771496464.241763,0.000000
150.000000,18183.546446,16383.225189,-13172.955891,-25517.645540,-19431.243173,-22538.917963,-1757.204742,-25560.627945,20424.957028,35366.047664,-24611.483468,-16433.404855,1701.683009,19013.667883,-20661.192615,-1487.598000,0.006000,-0.006000,1.002000,192.000000,0.000000,24.000000,127.500000,104.000000,15.500000,40.000000,0.000000,0.000000,0.000000,1771496464.241782,0.000000
152.000000,18153.304536,16353.899700,-13204.829479,-25546.479290,-19461.730952,-22563.840158,-1787.804280,-25590.199302,20457.590575,35404.090333,-24572.457322,-16394.177543,1724.101809,19052.850491,-20617.360844,-1462.295826,0.006000,-0.006000,1.002000,192.000000,0.000000,0.000000,0.000000,0.000000,0.000000,0.000000,0.000000,0.000000,0.000000,1771496464.241801,0.000000
154.000000,18143.849748,16342.723828,-13216.631200,-25557.029314,-19478.137133,-22571.104475,-1797.907269,-25599.050593,20408.819069,35349.261504,-24629.834250,-16449.520463,1670.681139,19017.959418,-20678.582272,-1493.074178,0.006000,-0.006000,1.002000,192.000000,0.000000,0.000000,0.000000,0.000000,0.000000,0.000000,0.000000,0.000000,0.000000,1771496464.241822,0.000000
156.000000,18187.234484,16387.047337,-13171.883008,-25512.728156,-19430.214993,-22529.798452,-1751.482696,-25555.777616,20453.008467,35405.900825,-24572.144398,-16393.506991,1722.224262,19051.509386,-20623.239353,-1462.295826,0.006000,-0.006000,1.002000,192.000000,0.000000,0.000000,0.000000,0.000000,0.000000,0.000000,0.000000,0.000000,0.000000,1771496464.241840,0.000000
158.000000,18128.650561,16327.345828,-13230.668095,-25573.077866,-19488.530694,-22594.171476,-1813.352324,-25613.802745,20431.260220,35377.938792,-24600.151134,-16421.513727,1704.409922,19011.365653,-20653.414208,-1477.383253,0.006000,-0.006000,1.002000,192.000000,0.000000,0.000000,0.000000,0.000000,0.000000,0.000000,0.000000,0.000000,0.000000,1771496464.241858,0.000000
160.000000,18187.837981,16391.271817,-13170.519551,-25511.610569,-19426.146975,-22539.856737,-1752.868504,-25555.531747,20423.794737,35374.653086,-24611.639930,-16431.750826,1697.816157,19000.390947,-20662.220795,-1486.458062,0.008000,-0.006000,1.002000,192.000000,0.000000,40.000000,127.500000,104.000000,15.500000,40.000000,0.000000,0.000000,0.000000,1771496464.241876,0.000000
162.000000,18157.372553,16358.772380,-13202.571953,-25543.282991,-19460.367496,-22569.651612,-1784.831498,-25588.120590,20466.464217,35414.349784,-24566.556462,-16388.813125,1747.079402,19052.135235,-20619.774833,-1459.300692,0.008000,-0.006000,1.002000,192.000000,0.000000,0.000000,0.000000,0.000000,0.000000,0.000000,0.000000,0.000000,0.000000,1771496464.241894,0.000000
164.000000,18148.521262,16350.099903,-13212.227906,-25553.430683,-19464.346107,-22570.612737,-1796.879089,-25600.548160,20416.195144,35358.828051,-24627.464965,-16447.754675,1678.101918,18986.734031,-20676.771781,-1493.096530,0.008000,-0.006000,1.002000,192.000000,0.000000,0.000000,0.000000,0.000000,0.000000,0.000000,0.000000,0.000000,0.000000,1771496464.241913,0.000000
166.000000,18189.492010,16394.691634,-13170.273682,-25516.304435,-19421.766033,-22535.364036,-1755.975396,-25562.907822,20460.384543,35409.454752,-24576.815912,-16398.334968,1733.936576,19048.335439,-20618.612542,-1463.301654,0.008000,-0.006000,1.002000,192.000000,0.000000,0.000000,0.000000,0.000000,0.000000,0.000000,0.000000,0.000000,0.000000,1771496464.241931,0.000000
168.000000,18138.686495,16343.148511,-13229.438749,-25569.412180,-19473.979708,-22583.397935,-1814.224042,-25616.194381,20439.798586,35388.801740,-24603.593302,-16422.564259,1707.561518,19022.385063,-20644.071179,-1477.495012,0.008000,-0.006000,1.002000,192.000000,0.000000,0.000000,0.000000,0.000000,0.000000,0.000000,0.000000,0.000000,0.000000,1771496464.241949,0.000000
170.000000,18195.996367,16402.358282,-13173.559388,-25512.057604,-19422.727158,-22517.952027,-1755.953044,-25559.666820,20435.551755,35380.621002,-24609.717680,-16430.342666,1700.967753,19021.222773,-20654.129464,-1482.635913,0.010000,-0.008000,1.003000,192.000000,0.000000,48.000000,127.500000,88.000000,15.500000,48.000000,0.000000,0.000000,0.000000,1771496464.241967,0.000000
172.000000,18163.027544,16370.998784,-13206.304694,-25545.853441,-19461.596842,-22560.397990,-1787.670170,-25589.215826,20468.744095,35423.290482,-24568.746933,-16388.880180,1739.077477,19063.556977,-20617.025568,-1458.071346,0.010000,-0.008000,1.003000,192.000000,0.000000,0.000000,0.000000,0.000000,0.000000,0.000000,0.000000,0.000000,0.000000,1771496464.241985,0.000000
174.000000,18146.844881,16356.626613,-13215.647723,-25557.074017,-19470.783409,-22574.546644,-1797.549641,-25599.855256,20419.011464,35361.733778,-24627.397910,-16448.581689,1681.611142,19000.703871,-20677.218816,-1494.772910,0.010000,-0.008000,1.003000,192.000000,0.000000,0.000000,0.000000,0.000000,0.000000,0.000000,0.000000,0.000000,0.000000,1771496464.242002,0.000000
176.000000,18195.705795,16405.152250,-13170.854827,-25511.498810,-19426.482251,-22517.639103,-1751.907379,-25554.280049,20464.340802,35414.103915,-24572.077343,-16392.031776,1739.256291,19052.023477,-20620.110109,-1459.166582,0.010000,-0.008000,1.003000,192.000000,0.000000,0.000000,0.000000,0.000000,0.000000,0.000000,0.000000,0.000000,0.000000,1771496464.242020,0.000000
178.000000,18136.272506,16347.820025,-13234.154968,-25567.288764,-19485.423802,-22595.356118,-1814.492263,-25610.449983,20442.793720,35388.533519,-24597.021889,-16416.439881,1718.849149,19022.161546,-20650.150853,-1472.890553,0.010000,-0.008000,1.003000,192.000000,0.000000,0.000000,0.000000,0.000000,0.000000,0.000000,0.000000,0.000000,0.000000,1771496464.721441,0.000000
180.000000,18190.631949,16401.643026,-13175.280473,-25516.706767,-19428.203336,-22536.794548,-1756.333024,-25554.905898,20432.802490,35378.944621,-24606.767250,-16427.839271,1702.532375,19024.866107,-20660.723229,-1487.933277,0.009000,-0.007000,1.003500,192.000000,0.000000,32.000000,127.500000,104.000000,15.500000,48.000000,0.000000,0.000000,0.000000,1771496464.721518,0.000000
182.000000,18164.189835,16374.508008,-13201.879049,-25543.417101,-19458.378191,-22567.327031,-1781.389330,-25579.202244,20468.654688,35420.451810,-24562.130816,-16385.795639,1751.460344,19066.306241,-20617.517307,-1463.547523,0.009000,-0.007000,1.003500,192.000000,0.000000,0.000000,0.000000,0.000000,0.000000,0.000000,0.000000,0.000000,0.000000,1771496464.721558,0.000000
184.000000,18150.242347,16359.219415,-13215.088930,-25559.108026,-19469.174083,-22587.644766,-1795.873260,-25593.775582,20418.564429,35364.438339,-24621.318236,-16445.005410,1677.923105,18991.092621,-20677.129409,-1501.411379,0.009000,-0.007000,1.003500,192.000000,0.000000,0.000000,0.000000,0.000000,0.000000,0.000000,0.000000,0.000000,0.000000,1771496464.721599,0.000000
186.000000,18196.398699,16405.800451,-13170.832476,-25514.046909,-19427.085749,-22542.851870,-1751.125068,-25549.764997,20462.642069,35412.159313,-24567.182310,-16393.149363,1737.199931,19041.048770,-20622.054711,-1468.867239,0.009000,-0.007000,1.003500,192.000000,0.000000,0.000000,0.000000,0.000000,0.000000,0.000000,0.000000,0.000000,0.000000,1771496464.721660,0.000000
188.000000,18141.346352,16348.222357,-13231.428055,-25568.808683,-19488.262473,-22597.479534,-1811.206557,-25604.929102,20445.341819,35390.209900,-24591.635119,-16416.596343,1714.781131,19015.187802,-20652.028400,-1483.306466,0.009000,-0.007000,1.003500,192.000000,0.000000,0.000000,0.000000,0.000000,0.000000,0.000000,0.000000,0.000000,0.000000,1771496464.721700,0.000000
190.000000,18192.576551,16401.978302,-13177.158019,-25516.103270,-19432.941906,-22537.241583,-1755.014271,-25551.866061,20433.003656,35381.515072,-24603.928578,-16428.129843,1702.599430,19018.272342,-20662.578423,-1489.922582,0.008500,-0.009500,1.005750,192.000000,0.000000,32.000000,127.500000,80.000000,15.500000,64.000000,0.000000,0.000000,0.000000,1771496464.721740,0.000000
192.000000,18166.983803,16378.151343,-13206.818784,-25544.534689,-19462.848540,-22558.162815,-1785.747920,-25581.102142,20467.760619,35422.686985,-24562.779017,-16385.326253,1746.185332,19053.006953,-20621.630027,-1461.222942,0.008500,-0.009500,1.005750,192.000000,0.000000,0.000000,0.000000,0.000000,0.000000,0.000000,0.000000,0.000000,0.000000,1771496464.721781,0.000000
194.000000,18152.097541,16365.075572,-13219.894555,-25557.029314,-19473.912653,-22565.650650,-1798.868394,-25596.815419,20416.373958,35365.377112,-24625.810936,-16445.452445,1682.080529,18986.644624,-20678.828142,-1495.979905,0.008500,-0.009500,1.005750,192.000000,0.000000,0.000000,0.000000,0.000000,0.000000,0.000000,0.000000,0.000000,0.000000,1771496464.721822,0.000000
196.000000,18193.045937,16409.197916,-13175.638101,-25511.834086,-19435.266487,-22540.415530,-1751.572102,-25555.867023,20456.741209,35415.735592,-24574.916014,-16395.183372,1731.544939,19043.373351,-20624.312237,-1464.754518,0.008500,-0.009500,1.005750,192.000000,0.000000,0.000000,0.000000,0.000000,0.000000,0.000000,0.000000,0.000000,0.000000,1771496464.721863,0.000000
198.000000,18133.679704,16352.156264,-13237.440674,-25570.596823,-19490.810572,-22598.306548,-1813.754656,-25614.339186,20435.551755,35395.775485,-24602.296901,-16419.233849,1712.031867,19030.029360,-20653.056580,-1476.220963,0.008500,-0.009500,1.005750,192.000000,0.000000,0.000000,0.000000,0.000000,0.000000,0.000000,0.000000,0.000000,0.000000,1771496464.721912,0.000000
200.000000,18193.202399,16412.751843,-13178.476772,-25513.711633,-19433.366589,-22532.950048,-1758.769364,-25558.795101,20428.287438,35383.593784,-24613.226904,-16429.962686,1696.832680,19012.304427,-20662.131388,-1486.122785,0.007250,-0.009750,1.006875,192.000000,0.000000,24.000000,127.500000,88.000000,15.500000,64.000000,0.000000,0.000000,0.000000,1771496464.721965,0.000000
202.000000,18169.397792,16389.103697,-13206.617618,-25540.936058,-19456.880624,-22561.001487,-1787.424301,-25586.131285,20462.798531,35427.157334,-24571.116218,-16384.096907,1746.744126,19067.848512,-20618.254914,-1455.947930,0.007250,-0.009750,1.006875,192.000000,0.000000,0.000000,0.000000,0.000000,0.000000,0.000000,0.000000,0.000000,0.000000,1771496464.722006,0.000000
204.000000,18157.908995,16374.105677,-13219.268706,-25554.011828,-19469.866987,-22577.966461,-1799.784815,-25597.709489,20414.898743,35368.662819,-24627.867297,-16442.725532,1691.401206,19003.408432,-20676.078877,-1495.309352,0.007250,-0.009750,1.006875,192.000000,0.000000,0.000000,0.000000,0.000000,0.000000,0.000000,0.000000,0.000000,0.000000,1771496464.722048,0.000000
206.000000,18199.460888,16419.390311,-13173.715851,-25510.247113,-19424.425891,-22533.844117,-1752.220303,-25554.123587,20461.233909,35415.847351,-24571.451494,-16388.433145,1746.364146,19053.878671,-20621.428862,-1465.916808,0.007250,-0.009750,1.006875,192.000000,0.000000,0.000000,0.000000,0.000000,0.000000,0.000000,0.000000,0.000000,0.000000,1771496464.722072,0.000000
208.000000,18142.888623,16365.567311,-13229.751674,-25566.618212,-19477.421877,-22583.889673,-1810.647763,-25609.399451,20438.926868,35390.120493,-24597.200703,-16414.584686,1724.928823,19033.940915,-20646.909850,-1477.942047,0.007250,-0.009750,1.006875,192.000000,0.000000,0.000000,0.000000,0.000000,0.000000,0.000000,0.000000,0.000000,0.000000,1771496464.722084,0.000000
210.000000,18191.458963,16414.696445,-13177.426240,-25515.857400,-19429.298571,-22525.193992,-1758.568199,-25560.292668,20431.394330,35375.815377,-24610.902323,-16429.225079,1705.035771,19008.862258,-20659.918566,-1486.838041,0.007625,-0.009875,1.005437,192.000000,0.000000,32.000000,127.500000,88.000000,15.500000,48.000000,0.000000,0.000000,0.000000,1771496464.722097,0.000000
212.000000,18161.775847,16383.001671,-13209.344531,-25545.249944,-19460.211034,-22565.762408,-1788.541888,-25589.752268,20457.054133,35413.031031,-24572.479674,-16388.924883,1742.094963,19061.455913,-20618.925466,-1457.333738,0.007625,-0.009875,1.005437,192.000000,0.000000,0.000000,0.000000,0.000000,0.000000,0.000000,0.000000,0.000000,0.000000,1771496464.722110,0.000000
214.000000,18147.738951,16371.110543,-13218.933430,-25555.889375,-19474.717316,-22577.340612,-1798.533118,-25600.682271,20413.512935,35356.257600,-24630.504803,-16447.017067,1688.115500,18984.163580,-20678.001127,-1492.493033,0.007625,-0.009875,1.005437,192.000000,0.000000,0.000000,0.000000,0.000000,0.000000,0.000000,0.000000,0.000000,0.000000,1771496464.722122,0.000000
