Sample_index,EXG Channel 0,EXG Channel 1,EXG Channel 2,EXG Channel 3,EXG Channel 4,EXG Channel 5,EXG Channel 6,EXG Channel 7,EXG Channel 8,EXG Channel 9,EXG Channel 10,EXG Channel 11,EXG Channel 12,EXG Channel 13,EXG Channel 14,EXG Channel 15,Accel Channel 0,Accel Channel 1,Accel Channel 2,Not Used,Digital Channel 0 (D11),Digital Channel 1 (D12),Digital Channel 2 (D13),Digital Channel 3 (D17),Not Used,Digital Channel 4 (D18),Analog Channel 0,Analog Channel 1,Analog Channel 2,Timestamp,Marker Channel
90.000000,17681.593321,16843.514662,-16275.512132,-22715.295579,-19899.288702,-24518.768432,145.576912,-25708.372975,20387.361394,27667.056342,-24160.693486,-16392.858791,-123.471036,17603.496325,-20115.832402,-6974.437174,0.006000,-0.002000,1.006000,192.000000,0.000000,0.000000,0.000000,0.000000,0.000000,0.000000,0.000000,0.000000,0.000000,1771495042.924047,101.000000
92.000000,17641.829567,16803.437984,-16318.941572,-22757.227451,-19943.366342,-24559.202738,103.063894,-25748.181432,20417.625656,27699.801648,-24130.652741,-16359.554691,-97.319495,17643.774169,-20085.009347,-6945.111685,0.006000,-0.002000,1.006000,192.000000,0.000000,0.000000,0.000000,0.000000,0.000000,0.000000,0.000000,0.000000,0.000000,1771495042.924118,0.000000
94.000000,17643.841224,16806.410766,-16314.314760,-22749.180823,-19938.381903,-24551.178461,108.607126,-25744.381636,20360.762818,27637.775557,-24189.728402,-16419.814994,-155.568141,17574.059078,-20144.464987,-6993.234991,0.008000,-0.010000,1.008000,192.000000,0.000000,32.000000,127.500000,88.000000,15.500000,64.000000,0.000000,0.000000,0.000000,1771495042.924174,0.000000
96.000000,17672.473809,16838.440816,-16287.403260,-22719.765928,-19913.750281,-24525.362197,141.039508,-25713.603284,20416.820993,27700.315738,-24126.540020,-16355.151398,-85.406016,17639.415579,-20082.528303,-6937.780313,0.008000,-0.010000,1.008000,192.000000,0.000000,0.000000,0.000000,0.000000,0.000000,0.000000,0.000000,0.000000,0.000000,1771495042.924227,0.000000
98.000000,17618.807270,16783.924911,-16342.723828,-22777.455780,-19969.339069,-24580.481598,81.583867,-25767.739209,20379.314766,27659.009714,-24169.276556,-16397.485602,-140.614824,17595.852029,-20130.562202,-6972.805497,0.008000,-0.010000,1.008000,192.000000,0.000000,0.000000,0.000000,0.000000,0.000000,0.000000,0.000000,0.000000,0.000000,1771495042.924293,0.000000
100.000000,17688.209437,16853.125912,-16274.707469,-22713.507439,-19896.561789,-24511.705281,150.159019,-25702.807391,20390.781211,27665.245851,-24156.893689,-16388.723718,-123.448685,17610.648884,-20119.319274,-6968.893942,0.008000,-0.010000,1.008000,192.000000,0.000000,0.000000,0.000000,0.000000,0.000000,0.000000,0.000000,0.000000,0.000000,1771495042.924317,0.000000
102.000000,17644.645887,16808.958865,-16315.879383,-22756.445140,-19943.232232,-24555.984087,106.617821,-25744.269877,20417.536249,27698.348784,-24126.629427,-16357.967717,-90.166937,17634.319381,-20088.675033,-6944.307023,0.008000,-0.010000,1.008000,192.000000,0.000000,0.000000,0.000000,0.000000,0.000000,0.000000,0.000000,0.000000,0.000000,1771495042.924340,0.000000
104.000000,17645.629364,16809.696473,-16310.716130,-22750.678390,-19934.738569,-24551.200813,111.579908,-25741.207688,20359.377010,27641.061263,-24185.146294,-16417.065730,-145.889836,17574.081430,-20145.627278,-6991.849183,0.008000,-0.006000,1.008000,192.000000,0.000000,32.000000,127.500000,120.000000,15.500000,64.000000,0.000000,0.000000,0.000000,1771495042.924364,0.000000
106.000000,17676.407716,16840.877156,-16282.731746,-22720.637646,-19905.323673,-24525.809231,142.581778,-25712.083365,20416.575124,27697.857046,-24123.656645,-16355.352563,-83.126138,17636.174576,-20081.924806,-6942.541235,0.008000,-0.006000,1.008000,192.000000,0.000000,0.000000,0.000000,0.000000,0.000000,0.000000,0.000000,0.000000,0.000000,1771495042.924387,0.000000
108.000000,17613.152279,16781.466220,-16341.650944,-22780.182693,-19963.617022,-24582.023869,79.482803,-25770.600232,20376.029059,27658.808548,-24167.890748,-16398.469078,-128.969566,17597.059023,-20124.035492,-6973.252532,0.008000,-0.006000,1.008000,192.000000,0.000000,0.000000,0.000000,0.000000,0.000000,0.000000,0.000000,0.000000,0.000000,1771495042.924409,0.000000
110.000000,17678.888759,16850.443703,-16275.020394,-22717.955436,-19896.874714,-24515.616836,147.700327,-25705.891932,20379.761801,27664.105912,-24160.022933,-16392.389404,-130.869464,17601.439965,-20118.715777,-6970.682081,0.008000,-0.006000,1.008000,192.000000,0.000000,0.000000,0.000000,0.000000,0.000000,0.000000,0.000000,0.000000,0.000000,1771495042.924433,0.000000
112.000000,17640.890794,16809.584714,-16316.929915,-22757.786245,-19940.974705,-24558.755703,106.550766,-25743.688732,20418.676188,27694.146656,-24127.478794,-16358.794732,-85.808347,17643.394189,-20087.021004,-6939.143770,0.008000,-0.006000,1.008000,192.000000,0.000000,0.000000,0.000000,0.000000,0.000000,0.000000,0.000000,0.000000,0.000000,1771495042.924456,0.000000
114.000000,17643.170672,16810.858764,-16308.503307,-22748.487919,-19932.995133,-24554.419464,114.396228,-25741.520612,20369.748219,27635.093347,-24182.061754,-16413.735320,-147.208589,17572.561511,-20142.945068,-6984.115479,0.008000,-0.003000,1.008000,192.000000,0.000000,32.000000,0.000000,0.000000,15.500000,64.000000,0.000000,0.000000,0.000000,1771495042.924478,0.000000
116.000000,17666.863521,16837.010305,-16278.999004,-22720.749405,-19903.200257,-24526.166859,144.258159,-25716.374900,20421.224287,27691.866778,-24126.115337,-16358.861787,-87.730597,17626.138643,-20077.119181,-6934.516959,0.008000,-0.003000,1.008000,192.000000,0.000000,0.000000,0.000000,0.000000,0.000000,0.000000,0.000000,0.000000,0.000000,1771495042.924501,0.000000
118.000000,17608.056081,16776.146504,-16340.242784,-22779.735658,-19962.052400,-24581.107447,80.779204,-25771.963688,20383.405135,27649.174946,-24171.042344,-16400.659549,-127.181426,17584.206770,-20119.811013,-6967.709299,0.008000,-0.003000,1.008000,192.000000,0.000000,0.000000,0.000000,0.000000,0.000000,0.000000,0.000000,0.000000,0.000000,1771495042.924524,0.000000
120.000000,17676.541826,16842.687648,-16278.149638,-22716.189649,-19895.421850,-24519.684854,146.113354,-25708.909417,20389.082478,27652.818281,-24160.827596,-16392.702328,-118.933632,17590.509962,-20112.278475,-6962.791915,0.008000,-0.003000,1.008000,192.000000,0.000000,0.000000,0.000000,0.000000,0.000000,0.000000,0.000000,0.000000,0.000000,1771495042.924547,0.000000
122.000000,17637.135701,16803.594447,-16317.600467,-22761.049600,-19935.945563,-24561.817892,104.695571,-25749.276668,20415.457537,27684.602461,-24131.904439,-16364.159151,-90.524565,17627.010361,-20084.986995,-6938.473217,0.008000,-0.003000,1.008000,192.000000,0.000000,0.000000,0.000000,0.000000,0.000000,0.000000,0.000000,0.000000,0.000000,1771495042.924570,0.000000
124.000000,17646.165806,16814.032711,-16311.230220,-22752.600640,-19935.029141,-24551.826662,111.557557,-25740.514784,20363.959117,27630.153612,-24185.548626,-16418.429186,-145.532208,17561.653860,-20143.615621,-6989.189325,0.006000,-0.004500,1.009000,192.000000,0.000000,16.000000,127.500000,104.000000,15.500000,72.000000,0.000000,0.000000,0.000000,1771495042.924593,0.000000
126.000000,17681.325100,16843.872290,-16277.479086,-22720.436480,-19902.775574,-24525.719825,144.235807,-25709.781135,20421.470156,27696.091258,-24121.913209,-16353.430313,-74.878344,17629.714922,-20080.471942,-6937.266223,0.006000,-0.004500,1.009000,192.000000,0.000000,0.000000,0.000000,0.000000,0.000000,0.000000,0.000000,0.000000,0.000000,1771495042.924616,0.000000
128.000000,17622.383549,16787.568246,-16337.113540,-22776.986394,-19961.828883,-24585.309575,82.746158,-25765.146406,20388.277815,27655.433435,-24159.732361,-16393.484639,-117.860749,17592.029881,-20117.262914,-6967.284616,0.006000,-0.004500,1.009000,192.000000,0.000000,0.000000,0.000000,0.000000,0.000000,0.000000,0.000000,0.000000,0.000000,1771495042.924639,0.000000
130.000000,17693.931483,16856.992764,-16267.845484,-22712.456907,-19890.012728,-24519.193115,151.880104,-25698.806429,20393.709289,27661.334295,-24152.825672,-16386.756764,-112.921013,17595.002663,-20113.060786,-6968.804535,0.006000,-0.004500,1.009000,192.000000,0.000000,0.000000,0.000000,0.000000,0.000000,0.000000,0.000000,0.000000,0.000000,1771495042.924661,0.000000
132.000000,17653.787750,16813.652732,-16316.438176,-22758.009763,-19936.526708,-24562.287278,106.081379,-25743.040531,20421.917191,27688.402258,-24122.159078,-16356.090171,-84.735463,17625.892773,-20081.120143,-6942.071848,0.006000,-0.004500,1.009000,192.000000,0.000000,0.000000,0.000000,0.000000,0.000000,0.000000,0.000000,0.000000,0.000000,1771495042.924684,0.000000
134.000000,17657.140512,16821.118214,-16309.866763,-22752.913565,-19930.961124,-24553.771264,113.725676,-25737.854926,20370.217606,27635.763900,-24182.307623,-16414.137651,-140.726583,17571.801552,-20141.223984,-6992.027997,0.009000,-0.004250,1.006500,192.000000,0.000000,48.000000,127.500000,112.000000,15.500000,48.000000,0.000000,0.000000,0.000000,1771495042.924707,0.000000
136.000000,17683.470867,16848.409694,-16281.189475,-22724.459794,-19904.675472,-24529.273752,144.638138,-25710.831667,20425.828746,27694.392525,-24118.359282,-16354.167921,-77.024111,17626.406863,-20076.046297,-6938.652031,0.009000,-0.004250,1.006500,192.000000,0.000000,0.000000,0.000000,0.000000,0.000000,0.000000,0.000000,0.000000,0.000000,1771495042.924730,0.000000
138.000000,17621.444776,16789.825772,-16342.008572,-22779.065106,-19964.533444,-24585.689555,83.014379,-25767.985078,20382.913397,27655.008752,-24162.056942,-16396.166849,-111.646964,17588.677119,-20119.162812,-6968.402203,0.009000,-0.004250,1.006500,192.000000,0.000000,0.000000,0.000000,0.000000,0.000000,0.000000,0.000000,0.000000,0.000000,1771495042.924753,0.000000
140.000000,17687.628292,16850.600165,-16270.035955,-22716.323759,-19894.997167,-24515.415670,149.332005,-25706.763650,20385.617958,27653.265316,-24159.598250,-16394.959854,-116.832568,17583.692680,-20114.446594,-6967.575189,0.009000,-0.004250,1.006500,192.000000,0.000000,0.000000,0.000000,0.000000,0.000000,0.000000,0.000000,0.000000,0.000000,1771495042.924775,0.000000
142.000000,17649.295050,16813.004531,-16311.677255,-22757.473321,-19938.605420,-24564.522453,107.333077,-25743.196993,20419.056167,27688.089334,-24126.160041,-16361.186369,-76.062986,17621.109500,-20078.460285,-6936.930947,0.009000,-0.004250,1.006500,192.000000,0.000000,0.000000,0.000000,0.000000,0.000000,0.000000,0.000000,0.000000,0.000000,1771495042.924798,0.000000
144.000000,17647.529262,16810.501136,-16311.699606,-22759.797902,-19937.353723,-24563.516624,109.568251,-25744.448691,20366.686030,27635.272161,-24180.698297,-16417.579820,-143.766420,17572.270938,-20138.720589,-6988.272904,0.005500,-0.007125,1.005250,192.000000,0.000000,8.000000,127.500000,88.000000,15.500000,48.000000,0.000000,0.000000,0.000000,1771495042.924821,0.000000
146.000000,17677.368841,16841.301840,-16281.234179,-22730.338303,-19904.787231,-24535.264019,143.408792,-25717.425432,20412.954141,27693.565511,-24126.696483,-16363.421543,-78.119347,17618.807270,-20080.494294,-6940.239005,0.005500,-0.007125,1.005250,192.000000,0.000000,0.000000,0.000000,0.000000,0.000000,0.000000,0.000000,0.000000,0.000000,1771495042.924844,0.000000
148.000000,17617.935552,16780.259225,-16342.276793,-22785.971795,-19966.098066,-24591.501008,81.829736,-25777.015183,20378.800676,27654.561717,-24167.935451,-16403.967607,-121.906414,17576.763639,-20121.286228,-6971.084412,0.005500,-0.007125,1.005250,192.000000,0.000000,0.000000,0.000000,0.000000,0.000000,0.000000,0.000000,0.000000,0.000000,1771495042.924867,0.000000
150.000000,17685.616635,16846.912127,-16273.209902,-22720.749405,-19899.065184,-24522.679987,148.348528,-25713.111545,20378.375993,27650.448996,-24169.276556,-16404.615808,-121.660545,17576.763639,-20117.195859,-6968.603369,0.005500,-0.007125,1.005250,192.000000,0.000000,0.000000,0.000000,0.000000,0.000000,0.000000,0.000000,0.000000,0.000000,1771495042.924889,0.000000
152.000000,17647.126931,16811.059929,-16315.968790,-22759.082646,-19940.952354,-24563.762494,105.522586,-25749.880165,20416.128089,27689.832770,-24129.535154,-16364.270909,-80.131004,17619.455471,-20081.209550,-6934.941642,0.005500,-0.007125,1.005250,192.000000,0.000000,0.000000,0.000000,0.000000,0.000000,0.000000,0.000000,0.000000,0.000000,1771495042.924913,0.000000
154.000000,17652.647811,16815.843203,-16308.749176,-22752.734751,-19935.163252,-24553.681857,111.669315,-25743.241697,20358.080609,27633.551077,-24185.503922,-16419.077387,-138.379650,17558.524616,-20143.079179,-6984.875439,0.003750,-0.008563,1.001625,192.000000,0.000000,8.000000,127.500000,88.000000,15.500000,24.000000,0.000000,0.000000,0.000000,1771495042.924936,0.000000
156.000000,17685.907207,16848.655563,-16281.211827,-22721.844640,-19901.836801,-24518.813135,146.135705,-25713.849153,20417.603304,27698.549950,-24122.472003,-16356.537206,-77.448795,17626.339808,-20076.403925,-6927.789083,0.003750,-0.008563,1.001625,192.000000,0.000000,0.000000,0.000000,0.000000,0.000000,0.000000,0.000000,0.000000,0.000000,1771495042.924959,0.000000
158.000000,17626.831547,16787.791763,-16336.375932,-22781.255577,-19960.018392,-24582.850883,85.987161,-25770.175549,20381.214664,27655.120510,-24165.968498,-16399.720776,-109.009458,17592.186343,-20116.480603,-6958.679194,0.003750,-0.008563,1.001625,192.000000,0.000000,0.000000,0.000000,0.000000,0.000000,0.000000,0.000000,0.000000,0.000000,1771495042.924982,0.000000
160.000000,17685.191951,16851.851863,-16275.333318,-22721.978750,-19898.416984,-24525.853935,150.114316,-25709.691728,20383.606301,27650.404292,-24162.951012,-16399.586666,-111.222280,17578.820000,-20112.233771,-6961.517866,0.003750,-0.008563,1.001625,192.000000,0.000000,0.000000,0.000000,0.000000,0.000000,0.000000,0.000000,0.000000,0.000000,1771495042.925005,0.000000
162.000000,17648.266870,16814.837374,-16310.626723,-22760.982545,-19941.242926,-24568.813988,109.322382,-25745.007485,20414.094080,27684.200130,-24129.356340,-16365.343793,-87.820004,17617.108538,-20080.091963,-6934.405200,0.003750,-0.008563,1.001625,192.000000,0.000000,0.000000,0.000000,0.000000,0.000000,0.000000,0.000000,0.000000,0.000000,1771495042.925027,0.000000
164.000000,17650.569099,16816.245534,-16310.470260,-22756.445140,-19941.734665,-24562.846072,109.456493,-25743.375807,20364.786132,27626.331464,-24183.536969,-16423.681846,-142.201798,17565.453656,-20140.396969,-6983.623741,0.003750,-0.008563,1.001625,192.000000,0.000000,0.000000,0.000000,0.000000,0.000000,0.000000,0.000000,0.000000,0.000000,1771495042.925050,0.000000
166.000000,17685.415469,16852.254194,-16275.109801,-22721.710530,-19906.731833,-24529.921952,146.046298,-25709.892894,20422.163060,27691.151523,-24120.996788,-16358.034773,-73.961922,17625.959829,-20076.582739,-6929.599575,0.006000,-0.008000,1.006000,192.000000,0.000000,24.000000,127.500000,96.000000,15.500000,56.000000,0.000000,0.000000,0.000000,1771495042.925073,0.000000
168.000000,17628.262058,16795.972502,-16337.828796,-22780.808542,-19970.657822,-24592.082154,85.406016,-25765.749903,20381.795809,27649.957258,-24164.426227,-16399.720776,-122.554615,17577.613005,-20121.599152,-6966.904636,0.006000,-0.008000,1.006000,192.000000,0.000000,0.000000,0.000000,0.000000,0.000000,0.000000,0.000000,0.000000,0.000000,1771495042.925095,0.000000
170.000000,17696.166658,16867.967471,-16273.567530,-22718.827154,-19908.631731,-24523.909333,150.673109,-25701.220417,20389.954196,27658.383865,-24155.396122,-16388.947235,-120.028868,17591.806363,-20115.854754,-6963.484819,0.006000,-0.008000,1.006000,192.000000,0.000000,0.000000,0.000000,0.000000,0.000000,0.000000,0.000000,0.000000,0.000000,1771495042.925118,0.000000
172.000000,17660.470922,16832.539956,-16315.924086,-22756.601603,-19950.138921,-24568.948098,111.646964,-25737.765519,20414.205839,27692.917310,-24123.924866,-16357.274813,-92.871498,17636.554555,-20088.272701,-6938.227348,0.006000,-0.008000,1.006000,192.000000,0.000000,0.000000,0.000000,0.000000,0.000000,0.000000,0.000000,0.000000,0.000000,1771495042.925141,0.000000
174.000000,17662.236710,16832.718770,-16315.477051,-22754.567594,-19946.227365,-24561.415560,110.708190,-25737.944333,20367.021306,27639.563696,-24180.921815,-16413.422395,-139.631348,17577.031860,-20146.409589,-6986.305950,0.006000,-0.008000,1.006000,192.000000,0.000000,0.000000,0.000000,0.000000,0.000000,0.000000,0.000000,0.000000,0.000000,1771495042.925164,0.000000
176.000000,17686.577760,16858.378572,-16277.076754,-22724.862125,-19907.357682,-24528.759662,144.884008,-25711.479868,20420.620790,27701.098049,-24118.649854,-16353.296203,-74.051329,17640.711980,-20077.655623,-6929.443113,0.002000,-0.016000,1.004000,192.000000,0.000000,8.000000,127.500000,64.000000,15.500000,48.000000,0.000000,0.000000,0.000000,1771495042.925186,0.000000
178.000000,17628.329114,16796.397185,-16335.124235,-22782.082591,-19960.890110,-24585.868369,84.154318,-25769.102665,20382.332251,27656.327505,-24164.783855,-16397.642064,-121.951118,17589.481782,-20116.234734,-6960.534389,0.002000,-0.016000,1.004000,192.000000,0.000000,0.000000,0.000000,0.000000,0.000000,0.000000,0.000000,0.000000,0.000000,1771495042.925210,0.000000
180.000000,17688.745879,16858.132703,-16269.745382,-22722.828117,-19894.192504,-24526.055101,147.163885,-25710.339929,20382.242844,27654.405255,-24161.766370,-16399.251389,-116.184368,17593.125116,-20111.406757,-6964.133020,0.002000,-0.016000,1.004000,192.000000,0.000000,0.000000,0.000000,0.000000,0.000000,0.000000,0.000000,0.000000,0.000000,1771495042.925232,0.000000
182.000000,17647.305745,16816.245534,-16311.721958,-22760.803731,-19940.415912,-24568.098732,107.847167,-25747.443825,20414.965798,27692.649089,-24126.540020,-16364.315613,-84.377835,17625.155166,-20075.308690,-6933.980517,0.002000,-0.016000,1.004000,192.000000,0.000000,0.000000,0.000000,0.000000,0.000000,0.000000,0.000000,0.000000,0.000000,1771495042.925256,0.000000
184.000000,17647.171634,16818.033674,-16314.717092,-22758.434446,-19944.707447,-24561.236746,108.741237,-25749.231964,20358.237071,27629.863039,-24189.147257,-16424.866489,-149.801391,17560.804494,-20140.911059,-6985.724805,0.002000,-0.016000,1.004000,192.000000,0.000000,0.000000,0.000000,0.000000,0.000000,0.000000,0.000000,0.000000,0.000000,1771495042.925278,0.000000
186.000000,17677.726469,16850.130779,-16282.150600,-22725.107995,-19911.760975,-24534.414653,143.185275,-25720.509973,20408.327330,27691.307985,-24134.787814,-16365.991994,-87.618838,17625.557497,-20078.013251,-6932.393543,0.004000,-0.012000,0.996000,192.000000,0.000000,16.000000,127.500000,80.000000,15.500000,16.000000,0.000000,0.000000,0.000000,1771495042.925301,0.000000
188.000000,17620.684817,16790.652787,-16340.689819,-22785.144780,-19970.702525,-24591.925692,81.829736,-25778.199825,20370.821103,27652.885336,-24173.232814,-16404.839326,-127.963737,17588.252436,-20116.055920,-6960.914369,0.004000,-0.012000,0.996000,192.000000,0.000000,0.000000,0.000000,0.000000,0.000000,0.000000,0.000000,0.000000,0.000000,1771495042.925324,0.000000
190.000000,17681.280396,16850.756627,-16278.596673,-22725.175050,-19907.558847,-24527.887944,144.302862,-25721.046415,20369.211777,27644.659894,-24175.713858,-16408.594419,-131.629423,17584.765564,-20116.100623,-6964.378889,0.004000,-0.012000,0.996000,192.000000,0.000000,0.000000,0.000000,0.000000,0.000000,0.000000,0.000000,0.000000,0.000000,1771495042.925346,0.000000
192.000000,17652.714867,16822.660485,-16313.957133,-22756.825120,-19943.522804,-24558.353371,109.300030,-25751.556546,20408.506144,27684.222482,-24136.598305,-16369.769438,-81.405053,17626.518622,-20080.851922,-6927.833787,0.004000,-0.012000,0.996000,192.000000,0.000000,0.000000,0.000000,0.000000,0.000000,0.000000,0.000000,0.000000,0.000000,1771495042.925369,0.000000
194.000000,17656.514663,16824.716845,-16314.314760,-22755.215794,-19940.348856,-24556.878156,108.115388,-25748.315543,20358.237071,27629.952446,-24191.762411,-16424.531212,-149.108487,17567.308851,-20140.955763,-6976.471183,0.004000,-0.012000,0.996000,192.000000,0.000000,0.000000,0.000000,0.000000,0.000000,0.000000,0.000000,0.000000,0.000000,1771495042.925392,0.000000
196.000000,17690.645777,16859.317346,-16277.210865,-22725.152698,-19907.178868,-24523.663464,143.297034,-25716.821935,20417.670359,27691.442095,-24126.405910,-16360.940499,-81.539164,17639.974372,-20074.481675,-6925.688019,0.004000,-0.012000,0.996000,192.000000,0.000000,0.000000,127.500000,64.000000,15.500000,24.000000,0.000000,0.000000,0.000000,1771495042.925414,0.000000
198.000000,17626.295105,16791.703319,-16341.740351,-22784.273062,-19967.394467,-24577.419409,82.477937,-25777.998659,20373.078629,27648.437339,-24171.534082,-16403.297055,-123.471036,17595.963788,-20116.927638,-6960.355575,0.004000,-0.012000,0.996000,192.000000,0.000000,0.000000,0.000000,0.000000,0.000000,0.000000,0.000000,0.000000,0.000000,1771495042.925438,0.000000
200.000000,17681.280396,16846.532148,-16281.122420,-22730.047730,-19906.798888,-24532.537107,144.571083,-25723.438051,20367.535397,27642.961161,-24176.786742,-16410.941352,-124.879196,17596.254360,-20116.972341,-6968.648072,0.004000,-0.012000,0.996000,192.000000,0.000000,0.000000,0.000000,0.000000,0.000000,0.000000,0.000000,0.000000,0.000000,1771495042.925460,0.000000
202.000000,17644.847053,16810.791708,-16318.807461,-22767.732771,-19946.674400,-24568.255194,105.030847,-25760.005505,20400.258350,27674.410066,-24141.940372,-16378.531322,-89.071702,17636.845128,-20080.762515,-6940.127246,0.004000,-0.012000,0.996000,192.000000,0.000000,0.000000,0.000000,0.000000,0.000000,0.000000,0.000000,0.000000,0.000000,1771495042.925483,0.000000
204.000000,17639.907317,16806.880153,-16319.120386,-22767.241033,-19938.694827,-24564.835377,100.940478,-25763.917060,20347.150606,27611.132277,-24203.027690,-16442.636125,-143.542903,17561.340935,-20138.877051,-6985.814212,0.004000,-0.012000,0.996000,192.000000,0.000000,0.000000,0.000000,0.000000,0.000000,0.000000,0.000000,0.000000,0.000000,1771495042.925505,0.000000
206.000000,17680.520437,16847.560328,-16281.770621,-22727.879611,-19905.278969,-24526.479784,139.787810,-25725.852040,20407.455612,27677.695772,-24139.101701,-16376.989052,-78.924010,17629.893736,-20072.760591,-6929.376057,0.004000,-0.014000,1.004000,192.000000,0.000000,16.000000,127.500000,72.000000,15.500000,48.000000,0.000000,0.000000,0.000000,1771495042.925528,0.000000
208.000000,17616.214468,16783.410821,-16345.763665,-22786.709402,-19972.647127,-24586.404811,75.660655,-25783.966575,20367.781266,27642.871755,-24177.278480,-16413.131823,-121.794656,17590.577017,-20116.301789,-6956.980462,0.004000,-0.014000,1.004000,192.000000,0.000000,0.000000,0.000000,0.000000,0.000000,0.000000,0.000000,0.000000,0.000000,1771495042.925551,0.000000
210.000000,17678.553483,16845.794540,-16281.100068,-22723.744538,-19913.415004,-24529.273752,143.811124,-25720.241752,20364.741428,27643.072920,-24174.640974,-16412.349512,-117.369010,17595.203828,-20119.654551,-6958.925063,0.004000,-0.014000,1.004000,192.000000,0.000000,0.000000,0.000000,0.000000,0.000000,0.000000,0.000000,0.000000,0.000000,1771495043.405034,0.000000
212.000000,17641.091960,16808.444775,-16320.752063,-22760.401399,-19951.927060,-24567.227014,105.969620,-25756.585688,20384.209798,27675.237080,-24144.175547,-16380.587683,-98.705304,17621.668294,-20088.473867,-6934.516959,0.004000,-0.014000,1.004000,192.000000,0.000000,0.000000,0.000000,0.000000,0.000000,0.000000,0.000000,0.000000,0.000000,1771495043.405137,0.000000
214.000000,17641.114311,16807.304836,-16320.662656,-22763.932975,-19949.043685,-24566.578813,102.549804,-25757.792682,20334.879498,27621.011748,-24199.674928,-16433.516614,-149.309653,17568.739363,-20141.916888,-6982.483802,0.004000,-0.014000,1.004000,192.000000,0.000000,0.000000,0.000000,0.000000,0.000000,0.000000,0.000000,0.000000,0.000000,1771495043.405222,0.000000
216.000000,17676.161847,16844.341677,-16286.732708,-22728.237239,-19908.967007,-24523.685816,138.111429,-25724.198010,20396.235036,27684.691868,-24137.268858,-16372.921034,-81.561516,17632.955925,-20077.722678,-6930.627755,0.002000,-0.010000,0.996000,192.000000,0.000000,8.000000,127.500000,88.000000,15.500000,16.000000,0.000000,0.000000,0.000000,1771495043.405307,0.000000
218.000000,17620.237782,16790.630435,-16340.019267,-22786.016498,-19970.121380,-24585.756610,77.918181,-25778.289232,20362.238033,27646.224516,-24176.406762,-16410.427262,-123.180464,17591.873418,-20118.492260,-6959.528561,0.002000,-0.010000,0.996000,192.000000,0.000000,0.000000,0.000000,0.000000,0.000000,0.000000,0.000000,0.000000,0.000000,1771495043.405400,0.000000
220.000000,17689.282321,16860.613747,-16275.378022,-22725.979713,-19907.134164,-24523.551705,145.286339,-25713.379766,20370.798751,27647.006827,-24168.829521,-16405.174602,-121.392324,17591.225218,-20119.475737,-6961.316700,0.002000,-0.010000,0.996000,192.000000,0.000000,0.000000,0.000000,0.000000,0.000000,0.000000,0.000000,0.000000,0.000000,1771495043.405483,0.000000
222.000000,17648.825663,16814.680912,-16313.599505,-22764.357658,-19944.662743,-24563.896604,106.327248,-25753.255278,20405.779231,27684.423647,-24133.849041,-16370.082363,-81.583867,17627.926782,-20082.863579,-6930.560700,0.002000,-0.010000,0.996000,192.000000,0.000000,0.000000,0.000000,0.000000,0.000000,0.000000,0.000000,0.000000,0.000000,1771495043.405535,0.000000
224.000000,17637.426274,16800.576961,-16315.901734,-22770.549091,-19946.093255,-24570.780941,101.253402,-25761.056037,20341.562669,27609.478248,-24199.987853,-16438.545756,-148.460287,17554.076618,-20142.967420,-6982.282636,0.002000,-0.010000,0.996000,192.000000,0.000000,0.000000,0.000000,0.000000,0.000000,0.000000,0.000000,0.000000,0.000000,1771495043.405559,0.000000
226.000000,17679.268739,16840.653639,-16281.256530,-22732.215849,-19911.760975,-24537.901525,141.486542,-25722.320464,20399.274874,27670.990249,-24137.358265,-16376.743183,-83.282600,17611.989988,-20080.248425,-6933.354668,0.002000,-0.010000,0.996000,192.000000,0.000000,0.000000,127.500000,80.000000,15.500000,8.000000,0.000000,0.000000,0.000000,1771495043.405584,0.000000
228.000000,17617.063834,16779.834542,-16345.718961,-22791.403269,-19978.369174,-24598.005366,79.058120,-25779.786799,20365.769609,27635.987417,-24173.612794,-16410.136689,-125.616804,17576.853046,-20121.330931,-6963.171895,0.002000,-0.010000,0.996000,192.000000,0.000000,0.000000,0.000000,0.000000,0.000000,0.000000,0.000000,0.000000,0.000000,1771495043.405607,0.000000
230.000000,17678.799353,16849.080247,-16280.273054,-22728.103128,-19912.319769,-24534.347598,143.542903,-25719.124164,20359.868748,27630.578295,-24177.144370,-16415.881087,-136.144475,17582.955072,-20125.600115,-6969.609197,0.002000,-0.010000,0.996000,192.000000,0.000000,0.000000,0.000000,0.000000,0.000000,0.000000,0.000000,0.000000,0.000000,1771495043.405631,0.000000
232.000000,17639.504986,16809.987046,-16317.756929,-22764.827045,-19947.657877,-24565.394171,105.500234,-25756.518633,20398.313749,27669.291516,-24139.861660,-16374.530360,-91.686856,17625.155166,-20085.098754,-6932.505302,0.002000,-0.010000,0.996000,192.000000,0.000000,0.000000,0.000000,0.000000,0.000000,0.000000,0.000000,0.000000,0.000000,1771495043.405656,0.000000
234.000000,17639.907317,16806.611932,-16316.505231,-22765.654059,-19950.585955,-24565.014191,104.583812,-25755.110473,20344.937783,27608.092440,-24198.803210,-16436.221175,-147.208589,17559.396334,-20147.460121,-6984.584866,0.002000,-0.010000,0.996000,192.000000,0.000000,0.000000,0.000000,0.000000,0.000000,0.000000,0.000000,0.000000,0.000000,1771495043.405680,0.000000
236.000000,17680.475733,16845.548671,-16280.965958,-22729.958323,-19910.866906,-24522.210601,143.788772,-25716.933694,20402.068842,27675.527653,-24132.843212,-16370.596453,-89.652847,17626.742140,-20084.271739,-6932.438246,0.002000,-0.009000,0.998000,192.000000,0.000000,8.000000,127.500000,96.000000,15.500000,32.000000,0.000000,0.000000,0.000000,1771495043.405703,0.000000
238.000000,17623.277619,16787.031804,-16342.209738,-22786.888216,-19970.009621,-24584.147285,81.963847,-25773.260090,20367.401286,27639.541345,-24168.449541,-16406.940390,-122.018173,17588.453601,-20123.700216,-6962.099011,0.002000,-0.009000,0.998000,192.000000,0.000000,0.000000,0.000000,0.000000,0.000000,0.000000,0.000000,0.000000,0.000000,1771495043.405726,0.000000
240.000000,17678.978166,16848.968488,-16277.680251,-22728.348998,-19906.553019,-24526.748005,143.386441,-25715.860810,20365.121408,27637.194411,-24169.120093,-16410.002578,-127.874330,17584.162066,-20125.063673,-6968.156334,0.002000,-0.009000,0.998000,192.000000,0.000000,0.000000,0.000000,0.000000,0.000000,0.000000,0.000000,0.000000,0.000000,1771495043.405750,0.000000
242.000000,17647.953945,16817.363121,-16312.168993,-22763.977678,-19941.533499,-24566.422351,105.410827,-25749.321371,20394.893932,27668.755075,-24135.078387,-16375.357375,-86.724768,17624.685779,-20085.210512,-6937.065057,0.002000,-0.009000,0.998000,192.000000,0.000000,0.000000,0.000000,0.000000,0.000000,0.000000,0.000000,0.000000,0.000000,1771495043.405774,0.000000
244.000000,17642.053085,16808.467127,-16318.159261,-22768.895062,-19949.088389,-24573.776075,98.191213,-25754.663438,20342.076760,27607.265426,-24193.483495,-16432.957820,-156.506915,17568.493494,-20145.202594,-6988.518773,0.002000,-0.009000,0.998000,192.000000,0.000000,0.000000,0.000000,0.000000,0.000000,0.000000,0.000000,0.000000,0.000000,1771495043.405797,0.000000
246.000000,17677.167675,16843.961697,-16283.111725,-22733.109919,-19911.246885,-24539.220278,138.312595,-25720.241752,20394.223379,27664.061208,-24133.558468,-16374.575064,-89.786957,17623.523488,-20081.298957,-6936.774485,0.003000,-0.011500,1.001000,192.000000,0.000000,16.000000,127.500000,72.000000,15.500000,48.000000,0.000000,0.000000,0.000000,1771495043.405821,0.000000
248.000000,17615.052177,16782.494400,-16342.433255,-22791.157400,-19972.892996,-24597.267759,75.683007,-25778.892729,20359.555824,27631.181792,-24171.399971,-16411.991884,-123.247519,17588.855933,-20118.671074,-6964.445944,0.003000,-0.011500,1.001000,192.000000,0.000000,0.000000,0.000000,0.000000,0.000000,0.000000,0.000000,0.000000,0.000000,1771495043.405845,0.000000
250.000000,17672.607919,16841.167729,-16283.804629,-22730.338303,-19917.661836,-24537.275676,136.680917,-25723.236885,20350.726885,27620.497658,-24176.920852,-16417.021026,-130.668298,17578.082392,-20125.801280,-6969.855067,0.003000,-0.011500,1.001000,192.000000,0.000000,0.000000,0.000000,0.000000,0.000000,0.000000,0.000000,0.000000,0.000000,1771495043.405871,0.000000
252.000000,17637.426274,16803.661502,-16322.383740,-22766.503425,-19951.256508,-24572.457322,97.654772,-25761.056037,20378.532455,27656.551022,-24144.600230,-16382.018194,-98.571193,17617.063834,-20092.251312,-6938.741438,0.003000,-0.011500,1.001000,192.000000,0.000000,0.000000,0.000000,0.000000,0.000000,0.000000,0.000000,0.000000,0.000000,1771495043.405895,0.000000
254.000000,17637.448625,16803.996778,-16321.199098,-22768.336268,-19945.713275,-24568.545767,97.051274,-25761.592479,20329.470376,27597.542417,-24203.832353,-16441.675000,-159.770269,17561.787970,-20149.047094,-6984.942494,0.003000,-0.011500,1.001000,192.000000,0.000000,0.000000,0.000000,0.000000,0.000000,0.000000,0.000000,0.000000,0.000000,1771495043.405919,0.000000
0.000000,17678.084097,16844.118159,-16282.016490,-22727.723149,-19906.038929,-24532.738272,137.552635,-25722.387519,20390.334176,27665.849348,-24138.341741,-16375.782058,-88.155280,17627.882079,-20079.890797,-6931.901804,0.003500,-0.013750,1.001500,192.000000,0.000000,16.000000,127.500000,64.000000,15.500000,40.000000,0.000000,0.000000,0.000000,1771495043.405943,0.000000
2.000000,17617.332055,16784.059022,-16344.042581,-22789.346908,-19969.003793,-24590.003442,73.224315,-25782.424305,20353.990239,27631.159440,-24174.775085,-16414.070596,-124.119237,17587.693642,-20120.258048,-6962.903674,0.003500,-0.013750,1.001500,192.000000,0.000000,0.000000,0.000000,0.000000,0.000000,0.000000,0.000000,0.000000,0.000000,1771495043.405967,0.000000
4.000000,17684.856675,16852.343601,-16278.820190,-22728.080777,-19904.116679,-24526.368025,138.290243,-25720.554676,20354.973716,27634.892182,-24174.998602,-16414.361169,-126.309708,17590.107631,-20117.933466,-6962.031956,0.003500,-0.013750,1.001500,192.000000,0.000000,0.000000,0.000000,0.000000,0.000000,0.000000,0.000000,0.000000,0.000000,1771495043.405991,0.000000
6.000000,17645.964640,16816.044368,-16320.819118,-22768.336268,-19944.774502,-24566.020020,96.760702,-25758.127959,20386.892007,27669.425627,-24141.895669,-16380.185351,-87.775300,17634.922878,-20084.182332,-6934.047572,0.003500,-0.013750,1.001500,192.000000,0.000000,0.000000,0.000000,0.000000,0.000000,0.000000,0.000000,0.000000,0.000000,1771495043.406015,0.000000
8.000000,17643.215375,16812.021054,-16322.249630,-22771.510216,-19944.796854,-24571.853825,93.854975,-25760.363133,20332.912544,27610.707594,-24199.943149,-16438.702218,-146.381574,17560.513921,-20144.397932,-6984.696625,0.003500,-0.013750,1.001500,192.000000,0.000000,0.000000,0.000000,0.000000,0.000000,0.000000,0.000000,0.000000,0.000000,1771495043.406039,0.000000
10.000000,17678.262911,16849.169654,-16283.804629,-22734.428672,-19910.777499,-24539.913182,134.065763,-25723.661569,20385.975586,27671.213766,-24139.302866,-16377.905473,-89.898716,17624.931648,-20081.053088,-6936.148636,0.005750,-0.015875,1.002750,192.000000,0.000000,32.000000,127.500000,56.000000,15.500000,48.000000,0.000000,0.000000,0.000000,1771495043.406063,0.000000
12.000000,17621.400073,16789.177571,-16342.567365,-22792.252635,-19969.450828,-24590.606939,74.453661,-25779.540930,20360.561652,27637.641446,-24173.769256,-16412.997712,-120.095923,17587.201904,-20120.012178,-6964.065965,0.005750,-0.015875,1.002750,192.000000,0.000000,0.000000,0.000000,0.000000,0.000000,0.000000,0.000000,0.000000,0.000000,1771495043.406092,0.000000
14.000000,17685.147248,16854.981107,-16282.396469,-22728.013721,-19907.469440,-24531.710092,139.251368,-25718.520667,20356.359524,27636.367397,-24175.557396,-16413.757672,-129.729525,17590.040575,-20122.873202,-6967.843410,0.005750,-0.015875,1.002750,192.000000,0.000000,0.000000,0.000000,0.000000,0.000000,0.000000,0.000000,0.000000,0.000000,1771495043.406120,0.000000
16.000000,17653.832454,16822.369912,-16319.612124,-22761.943670,-19946.182662,-24563.963659,102.393341,-25751.333028,20394.983339,27679.752133,-24136.441843,-16373.144552,-85.338960,17630.541936,-20087.177466,-6935.120456,0.005750,-0.015875,1.002750,192.000000,0.000000,0.000000,0.000000,0.000000,0.000000,0.000000,0.000000,0.000000,0.000000,1771495043.406146,0.000000
18.000000,17646.523434,16815.642037,-16319.768586,-22765.452893,-19955.391581,-24570.669183,96.715998,-25755.982191,20337.762873,27618.798926,-24195.182228,-16433.784835,-149.600226,17569.767543,-20148.622411,-6983.847259,0.005750,-0.015875,1.002750,192.000000,0.000000,0.000000,0.000000,0.000000,0.000000,0.000000,0.000000,0.000000,0.000000,1771495043.406172,0.000000
20.000000,17688.857638,16859.116180,-16281.211827,-22729.779509,-19912.811507,-24535.308723,138.446705,-25715.838458,20384.433315,27677.852235,-24134.117262,-16372.004613,-86.501251,17632.553593,-20085.277568,-6935.053400,0.008875,-0.013938,1.005375,192.000000,0.000000,48.000000,127.500000,80.000000,15.500000,64.000000,0.000000,0.000000,0.000000,1771495043.406198,0.000000
22.000000,17627.032712,16801.046348,-16342.835586,-22788.005804,-19970.836636,-24592.193913,74.230143,-25774.936470,20356.605393,27643.475252,-24168.069561,-16406.180430,-118.710115,17596.388471,-20120.436862,-6963.328357,0.008875,-0.013938,1.005375,192.000000,0.000000,0.000000,0.000000,0.000000,0.000000,0.000000,0.000000,0.000000,0.000000,1771495043.406228,0.000000
24.000000,17686.957739,16859.272642,-16279.580150,-22728.281942,-19907.357682,-24523.551705,137.127952,-25717.604246,20351.531547,27642.581182,-24174.059829,-16409.935523,-126.533225,17598.310721,-20121.152117,-6964.267130,0.008875,-0.013938,1.005375,192.000000,0.000000,0.000000,0.000000,0.000000,0.000000,0.000000,0.000000,0.000000,0.000000,1771495043.406254,0.000000
26.000000,17655.262966,16824.023941,-16317.265191,-22762.658925,-19947.121435,-24568.791636,102.572155,-25749.656647,20381.237016,27675.795874,-24139.302866,-16375.625596,-86.277734,17634.721712,-20085.836361,-6932.997040,0.008875,-0.013938,1.005375,192.000000,0.000000,0.000000,0.000000,0.000000,0.000000,0.000000,0.000000,0.000000,0.000000,1771495043.406283,0.000000
28.000000,17647.059875,16818.346598,-16321.489670,-22768.537434,-19953.692848,-24573.105523,96.067798,-25755.043418,20330.409149,27615.222647,-24196.746850,-16432.935468,-148.706156,17563.464351,-20149.918813,-6984.741328,0.008875,-0.013938,1.005375,192.000000,0.000000,0.000000,0.000000,0.000000,0.000000,0.000000,0.000000,0.000000,0.000000,1771495043.406308,0.000000
30.000000,17688.455306,16858.691497,-16279.602501,-22730.807690,-19910.129298,-24531.911258,137.709098,-25716.799583,20385.819123,27681.696735,-24134.363131,-16370.931729,-74.967751,17633.045332,-20083.332966,-6935.612194,0.005438,-0.014969,1.004687,192.000000,0.000000,8.000000,127.500000,64.000000,15.500000,48.000000,0.000000,0.000000,0.000000,1771495043.406335,0.000000
32.000000,17627.345637,16794.050252,-16337.180595,-22792.789077,-19969.070848,-24593.624424,75.593600,-25775.204691,20357.186539,27645.285743,-24169.924756,-16407.029796,-115.402057,17601.931703,-20117.955818,-6963.417764,0.005438,-0.014969,1.004687,192.000000,0.000000,0.000000,0.000000,0.000000,0.000000,0.000000,0.000000,0.000000,0.000000,1771495043.406362,0.000000
34.000000,17690.846943,16859.429104,-16277.277920,-22729.757158,-19908.139993,-24530.190173,140.368955,-25714.877333,20355.420751,27639.407234,-24172.048172,-16411.455442,-116.072609,17600.478840,-20121.621504,-6967.485782,0.005438,-0.014969,1.004687,192.000000,0.000000,0.000000,0.000000,0.000000,0.000000,0.000000,0.000000,0.000000,0.000000,1771495043.406388,0.000000
36.000000,17657.140512,16823.174575,-16311.699606,-22762.860091,-19946.495586,-24566.690572,106.930745,-25747.600287,20391.988205,27678.411028,-24133.983151,-16371.468171,-73.984274,17638.812082,-20083.936463,-6932.550005,0.005438,-0.014969,1.004687,192.000000,0.000000,0.000000,0.000000,0.000000,0.000000,0.000000,0.000000,0.000000,0.000000,1771495043.406413,0.000000
38.000000,17652.446646,16816.022017,-16316.304066,-22766.659888,-19950.898880,-24574.379572,101.476920,-25752.092988,20336.041789,27616.854324,-24192.008280,-16432.667247,-151.231903,17570.616909,-20145.336705,-6982.372043,0.005438,-0.014969,1.004687,192.000000,0.000000,0.000000,0.000000,0.000000,0.000000,0.000000,0.000000,0.000000,0.000000,1771495043.406439,0.000000
40.000000,17692.098640,16855.271680,-16277.568493,-22729.667751,-19914.778461,-24534.191136,142.961758,-25714.273836,20389.373051,27674.879453,-24131.971494,-16373.032793,-84.713111,17629.603163,-20084.249387,-6934.986345,0.003719,-0.015484,1.006344,192.000000,0.000000,8.000000,127.500000,64.000000,15.500000,64.000000,0.000000,0.000000,0.000000,1771495043.406465,0.000000
42.000000,17632.978276,16796.821868,-16338.186424,-22785.480056,-19971.529540,-24588.729392,80.421577,-25771.136674,20357.655925,27647.386807,-24164.895614,-16405.666340,-118.598356,17591.068756,-20119.833364,-6958.299215,0.003719,-0.015484,1.006344,192.000000,0.000000,0.000000,0.000000,0.000000,0.000000,0.000000,0.000000,0.000000,0.000000,1771495043.406490,0.000000
44.000000,17689.885818,16858.713848,-16277.948472,-22727.209059,-19911.157478,-24527.284447,140.436010,-25713.335063,20352.827949,27647.140938,-24170.796474,-16410.941352,-124.365106,17589.660596,-20123.901382,-6960.199113,0.003719,-0.015484,1.006344,192.000000,0.000000,0.000000,0.000000,0.000000,0.000000,0.000000,0.000000,0.000000,0.000000,1771495043.406516,0.000000
46.000000,17656.447608,16823.912182,-16316.438176,-22764.223547,-19950.518900,-24563.382514,104.315591,-25747.980267,20387.920187,27685.563586,-24132.798509,-16371.736392,-81.427405,17632.084207,-20086.082230,-6928.549043,0.003719,-0.015484,1.006344,192.000000,0.000000,0.000000,0.000000,0.000000,0.000000,0.000000,0.000000,0.000000,0.000000,1771495043.406542,0.000000
48.000000,17649.607974,16819.732406,-16319.410958,-22769.833835,-19951.703543,-24568.545767,99.197042,-25754.037589,20329.604486,27626.130298,-24194.019937,-16434.701256,-147.320348,17565.632470,-20145.716685,-6979.801593,0.003719,-0.015484,1.006344,192.000000,0.000000,0.000000,0.000000,0.000000,0.000000,0.000000,0.000000,0.000000,0.000000,1771495043.406568,0.000000
50.000000,17686.130725,16854.399962,-16278.350804,-22734.607486,-19911.693920,-24533.878211,138.312595,-25717.693653,20381.281719,27687.821113,-24134.474890,-16377.167866,-87.372969,17628.686741,-20083.265911,-6932.415895,0.003719,-0.015484,1.006344,192.000000,0.000000,0.000000,0.000000,0.000000,0.000000,0.000000,0.000000,0.000000,0.000000,1771495043.406657,0.000000
52.000000,17632.285372,16800.196981,-16339.438121,-22791.269158,-19973.272976,-24591.635119,77.292332,-25771.270784,20354.996068,27655.254621,-24166.460236,-16405.174602,-119.291260,17593.192171,-20117.218210,-6960.065002,0.002000,-0.014000,1.004000,192.000000,0.000000,8.000000,127.500000,72.000000,15.500000,48.000000,0.000000,0.000000,0.000000,1771495043.406684,0.000000
54.000000,17694.534981,16863.810046,-16278.641376,-22728.617219,-19908.497621,-24527.619723,140.905397,-25711.166943,20353.319687,27655.813415,-24167.354306,-16409.600247,-115.714981,17597.148430,-20123.387292,-6967.731651,0.002000,-0.014000,1.004000,192.000000,0.000000,0.000000,0.000000,0.000000,0.000000,0.000000,0.000000,0.000000,0.000000,1771495043.406724,0.000000
56.000000,17665.589472,16835.691552,-16312.996008,-22761.988373,-19939.141862,-24560.499139,108.137740,-25743.778139,20393.374013,27700.762773,-24128.685788,-16367.355450,-80.376873,17638.387399,-20082.237730,-6932.751171,0.002000,-0.014000,1.004000,192.000000,0.000000,0.000000,0.000000,0.000000,0.000000,0.000000,0.000000,0.000000,0.000000,1771495043.406750,0.000000
58.000000,17653.206605,16820.313551,-16318.427481,-22769.833835,-19954.050476,-24571.071514,100.135815,-25753.970534,20339.327495,27638.647275,-24190.935396,-16429.940335,-144.034641,17569.879302,-20144.241469,-6981.343863,0.002000,-0.014000,1.004000,192.000000,0.000000,0.000000,0.000000,0.000000,0.000000,0.000000,0.000000,0.000000,0.000000,1771495043.406780,0.000000
60.000000,17687.561236,16855.539901,-16280.563626,-22730.628876,-19917.259504,-24537.007455,140.033679,-25718.028929,20387.428449,27693.051421,-24133.960799,-16374.440953,-85.137795,17634.922878,-20085.635195,-6932.415895,0.002000,-0.014000,1.004000,192.000000,0.000000,0.000000,0.000000,0.000000,0.000000,0.000000,0.000000,0.000000,0.000000,1771495043.406806,0.000000
62.000000,17624.909297,16793.133830,-16339.996915,-22787.581120,-19979.084430,-24593.602072,76.241800,-25775.964651,20357.164187,27661.602516,-24169.947108,-16407.990921,-120.475903,17587.447773,-20120.928600,-6955.393488,0.006000,-0.012000,1.008000,192.000000,0.000000,24.000000,127.500000,80.000000,15.500000,64.000000,0.000000,0.000000,0.000000,1771495043.406832,0.000000
64.000000,17689.036451,16856.031639,-16278.149638,-22731.299428,-19909.548153,-24530.480746,137.172656,-25717.492487,20352.246803,27654.338199,-24173.702201,-16414.294113,-121.347621,17593.974482,-20124.527231,-6959.327395,0.006000,-0.012000,1.008000,192.000000,0.000000,0.000000,0.000000,0.000000,0.000000,0.000000,0.000000,0.000000,0.000000,1771495043.406857,0.000000
66.000000,17656.827588,16826.303819,-16311.029054,-22763.485940,-19938.337199,-24565.550633,104.650868,-25748.628467,20395.117449,27699.667537,-24134.094910,-16372.921034,-80.689797,17630.787805,-20079.354355,-6926.112703,0.006000,-0.012000,1.008000,192.000000,0.000000,0.000000,0.000000,0.000000,0.000000,0.000000,0.000000,0.000000,0.000000,1771495043.406883,0.000000
68.000000,17646.121102,16813.675083,-16317.265191,-22770.660850,-19944.193357,-24566.690572,98.370027,-25755.512804,20339.394550,27635.898010,-24194.578730,-16434.924774,-139.206664,17562.994964,-20140.039341,-6975.867686,0.006000,-0.012000,1.008000,192.000000,0.000000,0.000000,0.000000,0.000000,0.000000,0.000000,0.000000,0.000000,0.000000,1771495043.406909,0.000000
70.000000,17689.192914,16856.255157,-16278.999004,-22728.348998,-19908.676435,-24528.513793,141.374784,-25714.810278,20392.345833,27697.208845,-24135.190145,-16373.725697,-70.497402,17633.179442,-20076.269815,-6925.442150,0.006000,-0.012000,1.008000,192.000000,0.000000,0.000000,0.000000,0.000000,0.000000,0.000000,0.000000,0.000000,0.000000,1771495043.406935,0.000000
72.000000,17623.165861,16790.295159,-16340.153377,-22790.442144,-19975.910482,-24591.880988,77.672312,-25777.685735,20357.343001,27664.016505,-24171.668192,-16407.476831,-122.062876,17590.353500,-20116.882934,-6956.131095,0.006000,-0.012000,1.004000,192.000000,0.000000,24.000000,127.500000,80.000000,15.500000,48.000000,0.000000,0.000000,0.000000,1771495043.406961,0.000000
74.000000,17677.547655,16844.006401,-16277.635548,-22736.507384,-19914.912571,-24538.035636,138.759630,-25724.242714,20350.078684,27650.583106,-24181.435905,-16420.127919,-127.896682,17576.271901,-20123.230830,-6966.614064,0.006000,-0.012000,1.004000,192.000000,0.000000,0.000000,0.000000,0.000000,0.000000,0.000000,0.000000,0.000000,0.000000,1771495043.884339,0.000000
76.000000,17646.612840,16810.612894,-16307.497478,-22772.024306,-19948.954278,-24571.697363,104.606164,-25755.758674,20383.271025,27682.009659,-24142.275648,-16384.186314,-90.502213,17612.638189,-20079.264948,-6932.192377,0.006000,-0.012000,1.004000,192.000000,0.000000,0.000000,0.000000,0.000000,0.000000,0.000000,0.000000,0.000000,0.000000,1771495043.884409,0.000000
78.000000,17639.572041,16805.919028,-16317.734577,-22775.310013,-19956.844444,-24578.112314,97.140681,-25759.916098,20333.717207,27626.644388,-24199.227893,-16440.535061,-140.771287,17556.110627,-20139.569955,-6980.494497,0.006000,-0.012000,1.004000,192.000000,0.000000,0.000000,0.000000,0.000000,0.000000,0.000000,0.000000,0.000000,0.000000,1771495043.884452,0.000000
80.000000,17678.620539,16849.929613,-16280.429516,-22734.026341,-19917.348911,-24539.354389,138.357298,-25721.158173,20379.985318,27684.803627,-24145.315486,-16380.677090,-90.301048,17616.728558,-20084.048222,-6934.651069,0.006000,-0.012000,1.004000,192.000000,0.000000,0.000000,0.000000,0.000000,0.000000,0.000000,0.000000,0.000000,0.000000,1771495043.884499,0.000000
82.000000,17618.069663,16785.489534,-16342.053275,-22793.146705,-19978.056249,-24593.713831,76.666483,-25780.680869,20350.011629,27656.394560,-24178.060791,-16413.288285,-126.801446,17586.799572,-20117.553487,-6958.098049,0.006000,-0.012000,1.004000,192.000000,0.000000,0.000000,127.500000,104.000000,15.500000,32.000000,0.000000,0.000000,0.000000,1771495043.884552,0.000000
84.000000,17673.703155,16841.100674,-16281.211827,-22735.658018,-19916.946580,-24540.829604,137.843208,-25726.209667,20342.859071,27647.096234,-24184.766315,-16422.787776,-133.663432,17575.623700,-20123.320237,-6964.088316,0.006000,-0.012000,1.004000,192.000000,0.000000,0.000000,0.000000,0.000000,0.000000,0.000000,0.000000,0.000000,0.000000,1771495043.884600,0.000000
86.000000,17642.231899,16808.645941,-16311.789013,-22769.699725,-19948.350781,-24573.843130,102.683914,-25757.926793,20377.884254,27681.495569,-24146.254259,-16382.778154,-88.334094,17612.906410,-20080.293129,-6926.313868,0.006000,-0.012000,1.004000,192.000000,0.000000,0.000000,0.000000,0.000000,0.000000,0.000000,0.000000,0.000000,0.000000,1771495043.884615,0.000000
88.000000,17634.520547,16803.080356,-16321.467319,-22777.947519,-19958.543176,-24582.649718,92.670333,-25766.085180,20324.240068,27619.380071,-24205.978120,-16445.720666,-148.437935,17551.305002,-20141.894536,-6980.002759,0.006000,-0.012000,1.004000,192.000000,0.000000,0.000000,0.000000,0.000000,0.000000,0.000000,0.000000,0.000000,0.000000,1771495043.884628,0.000000
90.000000,17677.748821,16842.933517,-16281.502400,-22738.317876,-19916.119566,-24541.500156,135.853903,-25727.975455,20379.538283,27678.835711,-24146.813053,-16387.740241,-86.411844,17614.515735,-20081.768344,-6931.588880,0.006000,-0.012000,1.004000,192.000000,0.000000,0.000000,0.000000,0.000000,0.000000,0.000000,0.000000,0.000000,0.000000,1771495043.884650,0.000000
92.000000,17621.467128,16788.819944,-16345.607203,-22798.019385,-19976.692793,-24597.983014,71.302065,-25785.754715,20350.637478,27649.197298,-24180.072448,-16420.284381,-120.028868,17582.552741,-20115.541830,-6957.427497,-0.002000,-0.014000,0.996000,192.000000,127.500000,120.000000,127.500000,72.000000,15.500000,16.000000,0.000000,0.000000,0.000000,1771495043.884663,0.000000
94.000000,17679.313443,16851.024848,-16284.274016,-22735.747425,-19913.169135,-24530.324284,136.233882,-25725.606170,20343.954306,27646.090406,-24185.705088,-16423.167756,-124.588624,17584.787915,-20121.688559,-6963.082488,-0.002000,-0.014000,0.996000,192.000000,0.000000,0.000000,0.000000,0.000000,0.000000,0.000000,0.000000,0.000000,0.000000,1771495043.884676,0.000000
96.000000,17647.730428,16816.670217,-16321.355560,-22769.029173,-19953.066999,-24567.294069,98.548841,-25760.050209,20380.007670,27685.407124,-24146.522480,-16382.286415,-76.510021,17627.882079,-20081.947158,-6924.413970,-0.002000,-0.014000,0.996000,192.000000,0.000000,0.000000,0.000000,0.000000,0.000000,0.000000,0.000000,0.000000,0.000000,1771495043.884689,0.000000
98.000000,17639.393227,16806.746043,-16322.897830,-22779.378030,-19964.801665,-24577.844093,88.088225,-25768.119188,20323.413053,27623.403385,-24208.459164,-16446.011239,-160.597284,17569.387563,-20143.906193,-6977.879343,-0.002000,-0.014000,0.996000,192.000000,0.000000,0.000000,0.000000,0.000000,0.000000,0.000000,0.000000,0.000000,0.000000,1771495043.884701,0.000000
100.000000,17686.868332,16852.589470,-16277.993176,-22735.076873,-19919.025292,-24537.543897,133.350507,-25723.728624,20383.069859,27684.356592,-24145.918983,-16385.460363,-86.814175,17624.931648,-20081.969509,-6929.510168,-0.002000,-0.014000,0.996000,192.000000,0.000000,0.000000,0.000000,0.000000,0.000000,0.000000,0.000000,0.000000,0.000000,1771495043.884714,0.000000
102.000000,17626.652733,16789.959882,-16337.337057,-22793.303167,-19971.864816,-24596.463096,69.625684,-25782.357250,20356.538338,27652.974743,-24175.825617,-16415.881087,-119.268908,17588.811229,-20113.865449,-6952.174837,-0.002000,-0.014000,0.996000,192.000000,0.000000,0.000000,127.500000,96.000000,15.500000,24.000000,0.000000,0.000000,0.000000,1771495043.884726,0.000000
104.000000,17685.795449,16848.141473,-16280.921254,-22737.267344,-19909.816374,-24534.615819,128.500179,-25728.422490,20350.346905,27646.403330,-24182.844065,-16423.145404,-121.124103,17588.543008,-20117.329969,-6959.953244,-0.002000,-0.014000,0.996000,192.000000,0.000000,0.000000,0.000000,0.000000,0.000000,0.000000,0.000000,0.000000,0.000000,1771495043.884739,0.000000
106.000000,17651.306707,16813.742139,-16316.035845,-22767.442199,-19943.992191,-24566.802331,96.917164,-25759.446711,20384.478019,27685.720049,-24146.164852,-16385.326253,-78.119347,17636.465149,-20078.504989,-6923.922232,-0.002000,-0.014000,0.996000,192.000000,0.000000,0.000000,0.000000,0.000000,0.000000,0.000000,0.000000,0.000000,0.000000,1771495043.884761,0.000000
108.000000,17646.232861,16807.818926,-16322.406092,-22771.376106,-19951.122397,-24568.948098,89.049350,-25763.559432,20327.078739,27622.822240,-24206.089879,-16445.273631,-143.565255,17572.740325,-20142.050998,-6971.442040,-0.002000,-0.014000,0.996000,192.000000,0.000000,0.000000,0.000000,0.000000,0.000000,0.000000,0.000000,0.000000,0.000000,1771495043.884774,0.000000
110.000000,17689.416431,16854.221148,-16280.295405,-22728.572515,-19915.672531,-24522.881153,134.043411,-25721.627560,20383.718060,27690.726839,-24143.192070,-16378.196046,-77.001760,17640.063779,-20079.264948,-6919.653048,-0.002000,-0.014000,0.996000,192.000000,0.000000,0.000000,0.000000,0.000000,0.000000,0.000000,0.000000,0.000000,0.000000,1771495043.884787,0.000000
112.000000,17624.819890,16787.747060,-16341.941517,-22792.543208,-19974.502322,-24585.913072,69.491574,-25785.732363,20356.940670,27661.893089,-24176.205596,-16413.556506,-105.969620,17609.061910,-20113.306655,-6944.239967,0.002000,-0.010000,0.994000,192.000000,0.000000,8.000000,127.500000,88.000000,15.500000,8.000000,0.000000,0.000000,0.000000,1771495043.884800,0.000000
114.000000,17686.957739,16848.744970,-16279.222522,-22735.076873,-19915.605475,-24528.446737,132.076458,-25727.349606,20346.457701,27648.750263,-24185.749791,-16424.106529,-124.342754,17591.694604,-20119.743957,-6959.595616,0.002000,-0.010000,0.994000,192.000000,0.000000,0.000000,0.000000,0.000000,0.000000,0.000000,0.000000,0.000000,0.000000,1771495043.884812,0.000000
116.000000,17661.029716,16824.694493,-16308.950342,-22765.631707,-19945.690923,-24565.729447,101.275754,-25753.009409,20389.775382,27694.705450,-24139.548736,-16380.699442,-78.096995,17634.766416,-20075.845131,-6925.240985,0.002000,-0.010000,0.994000,192.000000,0.000000,0.000000,0.000000,0.000000,0.000000,0.000000,0.000000,0.000000,0.000000,1771495043.884824,0.000000
118.000000,17655.553538,16817.631342,-16322.428444,-22776.673469,-19954.050476,-24574.670145,88.132928,-25763.313563,20334.879498,27634.780423,-24200.434887,-16438.635163,-139.787810,17568.694659,-20138.497071,-6976.426479,0.002000,-0.010000,0.994000,192.000000,0.000000,0.000000,0.000000,0.000000,0.000000,0.000000,0.000000,0.000000,0.000000,1771495043.884836,0.000000
120.000000,17694.423222,16856.121046,-16278.060231,-22738.250820,-19914.443185,-24535.420482,133.082286,-25723.974493,20391.272949,27694.079601,-24142.990904,-16381.817029,-81.248591,17633.492366,-20077.700326,-6926.157406,0.002000,-0.010000,0.994000,192.000000,0.000000,0.000000,0.000000,0.000000,0.000000,0.000000,0.000000,0.000000,0.000000,1771495043.884849,0.000000
122.000000,17633.000628,16790.138696,-16338.253479,-22796.343004,-19976.290462,-24596.150171,71.592637,-25783.541892,20358.952327,27658.540327,-24176.451466,-16415.366997,-121.995821,17593.907427,-20110.535039,-6950.319642,0.004000,-0.009000,0.998000,192.000000,0.000000,24.000000,127.500000,96.000000,15.500000,40.000000,0.000000,0.000000,0.000000,1771495043.884863,0.000000
124.000000,17693.082117,16849.527281,-16275.199208,-22737.803786,-19917.795946,-24537.052159,134.713964,-25724.890915,20349.922222,27648.929077,-24183.224044,-16425.313523,-126.868502,17583.871494,-20118.313446,-6959.215636,0.004000,-0.009000,0.998000,192.000000,0.000000,0.000000,0.000000,0.000000,0.000000,0.000000,0.000000,0.000000,0.000000,1771495043.884876,0.000000
126.000000,17665.365954,16822.101691,-16311.140813,-22769.498559,-19952.329392,-24570.669183,103.198004,-25754.842252,20395.117449,27694.996023,-24139.884012,-16380.274758,-79.013417,17626.898602,-20077.365050,-6923.877528,0.004000,-0.009000,0.998000,192.000000,0.000000,0.000000,0.000000,0.000000,0.000000,0.000000,0.000000,0.000000,0.000000,1771495043.884888,0.000000
128.000000,17657.453437,16816.424348,-16318.673351,-22778.707478,-19961.247738,-24575.854787,93.810271,-25761.883052,20338.612239,27629.863039,-24201.530123,-16440.847986,-140.056031,17563.911386,-20143.459158,-6977.074680,0.004000,-0.009000,0.998000,192.000000,0.000000,0.000000,0.000000,0.000000,0.000000,0.000000,0.000000,0.000000,0.000000,1771495043.884900,0.000000
130.000000,17701.195800,16860.613747,-16275.489780,-22735.881536,-19914.197315,-24533.364121,140.815990,-25718.945351,20396.167981,27687.485836,-24140.375750,-16381.571160,-82.746158,17622.919991,-20080.896626,-6931.834749,0.004000,-0.009000,0.998000,192.000000,0.000000,0.000000,0.000000,0.000000,0.000000,0.000000,0.000000,0.000000,0.000000,1771495043.884913,0.000000
132.000000,17642.433064,16800.040519,-16337.851147,-22795.359528,-19977.296290,-24595.300805,77.627608,-25775.919947,20367.244824,27660.149653,-24170.148274,-16408.884991,-114.798560,17594.041538,-20112.256123,-6953.247720,0.004000,-0.010500,1.001000,192.000000,0.000000,16.000000,127.500000,80.000000,15.500000,48.000000,0.000000,0.000000,0.000000,1771495043.884925,0.000000
134.000000,17709.868277,16869.867369,-16269.633623,-22731.455890,-19916.097214,-24532.693569,144.794601,-25710.965778,20363.534434,27654.338199,-24173.210463,-16412.841250,-116.899624,17591.091107,-20118.358149,-6960.847314,0.004000,-0.010500,1.001000,192.000000,0.000000,0.000000,0.000000,0.000000,0.000000,0.000000,0.000000,0.000000,0.000000,1771495043.884938,0.000000
136.000000,17676.877102,16835.758607,-16301.931894,-22764.402361,-19944.908612,-24564.388342,110.730542,-25744.091063,20404.616941,27700.159276,-24128.149346,-16369.411811,-73.894867,17634.677009,-20072.693535,-6921.150615,0.004000,-0.010500,1.001000,192.000000,0.000000,0.000000,0.000000,0.000000,0.000000,0.000000,0.000000,0.000000,0.000000,1771495043.884950,0.000000
138.000000,17669.366916,16826.460281,-16314.672388,-22776.628766,-19957.090313,-24577.486465,96.380722,-25754.618735,20351.844472,27640.055435,-24189.817809,-16429.783872,-132.679955,17575.646052,-20134.876088,-6973.140773,0.004000,-0.010500,1.001000,192.000000,0.000000,0.000000,0.000000,0.000000,0.000000,0.000000,0.000000,0.000000,0.000000,1771495043.884962,0.000000
140.000000,17715.232696,16872.370764,-16271.891150,-22733.780472,-19915.113737,-24533.788804,141.084211,-25710.138763,20396.525609,27693.677270,-24133.603172,-16373.725697,-83.059082,17636.241631,-20079.354355,-6932.862929,0.004000,-0.010500,1.001000,192.000000,0.000000,0.000000,0.000000,0.000000,0.000000,0.000000,0.000000,0.000000,0.000000,1771495043.884974,0.000000
142.000000,17650.189120,16809.048272,-16340.086322,-22793.504333,-19980.336127,-24592.305671,76.957056,-25770.108494,20369.435295,27667.257508,-24163.956841,-16401.643026,-111.892833,17604.636264,-20112.189068,-6954.410011,0.003000,-0.013250,1.004500,192.000000,0.000000,8.000000,127.500000,64.000000,15.500000,64.000000,0.000000,0.000000,0.000000,1771495043.884987,0.000000
144.000000,17708.616580,16869.308575,-16275.981519,-22734.160451,-19922.959199,-24536.940400,137.776153,-25713.871505,20359.086437,27656.618077,-24172.674021,-16413.042416,-119.470074,17596.343767,-20122.359112,-6960.802610,0.003000,-0.013250,1.004500,192.000000,0.000000,0.000000,0.000000,0.000000,0.000000,0.000000,0.000000,0.000000,0.000000,1771495043.884999,0.000000
146.000000,17680.051050,16843.827587,-16308.615066,-22762.278946,-19954.899842,-24565.237709,104.740275,-25740.984171,20395.989167,27700.718069,-24130.228058,-16368.428334,-82.030902,17639.147358,-20080.226073,-6922.245851,0.003000,-0.013250,1.004500,192.000000,0.000000,0.000000,0.000000,0.000000,0.000000,0.000000,0.000000,0.000000,0.000000,1771495043.885011,0.000000
148.000000,17667.846998,16829.343656,-16321.936705,-22776.606414,-19964.779313,-24578.604052,89.965771,-25753.612906,20339.729826,27648.280877,-24190.935396,-16426.252297,-145.465153,17580.496380,-20144.487339,-6974.794802,0.003000,-0.013250,1.004500,192.000000,0.000000,0.000000,0.000000,0.000000,0.000000,0.000000,0.000000,0.000000,0.000000,1771495043.885024,0.000000
150.000000,17716.439690,16876.908168,-16272.762868,-22731.433538,-19917.080691,-24531.084243,141.330080,-25708.060051,20394.178676,27704.339052,-24132.172660,-16370.216473,-83.461414,17643.975335,-20086.104582,-6931.030086,0.003000,-0.013250,1.004500,192.000000,0.000000,0.000000,0.000000,0.000000,0.000000,0.000000,0.000000,0.000000,0.000000,1771495043.885036,0.000000
152.000000,17650.546748,16808.780051,-16335.504214,-22794.890141,-19978.592691,-24594.339680,74.185440,-25772.142502,20367.311879,27673.068961,-24161.051114,-16399.609017,-113.658621,17606.692625,-20114.178373,-6954.477066,0.002500,-0.013625,1.005250,192.000000,0.000000,8.000000,127.500000,72.000000,15.500000,56.000000,0.000000,0.000000,0.000000,1771495043.885049,0.000000
154.000000,17708.705987,16870.023831,-16276.003870,-22734.629838,-19916.521897,-24535.755758,136.278586,-25713.268007,20359.421713,27657.981534,-24173.031649,-16412.774195,-120.922938,17592.432212,-20123.744920,-6969.452735,0.002500,-0.013625,1.005250,192.000000,0.000000,0.000000,0.000000,0.000000,0.000000,0.000000,0.000000,0.000000,0.000000,1771495043.885062,0.000000
156.000000,17678.911111,16842.888813,-16305.441118,-22762.502463,-19948.261374,-24562.242575,106.528414,-25740.246563,20399.856019,27701.053345,-24128.685788,-16363.622709,-76.577077,17641.918974,-20079.130838,-6928.571395,0.002500,-0.013625,1.005250,192.000000,0.000000,0.000000,0.000000,0.000000,0.000000,0.000000,0.000000,0.000000,0.000000,1771495043.885075,0.000000
158.000000,17664.158960,16829.097787,-16317.868688,-22771.331402,-19958.565528,-24570.669183,94.749045,-25752.316505,20337.271135,27641.418891,-24191.404783,-16425.268820,-142.805295,17575.623700,-20144.532042,-6973.587808,0.002500,-0.013625,1.005250,192.000000,0.000000,0.000000,0.000000,0.000000,0.000000,0.000000,0.000000,0.000000,0.000000,1771495043.885087,0.000000
160.000000,17710.360016,16875.008270,-16271.689984,-22729.801861,-19912.364472,-24524.892810,141.128914,-25708.842362,20386.534379,27700.405145,-24132.932619,-16367.400154,-84.199021,17641.136663,-20080.896626,-6920.055380,0.002500,-0.013625,1.005250,192.000000,0.000000,0.000000,0.000000,0.000000,0.000000,0.000000,0.000000,0.000000,0.000000,1771495043.885100,0.000000
162.000000,17648.132759,16811.194040,-16331.257383,-22788.922225,-19972.155389,-24586.047183,77.269981,-25767.269822,20366.954251,27671.057304,-24160.648782,-16399.117279,-107.489539,17614.426328,-20109.305693,-6943.547063,0.002250,-0.013813,1.002625,192.000000,0.000000,8.000000,127.500000,72.000000,15.500000,32.000000,0.000000,0.000000,0.000000,1771495043.885112,0.000000
164.000000,17702.961588,16868.593319,-16268.314870,-22732.104091,-19912.520935,-24533.766453,138.960795,-25712.150420,20352.515024,27652.885336,-24173.188111,-16411.008407,-125.728563,17594.734442,-20119.542792,-6956.220502,0.002250,-0.013813,1.002625,192.000000,0.000000,0.000000,0.000000,0.000000,0.000000,0.000000,0.000000,0.000000,0.000000,1771495043.885124,0.000000
166.000000,17671.065649,16836.093883,-16300.054348,-22764.335306,-19941.421740,-24562.890776,107.511891,-25742.213516,20392.748164,27697.611177,-24127.836421,-16364.762648,-75.168917,17646.724599,-20073.185274,-6920.301249,0.002250,-0.013813,1.002625,192.000000,0.000000,0.000000,0.000000,0.000000,0.000000,0.000000,0.000000,0.000000,0.000000,1771495043.885136,0.000000
168.000000,17656.537015,16824.158052,-16313.107766,-22771.465513,-19953.066999,-24575.385401,95.061969,-25755.781025,20327.101091,27633.819298,-24194.042289,-16430.141500,-142.559426,17576.696584,-20139.346437,-6973.520753,0.002250,-0.013813,1.002625,192.000000,0.000000,0.000000,0.000000,0.000000,0.000000,0.000000,0.000000,0.000000,0.000000,1771495043.885148,0.000000
170.000000,17703.363920,16871.052011,-16269.275995,-22730.517117,-19906.374205,-24529.698435,139.363127,-25712.329234,20381.013498,27697.633528,-24134.586648,-16370.819970,-79.192231,17640.801387,-20077.767381,-6925.106874,0.002250,-0.013813,1.002625,192.000000,0.000000,0.000000,0.000000,0.000000,0.000000,0.000000,0.000000,0.000000,0.000000,1771495043.885161,0.000000
172.000000,17642.745989,16808.869458,-16329.625705,-22788.452838,-19965.293403,-24584.884892,75.481841,-25771.024915,20361.679239,27669.693848,-24163.085122,-16400.503087,-105.433179,17613.085224,-20108.277513,-6946.899825,0.003125,-0.011906,1.001313,192.000000,0.000000,16.000000,127.500000,88.000000,15.500000,32.000000,0.000000,0.000000,0.000000,1771495043.885173,0.000000
174.000000,17698.781812,16866.291090,-16271.891150,-22731.768815,-19907.961179,-24528.334979,135.697441,-25716.844287,20347.888213,27657.981534,-24176.496169,-16411.723663,-117.503121,17602.199924,-20117.888763,-6957.807476,0.003125,-0.011906,1.001313,192.000000,0.000000,0.000000,0.000000,0.000000,0.000000,0.000000,0.000000,0.000000,0.000000,1771495043.885185,0.000000
176.000000,17668.316384,16835.892717,-16303.451813,-22761.541338,-19943.008714,-24563.583680,105.433179,-25746.013313,20390.065955,27702.059174,-24131.747977,-16370.060011,-72.553763,17645.472902,-20075.979242,-6921.575298,0.003125,-0.011906,1.001313,192.000000,0.000000,0.000000,0.000000,0.000000,0.000000,0.000000,0.000000,0.000000,0.000000,1771495043.885197,0.000000
178.000000,17653.944213,16821.319380,-16318.382778,-22776.829931,-19954.497511,-24577.709982,89.943420,-25760.586650,20328.531602,27634.646313,-24196.791553,-16434.678904,-137.306766,17577.948282,-20139.905231,-6977.320549,0.003125,-0.011906,1.001313,192.000000,0.000000,0.000000,0.000000,0.000000,0.000000,0.000000,0.000000,0.000000,0.000000,1771495043.885209,0.000000
180.000000,17704.257989,16870.157942,-16265.878530,-22727.656094,-19906.329501,-24526.591543,141.084211,-25711.479868,20383.315728,27695.599520,-24134.229020,-16374.843284,-81.047425,17639.504986,-20076.694498,-6928.861967,0.003125,-0.011906,1.001313,192.000000,0.000000,0.000000,0.000000,0.000000,0.000000,0.000000,0.000000,0.000000,0.000000,1771495043.885221,0.000000
182.000000,17639.281468,16807.193077,-16333.872537,-22785.681222,-19969.272014,-24584.661375,74.855992,-25773.595366,20361.232205,27668.911537,-24161.364038,-16402.112413,-105.455530,17615.052177,-20105.952931,-6945.357555,0.002563,-0.008953,0.998656,192.000000,0.000000,8.000000,127.500000,104.000000,15.500000,16.000000,0.000000,0.000000,0.000000,1771495043.885234,0.000000
184.000000,17697.351300,16864.257081,-16276.227388,-22730.338303,-19913.035025,-24529.072586,135.205702,-25718.185391,20346.502405,27657.199223,-24177.166721,-16413.623561,-120.811179,17601.372910,-20119.900420,-6954.879398,0.002563,-0.008953,0.998656,192.000000,0.000000,0.000000,0.000000,0.000000,0.000000,0.000000,0.000000,0.000000,0.000000,1771495043.885246,0.000000
186.000000,17665.343602,16833.523432,-16306.491650,-22760.870786,-19946.674400,-24558.599241,105.030847,-25748.136729,20386.176751,27697.141790,-24135.413663,-16373.032793,-82.500289,17642.008381,-20079.689631,-6919.273069,0.002563,-0.008953,0.998656,192.000000,0.000000,0.000000,0.000000,0.000000,0.000000,0.000000,0.000000,0.000000,0.000000,1771495043.885260,0.000000
188.000000,17652.290184,16821.095863,-16319.366255,-22774.684164,-19954.721028,-24565.215357,89.541088,-25760.430188,20334.052483,27640.234249,-24196.098649,-16432.667247,-139.899569,17581.233988,-20137.513594,-6969.698604,0.002563,-0.008953,0.998656,192.000000,0.000000,0.000000,0.000000,0.000000,0.000000,0.000000,0.000000,0.000000,0.000000,1771495043.885273,0.000000
190.000000,17697.597170,16867.788657,-16269.208940,-22729.019550,-19906.508315,-24525.965694,140.793638,-25714.363243,20385.930882,27696.918273,-24138.609962,-16375.580892,-79.460452,17637.739198,-20077.543864,-6925.196281,0.002563,-0.008953,0.998656,192.000000,0.000000,0.000000,0.000000,0.000000,0.000000,0.000000,0.000000,0.000000,0.000000,1771495043.885285,0.000000
192.000000,17630.430178,16802.320397,-16337.247650,-22789.570426,-19974.301156,-24589.221131,74.677178,-25778.222177,20355.510158,27662.854214,-24169.053038,-16406.672169,-115.849092,17607.050253,-20106.757594,-6945.268148,0.002563,-0.008953,0.998656,192.000000,0.000000,0.000000,0.000000,0.000000,0.000000,0.000000,0.000000,0.000000,0.000000,1771495043.885298,0.000000
194.000000,17691.115164,16866.112276,-16274.372193,-22731.142966,-19912.699749,-24529.117290,137.507932,-25717.112507,20341.227393,27649.711388,-24182.151160,-16418.071558,-125.236824,17594.086241,-20122.783795,-6957.896883,0.002000,-0.004000,1.000000,192.000000,0.000000,8.000000,127.500000,112.000000,15.500000,32.000000,0.000000,0.000000,0.000000,1771495044.366414,0.000000
196.000000,17663.287242,16836.317400,-16301.373100,-22761.742504,-19938.694827,-24558.040447,107.377780,-25746.616810,20388.344871,27694.191360,-24131.591515,-16369.970604,-77.337036,17641.516643,-20070.279547,-6916.590859,0.002000,-0.004000,1.000000,192.000000,0.000000,0.000000,0.000000,0.000000,0.000000,0.000000,0.000000,0.000000,0.000000,1771495044.366523,0.000000
198.000000,17647.618669,16819.419482,-16315.521755,-22776.315841,-19951.167101,-24573.194930,91.731559,-25761.748941,20330.520908,27629.617170,-24195.316338,-16436.109416,-135.518627,17572.628566,-20132.283286,-6970.905599,0.002000,-0.004000,1.000000,192.000000,0.000000,0.000000,0.000000,0.000000,0.000000,0.000000,0.000000,0.000000,0.000000,1771495044.366613,0.000000
200.000000,17692.143344,16865.844055,-16272.427591,-22731.657056,-19905.569542,-24533.654694,138.603167,-25717.716005,20376.498446,27685.451828,-24141.068654,-16379.112468,-82.679103,17631.592468,-20074.414620,-6929.063133,0.002000,-0.004000,1.000000,192.000000,0.000000,0.000000,0.000000,0.000000,0.000000,0.000000,0.000000,0.000000,0.000000,1771495044.366704,0.000000
202.000000,17629.446701,16801.225162,-16330.072740,-22789.369260,-19965.673383,-24593.602072,74.699530,-25779.026840,20351.106864,27655.276973,-24168.807169,-16407.968570,-111.445798,17597.528410,-20102.220190,-6951.012546,0.002000,-0.004000,1.000000,192.000000,0.000000,0.000000,0.000000,0.000000,0.000000,0.000000,0.000000,0.000000,0.000000,1771495044.366795,0.000000
204.000000,17688.947044,16866.604014,-16273.880455,-22731.791166,-19909.391690,-24531.419519,133.261100,-25722.320464,20340.869765,27644.481080,-24183.447562,-16419.569125,-125.236824,17588.654767,-20114.737167,-6960.601444,0.002000,-0.006000,1.004000,192.000000,0.000000,8.000000,127.500000,104.000000,15.500000,48.000000,0.000000,0.000000,0.000000,1771495044.366887,0.000000
206.000000,17660.828550,16840.273659,-16302.133060,-22759.596736,-19939.991229,-24555.224127,102.438045,-25748.382598,20383.673356,27701.053345,-24134.944276,-16367.646023,-79.885135,17642.634230,-20070.950099,-6920.256546,0.002000,-0.006000,1.004000,192.000000,0.000000,0.000000,0.000000,0.000000,0.000000,0.000000,0.000000,0.000000,0.000000,1771495044.366950,0.000000
208.000000,17650.591451,16825.767377,-16312.481917,-22771.823141,-19950.608307,-24569.775113,87.574135,-25759.938450,20323.949495,27641.910630,-24195.763373,-16429.135672,-141.643005,17578.440020,-20133.982019,-6971.822020,0.002000,-0.006000,1.004000,192.000000,0.000000,0.000000,0.000000,0.000000,0.000000,0.000000,0.000000,0.000000,0.000000,1771495044.366964,0.000000
210.000000,17700.033510,16877.623424,-16265.252681,-22724.839774,-19899.981606,-24521.227124,138.737278,-25712.865676,20382.891045,27703.266168,-24133.871392,-16367.780133,-73.805460,17644.802349,-20070.748934,-6919.563641,0.002000,-0.006000,1.004000,192.000000,0.000000,0.000000,0.000000,0.000000,0.000000,0.000000,0.000000,0.000000,0.000000,1771495044.366977,0.000000
212.000000,17637.627439,16808.735348,-16332.084397,-22788.743411,-19962.253566,-24584.236692,70.855030,-25776.545796,20354.414923,27671.973726,-24164.605041,-16401.307750,-102.773321,17614.158108,-20102.846039,-6943.524712,0.002000,-0.006000,1.004000,192.000000,0.000000,0.000000,0.000000,0.000000,0.000000,0.000000,0.000000,0.000000,0.000000,1771495044.366990,0.000000
214.000000,17693.372690,16867.945119,-16273.835751,-22733.221678,-19907.581199,-24530.324284,131.092981,-25720.487621,20338.031094,27659.881432,-24177.636108,-16413.936486,-120.744124,17595.583808,-20114.871277,-6958.612139,0.006000,-0.006000,1.014000,192.000000,0.000000,24.000000,127.500000,104.000000,15.500000,88.000000,0.000000,0.000000,0.000000,1771495044.367002,0.000000
216.000000,17662.594338,16842.374723,-16305.217600,-22760.200233,-19938.672476,-24556.274659,102.102769,-25747.130900,20375.805542,27701.232159,-24137.537079,-16370.484694,-78.074643,17643.908279,-20072.358259,-6920.457711,0.006000,-0.006000,1.014000,192.000000,0.000000,0.000000,0.000000,0.000000,0.000000,0.000000,0.000000,0.000000,0.000000,1771495044.367013,0.000000
218.000000,17647.283393,16826.795557,-16319.455662,-22774.795923,-19953.469330,-24572.032639,86.076568,-25759.178491,20323.837736,27645.799833,-24193.349384,-16426.699332,-136.904435,17582.820962,-20133.155004,-6967.597540,0.006000,-0.006000,1.014000,192.000000,0.000000,0.000000,0.000000,0.000000,0.000000,0.000000,0.000000,0.000000,0.000000,1771495044.367034,0.000000
220.000000,17691.383385,16872.527227,-16273.254606,-22729.019550,-19906.441260,-24526.680950,137.820856,-25713.715042,20372.072801,27694.861912,-24140.174584,-16374.262139,-85.785995,17636.331038,-20078.706155,-6924.995115,0.006000,-0.006000,1.014000,192.000000,0.000000,0.000000,0.000000,0.000000,0.000000,0.000000,0.000000,0.000000,0.000000,1771495044.367046,0.000000
222.000000,17628.664390,16806.924857,-16329.871575,-22789.816295,-19970.099028,-24586.538921,75.548896,-25772.477778,20342.769664,27668.799778,-24167.488416,-16400.704253,-118.419542,17607.005549,-20104.991806,-6943.971746,0.006000,-0.006000,1.014000,192.000000,0.000000,0.000000,0.000000,0.000000,0.000000,0.000000,0.000000,0.000000,0.000000,1771495044.367059,0.000000
224.000000,17680.363975,16857.842130,-16275.758001,-22737.803786,-19914.152612,-24531.397168,131.517664,-25723.169830,20327.190498,27650.605458,-24181.212387,-16417.535116,-131.540016,17586.687814,-20119.475737,-6958.634491,0.006000,-0.006000,1.008000,192.000000,0.000000,24.000000,127.500000,104.000000,15.500000,64.000000,0.000000,0.000000,0.000000,1771495044.367071,0.000000
226.000000,17652.603108,16830.260078,-16303.362406,-22763.351829,-19938.359551,-24561.460264,107.310725,-25748.114377,20369.167074,27696.113610,-24137.648837,-16375.402078,-83.975504,17640.130835,-20070.503064,-6917.440226,0.006000,-0.006000,1.008000,192.000000,0.000000,0.000000,0.000000,0.000000,0.000000,0.000000,0.000000,0.000000,0.000000,1771495044.367082,0.000000
228.000000,17636.643962,16814.993836,-16320.617952,-22777.858112,-19955.905671,-24577.844093,90.815138,-25765.056999,20307.789184,27633.484022,-24202.044213,-16437.651686,-141.151266,17572.092124,-20134.563164,-6970.346805,0.006000,-0.006000,1.008000,192.000000,0.000000,0.000000,0.000000,0.000000,0.000000,0.000000,0.000000,0.000000,0.000000,1771495044.367095,0.000000
230.000000,17685.907207,16863.698287,-16272.114667,-22733.869879,-19909.168173,-24533.207659,138.692574,-25720.509973,20360.427542,27688.625775,-24148.645896,-16383.202837,-97.319495,17627.300933,-20076.828608,-6923.274031,0.006000,-0.006000,1.008000,192.000000,0.000000,0.000000,0.000000,0.000000,0.000000,0.000000,0.000000,0.000000,0.000000,1771495044.367106,0.000000
232.000000,17632.084207,16805.986083,-16334.051351,-22790.397440,-19969.763752,-24592.439782,74.878344,-25775.987002,20335.080664,27663.524766,-24172.316393,-16407.476831,-118.799522,17594.779145,-20104.902399,-6943.368249,0.006000,-0.006000,1.008000,192.000000,0.000000,0.000000,0.000000,0.000000,0.000000,0.000000,0.000000,0.000000,0.000000,1771495044.367117,0.000000
234.000000,17687.717699,16864.033564,-16275.959167,-22736.663847,-19913.705577,-24531.419519,132.881121,-25722.856906,20328.598658,27653.980572,-24183.872245,-16418.183317,-129.170731,17581.099877,-20117.531135,-6955.169970,0.002000,-0.014000,1.002000,192.000000,0.000000,8.000000,127.500000,72.000000,15.500000,40.000000,0.000000,0.000000,0.000000,1771495044.367129,0.000000
236.000000,17656.492312,16831.198851,-16308.056272,-22766.011687,-19943.031066,-24558.867462,102.058065,-25755.289287,20366.149588,27699.287558,-24142.946201,-16376.027927,-81.717978,17634.565250,-20073.721716,-6915.987362,0.002000,-0.014000,1.002000,192.000000,0.000000,0.000000,0.000000,0.000000,0.000000,0.000000,0.000000,0.000000,0.000000,1771495044.367141,0.000000
238.000000,17640.421407,16819.061854,-16322.830775,-22776.807580,-19955.369229,-24568.881043,85.517774,-25769.929680,20313.444175,27632.522897,-24208.481515,-16442.412608,-142.738240,17561.318584,-20138.072388,-6968.245741,0.002000,-0.014000,1.002000,192.000000,0.000000,0.000000,0.000000,0.000000,0.000000,0.000000,0.000000,0.000000,0.000000,1771495044.367153,0.000000
240.000000,17694.199704,16872.035488,-16274.930987,-22733.892230,-19907.983531,-24530.659560,135.518627,-25720.129993,20365.501388,27696.068906,-24149.852890,-16381.012366,-87.887059,17623.747006,-20080.203722,-6923.251679,0.002000,-0.014000,1.002000,192.000000,0.000000,0.000000,0.000000,0.000000,0.000000,0.000000,0.000000,0.000000,0.000000,1771495044.367165,0.000000
242.000000,17634.632305,16810.948171,-16341.650944,-22794.398402,-19968.735572,-24589.578758,70.229181,-25780.747924,20345.831853,27676.131150,-24172.472855,-16404.057014,-115.603222,17597.640168,-20106.265856,-6944.016450,0.002000,-0.014000,1.002000,192.000000,0.000000,0.000000,0.000000,0.000000,0.000000,0.000000,0.000000,0.000000,0.000000,1771495044.367177,0.000000
244.000000,17691.875123,16867.431029,-16278.842542,-22737.289695,-19912.297417,-24532.872383,129.528359,-25724.600342,20330.543259,27659.322638,-24187.940262,-16420.954933,-121.705249,17581.748078,-20120.660379,-6956.667537,0.008000,-0.010000,1.006000,192.000000,0.000000,32.000000,127.500000,88.000000,15.500000,56.000000,0.000000,0.000000,0.000000,1771495044.367190,0.000000
246.000000,17667.109390,16842.262965,-16304.636455,-22764.715286,-19937.219612,-24557.571060,100.493443,-25750.483662,20371.581062,27710.485781,-24138.788776,-16374.843284,-81.337998,17629.133776,-20072.045335,-6918.803682,0.008000,-0.010000,1.006000,192.000000,0.000000,0.000000,0.000000,0.000000,0.000000,0.000000,0.000000,0.000000,0.000000,1771495044.367202,0.000000
248.000000,17652.468998,16825.856784,-16319.589772,-22778.193388,-19946.584993,-24570.065686,83.953152,-25764.319392,20315.545239,27647.453862,-24199.831390,-16433.024875,-135.675089,17568.806418,-20130.897478,-6967.731651,0.008000,-0.010000,1.006000,192.000000,0.000000,0.000000,0.000000,0.000000,0.000000,0.000000,0.000000,0.000000,0.000000,1771495044.367213,0.000000
250.000000,17703.252161,16875.522360,-16269.320699,-22730.539469,-19899.758089,-24521.182420,136.435048,-25714.542057,20369.636460,27706.037784,-24142.074483,-16375.849113,-79.102824,17623.657599,-20075.487503,-6923.072865,0.008000,-0.010000,1.006000,192.000000,0.000000,0.000000,0.000000,0.000000,0.000000,0.000000,0.000000,0.000000,0.000000,1771495044.367228,0.000000
252.000000,17638.230936,16812.646903,-16334.766607,-22790.464495,-19966.299232,-24579.989860,70.095071,-25776.590499,20351.710361,27678.813360,-24166.907271,-16401.151288,-106.818987,17607.541991,-20101.214361,-6937.221520,0.008000,-0.010000,1.006000,192.000000,0.000000,0.000000,0.000000,0.000000,0.000000,0.000000,0.000000,0.000000,0.000000,1771495044.367240,0.000000
254.000000,17692.702138,16874.225959,-16275.802705,-22732.081739,-19906.910647,-24525.809231,131.227092,-25718.900647,20335.170071,27664.865871,-24182.240567,-16414.651741,-122.934595,17586.486648,-20115.877106,-6951.593691,0.005000,-0.011000,1.008000,192.000000,0.000000,8.000000,127.500000,80.000000,15.500000,72.000000,0.000000,0.000000,0.000000,1771495044.367252,0.000000
0.000000,17669.366916,16848.767322,-16304.591752,-22758.926184,-19936.034970,-24548.831528,104.852033,-25743.420511,20376.654908,27721.907523,-24134.094910,-16364.002688,-67.882248,17638.253288,-20070.145437,-6911.785234,0.005000,-0.011000,1.008000,192.000000,0.000000,0.000000,0.000000,0.000000,0.000000,0.000000,0.000000,0.000000,0.000000,1771495044.367263,0.000000
2.000000,17649.987954,16830.125967,-16322.003761,-22775.086495,-19954.452807,-24566.556462,85.495423,-25763.000639,20321.267285,27660.104949,-24198.780858,-16425.961724,-138.312595,17569.745191,-20134.004370,-6963.641282,0.005000,-0.011000,1.008000,192.000000,0.000000,0.000000,0.000000,0.000000,0.000000,0.000000,0.000000,0.000000,0.000000,1771495044.367275,0.000000
4.000000,17702.335739,16883.412526,-16271.600577,-22724.258628,-19901.613283,-24512.040557,139.765458,-25711.792792,20369.994088,27717.124250,-24145.069616,-16369.188293,-86.523603,17633.358256,-20075.085172,-6914.668609,0.005000,-0.011000,1.008000,192.000000,0.000000,0.000000,0.000000,0.000000,0.000000,0.000000,0.000000,0.000000,0.000000,1771495044.367287,0.000000
6.000000,17638.275640,16820.492365,-16335.258345,-22786.150609,-19967.372116,-24572.859654,75.235972,-25772.813055,20349.184614,27695.979499,-24168.360134,-16392.501163,-105.254365,17610.224201,-20100.901437,-6931.544177,0.005000,-0.011000,1.008000,192.000000,0.000000,0.000000,0.000000,0.000000,0.000000,0.000000,0.000000,0.000000,0.000000,1771495044.367299,0.000000
8.000000,17693.104469,16871.342584,-16275.780353,-22733.735768,-19911.716272,-24524.825755,131.897644,-25720.867601,20329.582134,27675.214729,-24185.682736,-16412.036587,-128.544882,17592.096936,-20116.525306,-6949.112648,0.003500,-0.013500,1.010000,192.000000,0.000000,8.000000,127.500000,64.000000,15.500000,80.000000,0.000000,0.000000,0.000000,1771495044.367310,0.000000
10.000000,17668.159922,16845.123988,-16304.077662,-22762.189539,-19938.024275,-24557.727523,103.421522,-25747.220307,20373.793885,27720.633473,-24138.386445,-16366.729601,-75.101861,17637.247460,-20067.932614,-6911.941697,0.003500,-0.013500,1.010000,192.000000,0.000000,0.000000,0.000000,0.000000,0.000000,0.000000,0.000000,0.000000,0.000000,1771495044.367322,0.000000
12.000000,17654.570062,16831.176499,-16318.650999,-22776.829931,-19948.507243,-24568.858691,89.205812,-25760.519595,20319.613256,27655.098159,-24198.959672,-16428.889803,-139.497237,17575.623700,-20131.120995,-6964.691814,0.003500,-0.013500,1.010000,192.000000,0.000000,0.000000,0.000000,0.000000,0.000000,0.000000,0.000000,0.000000,0.000000,1771495044.367334,0.000000
14.000000,17694.959664,16873.689517,-16273.075792,-22732.685236,-19907.312978,-24528.491441,138.133781,-25718.453612,20373.905644,27710.642244,-24144.421416,-16373.613939,-80.510984,17636.867480,-20071.486541,-6917.887261,0.003500,-0.013500,1.010000,192.000000,0.000000,0.000000,0.000000,0.000000,0.000000,0.000000,0.000000,0.000000,0.000000,1771495044.367346,0.000000
16.000000,17638.163881,16815.396168,-16331.905583,-22791.917359,-19969.629642,-24584.773133,76.442966,-25774.735305,20343.417864,27685.161255,-24172.629317,-16400.570142,-109.523548,17606.424404,-20101.616693,-6938.562624,0.003500,-0.013500,1.010000,192.000000,0.000000,0.000000,0.000000,0.000000,0.000000,0.000000,0.000000,0.000000,0.000000,1771495044.367358,0.000000
18.000000,17690.735184,16869.465038,-16275.042745,-22736.641495,-19913.303246,-24522.344711,133.506970,-25720.577028,20326.587001,27669.403275,-24184.274576,-16413.645913,-122.509911,17595.047366,-20119.229867,-6950.498456,0.002750,-0.014750,1.011000,192.000000,0.000000,8.000000,127.500000,64.000000,15.500000,80.000000,0.000000,0.000000,0.000000,1771495044.367370,0.000000
20.000000,17666.975280,16842.061799,-16304.368234,-22764.670582,-19940.125339,-24551.401979,106.148434,-25746.929735,20371.759876,27719.471183,-24137.850003,-16368.026002,-78.342864,17652.156073,-20069.251367,-6908.298362,0.002750,-0.014750,1.011000,192.000000,0.000000,0.000000,0.000000,0.000000,0.000000,0.000000,0.000000,0.000000,0.000000,1771495044.367382,0.000000
22.000000,17649.675029,16821.542897,-16317.041673,-22779.020402,-19956.173892,-24568.210491,89.250516,-25762.218328,20317.400434,27654.762883,-24197.640919,-16431.437901,-134.401039,17590.755831,-20132.350341,-6962.121363,0.002750,-0.014750,1.011000,192.000000,0.000000,0.000000,0.000000,0.000000,0.000000,0.000000,0.000000,0.000000,0.000000,1771495044.367394,0.000000
24.000000,17695.831382,16871.074363,-16268.381926,-22732.014684,-19915.069034,-24527.016226,138.938444,-25718.721833,20358.371181,27707.244779,-24144.734340,-16379.134819,-85.629533,17634.319381,-20077.476809,-6918.691923,0.002750,-0.014750,1.011000,192.000000,0.000000,0.000000,0.000000,0.000000,0.000000,0.000000,0.000000,0.000000,0.000000,1771495044.367406,0.000000
26.000000,17632.911221,16807.729519,-16333.447854,-22795.471286,-19978.324470,-24593.110334,72.486707,-25779.518578,20335.773568,27685.787104,-24172.495207,-16403.587628,-112.697496,17611.610009,-20105.438841,-6936.796836,0.002750,-0.014750,1.011000,192.000000,0.000000,0.000000,0.000000,0.000000,0.000000,0.000000,0.000000,0.000000,0.000000,1771495044.367419,0.000000
28.000000,17687.874161,16864.346488,-16274.081620,-22739.971905,-19915.069034,-24530.145470,131.741182,-25722.946313,20318.875649,27663.703580,-24188.364945,-16419.122090,-126.555577,17591.962825,-20120.570972,-6953.404183,0.004375,-0.015375,1.009500,192.000000,0.000000,24.000000,127.500000,64.000000,15.500000,64.000000,0.000000,0.000000,0.000000,1771495044.367431,0.000000
30.000000,17662.259062,16842.307668,-16299.763775,-22763.955327,-19940.751188,-24556.095845,109.054161,-25744.627505,20362.103923,27715.358462,-24137.850003,-16366.953119,-72.486707,17643.595355,-20067.574986,-6910.332371,0.004375,-0.015375,1.009500,192.000000,0.000000,0.000000,0.000000,0.000000,0.000000,0.000000,0.000000,0.000000,0.000000,1771495044.367443,0.000000
32.000000,17641.337829,16817.854860,-16319.545069,-22782.350812,-19963.728781,-24575.117180,89.295219,-25764.542909,20299.474335,27652.460653,-24203.139449,-16431.527308,-143.878179,17583.200941,-20133.803205,-6963.373061,0.004375,-0.015375,1.009500,192.000000,0.000000,0.000000,0.000000,0.000000,0.000000,0.000000,0.000000,0.000000,0.000000,1771495044.367455,0.000000
34.000000,17693.864428,16870.381459,-16268.314870,-22732.618181,-19909.235228,-24522.769394,143.118220,-25714.989092,20349.721056,27706.082488,-24148.645896,-16377.994880,-84.914277,17633.380608,-20077.901492,-6918.602516,0.004375,-0.015375,1.009500,192.000000,0.000000,0.000000,0.000000,0.000000,0.000000,0.000000,0.000000,0.000000,0.000000,1771495044.367470,0.000000
36.000000,17631.503061,16807.997740,-16332.956115,-22796.499466,-19976.536331,-24589.735221,75.437138,-25776.121113,20328.106919,27684.200130,-24171.243509,-16401.240695,-115.513815,17608.190192,-20100.342643,-6938.093238,0.004375,-0.015375,1.009500,192.000000,0.000000,0.000000,0.000000,0.000000,0.000000,0.000000,0.000000,0.000000,0.000000,1771495044.367482,0.000000
38.000000,17684.163771,16860.077305,-16277.568493,-22744.688123,-19922.288647,-24534.638171,130.422429,-25726.030854,20313.019492,27663.547118,-24190.063678,-16420.999637,-131.294147,17586.888979,-20120.190992,-6957.203979,0.006188,-0.013688,1.009750,192.000000,0.000000,32.000000,127.500000,80.000000,15.500000,72.000000,0.000000,0.000000,0.000000,1771495044.367494,0.000000
40.000000,17661.543806,16838.105540,-16301.551914,-22764.603527,-19941.287630,-24554.330057,110.685839,-25748.673171,20355.107827,27710.932816,-24143.259125,-16373.993918,-79.125175,17638.521509,-20068.983146,-6910.444130,0.006188,-0.013688,1.009750,192.000000,0.000000,0.000000,0.000000,0.000000,0.000000,0.000000,0.000000,0.000000,0.000000,1771495044.367505,0.000000
42.000000,17637.001590,16812.021054,-16319.321551,-22786.754106,-19960.331316,-24572.971412,87.976466,-25774.332973,20294.467544,27651.343066,-24208.570922,-16437.718742,-147.320348,17573.299119,-20128.617600,-6955.751116,0.006188,-0.013688,1.009750,192.000000,0.000000,0.000000,0.000000,0.000000,0.000000,0.000000,0.000000,0.000000,0.000000,1771495044.367516,0.000000
44.000000,17682.219169,16856.322212,-16269.723030,-22739.994256,-19908.967007,-24526.613894,138.089077,-25729.405967,20337.181728,27703.132058,-24161.229928,-16390.869485,-93.720865,17632.821814,-20073.811123,-6914.668609,0.006188,-0.013688,1.009750,192.000000,0.000000,0.000000,0.000000,0.000000,0.000000,0.000000,0.000000,0.000000,0.000000,1771495044.367527,0.000000
46.000000,17621.333018,16795.100784,-16330.318610,-22799.896932,-19967.796799,-24584.862540,76.308856,-25785.374735,20319.836774,27682.702563,-24181.346498,-16414.070596,-113.122179,17606.513811,-20093.972396,-6929.487816,0.006188,-0.013688,1.009750,192.000000,0.000000,0.000000,0.000000,0.000000,0.000000,0.000000,0.000000,0.000000,0.000000,1771495044.367539,0.000000
48.000000,17674.105486,16849.504930,-16275.176856,-22743.972867,-19912.252714,-24529.541973,132.612900,-25732.043473,20300.524867,27667.257508,-24196.366870,-16431.192032,-135.518627,17588.006567,-20111.697329,-6946.452790,0.008094,-0.014844,1.009875,192.000000,0.000000,40.000000,127.500000,64.000000,15.500000,72.000000,0.000000,0.000000,0.000000,1771495044.367551,0.000000
50.000000,17653.720695,16828.427235,-16299.584961,-22764.849396,-19937.621944,-24552.944249,109.970583,-25752.875299,20348.715228,27716.051366,-24147.058922,-16380.408869,-90.837489,17636.308686,-20061.718829,-6904.431510,0.008094,-0.014844,1.009875,192.000000,0.000000,0.000000,0.000000,0.000000,0.000000,0.000000,0.000000,0.000000,0.000000,1771495044.367563,0.000000
52.000000,17634.677009,16808.288313,-16317.354598,-22784.496580,-19956.330354,-24571.406790,89.630495,-25772.969517,20292.634701,27657.579202,-24209.822620,-16441.049152,-162.854810,17574.640223,-20123.186126,-6953.560645,0.008094,-0.014844,1.009875,192.000000,0.000000,0.000000,0.000000,0.000000,0.000000,0.000000,0.000000,0.000000,0.000000,1771495044.367574,0.000000
54.000000,17684.521399,16856.724543,-16266.236158,-22736.730902,-19906.754185,-24523.752871,142.760592,-25724.421528,20340.690951,27706.730688,-24155.217308,-16390.265988,-103.846205,17628.150300,-20068.647870,-6911.606420,0.008094,-0.014844,1.009875,192.000000,0.000000,0.000000,0.000000,0.000000,0.000000,0.000000,0.000000,0.000000,0.000000,1771495044.367586,0.000000
56.000000,17624.238744,16797.470069,-16329.804519,-22797.035908,-19972.222444,-24584.147285,78.119347,-25781.172607,20323.100129,27687.865816,-24175.646803,-16408.482660,-117.436065,17603.004587,-20094.441783,-6929.688982,0.008094,-0.014844,1.009875,192.000000,0.000000,0.000000,0.000000,0.000000,0.000000,0.000000,0.000000,0.000000,0.000000,1771495044.367598,0.000000
58.000000,17680.207512,16852.924747,-16272.382888,-22742.028265,-19913.660874,-24534.280543,136.390345,-25725.628522,20299.049652,27669.067999,-24192.254149,-16425.581744,-145.353394,17586.643110,-20111.362053,-6949.962014,0.009047,-0.010422,1.006938,192.000000,0.000000,40.000000,127.500000,104.000000,15.500000,48.000000,0.000000,0.000000,0.000000,1771495044.846429,0.000000
60.000000,17658.749838,16826.840261,-16295.539295,-22764.938803,-19940.930002,-24555.648810,113.524510,-25747.220307,20350.995106,27713.771488,-24140.398102,-16375.826761,-88.512908,17648.266870,-20062.389381,-6907.024313,0.009047,-0.010422,1.006938,192.000000,0.000000,0.000000,0.000000,0.000000,0.000000,0.000000,0.000000,0.000000,0.000000,1771495044.846491,0.000000
62.000000,17642.723637,16808.265961,-16314.873554,-22784.049545,-19963.684078,-24575.787732,93.162071,-25766.331049,20294.534599,27654.047627,-24201.932454,-16437.696390,-154.674072,17572.181531,-20126.114205,-6958.634491,0.009047,-0.010422,1.006938,192.000000,0.000000,0.000000,0.000000,0.000000,0.000000,0.000000,0.000000,0.000000,0.000000,1771495044.846535,0.000000
64.000000,17688.678824,16859.183235,-16269.700679,-22738.072006,-19916.790118,-24528.446737,145.800429,-25719.973531,20337.449948,27704.115534,-24151.283401,-16385.996805,-96.201908,17623.836413,-20073.297033,-6915.562679,0.009047,-0.010422,1.006938,192.000000,0.000000,0.000000,0.000000,0.000000,0.000000,0.000000,0.000000,0.000000,0.000000,1771495044.846578,0.000000
66.000000,17619.969561,16794.676101,-16330.162147,-22794.465458,-19984.717069,-24593.177389,80.958018,-25780.323241,20311.544277,27683.440171,-24177.390239,-16408.773233,-126.086190,17602.870477,-20100.543809,-6933.064095,0.009047,-0.010422,1.006938,192.000000,0.000000,0.000000,0.000000,0.000000,0.000000,0.000000,0.000000,0.000000,0.000000,1771495044.846618,0.000000
68.000000,17676.363012,16847.582680,-16274.618062,-22739.569573,-19921.752205,-24531.911258,135.697441,-25728.243676,20294.981634,27664.374133,-24192.343556,-16424.464157,-142.537074,17578.797648,-20115.944161,-6946.408087,0.009047,-0.010422,1.006938,192.000000,0.000000,0.000000,0.000000,0.000000,0.000000,0.000000,0.000000,0.000000,0.000000,1771495044.846662,0.000000
70.000000,17653.720695,16823.398092,-16302.982426,-22765.005859,-19949.356610,-24560.253270,109.523548,-25752.987057,20339.349847,27708.071793,-24146.276611,-16379.872427,-98.414731,17629.200832,-20066.770323,-6904.252697,0.010000,-0.002000,1.006000,192.000000,0.000000,40.000000,127.500000,120.000000,15.500000,56.000000,0.000000,0.000000,0.000000,1771495044.846706,0.000000
72.000000,17636.129872,16803.974426,-16319.612124,-22782.037888,-19963.795836,-24579.587529,90.278696,-25770.801398,20283.090506,27652.080673,-24209.979082,-16440.333896,-163.190086,17564.380773,-20130.964533,-6957.427497,0.010000,-0.002000,1.006000,192.000000,0.000000,0.000000,0.000000,0.000000,0.000000,0.000000,0.000000,0.000000,0.000000,1771495044.846722,0.000000
74.000000,17687.740050,16857.372744,-16265.900882,-22731.925277,-19910.665740,-24524.602237,144.101697,-25719.682958,20336.734693,27704.204941,-24152.021009,-16384.700404,-100.560498,17618.874326,-20073.453495,-6913.528670,0.010000,-0.002000,1.006000,192.000000,0.000000,0.000000,0.000000,0.000000,0.000000,0.000000,0.000000,0.000000,0.000000,1771495044.846733,0.000000
76.000000,17624.149337,16792.239760,-16331.167976,-22795.225417,-19973.518845,-24586.270700,75.973579,-25782.737229,20318.070986,27684.736572,-24177.747867,-16404.995788,-122.196987,17600.635302,-20097.660434,-6929.867796,0.010000,-0.002000,1.006000,192.000000,0.000000,0.000000,0.000000,0.000000,0.000000,0.000000,0.000000,0.000000,0.000000,1771495044.846744,0.000000
78.000000,17677.480600,16848.923784,-16276.450905,-22741.894155,-19916.521897,-24531.464223,129.774228,-25732.781080,20304.861105,27664.016505,-24198.713803,-16427.883974,-144.101697,17580.406973,-20116.413548,-6947.995060,0.010000,-0.002000,1.006000,192.000000,0.000000,0.000000,0.000000,0.000000,0.000000,0.000000,0.000000,0.000000,0.000000,1771495044.846755,0.000000
80.000000,17660.694439,16826.482633,-16298.534429,-22762.770684,-19940.102987,-24551.267868,107.154263,-25750.394255,20350.682181,27716.677215,-24146.343666,-16374.128029,-87.171803,17637.605087,-20063.641079,-6900.475252,0.016000,-0.002000,1.008000,192.000000,0.000000,64.000000,127.500000,120.000000,15.500000,64.000000,0.000000,0.000000,0.000000,1771495044.846766,0.000000
82.000000,17645.227032,16808.824755,-16313.621856,-22779.825065,-19953.044647,-24564.589508,92.871498,-25764.565261,20298.088526,27652.773577,-24204.078222,-16436.064713,-146.180409,17568.292328,-20128.997580,-6956.265206,0.016000,-0.002000,1.008000,192.000000,0.000000,0.000000,0.000000,0.000000,0.000000,0.000000,0.000000,0.000000,0.000000,1771495044.846778,0.000000
84.000000,17695.451402,16860.747857,-16262.056382,-22728.125480,-19903.870810,-24520.042481,146.225112,-25717.403080,20351.151568,27712.005700,-24147.237736,-16377.659604,-82.589696,17632.643000,-20070.681878,-6910.913516,0.016000,-0.002000,1.008000,192.000000,0.000000,0.000000,0.000000,0.000000,0.000000,0.000000,0.000000,0.000000,0.000000,1771495044.846789,0.000000
86.000000,17630.251364,16792.150353,-16327.658752,-22793.526684,-19962.722953,-24582.850883,77.761719,-25781.865511,20324.240068,27688.335203,-24174.305698,-16404.347587,-115.938498,17608.212544,-20095.537018,-6930.136017,0.016000,-0.002000,1.008000,192.000000,0.000000,0.000000,0.000000,0.000000,0.000000,0.000000,0.000000,0.000000,0.000000,1771495044.846800,0.000000
88.000000,17682.532094,16840.273659,-16275.556836,-22737.289695,-19913.906743,-24529.027883,131.316499,-25730.188278,20305.822230,27669.492682,-24193.237626,-16423.570087,-136.703269,17576.227197,-20113.999559,-6947.235101,0.016000,-0.002000,1.008000,192.000000,0.000000,0.000000,0.000000,0.000000,0.000000,0.000000,0.000000,0.000000,0.000000,1771495044.846811,0.000000
90.000000,17661.566158,16822.481671,-16299.093223,-22756.713361,-19940.438263,-24550.999647,110.417618,-25750.841290,20351.062161,27717.258360,-24147.952991,-16375.826761,-88.334094,17622.092977,-20069.452532,-6904.498566,0.010000,-0.006000,1.008000,192.000000,0.000000,40.000000,127.500000,104.000000,15.500000,64.000000,0.000000,0.000000,0.000000,1771495044.846828,0.000000
92.000000,17640.019076,16804.153240,-16317.332246,-22775.622937,-19956.665630,-24566.355296,87.842356,-25771.069619,20296.836829,27661.356647,-24207.028652,-16433.114282,-146.091002,17566.861816,-20128.707007,-6952.487761,0.010000,-0.006000,1.008000,192.000000,0.000000,0.000000,0.000000,0.000000,0.000000,0.000000,0.000000,0.000000,0.000000,1771495044.846840,0.000000
94.000000,17690.489315,16852.656526,-16261.743458,-22727.164355,-19900.696862,-24516.712072,143.431144,-25721.739319,20340.333324,27710.955168,-24158.100683,-16383.225189,-100.940478,17620.260134,-20073.453495,-6912.746359,0.010000,-0.006000,1.008000,192.000000,0.000000,0.000000,0.000000,0.000000,0.000000,0.000000,0.000000,0.000000,0.000000,1771495044.846851,0.000000
96.000000,17626.652733,16786.495362,-16327.412883,-22788.654004,-19965.203996,-24581.196854,79.572210,-25781.440828,20327.749291,27693.185531,-24174.484512,-16401.531267,-115.469112,17601.819945,-20091.223132,-6922.938755,0.010000,-0.006000,1.008000,192.000000,0.000000,0.000000,0.000000,0.000000,0.000000,0.000000,0.000000,0.000000,0.000000,1771495044.846862,0.000000
98.000000,17676.720640,16835.758607,-16276.942644,-22742.184727,-19915.471365,-24534.057025,128.835455,-25731.931714,20297.976768,27665.514072,-24199.809039,-16425.201765,-141.061859,17574.550816,-20118.402853,-6948.665613,0.010000,-0.006000,1.008000,192.000000,0.000000,0.000000,0.000000,0.000000,0.000000,0.000000,0.000000,0.000000,0.000000,1771495044.846872,0.000000
100.000000,17664.605995,16817.787804,-16294.242894,-22758.501501,-19932.481042,-24550.284392,111.602260,-25747.868508,20347.284716,27720.342901,-24144.667285,-16371.624633,-92.111539,17628.820852,-20062.724657,-6905.727912,0.004000,-0.010000,1.004000,192.000000,0.000000,16.000000,127.500000,88.000000,15.500000,48.000000,0.000000,0.000000,0.000000,1771495044.846885,0.000000
102.000000,17646.478730,16800.085223,-16315.901734,-22775.779399,-19951.390618,-24566.869386,92.290353,-25765.615793,20302.178896,27659.479101,-24201.999510,-16429.985038,-144.705194,17569.678136,-20124.348417,-6955.169970,0.004000,-0.010000,1.004000,192.000000,0.000000,0.000000,0.000000,0.000000,0.000000,0.000000,0.000000,0.000000,0.000000,1771495044.846898,0.000000
104.000000,17695.630216,16852.991802,-16260.245891,-22724.996236,-19903.513182,-24518.544915,146.828609,-25716.374900,20348.894042,27707.892979,-24152.780968,-16378.240750,-94.681990,17619.366064,-20071.821817,-6912.902822,0.004000,-0.010000,1.004000,192.000000,0.000000,0.000000,0.000000,0.000000,0.000000,0.000000,0.000000,0.000000,0.000000,1771495044.846910,0.000000
106.000000,17634.386436,16789.356385,-16325.468281,-22785.949443,-19964.466389,-24575.653622,80.756853,-25776.232872,20335.035960,27691.062116,-24171.355268,-16398.089099,-116.117312,17604.189230,-20091.938387,-6925.732723,0.004000,-0.010000,1.004000,192.000000,0.000000,0.000000,0.000000,0.000000,0.000000,0.000000,0.000000,0.000000,0.000000,1771495044.846922,0.000000
108.000000,17684.722565,16841.592412,-16272.919330,-22731.142966,-19912.431528,-24522.612932,135.295109,-25726.008502,20317.713358,27671.973726,-24194.310509,-16418.697407,-132.277624,17583.335052,-20113.485469,-6944.955223,0.004000,-0.010000,1.004000,192.000000,0.000000,0.000000,0.000000,0.000000,0.000000,0.000000,0.000000,0.000000,0.000000,1771495044.846933,0.000000
110.000000,17666.416486,16822.660485,-16294.555818,-22752.935917,-19931.743435,-24548.228031,113.457455,-25746.616810,20357.879443,27720.767584,-24143.125015,-16365.835531,-85.629533,17636.062817,-20059.953041,-6900.922287,0.004000,-0.010000,1.004000,192.000000,0.000000,0.000000,127.500000,112.000000,15.500000,24.000000,0.000000,0.000000,0.000000,1771495044.846944,0.000000
112.000000,17639.840262,16796.330130,-16317.086377,-22778.595719,-19958.923156,-24574.044296,88.199984,-25771.293136,20304.212904,27660.887261,-24206.268693,-16432.913117,-149.488467,17569.879302,-20127.187088,-6955.505247,0.004000,-0.010000,1.004000,192.000000,0.000000,0.000000,0.000000,0.000000,0.000000,0.000000,0.000000,0.000000,0.000000,1771495044.846955,0.000000
114.000000,17691.718661,16847.336811,-16262.928100,-22728.706626,-19907.648254,-24524.177554,145.599263,-25720.957008,20351.732713,27714.039709,-24153.138596,-16381.258235,-99.398208,17632.240669,-20071.039506,-6914.400389,0.004000,-0.010000,1.004000,192.000000,0.000000,0.000000,0.000000,0.000000,0.000000,0.000000,0.000000,0.000000,0.000000,1771495044.846967,0.000000
116.000000,17626.518622,16786.540066,-16328.753987,-22790.330385,-19975.843427,-24587.142418,79.259286,-25780.926738,20330.185632,27690.168046,-24177.412591,-16407.230962,-122.554615,17601.618779,-20097.101640,-6932.259432,0.004000,-0.010000,1.004000,192.000000,0.000000,0.000000,0.000000,0.000000,0.000000,0.000000,0.000000,0.000000,0.000000,1771495044.846978,0.000000
118.000000,17682.018004,16840.452473,-16272.271129,-22737.312047,-19914.242019,-24530.279580,134.781019,-25727.439013,20308.906771,27674.052438,-24197.707975,-16423.748901,-145.107525,17583.379755,-20115.251257,-6948.620909,0.004000,-0.010000,1.004000,192.000000,0.000000,0.000000,0.000000,0.000000,0.000000,0.000000,0.000000,0.000000,0.000000,1771495044.846989,0.000000
120.000000,17668.808123,16826.013246,-16291.694795,-22756.668658,-19931.721083,-24546.842223,115.625574,-25742.951124,20359.689934,27725.886133,-24140.465157,-16366.930767,-83.506117,17643.975335,-20059.014268,-6901.928115,0.004000,-0.010000,1.004000,192.000000,0.000000,0.000000,127.500000,80.000000,15.500000,56.000000,0.000000,0.000000,0.000000,1771495044.847000,0.000000
122.000000,17648.915070,16804.421461,-16311.409034,-22777.902815,-19954.229290,-24567.182310,91.083359,-25763.805302,20302.022434,27666.475197,-24201.686585,-16427.369884,-152.930636,17581.904540,-20122.560277,-6952.755982,0.004000,-0.010000,1.004000,192.000000,0.000000,0.000000,0.000000,0.000000,0.000000,0.000000,0.000000,0.000000,0.000000,1771495044.847012,0.000000
124.000000,17699.899399,16850.153130,-16261.586995,-22732.461719,-19904.742528,-24514.990987,144.481676,-25715.324368,20350.101036,27712.609197,-24151.395160,-16378.821895,-93.564402,17634.721712,-20072.022983,-6913.171043,0.004000,-0.010000,1.004000,192.000000,0.000000,0.000000,0.000000,0.000000,0.000000,0.000000,0.000000,0.000000,0.000000,1771495044.847023,0.000000
126.000000,17638.499157,16789.132868,-16324.082473,-22788.363431,-19967.997964,-24580.414543,80.242763,-25774.780008,20332.957248,27695.487761,-24169.075390,-16396.926808,-121.548786,17614.225163,-20090.731393,-6926.380924,0.004000,-0.010000,1.004000,192.000000,0.000000,0.000000,0.000000,0.000000,0.000000,0.000000,0.000000,0.000000,0.000000,1771495044.847034,0.000000
128.000000,17687.918864,16837.971430,-16274.953338,-22736.529736,-19919.606438,-24529.072586,131.025926,-25728.780118,20305.732823,27665.804644,-24197.395050,-16423.860660,-143.989938,17588.386546,-20116.324141,-6949.492627,0.004000,-0.010000,1.004000,192.000000,0.000000,0.000000,0.000000,0.000000,0.000000,0.000000,0.000000,0.000000,0.000000,1771495044.847050,0.000000
130.000000,17665.142437,16819.911220,-16295.606350,-22754.880518,-19935.923211,-24544.294124,111.445798,-25750.304848,20354.750199,27720.454660,-24146.366018,-16373.189255,-89.228164,17644.891756,-20063.082285,-6900.788176,0.004000,-0.012000,1.010000,192.000000,0.000000,16.000000,127.500000,80.000000,15.500000,72.000000,0.000000,0.000000,0.000000,1771495044.847061,0.000000
132.000000,17641.427236,16794.631397,-16315.901734,-22777.656946,-19956.375057,-24567.964622,89.161109,-25772.835406,20300.122535,27659.546156,-24207.453335,-16434.187166,-150.986034,17584.162066,-20121.375635,-6947.816246,0.004000,-0.012000,1.010000,192.000000,0.000000,0.000000,0.000000,0.000000,0.000000,0.000000,0.000000,0.000000,0.000000,1771495044.847072,0.000000
134.000000,17698.379481,16851.538938,-16259.418876,-22728.281942,-19902.730871,-24514.946284,144.571083,-25719.124164,20345.921260,27703.757906,-24155.463178,-16384.990976,-99.688780,17636.487500,-20067.619689,-6908.588935,0.004000,-0.012000,1.010000,192.000000,0.000000,0.000000,0.000000,0.000000,0.000000,0.000000,0.000000,0.000000,0.000000,1771495044.847082,0.000000
136.000000,17637.940364,16790.250455,-16323.098996,-22789.682184,-19966.433342,-24577.732334,80.332170,-25777.462218,20332.420806,27686.234139,-24174.283346,-16402.157116,-115.446760,17610.805346,-20087.602149,-6924.011639,0.004000,-0.012000,1.010000,192.000000,0.000000,0.000000,0.000000,0.000000,0.000000,0.000000,0.000000,0.000000,0.000000,1771495044.847093,0.000000
138.000000,17686.957739,16840.072494,-16271.891150,-22736.865012,-19916.767766,-24529.452566,136.435048,-25725.092080,20310.002006,27664.597650,-24195.986890,-16423.838308,-136.882083,17583.267997,-20111.630274,-6945.402258,0.004000,-0.012000,1.010000,192.000000,0.000000,0.000000,0.000000,0.000000,0.000000,0.000000,0.000000,0.000000,0.000000,1771495044.847105,0.000000
140.000000,17675.915977,16827.108482,-16291.381871,-22753.718228,-19936.884336,-24547.803348,118.352487,-25740.179508,20358.326478,27723.963883,-24141.023951,-16367.288395,-84.020207,17638.901489,-20059.707172,-6897.927153,0.005000,-0.012000,1.010000,192.000000,0.000000,24.000000,127.500000,80.000000,15.500000,72.000000,0.000000,0.000000,0.000000,1771495044.847116,0.000000
142.000000,17654.793579,16807.058967,-16310.090281,-22771.331402,-19954.408104,-24561.482616,95.866632,-25759.379656,20309.420861,27664.485891,-24198.646748,-16423.748901,-144.034641,17581.233988,-20122.359112,-6947.592729,0.005000,-0.012000,1.010000,192.000000,0.000000,0.000000,0.000000,0.000000,0.000000,0.000000,0.000000,0.000000,0.000000,1771495044.847127,0.000000
144.000000,17711.365844,16862.960680,-16256.624908,-22720.861163,-19899.780440,-24502.786935,150.337833,-25706.964815,20358.102960,27720.208790,-24146.008390,-16373.971566,-84.243725,17637.068646,-20066.904434,-6905.236173,0.005000,-0.012000,1.010000,192.000000,0.000000,0.000000,0.000000,0.000000,0.000000,0.000000,0.000000,0.000000,0.000000,1771495044.847138,0.000000
146.000000,17650.859672,16799.705243,-16318.181612,-22781.121466,-19960.107799,-24569.104561,86.367141,-25765.101703,20350.011629,27709.614063,-24161.609907,-16389.081346,-94.212603,17626.898602,-20084.584663,-6918.244889,0.005000,-0.012000,1.010000,192.000000,0.000000,0.000000,0.000000,0.000000,0.000000,0.000000,0.000000,0.000000,0.000000,1771495044.847149,0.000000
148.000000,17703.252161,16849.549633,-16266.683193,-22732.081739,-19908.698786,-24520.891848,138.893740,-25716.888990,20320.708492,27686.636470,-24185.950957,-16414.338817,-132.009403,17604.904485,-20110.043300,-6941.960089,0.005000,-0.012000,1.010000,192.000000,0.000000,0.000000,0.000000,0.000000,0.000000,0.000000,0.000000,0.000000,0.000000,1771495044.847160,0.000000
150.000000,17683.493219,16828.002552,-16287.984406,-22752.533585,-19933.978609,-24545.322304,116.676106,-25737.631409,20367.535397,27734.491555,-24132.619695,-16362.505122,-78.544030,17647.886890,-20056.577928,-6897.189545,0.005500,-0.013000,1.008000,192.000000,0.000000,24.000000,127.500000,72.000000,15.500000,56.000000,0.000000,0.000000,0.000000,1771495044.847171,0.000000
152.000000,17652.916032,16798.051214,-16313.174822,-22777.098152,-19960.465427,-24570.266851,88.870536,-25764.051171,20310.203172,27668.978592,-24197.618568,-16428.532175,-145.889836,17583.245645,-20124.974266,-6950.386697,0.005500,-0.013000,1.008000,192.000000,0.000000,0.000000,0.000000,0.000000,0.000000,0.000000,0.000000,0.000000,0.000000,1771495044.847182,0.000000
154.000000,17711.187030,16857.193930,-16253.383905,-22719.654169,-19897.411155,-24509.291292,147.901493,-25708.149458,20352.626783,27716.677215,-24149.227041,-16379.358337,-94.480824,17626.295105,-20067.619689,-6906.845499,0.005500,-0.013000,1.008000,192.000000,0.000000,0.000000,0.000000,0.000000,0.000000,0.000000,0.000000,0.000000,0.000000,1771495044.847195,0.000000
156.000000,17647.663372,16790.205752,-16316.661694,-22783.870731,-19959.996040,-24573.172578,82.544992,-25769.527348,20341.450911,27699.913406,-24164.403875,-16395.742166,-106.751932,17615.141584,-20082.237730,-6915.674438,0.005500,-0.013000,1.008000,192.000000,0.000000,0.000000,0.000000,0.000000,0.000000,0.000000,0.000000,0.000000,0.000000,1771495044.847206,0.000000
158.000000,17698.647702,16846.018058,-16267.219635,-22733.959285,-19911.872734,-24524.356368,134.289281,-25718.945351,20323.658922,27677.651069,-24185.593329,-16418.652704,-126.980260,17588.788878,-20107.629312,-6938.830845,0.005500,-0.013000,1.008000,192.000000,0.000000,0.000000,0.000000,0.000000,0.000000,0.000000,0.000000,0.000000,0.000000,1771495044.847217,0.000000
160.000000,17685.437821,16830.550650,-16284.385775,-22749.024361,-19928.591839,-24538.594429,118.553653,-25734.032778,20373.078629,27733.485727,-24131.233887,-16365.857883,-76.487670,17647.931593,-20057.941384,-6895.446109,0.005750,-0.015500,1.008000,192.000000,0.000000,24.000000,127.500000,56.000000,15.500000,64.000000,0.000000,0.000000,0.000000,1771495044.847228,0.000000
162.000000,17661.409695,16807.170726,-16310.693778,-22775.466475,-19948.373133,-24559.582717,91.284524,-25757.323296,20319.412091,27674.074790,-24190.443658,-16425.358227,-130.176560,17589.057099,-20118.671074,-6944.754057,0.005750,-0.015500,1.008000,192.000000,0.000000,0.000000,0.000000,0.000000,0.000000,0.000000,0.000000,0.000000,0.000000,1771495044.847239,0.000000
164.000000,17714.562144,16863.497122,-16252.266318,-22723.006931,-19900.138068,-24509.067775,147.901493,-25704.394365,20363.199158,27724.187401,-24142.320352,-16376.989052,-96.067798,17637.694494,-20067.418524,-6908.387769,0.005750,-0.015500,1.008000,192.000000,0.000000,0.000000,0.000000,0.000000,0.000000,0.000000,0.000000,0.000000,0.000000,1771495044.847250,0.000000
166.000000,17645.249384,16796.084260,-16317.958095,-22782.507274,-19961.940642,-24572.390267,83.863745,-25766.174587,20350.212795,27711.581017,-24158.234794,-16390.981244,-107.623650,17626.965657,-20084.830533,-6915.853252,0.005750,-0.015500,1.008000,192.000000,0.000000,0.000000,0.000000,0.000000,0.000000,0.000000,0.000000,0.000000,0.000000,1771495044.847269,0.000000
168.000000,17693.372690,16847.157997,-16270.326527,-22736.194460,-19912.655045,-24524.848106,131.383554,-25720.219400,20324.664751,27678.388676,-24187.247358,-16420.463195,-134.512798,17589.772354,-20112.949027,-6941.021316,0.005750,-0.015500,1.008000,192.000000,0.000000,0.000000,0.000000,0.000000,0.000000,0.000000,0.000000,0.000000,0.000000,1771495044.847280,0.000000
170.000000,17674.396059,16827.130834,-16289.727842,-22754.992277,-19931.765787,-24542.863613,113.882138,-25738.838403,20370.754048,27733.798651,-24135.972456,-16367.444857,-78.275809,17657.855768,-20058.455474,-6894.552039,0.007875,-0.017750,1.009000,192.000000,0.000000,40.000000,127.500000,48.000000,15.500000,72.000000,0.000000,0.000000,0.000000,1771495044.847291,0.000000
172.000000,17647.976297,16800.040519,-16312.414862,-22778.394553,-19956.039781,-24570.199796,90.166937,-25761.212499,20311.566628,27670.252641,-24197.663271,-16431.102625,-143.542903,17585.413764,-20121.375635,-6947.190398,0.007875,-0.017750,1.009000,192.000000,0.000000,0.000000,0.000000,0.000000,0.000000,0.000000,0.000000,0.000000,0.000000,1771495044.847302,0.000000
174.000000,17702.000463,16854.154093,-16258.547158,-22727.030245,-19904.474307,-24515.594484,147.230941,-25710.250522,20357.097132,27719.649997,-24147.841233,-16380.431221,-93.877327,17644.422370,-20070.525416,-6906.621981,0.007875,-0.017750,1.009000,192.000000,0.000000,0.000000,0.000000,0.000000,0.000000,0.000000,0.000000,0.000000,0.000000,1771495044.847313,0.000000
176.000000,17646.545785,16797.805345,-16318.047502,-22786.016498,-19961.873586,-24574.893662,83.930800,-25766.375752,20340.825062,27705.546046,-24163.867434,-16397.530305,-104.874385,17624.305800,-20088.585626,-6917.417874,0.007875,-0.017750,1.009000,192.000000,0.000000,0.000000,0.000000,0.000000,0.000000,0.000000,0.000000,0.000000,0.000000,1771495044.847324,0.000000
178.000000,17694.579684,16847.426217,-16267.644318,-22739.748387,-19908.765842,-24525.295141,131.070629,-25720.912304,20324.173012,27687.105857,-24185.772143,-16419.189145,-125.907377,17601.484668,-20108.098699,-6937.243871,0.007875,-0.017750,1.009000,192.000000,0.000000,0.000000,0.000000,0.000000,0.000000,0.000000,0.000000,0.000000,0.000000,1771495045.327379,0.000000
180.000000,17680.140457,16834.953944,-16286.866818,-22754.031152,-19922.534516,-24538.840299,114.820911,-25734.390406,20375.962004,27739.319532,-24134.407834,-16367.713078,-73.760757,17654.078323,-20053.247518,-6895.066130,0.008938,-0.013875,1.009500,192.000000,0.000000,40.000000,127.500000,88.000000,15.500000,72.000000,0.000000,0.000000,0.000000,1771495045.327491,0.000000
182.000000,17653.005439,16807.662464,-16310.559667,-22777.232263,-19948.529595,-24562.689610,90.681027,-25758.686752,20324.418881,27677.472255,-24197.149181,-16427.727512,-134.155170,17593.393337,-20116.458251,-6945.044630,0.008938,-0.013875,1.009500,192.000000,0.000000,0.000000,0.000000,0.000000,0.000000,0.000000,0.000000,0.000000,0.000000,1771495045.327582,0.000000
184.000000,17709.533001,16861.418410,-16257.898957,-22727.142003,-19895.108926,-24512.442888,146.448630,-25707.098926,20367.490693,27730.267075,-24146.589535,-16375.178561,-85.830699,17645.830529,-20065.093942,-6906.174947,0.008938,-0.013875,1.009500,192.000000,0.000000,0.000000,0.000000,0.000000,0.000000,0.000000,0.000000,0.000000,0.000000,1771495045.327672,0.000000
186.000000,17644.198852,16800.755775,-16319.254496,-22788.542245,-19960.353668,-24574.536034,82.969675,-25767.694505,20353.096170,27716.297235,-24162.816902,-16391.785907,-101.432216,17629.178480,-20083.377669,-6916.613211,0.008938,-0.013875,1.009500,192.000000,0.000000,0.000000,0.000000,0.000000,0.000000,0.000000,0.000000,0.000000,0.000000,1771495045.327773,0.000000
188.000000,17689.505838,16846.800369,-16269.745382,-22736.082701,-19916.164269,-24527.642075,135.317461,-25721.381691,20323.189536,27684.848331,-24192.097687,-16419.211497,-131.227092,17607.765509,-20111.496164,-6938.964956,0.008938,-0.013875,1.009500,192.000000,0.000000,0.000000,0.000000,0.000000,0.000000,0.000000,0.000000,0.000000,0.000000,1771495045.327833,0.000000
190.000000,17669.344565,16829.164842,-16289.057289,-22752.488882,-19936.347894,-24540.941362,117.547824,-25737.921982,20376.319632,27735.050349,-24138.811128,-16364.874406,-76.957056,17652.178425,-20058.544881,-6890.752243,0.011469,-0.009938,1.008750,192.000000,0.000000,56.000000,127.500000,104.000000,15.500000,64.000000,0.000000,0.000000,0.000000,1771495045.327874,0.000000
192.000000,17645.696419,16804.421461,-16311.900772,-22778.685126,-19952.709371,-24567.986973,91.709208,-25761.234851,20319.680312,27677.807531,-24200.323129,-16424.732378,-136.524455,17595.740270,-20118.268742,-6938.450866,0.011469,-0.009938,1.008750,192.000000,0.000000,0.000000,0.000000,0.000000,0.000000,0.000000,0.000000,0.000000,0.000000,1771495045.327896,0.000000
194.000000,17703.766251,16863.094790,-16255.015582,-22723.006931,-19893.723118,-24511.124135,150.606054,-25706.294263,20368.429466,27730.959979,-24147.461253,-16374.172732,-80.131004,17650.703210,-20064.333983,-6897.793042,0.011469,-0.009938,1.008750,192.000000,0.000000,0.000000,0.000000,0.000000,0.000000,0.000000,0.000000,0.000000,0.000000,1771495045.327909,0.000000
196.000000,17640.354352,16797.403013,-16318.360426,-22789.928054,-19960.331316,-24572.658488,82.612048,-25769.080313,20351.486844,27713.860895,-24165.543814,-16393.618750,-102.281583,17633.648829,-20083.645890,-6912.634601,0.011469,-0.009938,1.008750,192.000000,0.000000,0.000000,0.000000,0.000000,0.000000,0.000000,0.000000,0.000000,0.000000,1771495045.327921,0.000000
198.000000,17685.281358,16843.671124,-16267.487856,-22739.971905,-19910.486926,-24529.139641,132.702307,-25722.499278,20331.057350,27683.216653,-24188.744925,-16420.418491,-124.052182,17593.482744,-20108.366920,-6939.076714,0.011469,-0.009938,1.008750,192.000000,0.000000,0.000000,0.000000,0.000000,0.000000,0.000000,0.000000,0.000000,0.000000,1771495045.327933,0.000000
200.000000,17670.506855,16829.567174,-16284.072850,-22754.321725,-19926.513127,-24542.528336,117.793693,-25737.340836,20376.856074,27734.335093,-24136.888878,-16366.170808,-71.927914,17658.548672,-20052.442855,-6894.999074,0.014734,-0.004969,1.007375,192.000000,0.000000,72.000000,0.000000,0.000000,15.500000,56.000000,0.000000,0.000000,0.000000,1771495045.327945,0.000000
202.000000,17642.053085,16803.974426,-16313.286580,-22780.965004,-19955.480987,-24570.982107,89.675199,-25763.984116,20318.942704,27674.588880,-24197.886789,-16426.945201,-129.595414,17594.600331,-20115.117146,-6943.435305,0.014734,-0.004969,1.007375,192.000000,0.000000,0.000000,0.000000,0.000000,0.000000,0.000000,0.000000,0.000000,0.000000,1771495045.327958,0.000000
204.000000,17693.640911,16854.131741,-16255.753190,-22728.237239,-19896.338272,-24514.968635,146.873313,-25712.239827,20359.756989,27719.024148,-24150.277573,-16381.951139,-89.272867,17644.288259,-20063.931652,-6903.515089,0.014734,-0.004969,1.007375,192.000000,0.000000,0.000000,0.000000,0.000000,0.000000,0.000000,0.000000,0.000000,0.000000,1771495045.327970,0.000000
206.000000,17630.273715,16789.490496,-16322.987237,-22789.503370,-19963.326450,-24569.953927,80.779204,-25773.796531,20341.473262,27698.751116,-24171.779951,-16400.704253,-106.841338,17629.580811,-20084.003518,-6910.846461,0.014734,-0.004969,1.007375,192.000000,0.000000,0.000000,0.000000,0.000000,0.000000,0.000000,0.000000,0.000000,0.000000,1771495045.327982,0.000000
208.000000,17675.401887,16833.590488,-16272.785219,-22740.821271,-19918.019464,-24525.496307,130.221263,-25729.808298,20319.747367,27670.006772,-24196.255111,-16426.565221,-134.177522,17604.077471,-20110.222114,-6931.611232,0.014734,-0.004969,1.007375,192.000000,0.000000,0.000000,0.000000,0.000000,0.000000,0.000000,0.000000,0.000000,0.000000,1771495045.327994,0.000000
210.000000,17658.727486,16814.613857,-16292.857086,-22759.999068,-19936.951391,-24543.400054,113.591565,-25746.616810,20364.003821,27720.544066,-24146.410721,-16377.838418,-87.305914,17653.877157,-20055.885024,-6889.344083,0.014734,-0.004969,1.007375,192.000000,0.000000,0.000000,0.000000,0.000000,0.000000,0.000000,0.000000,0.000000,0.000000,1771495045.328006,0.000000
212.000000,17636.711018,16790.742194,-16315.700569,-22783.803676,-19961.806531,-24569.462188,86.925934,-25768.186244,20307.118631,27660.820205,-24209.330882,-16438.366942,-148.817915,17588.408898,-20121.107414,-6943.010621,0.006000,-0.010000,1.000000,192.000000,0.000000,24.000000,127.500000,88.000000,15.500000,32.000000,0.000000,0.000000,0.000000,1771495045.328017,0.000000
214.000000,17702.760423,16857.506854,-16254.948527,-22723.610428,-19901.725042,-24507.972539,149.130839,-25705.891932,20358.460588,27720.387604,-24149.316448,-16379.090116,-90.412806,17647.641021,-20066.032716,-6902.956295,0.006000,-0.010000,1.000000,192.000000,0.000000,0.000000,0.000000,0.000000,0.000000,0.000000,0.000000,0.000000,0.000000,1771495045.328030,0.000000
216.000000,17639.057951,16795.480763,-16320.685008,-22788.139914,-19962.030049,-24575.519511,79.192231,-25771.136674,20351.531547,27706.373061,-24162.816902,-16393.685805,-101.007533,17635.414617,-20081.477771,-6910.086502,0.006000,-0.010000,1.000000,192.000000,0.000000,0.000000,0.000000,0.000000,0.000000,0.000000,0.000000,0.000000,0.000000,1771495045.328042,0.000000
218.000000,17686.890684,16841.145377,-16268.650147,-22741.894155,-19910.732795,-24529.877249,131.942348,-25724.957970,20323.345998,27671.638450,-24195.025765,-16426.364055,-131.070629,17602.646959,-20108.232809,-6935.947470,0.006000,-0.010000,1.000000,192.000000,0.000000,0.000000,0.000000,0.000000,0.000000,0.000000,0.000000,0.000000,0.000000,1771495045.328062,0.000000
220.000000,17673.434934,16828.337828,-16282.105897,-22757.383914,-19925.194374,-24546.819871,119.470074,-25737.184374,20373.302147,27724.880305,-24137.179451,-16374.060973,-72.374949,17654.570062,-20050.677067,-6890.059339,0.006000,-0.010000,1.000000,192.000000,0.000000,0.000000,0.000000,0.000000,0.000000,0.000000,0.000000,0.000000,0.000000,1771495045.328074,0.000000
