Sample_index,EXG Channel 0,EXG Channel 1,EXG Channel 2,EXG Channel 3,EXG Channel 4,EXG Channel 5,EXG Channel 6,EXG Channel 7,EXG Channel 8,EXG Channel 9,EXG Channel 10,EXG Channel 11,EXG Channel 12,EXG Channel 13,EXG Channel 14,EXG Channel 15,Accel Channel 0,Accel Channel 1,Accel Channel 2,Not Used,Digital Channel 0 (D11),Digital Channel 1 (D12),Digital Channel 2 (D13),Digital Channel 3 (D17),Not Used,Digital Channel 4 (D18),Analog Channel 0,Analog Channel 1,Analog Channel 2,Timestamp,Marker Channel
112.000000,17969.260272,16109.461023,-13070.942530,-25758.440883,-19054.079837,-21877.507493,-2320.468702,-25359.261079,20282.799933,37386.265384,-24413.022329,-16231.926230,2353.616339,20010.555686,-20803.617931,-1109.831167,0.002000,-0.002000,1.000000,192.000000,0.000000,0.000000,0.000000,0.000000,0.000000,0.000000,0.000000,0.000000,0.000000,1771496812.525006,101.000000
114.000000,18036.427264,16182.215951,-13006.010712,-25692.927920,-18990.019737,-21811.748661,-2251.401812,-25292.764639,20317.288675,37425.135067,-24371.269270,-16189.256750,2405.539442,20058.142550,-20762.177797,-1089.602839,0.002000,-0.005000,1.003000,192.000000,0.000000,8.000000,127.500000,96.000000,15.500000,56.000000,0.000000,0.000000,0.000000,1771496812.525071,0.000000
116.000000,17970.243748,16112.500860,-13065.555759,-25759.089084,-19053.297526,-21876.054630,-2316.691258,-25356.802387,20313.734748,37421.871712,-24374.487922,-16192.341291,2390.675532,20060.914166,-20762.378962,-1086.563001,0.002000,-0.005000,1.003000,192.000000,0.000000,0.000000,0.000000,0.000000,0.000000,0.000000,0.000000,0.000000,0.000000,1771496812.525123,0.000000
118.000000,18016.891839,16161.741753,-13022.930982,-25717.783060,-19009.175182,-21828.177193,-2274.312350,-25312.300064,20290.935968,37387.248860,-24409.848381,-16232.216803,2354.666871,20027.990046,-20801.181591,-1117.341354,0.002000,-0.005000,1.003000,192.000000,0.000000,0.000000,0.000000,0.000000,0.000000,0.000000,0.000000,0.000000,0.000000,1771496812.525170,0.000000
120.000000,18006.833554,16148.598927,-13029.077712,-25723.862734,-19015.858354,-21842.437606,-2278.983865,-25320.145526,20336.466472,37438.859038,-24343.776625,-16168.469628,2419.598689,20088.764440,-20732.315866,-1080.840955,0.002000,-0.005000,1.003000,192.000000,0.000000,0.000000,0.000000,0.000000,0.000000,0.000000,0.000000,0.000000,0.000000,1771496812.525218,0.000000
122.000000,17965.840455,16108.410491,-13074.362346,-25763.559432,-19056.158549,-21880.860255,-2324.313202,-25361.719771,20286.085640,37381.951497,-24413.469364,-16232.842652,2351.649386,20020.815137,-20799.907541,-1118.525996,0.002000,-0.005000,1.003000,192.000000,0.000000,0.000000,0.000000,0.000000,0.000000,0.000000,0.000000,0.000000,0.000000,1771496812.525242,0.000000
124.000000,18032.180432,16173.968157,-13002.434433,-25694.805467,-18990.533828,-21810.876943,-2252.027661,-25293.748116,20313.421823,37416.104962,-24372.588023,-16192.877733,2391.837822,20062.098809,-20757.729799,-1093.737911,0.005000,-0.007500,1.002500,192.000000,0.000000,32.000000,127.500000,88.000000,15.500000,40.000000,0.000000,0.000000,0.000000,1771496812.525266,0.000000
126.000000,17974.579987,16116.546526,-13068.617948,-25757.524461,-19058.907814,-21873.953566,-2317.607679,-25356.087131,20312.639512,37411.254634,-24373.347983,-16195.157611,2386.383997,20067.530282,-20764.636489,-1091.212164,0.005000,-0.007500,1.002500,192.000000,0.000000,0.000000,0.000000,0.000000,0.000000,0.000000,0.000000,0.000000,0.000000,1771496812.525291,0.000000
128.000000,18021.071615,16164.759238,-13030.351762,-25715.279664,-19012.997331,-21829.451243,-2274.737033,-25313.685872,20285.862122,37382.398532,-24412.262370,-16231.300382,2349.324804,20023.631456,-20804.735518,-1111.775769,0.005000,-0.007500,1.002500,192.000000,0.000000,0.000000,0.000000,0.000000,0.000000,0.000000,0.000000,0.000000,0.000000,1771496812.525315,0.000000
130.000000,18016.333046,16159.618337,-13028.474215,-25719.258275,-19021.580401,-21834.212164,-2276.011083,-25317.262151,20337.047617,37443.016463,-24343.821328,-16166.882654,2424.314907,20098.845076,-20735.243945,-1070.335635,0.005000,-0.007500,1.002500,192.000000,0.000000,0.000000,0.000000,0.000000,0.000000,0.000000,0.000000,0.000000,0.000000,1771496812.525340,0.000000
132.000000,17983.297167,16126.761273,-13071.702489,-25761.145444,-19060.673602,-21878.178046,-2320.803979,-25357.316477,20282.710526,37379.693971,-24410.831858,-16231.009809,2346.061450,20028.079453,-20803.796745,-1110.389961,0.005000,-0.007500,1.002500,192.000000,0.000000,0.000000,0.000000,0.000000,0.000000,0.000000,0.000000,0.000000,0.000000,1771496812.525364,0.000000
134.000000,18049.145406,16192.989492,-13001.227439,-25692.950272,-18989.416240,-21808.820582,-2250.463039,-25291.647052,20321.110823,37422.229340,-24366.508349,-16186.663948,2396.196413,20078.482637,-20758.378000,-1086.004208,0.005500,-0.006750,1.006250,192.000000,0.000000,24.000000,127.500000,104.000000,15.500000,72.000000,0.000000,0.000000,0.000000,1771496812.525388,0.000000
136.000000,17985.152362,16129.890517,-13068.774410,-25760.050209,-19056.404419,-21875.719354,-2319.507577,-25357.003553,20315.366425,37418.898930,-24372.498616,-16192.385994,2402.119625,20060.243614,-20761.708410,-1085.087786,0.005500,-0.006750,1.006250,192.000000,0.000000,0.000000,0.000000,0.000000,0.000000,0.000000,0.000000,0.000000,0.000000,1771496812.525404,0.000000
138.000000,18032.269839,16171.621224,-13022.930982,-25719.973531,-19009.398700,-21837.520222,-2275.072309,-25313.864686,20285.951529,37376.162395,-24412.262370,-16233.937887,2353.281063,20022.782090,-20801.740384,-1114.033295,0.005500,-0.006750,1.006250,192.000000,0.000000,0.000000,0.000000,0.000000,0.000000,0.000000,0.000000,0.000000,0.000000,1771496812.525415,0.000000
140.000000,18035.063807,16173.834047,-13027.446035,-25725.963798,-19012.438537,-21840.224783,-2277.933333,-25316.926875,20344.356638,37436.780326,-24341.340285,-16165.943881,2423.398486,20084.741126,-20730.192450,-1076.437661,0.005500,-0.006750,1.006250,192.000000,0.000000,0.000000,0.000000,0.000000,0.000000,0.000000,0.000000,0.000000,0.000000,1771496812.525426,0.000000
142.000000,17994.562446,16132.550375,-13071.098992,-25766.956898,-19053.498692,-21882.514284,-2320.960441,-25358.076436,20292.098259,37377.168224,-24409.446050,-16233.043818,2362.892313,20022.268000,-20799.080527,-1115.083827,0.005500,-0.006750,1.006250,192.000000,0.000000,0.000000,0.000000,0.000000,0.000000,0.000000,0.000000,0.000000,0.000000,1771496812.525438,0.000000
144.000000,18061.707087,16195.716404,-13002.747357,-25700.281644,-18987.628101,-21813.089766,-2250.217170,-25291.602348,20324.195364,37407.656003,-24368.318840,-16192.721271,2396.084654,20068.402000,-20754.779369,-1091.882717,0.008750,-0.008375,1.010125,192.000000,0.000000,48.000000,127.500000,88.000000,15.500000,88.000000,0.000000,0.000000,0.000000,1771496812.525450,0.000000
146.000000,17998.474002,16132.550375,-13069.020280,-25765.101703,-19060.450084,-21878.200397,-2318.144121,-25356.467111,20322.116652,37396.390724,-24371.470436,-16197.638654,2397.314000,20062.881120,-20760.523768,-1088.909935,0.008750,-0.008375,1.010125,192.000000,0.000000,0.000000,0.000000,0.000000,0.000000,0.000000,0.000000,0.000000,0.000000,1771496812.525461,0.000000
148.000000,18045.949107,16181.344233,-13025.344971,-25719.325330,-19018.160584,-21830.255905,-2273.641798,-25310.355462,20291.204189,37362.773700,-24410.943617,-16236.195414,2354.108078,20016.300084,-20805.160201,-1110.836996,0.008750,-0.008375,1.010125,192.000000,0.000000,0.000000,0.000000,0.000000,0.000000,0.000000,0.000000,0.000000,0.000000,1771496812.525473,0.000000
150.000000,18050.598270,16183.266483,-13028.675381,-25721.046415,-19023.636761,-21830.457071,-2277.307484,-25310.578979,20348.648172,37432.332329,-24337.831061,-16163.664003,2417.676439,20091.156076,-20736.696808,-1065.462955,0.008750,-0.008375,1.010125,192.000000,0.000000,0.000000,0.000000,0.000000,0.000000,0.000000,0.000000,0.000000,0.000000,1771496812.525484,0.000000
152.000000,18009.716929,16142.005162,-13070.003756,-25764.028819,-19057.700820,-21870.913729,-2320.871034,-25351.348561,20300.301349,37366.349979,-24402.829934,-16228.685227,2361.707671,20020.435157,-20803.640283,-1101.426912,0.008750,-0.008375,1.010125,192.000000,0.000000,0.000000,0.000000,0.000000,0.000000,0.000000,0.000000,0.000000,0.000000,1771496812.525495,0.000000
154.000000,18075.252244,16207.585181,-13000.646293,-25698.046469,-18986.488162,-21810.273446,-2252.966434,-25287.601386,20333.024303,37404.817331,-24361.300392,-16188.250922,2408.378113,20069.608995,-20757.014544,-1082.092653,0.010375,-0.009188,1.010063,192.000000,0.000000,48.000000,127.500000,88.000000,15.500000,72.000000,0.000000,0.000000,0.000000,1771496812.525506,0.000000
156.000000,18016.802432,16148.397761,-13064.371117,-25762.687714,-19050.481206,-21876.076982,-2317.562976,-25350.722712,20334.924201,37404.191483,-24364.809616,-16190.217875,2397.604572,20060.891814,-20756.947488,-1081.019769,0.010375,-0.009188,1.010063,192.000000,0.000000,0.000000,0.000000,0.000000,0.000000,0.000000,0.000000,0.000000,0.000000,1771496812.525518,0.000000
158.000000,18056.432075,16187.066279,-13025.836709,-25722.968665,-19014.606656,-21840.135376,-2277.441594,-25310.556628,20298.133230,37363.466604,-24405.176867,-16233.356742,2360.545380,20018.267038,-20798.141753,-1112.111045,0.010375,-0.009188,1.010063,192.000000,0.000000,0.000000,0.000000,0.000000,0.000000,0.000000,0.000000,0.000000,0.000000,1771496812.525529,0.000000
160.000000,18055.090970,16185.747526,-13026.283744,-25726.299074,-19014.986636,-21844.717484,-2280.839059,-25312.680043,20350.279850,37429.940692,-24339.552145,-16165.072163,2428.673497,20092.921864,-20732.382921,-1077.979932,0.010375,-0.009188,1.010063,192.000000,0.000000,0.000000,0.000000,0.000000,0.000000,0.000000,0.000000,0.000000,0.000000,1771496812.525540,0.000000
162.000000,18020.423415,16147.414285,-13065.444000,-25765.369924,-19052.112884,-21884.503589,-2321.072199,-25350.700361,20304.503477,37369.121596,-24400.237131,-16228.417007,2360.679491,20020.323398,-20794.543123,-1114.435627,0.010375,-0.009188,1.010063,192.000000,0.000000,0.000000,0.000000,0.000000,0.000000,0.000000,0.000000,0.000000,0.000000,1771496812.525552,0.000000
164.000000,18088.707994,16213.664855,-12997.181773,-25702.114487,-18980.453191,-21815.190830,-2253.301710,-25284.963880,20341.897946,37410.338212,-24353.901965,-16187.446259,2404.690075,20069.899567,-20747.671514,-1092.061531,0.010188,-0.010594,1.012031,192.000000,0.000000,40.000000,127.500000,80.000000,15.500000,88.000000,0.000000,0.000000,0.000000,1771496812.525563,0.000000
166.000000,18025.050226,16149.470645,-13066.226311,-25761.793645,-19056.404419,-21877.708659,-2320.245185,-25349.359256,20331.191460,37408.147741,-24363.513215,-16191.179000,2398.073959,20059.550710,-20755.293459,-1089.580487,0.010188,-0.010594,1.012031,192.000000,0.000000,0.000000,0.000000,0.000000,0.000000,0.000000,0.000000,0.000000,0.000000,1771496812.525573,0.000000
168.000000,18065.685697,16192.385994,-13024.830881,-25719.839420,-19018.831136,-21830.814699,-2276.838097,-25307.181514,20303.877628,37373.815462,-24400.862980,-16226.740626,2355.203313,20019.585791,-20798.231160,-1110.904051,0.010188,-0.010594,1.012031,192.000000,0.000000,0.000000,0.000000,0.000000,0.000000,0.000000,0.000000,0.000000,0.000000,1771496812.525585,0.000000
170.000000,18061.841197,16189.144992,-13031.692866,-25724.890915,-19029.582325,-21830.211202,-2282.001350,-25312.568285,20352.090341,37437.093250,-24337.249915,-16161.674698,2418.436398,20096.744012,-20735.847442,-1070.916780,0.010188,-0.010594,1.012031,192.000000,0.000000,0.000000,0.000000,0.000000,0.000000,0.000000,0.000000,0.000000,0.000000,1771496812.525596,0.000000
172.000000,18024.424377,16155.103285,-13069.422611,-25762.978287,-19065.814503,-21873.640641,-2322.212138,-25348.621648,20303.654111,37381.146834,-24401.488829,-16225.712445,2356.589121,20019.764605,-20801.159239,-1104.712618,0.010188,-0.010594,1.012031,192.000000,0.000000,0.000000,0.000000,0.000000,0.000000,0.000000,0.000000,0.000000,0.000000,1771496812.525607,0.000000
174.000000,18089.266788,16219.811585,-13001.093328,-25694.291376,-18988.298653,-21804.260827,-2254.039318,-25284.807418,20340.065103,37425.358585,-24358.327610,-16184.093497,2407.037009,20080.404887,-20756.679267,-1080.617437,0.012094,-0.011297,1.016016,192.000000,0.000000,56.000000,127.500000,80.000000,15.500000,112.000000,0.000000,0.000000,0.000000,1771496812.525618,0.000000
176.000000,18028.201822,16154.656250,-13063.722916,-25760.005505,-19054.348058,-21871.628984,-2319.865205,-25346.721750,20339.036922,37422.542265,-24362.060352,-16190.016710,2404.734779,20056.779093,-20759.853215,-1078.874001,0.012094,-0.011297,1.016016,192.000000,0.000000,0.000000,0.000000,0.000000,0.000000,0.000000,0.000000,0.000000,0.000000,1771496812.525628,0.000000
178.000000,18064.881034,16191.246056,-13023.601535,-25723.862734,-19009.331645,-21839.487176,-2279.810879,-25307.807363,20304.659939,37383.829043,-24400.348890,-16229.087559,2358.198447,20010.131003,-20799.818134,-1106.009019,0.012094,-0.011297,1.016016,192.000000,0.000000,0.000000,0.000000,0.000000,0.000000,0.000000,0.000000,0.000000,0.000000,1771496812.525639,0.000000
180.000000,18067.406782,16191.156649,-13022.193375,-25723.952141,-19010.046901,-21840.537708,-2276.659283,-25304.946340,20354.414923,37446.995073,-24333.248953,-16163.552244,2433.233253,20079.466114,-20729.611305,-1074.426004,0.012094,-0.011297,1.016016,192.000000,0.000000,0.000000,0.000000,0.000000,0.000000,0.000000,0.000000,0.000000,0.000000,1771496812.525650,0.000000
182.000000,18019.596400,16143.927413,-13067.813285,-25768.543871,-19053.945727,-21888.772772,-2322.368601,-25351.326209,20306.582189,37385.080741,-24396.616149,-16226.695922,2360.523028,20014.958979,-20792.643224,-1110.479368,0.012094,-0.011297,1.016016,192.000000,0.000000,0.000000,0.000000,0.000000,0.000000,0.000000,0.000000,0.000000,0.000000,1771496812.525662,0.000000
184.000000,18081.331918,16205.439413,-13001.853287,-25701.041603,-18985.035298,-21821.136394,-2254.084021,-25287.824903,20333.851318,37418.384840,-24360.741599,-16190.731965,2399.325657,20052.733428,-20749.347895,-1092.240345,0.012094,-0.011297,1.016016,192.000000,0.000000,0.000000,0.000000,0.000000,0.000000,0.000000,0.000000,0.000000,0.000000,1771496812.525675,0.000000
186.000000,18016.981246,16141.893404,-13066.740402,-25766.174587,-19055.420942,-21886.045860,-2320.088723,-25351.840300,20330.029169,37412.551035,-24366.307183,-16196.319902,2398.789215,20048.933631,-20755.807549,-1093.112063,0.010000,-0.010000,1.014000,192.000000,0.000000,40.000000,127.500000,88.000000,15.500000,88.000000,0.000000,0.000000,0.000000,1771496812.525686,0.000000
188.000000,18055.605061,16180.964253,-13023.534480,-25722.543981,-19013.869049,-21839.554231,-2279.117975,-25311.517753,20298.982596,37375.916526,-24405.690957,-16234.161405,2359.383089,20004.476011,-20797.895884,-1113.206281,0.010000,-0.010000,1.014000,192.000000,0.000000,0.000000,0.000000,0.000000,0.000000,0.000000,0.000000,0.000000,0.000000,1771496812.525697,0.000000
190.000000,18053.816921,16176.449201,-13034.442131,-25725.852040,-19025.447252,-21837.252001,-2283.409510,-25316.882171,20351.442141,37439.149611,-24340.915601,-16169.318994,2423.040858,20086.596320,-20732.025293,-1072.570809,0.010000,-0.010000,1.014000,192.000000,0.000000,0.000000,0.000000,0.000000,0.000000,0.000000,0.000000,0.000000,0.000000,1771496812.525708,0.000000
192.000000,18012.488545,16133.623258,-13073.065945,-25765.302869,-19069.994279,-21875.071153,-2323.843816,-25357.182367,20298.021471,37383.314953,-24408.306111,-16230.898050,2345.748525,20007.404090,-20800.846315,-1104.891432,0.010000,-0.010000,1.014000,192.000000,0.000000,0.000000,0.000000,0.000000,0.000000,0.000000,0.000000,0.000000,0.000000,1771496812.525719,0.000000
194.000000,18080.057869,16200.633788,-13008.871735,-25699.320519,-19002.559066,-21813.335635,-2256.296844,-25292.876398,20320.060291,37419.837704,-24369.659945,-16192.050718,2393.402445,20054.454512,-20760.881395,-1086.004208,0.010000,-0.010000,1.014000,192.000000,0.000000,0.000000,0.000000,0.000000,0.000000,0.000000,0.000000,0.000000,0.000000,1771496812.525729,0.000000
196.000000,18013.092043,16134.360866,-13072.708317,-25763.782950,-19065.479227,-21875.317022,-2323.083856,-25357.875271,20321.960190,37420.977643,-24373.370334,-16194.643521,2385.355817,20054.633326,-20764.681192,-1082.338522,0.008000,-0.008000,1.012000,192.000000,0.000000,32.000000,127.500000,96.000000,15.500000,80.000000,0.000000,0.000000,0.000000,1771496812.525740,0.000000
198.000000,18055.359191,16175.443372,-13027.334276,-25723.102775,-19018.071177,-21830.814699,-2282.291923,-25316.636302,20295.361614,37384.186671,-24411.457707,-16234.496681,2350.844723,20017.194154,-20802.120364,-1104.064417,0.008000,-0.008000,1.012000,192.000000,0.000000,0.000000,0.000000,0.000000,0.000000,0.000000,0.000000,0.000000,0.000000,1771496812.525751,0.000000
200.000000,18062.288232,16178.863189,-13025.166157,-25723.393348,-19012.818517,-21832.155804,-2279.073272,-25311.584808,20352.447969,37449.431413,-24340.848546,-16167.396744,2415.776541,20081.634233,-20730.773596,-1066.714652,0.008000,-0.008000,1.012000,192.000000,0.000000,0.000000,0.000000,0.000000,0.000000,0.000000,0.000000,0.000000,0.000000,1771496812.525762,0.000000
202.000000,18020.959857,16141.267555,-13064.549931,-25766.442807,-19061.120637,-21881.508455,-2320.692220,-25349.739236,20306.381024,37396.882462,-24398.896026,-16225.734797,2361.551209,20026.939515,-20794.677233,-1107.506586,0.008000,-0.008000,1.012000,192.000000,0.000000,0.000000,0.000000,0.000000,0.000000,0.000000,0.000000,0.000000,0.000000,1771496812.525772,0.000000
204.000000,18085.556398,16208.121623,-12996.555924,-25698.873484,-18989.215075,-21823.639789,-2252.407641,-25285.567377,20336.086492,37435.886256,-24359.646363,-16186.082803,2401.694942,20063.909300,-20752.834767,-1094.274353,0.008000,-0.008000,1.012000,192.000000,0.000000,0.000000,0.000000,0.000000,0.000000,0.000000,0.000000,0.000000,0.000000,1771496812.525783,0.000000
206.000000,18025.631371,16145.067351,-13063.812323,-25763.201805,-19048.782474,-21891.812610,-2317.875900,-25348.196965,20333.873669,37434.723965,-24363.624974,-16189.234399,2400.353837,20055.661506,-20751.046628,-1091.905068,0.006000,-0.008000,1.006000,192.000000,0.000000,24.000000,127.500000,96.000000,15.500000,56.000000,0.000000,0.000000,0.000000,1771496812.525794,0.000000
208.000000,18061.930604,16183.378241,-13022.774520,-25724.600342,-19010.628046,-21847.332638,-2278.112147,-25311.405994,20300.278997,37390.109884,-24405.154515,-16233.535556,2356.298549,20009.728671,-20793.805515,-1118.771865,0.006000,-0.008000,1.006000,192.000000,0.000000,0.000000,0.000000,0.000000,0.000000,0.000000,0.000000,0.000000,0.000000,1771496812.525804,0.000000
210.000000,18058.242566,16177.857361,-13030.284706,-25725.069729,-19018.540563,-21838.660161,-2281.107280,-25316.703357,20348.201138,37451.398367,-24341.474395,-16169.743677,2421.476236,20078.952024,-20728.270200,-1073.509583,0.006000,-0.008000,1.006000,192.000000,0.000000,0.000000,0.000000,0.000000,0.000000,0.000000,0.000000,0.000000,0.000000,1771496812.525815,0.000000
212.000000,18017.763557,16135.590212,-13073.110649,-25763.872357,-19064.071067,-21868.365630,-2323.016801,-25357.741160,20300.837791,37395.183730,-24407.210875,-16232.037989,2354.979796,20027.386549,-20796.465373,-1098.230612,0.006000,-0.008000,1.006000,192.000000,0.000000,0.000000,0.000000,0.000000,0.000000,0.000000,0.000000,0.000000,0.000000,1771496812.525826,0.000000
214.000000,18078.403840,16197.370433,-13006.189526,-25698.851132,-18993.640720,-21802.137411,-2256.363899,-25294.977462,20328.777472,37429.963044,-24370.285794,-16195.314073,2396.554040,20063.305803,-20755.852253,-1075.923571,0.006000,-0.008000,1.006000,192.000000,0.000000,0.000000,0.000000,0.000000,0.000000,0.000000,0.000000,0.000000,0.000000,1771496812.525836,0.000000
216.000000,18016.020121,16134.942011,-13070.137867,-25764.922889,-19065.501579,-21868.656202,-2322.189787,-25356.712980,20327.950457,37429.471306,-24372.655078,-16197.973931,2392.307209,20067.150303,-20761.171968,-1075.007150,0.010000,-0.012000,1.012000,192.000000,0.000000,40.000000,127.500000,80.000000,15.500000,80.000000,0.000000,0.000000,0.000000,1771496812.525847,0.000000
218.000000,18061.394162,16180.003128,-13022.752169,-25723.594513,-19015.456023,-21829.831222,-2277.396891,-25311.182476,20299.295521,37389.998125,-24410.742451,-16239.391713,2341.702860,20010.712148,-20802.075660,-1104.086769,0.010000,-0.012000,1.012000,192.000000,0.000000,0.000000,0.000000,0.000000,0.000000,0.000000,0.000000,0.000000,0.000000,1771496812.525858,0.000000
220.000000,18068.099686,16184.518180,-13026.931945,-25725.270894,-19016.394796,-21838.973086,-2280.526135,-25311.495401,20358.281774,37455.265219,-24338.792186,-16166.659137,2424.471369,20081.455419,-20731.824128,-1069.083937,0.010000,-0.012000,1.012000,192.000000,0.000000,0.000000,0.000000,0.000000,0.000000,0.000000,0.000000,0.000000,0.000000,1771496812.525869,0.000000
222.000000,18034.236793,16151.325840,-13064.214654,-25761.950107,-19051.576442,-21876.255796,-2320.848682,-25345.179480,20313.444175,37406.024326,-24396.839666,-16224.147823,2357.907874,20023.743215,-20794.878399,-1107.774807,0.010000,-0.012000,1.012000,192.000000,0.000000,0.000000,0.000000,0.000000,0.000000,0.000000,0.000000,0.000000,0.000000,1771496812.525880,0.000000
224.000000,18104.756547,16223.991361,-12994.030177,-25693.240844,-18980.117915,-21805.221952,-2249.904245,-25275.084409,20354.660792,37452.828879,-24351.152700,-16176.918587,2404.555965,20077.499160,-20752.030105,-1088.015865,0.010000,-0.012000,1.012000,192.000000,0.000000,0.000000,0.000000,0.000000,0.000000,0.000000,0.000000,0.000000,0.000000,1771496812.525899,0.000000
226.000000,18040.919964,16162.278195,-13060.571320,-25758.217366,-19051.688200,-21873.886511,-2316.400685,-25337.490480,20356.247766,37454.482908,-24350.035113,-16176.315090,2416.625907,20075.800428,-20753.885299,-1086.048911,0.014000,-0.012000,1.004000,192.000000,0.000000,56.000000,127.500000,80.000000,15.500000,48.000000,0.000000,0.000000,0.000000,1771496812.525910,0.000000
228.000000,18075.967500,16197.996282,-13017.812433,-25718.900647,-19007.364691,-21834.458033,-2277.598057,-25299.514866,20316.260495,37408.639480,-24394.135105,-16219.722178,2353.169305,20039.702361,-20797.448849,-1115.217938,0.014000,-0.012000,1.004000,192.000000,0.000000,0.000000,0.000000,0.000000,0.000000,0.000000,0.000000,0.000000,0.000000,1771496812.525920,0.000000
230.000000,18065.372773,16189.681433,-13027.557794,-25721.895781,-19021.334531,-21838.436644,-2281.688426,-25309.953130,20366.261347,37468.363341,-24331.147889,-16156.422038,2420.403352,20090.731393,-20729.991285,-1075.275371,0.014000,-0.012000,1.004000,192.000000,0.000000,0.000000,0.000000,0.000000,0.000000,0.000000,0.000000,0.000000,0.000000,1771496812.525931,0.000000
232.000000,18018.322351,16145.045000,-13074.004719,-25761.078389,-19067.647346,-21874.780580,-2325.788418,-25354.254288,20308.862067,37405.510235,-24402.204085,-16223.834899,2342.865150,20030.716959,-20800.309873,-1107.841862,0.014000,-0.012000,1.004000,192.000000,0.000000,0.000000,0.000000,0.000000,0.000000,0.000000,0.000000,0.000000,0.000000,1771496812.959268,0.000000
234.000000,18080.527256,16208.009864,-13006.591857,-25691.430353,-19001.352072,-21798.985815,-2256.319196,-25290.529465,20339.573364,37440.267198,-24364.407285,-16185.747526,2393.603610,20070.972451,-20761.194320,-1079.164574,0.014000,-0.012000,1.004000,192.000000,0.000000,0.000000,0.000000,0.000000,0.000000,0.000000,0.000000,0.000000,0.000000,1771496812.959328,0.000000
236.000000,18018.724682,16140.597003,-13073.580035,-25759.133787,-19063.422866,-21866.532787,-2324.000278,-25355.908317,20331.191460,37434.254579,-24370.665773,-16191.380166,2377.935037,20068.022021,-20764.971765,-1072.436699,0.014000,-0.010000,1.004000,192.000000,0.000000,56.000000,127.500000,88.000000,15.500000,48.000000,0.000000,0.000000,0.000000,1771496812.959378,0.000000
238.000000,18054.956860,16173.431715,-13032.408122,-25723.974493,-19016.551258,-21822.678664,-2284.996484,-25322.447756,20301.284826,37389.260517,-24413.312902,-16236.664800,2340.004127,20021.977427,-20804.534352,-1098.632943,0.014000,-0.010000,1.004000,192.000000,0.000000,0.000000,0.000000,0.000000,0.000000,0.000000,0.000000,0.000000,0.000000,1771496812.959422,0.000000
240.000000,18048.698371,16171.956500,-13035.135035,-25725.382653,-19020.216944,-21827.841917,-2286.829327,-25325.554648,20351.620954,37444.424623,-24351.040942,-16175.801000,2409.071017,20094.754707,-20733.701674,-1061.037309,0.014000,-0.010000,1.004000,192.000000,0.000000,0.000000,0.000000,0.000000,0.000000,0.000000,0.000000,0.000000,0.000000,1771496812.959475,0.000000
242.000000,18008.197011,16132.058636,-13073.222407,-25764.699371,-19064.249881,-21873.707697,-2327.643612,-25364.267870,20301.530695,37390.758084,-24412.798812,-16234.541385,2338.573615,20028.817061,-20798.700547,-1100.197566,0.014000,-0.010000,1.004000,192.000000,0.000000,0.000000,0.000000,0.000000,0.000000,0.000000,0.000000,0.000000,0.000000,1771496812.959489,0.000000
244.000000,18083.857666,16206.869925,-13000.512183,-25696.414792,-18994.378328,-21806.384242,-2254.218132,-25290.484761,20340.020399,37428.197256,-24366.128369,-16192.453050,2387.590991,20065.429218,-20755.360515,-1086.518298,0.014000,-0.010000,1.004000,192.000000,0.000000,0.000000,0.000000,0.000000,0.000000,0.000000,0.000000,0.000000,0.000000,1771496812.959502,0.000000
246.000000,18030.325238,16152.309317,-13061.107762,-25756.853909,-19049.005991,-21875.384077,-2315.663077,-25345.157128,20348.826986,37437.137954,-24360.227509,-16186.954521,2396.755206,20074.839303,-20756.545157,-1089.468728,0.010000,-0.008000,1.006000,192.000000,0.000000,40.000000,127.500000,96.000000,15.500000,56.000000,0.000000,0.000000,0.000000,1771496812.959516,0.000000
248.000000,18078.046212,16197.996282,-13019.399407,-25713.111545,-19007.141174,-21836.737911,-2273.150059,-25299.760735,20317.311027,37401.844549,-24396.727907,-16220.750358,2354.353947,20031.968657,-20797.448849,-1118.324830,0.010000,-0.008000,1.006000,192.000000,0.000000,0.000000,0.000000,0.000000,0.000000,0.000000,0.000000,0.000000,0.000000,1771496812.959530,0.000000
250.000000,18075.878093,16194.129431,-13021.925154,-25714.787926,-19008.750499,-21836.626153,-2275.564048,-25303.761697,20380.879388,37468.385693,-24324.643531,-16149.113017,2431.802742,20099.135649,-20729.857174,-1078.158746,0.010000,-0.008000,1.006000,192.000000,0.000000,0.000000,0.000000,0.000000,0.000000,0.000000,0.000000,0.000000,0.000000,1771496812.959543,0.000000
252.000000,18024.402025,16146.743732,-13068.707355,-25756.831557,-19061.142988,-21876.255796,-2323.665002,-25350.298029,20322.943666,37406.873692,-24394.626843,-16218.090501,2343.088668,20042.116349,-20798.119402,-1112.513377,0.010000,-0.008000,1.006000,192.000000,0.000000,0.000000,0.000000,0.000000,0.000000,0.000000,0.000000,0.000000,0.000000,1771496812.959570,0.000000
254.000000,18084.416459,16211.161460,-13002.948523,-25686.915301,-19005.487145,-21803.724385,-2253.681690,-25285.030935,20346.122425,37441.831820,-24358.037038,-16181.120715,2376.772747,20081.008384,-20762.468369,-1086.026560,0.010000,-0.008000,1.006000,192.000000,0.000000,0.000000,0.000000,0.000000,0.000000,0.000000,0.000000,0.000000,0.000000,1771496812.959583,0.000000
0.000000,18020.177546,16144.150930,-13068.528541,-25754.551679,-19072.095343,-21873.975918,-2319.507577,-25349.649829,20340.892117,37439.641349,-24363.490863,-16184.249959,2360.701842,20065.451570,-20767.363401,-1079.991589,0.012000,-0.007000,1.002000,192.000000,0.000000,56.000000,127.500000,104.000000,15.500000,24.000000,0.000000,0.000000,0.000000,1771496812.959596,0.000000
2.000000,18057.795531,16183.579407,-13030.396465,-25719.258275,-19027.905944,-21837.676685,-2280.950818,-25311.920084,20307.275093,37397.642421,-24405.646253,-16228.551117,2321.943918,20022.804442,-20808.401204,-1106.321944,0.012000,-0.007000,1.002000,192.000000,0.000000,0.000000,0.000000,0.000000,0.000000,0.000000,0.000000,0.000000,0.000000,1771496812.959609,0.000000
4.000000,18048.139578,16176.538608,-13036.900823,-25723.639217,-19026.318970,-21838.995438,-2283.655379,-25320.458450,20355.376048,37457.299227,-24343.195479,-16164.155741,2383.500622,20086.685727,-20738.976686,-1066.826411,0.012000,-0.007000,1.002000,192.000000,0.000000,0.000000,0.000000,0.000000,0.000000,0.000000,0.000000,0.000000,0.000000,1771496812.959623,0.000000
6.000000,18003.637255,16128.996447,-13074.474105,-25763.760598,-19064.719267,-21873.417124,-2325.877825,-25362.926765,20307.520963,37392.859148,-24412.508239,-16235.033123,2329.431752,20022.446814,-20803.170896,-1099.772882,0.012000,-0.007000,1.002000,192.000000,0.000000,0.000000,0.000000,0.000000,0.000000,0.000000,0.000000,0.000000,0.000000,1771496812.959666,0.000000
8.000000,18074.313471,16202.153707,-13002.255619,-25696.057164,-18992.098450,-21812.821545,-2255.291016,-25294.284558,20336.935858,37431.192390,-24369.682296,-16197.325730,2365.440412,20062.769361,-20760.501416,-1083.500812,0.012000,-0.007000,1.002000,192.000000,0.000000,0.000000,0.000000,0.000000,0.000000,0.000000,0.000000,0.000000,0.000000,1771496812.959679,0.000000
10.000000,18018.456461,16143.838006,-13066.472181,-25758.507938,-19051.285869,-21879.250929,-2320.245185,-25353.136701,20343.529623,37441.407137,-24367.737695,-16191.491925,2368.457898,20073.006460,-20757.796855,-1084.730158,0.011000,-0.007500,1.002000,192.000000,0.000000,40.000000,127.500000,96.000000,15.500000,40.000000,0.000000,0.000000,0.000000,1771496812.959692,0.000000
12.000000,18057.080276,16182.350061,-13023.556831,-25721.627560,-19007.252932,-21836.603801,-2280.660245,-25313.819982,20316.484012,37401.129294,-24407.054413,-16232.954411,2331.488112,20042.295163,-20798.298216,-1113.876833,0.011000,-0.007500,1.002000,192.000000,0.000000,0.000000,0.000000,0.000000,0.000000,0.000000,0.000000,0.000000,0.000000,1771496812.959705,0.000000
14.000000,18059.181340,16185.300491,-13023.869756,-25723.750976,-19011.700930,-21837.497871,-2282.046054,-25313.842334,20366.909548,37464.429434,-24339.015703,-16166.368564,2401.136148,20104.298902,-20731.086520,-1080.818603,0.011000,-0.007500,1.002000,192.000000,0.000000,0.000000,0.000000,0.000000,0.000000,0.000000,0.000000,0.000000,0.000000,1771496812.959719,0.000000
16.000000,18025.027874,16153.181035,-13062.851198,-25756.742150,-19046.010857,-21869.371458,-2322.525063,-25349.180442,20326.788166,37413.042773,-24395.342099,-16221.443262,2344.385069,20050.610012,-20790.788030,-1112.423970,0.011000,-0.007500,1.002000,192.000000,0.000000,0.000000,0.000000,0.000000,0.000000,0.000000,0.000000,0.000000,0.000000,1771496812.959734,0.000000
18.000000,18084.952901,16213.821317,-12999.305189,-25690.089248,-18984.968243,-21802.338577,-2256.810934,-25288.875435,20354.593736,37450.280780,-24356.472416,-16183.557055,2372.503563,20083.444724,-20752.387733,-1089.647542,0.011000,-0.007500,1.002000,192.000000,0.000000,0.000000,0.000000,0.000000,0.000000,0.000000,0.000000,0.000000,0.000000,1771496812.959748,0.000000
20.000000,18019.618752,16144.843834,-13070.160218,-25754.954011,-19055.666811,-21868.902072,-2323.307374,-25355.595393,20345.630687,37449.587876,-24365.435465,-16188.586198,2366.066261,20084.316443,-20761.529596,-1084.305475,0.008500,-0.010750,1.004000,192.000000,0.000000,24.000000,127.500000,72.000000,15.500000,56.000000,0.000000,0.000000,0.000000,1771496812.959761,0.000000
22.000000,18061.170645,16186.082803,-13032.095198,-25718.028929,-19017.378273,-21823.706844,-2283.230696,-25318.402090,20313.667692,37412.461628,-24407.568503,-16232.574431,2327.084819,20041.311686,-20805.674291,-1109.004153,0.008500,-0.010750,1.004000,192.000000,0.000000,0.000000,0.000000,0.000000,0.000000,0.000000,0.000000,0.000000,0.000000,1771496812.959774,0.000000
24.000000,18053.146369,16180.204294,-13030.888203,-25722.923961,-19020.306351,-21827.216068,-2286.583458,-25325.599352,20366.686030,37467.491623,-24344.514232,-16171.196541,2389.736758,20106.377614,-20736.093311,-1069.910952,0.008500,-0.010750,1.004000,192.000000,0.000000,0.000000,0.000000,0.000000,0.000000,0.000000,0.000000,0.000000,0.000000,1771496812.959788,0.000000
26.000000,18001.290322,16129.398779,-13079.860876,-25770.332011,-19062.752314,-21869.840845,-2333.030383,-25372.493311,20304.436422,37399.542320,-24413.625826,-16239.168196,2321.943918,20044.820910,-20799.482858,-1098.990571,0.008500,-0.010750,1.004000,192.000000,0.000000,0.000000,0.000000,0.000000,0.000000,0.000000,0.000000,0.000000,0.000000,1771496812.959802,0.000000
28.000000,18069.440790,16196.945750,-13010.726930,-25703.835571,-18990.243255,-21795.901274,-2263.896437,-25306.533314,20333.247821,37425.827971,-24377.952442,-16206.065262,2356.432659,20069.899567,-20759.339125,-1080.215106,0.008500,-0.010750,1.004000,192.000000,0.000000,0.000000,0.000000,0.000000,0.000000,0.000000,0.000000,0.000000,0.000000,1771496812.959815,0.000000
30.000000,18023.306790,16150.856453,-13066.025146,-25759.580822,-19047.508424,-21863.515301,-2322.793284,-25353.695494,20336.354713,37435.372166,-24373.839721,-16198.756242,2372.570619,20079.734335,-20756.031067,-1076.839993,0.008250,-0.012375,1.004000,192.000000,0.000000,32.000000,127.500000,72.000000,15.500000,48.000000,0.000000,0.000000,0.000000,1771496812.959828,0.000000
32.000000,18075.811038,16204.008902,-13018.952372,-25718.006577,-19004.302502,-21828.803042,-2277.329836,-25302.621758,20315.522887,37406.717230,-24397.599625,-16225.377169,2334.349136,20054.074532,-20792.978500,-1106.612516,0.008250,-0.012375,1.004000,192.000000,0.000000,0.000000,0.000000,0.000000,0.000000,0.000000,0.000000,0.000000,0.000000,1771496812.959841,0.000000
34.000000,18072.123000,16201.058471,-13023.869756,-25718.565371,-19011.186839,-21839.263658,-2279.117975,-25303.471125,20372.028097,37474.264201,-24324.531773,-16151.147026,2409.048666,20111.004425,-20726.325599,-1077.063510,0.008250,-0.012375,1.004000,192.000000,0.000000,0.000000,0.000000,0.000000,0.000000,0.000000,0.000000,0.000000,0.000000,1771496812.959857,0.000000
36.000000,18025.966647,16155.595023,-13067.925044,-25759.536118,-19051.352924,-21882.134304,-2320.938089,-25346.922916,20314.271189,37407.454837,-24392.145800,-16217.352893,2331.868092,20046.787864,-20799.348748,-1119.554176,0.008250,-0.012375,1.004000,192.000000,0.000000,0.000000,0.000000,0.000000,0.000000,0.000000,0.000000,0.000000,0.000000,1771496812.959870,0.000000
38.000000,18091.189038,16217.799928,-13001.585067,-25696.593606,-18986.935197,-21812.352158,-2255.782754,-25285.589729,20341.048579,37439.060204,-24355.935974,-16181.746564,2379.432604,20092.921864,-20757.215709,-1100.935173,0.008250,-0.012375,1.004000,192.000000,0.000000,0.000000,0.000000,0.000000,0.000000,0.000000,0.000000,0.000000,0.000000,1771496812.959883,0.000000
40.000000,18031.085197,16156.109113,-13068.394431,-25758.127959,-19051.889366,-21871.919557,-2320.066371,-25347.705227,20342.881422,37439.484887,-24356.450064,-16182.439468,2363.316996,20080.315480,-20759.629698,-1094.475519,0.008125,-0.014188,1.003000,192.000000,0.000000,32.000000,127.500000,64.000000,15.500000,40.000000,0.000000,0.000000,0.000000,1771496812.959896,0.000000
42.000000,18063.361116,16190.173172,-13030.530576,-25714.452650,-19023.614409,-21825.494984,-2281.487260,-25312.031843,20301.933027,37396.368372,-24401.555884,-16227.724102,2317.205348,20043.055122,-20807.015396,-1111.596955,0.008125,-0.014188,1.003000,192.000000,0.000000,0.000000,0.000000,0.000000,0.000000,0.000000,0.000000,0.000000,0.000000,1771496812.959910,0.000000
44.000000,18059.784837,16190.195524,-13032.050494,-25713.044490,-19025.134328,-21820.376434,-2280.950818,-25312.992968,20346.524757,37459.310884,-24339.105110,-16158.076067,2383.344160,20113.954856,-20740.809529,-1064.457126,0.008125,-0.014188,1.003000,192.000000,0.000000,0.000000,0.000000,0.000000,0.000000,0.000000,0.000000,0.000000,0.000000,1771496812.959923,0.000000
46.000000,18012.041511,16143.681543,-13078.720937,-25760.050209,-19069.390782,-21867.136284,-2329.789380,-25361.026867,20296.009814,37399.162340,-24402.896989,-16223.857251,2317.138292,20051.839358,-20803.170896,-1098.409426,0.008125,-0.014188,1.003000,192.000000,0.000000,0.000000,0.000000,0.000000,0.000000,0.000000,0.000000,0.000000,0.000000,1771496812.959936,0.000000
48.000000,18070.066639,16202.131355,-13015.174927,-25697.867655,-19002.067328,-21801.623321,-2264.097603,-25302.934683,20318.719187,37422.877541,-24375.717267,-16196.856343,2351.492924,20082.684765,-20765.955241,-1079.701016,0.008125,-0.014188,1.003000,192.000000,0.000000,0.000000,0.000000,0.000000,0.000000,0.000000,0.000000,0.000000,0.000000,1771496812.959951,0.000000
50.000000,18010.610999,16142.653363,-13076.284596,-25761.413665,-19062.931128,-21866.823359,-2327.151874,-25364.401980,20316.305198,37421.201160,-24376.365468,-16199.560904,2348.318976,20085.501085,-20763.809474,-1071.341463,0.011062,-0.014094,1.000500,192.000000,0.000000,56.000000,127.500000,72.000000,15.500000,24.000000,0.000000,0.000000,0.000000,1771496812.959965,0.000000
52.000000,18053.459293,16186.663948,-13031.379942,-25724.265066,-19018.227639,-21837.810795,-2287.611638,-25321.933666,20288.589035,37383.873747,-24414.966931,-16237.313001,2320.379295,20041.289334,-20803.863800,-1101.449263,0.011062,-0.014094,1.000500,192.000000,0.000000,0.000000,0.000000,0.000000,0.000000,0.000000,0.000000,0.000000,0.000000,1771496812.959978,0.000000
54.000000,18063.562282,16194.665872,-13030.061189,-25721.985188,-19010.918619,-21840.917688,-2284.348283,-25314.691700,20347.530585,37453.298265,-24342.301410,-16163.865169,2396.285820,20098.040414,-20730.818299,-1072.302588,0.011062,-0.014094,1.000500,192.000000,0.000000,0.000000,0.000000,0.000000,0.000000,0.000000,0.000000,0.000000,0.000000,1771496812.959991,0.000000
56.000000,18025.340799,16154.566843,-13066.829809,-25760.318430,-19051.107055,-21880.927310,-2326.302508,-25351.125044,20302.156544,37398.603546,-24400.550056,-16221.063283,2322.145083,20041.065817,-20793.581998,-1112.066342,0.011062,-0.014094,1.000500,192.000000,0.000000,0.000000,0.000000,0.000000,0.000000,0.000000,0.000000,0.000000,0.000000,1771496812.960004,0.000000
58.000000,18099.481535,16226.271239,-12997.271180,-25693.710231,-18984.029470,-21811.212219,-2256.945045,-25282.236967,20339.014571,37434.098117,-24356.494767,-16180.606625,2374.626979,20090.798448,-20757.349820,-1097.716522,0.011062,-0.014094,1.000500,192.000000,0.000000,0.000000,0.000000,0.000000,0.000000,0.000000,0.000000,0.000000,0.000000,1771496812.960017,0.000000
60.000000,18038.707142,16167.888483,-13061.688907,-25752.182395,-19046.390837,-21874.869987,-2320.267537,-25343.324285,20344.133120,37442.994111,-24354.259593,-16176.583311,2369.240209,20088.496219,-20756.142826,-1092.016827,0.010531,-0.012047,1.002250,192.000000,0.000000,40.000000,127.500000,88.000000,15.500000,48.000000,0.000000,0.000000,0.000000,1771496812.960030,0.000000
62.000000,18069.664308,16204.455936,-13026.462558,-25715.279664,-19008.929313,-21831.306437,-2283.118937,-25309.997834,20310.493745,37397.888291,-24400.460649,-16219.789233,2325.162569,20040.909355,-20800.198114,-1117.520168,0.010531,-0.012047,1.002250,192.000000,0.000000,0.000000,0.000000,0.000000,0.000000,0.000000,0.000000,0.000000,0.000000,1771496812.960042,0.000000
64.000000,18067.093857,16201.729024,-13031.804625,-25717.939522,-19016.551258,-21824.355045,-2287.030493,-25314.937569,20363.042696,37457.723911,-24336.266439,-16157.003183,2391.815471,20112.077309,-20732.673494,-1070.939132,0.010531,-0.012047,1.002250,192.000000,0.000000,0.000000,0.000000,0.000000,0.000000,0.000000,0.000000,0.000000,0.000000,1771496812.960070,0.000000
66.000000,18023.887935,16156.779666,-13076.798687,-25758.083255,-19061.299451,-21857.770903,-2333.455066,-25360.892756,20308.973826,37396.122503,-24406.272102,-16224.416044,2326.838950,20058.030791,-20799.885190,-1096.867156,0.010531,-0.012047,1.002250,192.000000,0.000000,0.000000,0.000000,0.000000,0.000000,0.000000,0.000000,0.000000,0.000000,1771496812.960083,0.000000
68.000000,18084.528218,16215.363588,-13011.129261,-25693.397307,-18991.293787,-21783.004318,-2265.639873,-25298.307872,20337.427597,37421.804657,-24370.330497,-16189.703785,2357.259674,20088.026832,-20758.713276,-1068.972179,0.010531,-0.012047,1.002250,192.000000,0.000000,0.000000,0.000000,0.000000,0.000000,0.000000,0.000000,0.000000,0.000000,1771496812.960096,0.000000
70.000000,18018.165889,16147.593099,-13078.631530,-25761.234851,-19061.634727,-21854.574603,-2331.599871,-25363.530262,20332.443158,37420.217683,-24374.756142,-16193.615340,2360.835953,20080.069611,-20761.775465,-1064.211257,0.010531,-0.012047,1.002250,192.000000,0.000000,0.000000,0.000000,0.000000,0.000000,0.000000,0.000000,0.000000,0.000000,1771496812.960109,0.000000
72.000000,18059.069581,16188.407384,-13035.157387,-25725.583819,-19022.385063,-21828.333655,-2291.545545,-25323.632398,20295.093393,37372.541412,-24415.682187,-16238.810568,2303.146100,20042.831605,-20806.434251,-1095.838975,0.012000,-0.004000,1.008000,192.000000,0.000000,48.000000,127.500000,112.000000,15.500000,64.000000,0.000000,0.000000,0.000000,1771496812.960122,0.000000
74.000000,18063.227005,16192.453050,-13031.201128,-25724.823859,-19016.573610,-21836.402635,-2287.455176,-25320.704320,20351.151568,37437.383823,-24347.174090,-16170.034250,2386.585162,20108.299864,-20736.294477,-1069.396862,0.012000,-0.004000,1.008000,192.000000,0.000000,0.000000,0.000000,0.000000,0.000000,0.000000,0.000000,0.000000,0.000000,1771496812.960135,0.000000
76.000000,18027.352456,16156.779666,-13069.467314,-25762.844177,-19054.392762,-21883.676575,-2328.425923,-25356.355352,20307.520963,37381.951497,-24405.109811,-16226.382998,2329.655269,20046.184366,-20795.928931,-1110.769941,0.012000,-0.004000,1.008000,192.000000,0.000000,0.000000,0.000000,0.000000,0.000000,0.000000,0.000000,0.000000,0.000000,1771496812.960148,0.000000
78.000000,18099.727404,16228.171137,-12999.685168,-25695.230150,-18983.828304,-21816.062548,-2256.475658,-25283.063982,20344.110768,37422.855189,-24361.009820,-16182.662986,2364.389880,20094.486486,-20758.467407,-1098.588240,0.012000,-0.004000,1.008000,192.000000,0.000000,0.000000,0.000000,0.000000,0.000000,0.000000,0.000000,0.000000,0.000000,1771496812.960161,0.000000
80.000000,18040.249412,16168.179055,-13065.511056,-25757.278592,-19047.731942,-21875.317022,-2320.915737,-25341.625552,20347.083550,37429.784230,-24356.248898,-16176.672718,2373.017654,20093.078326,-20756.567509,-1095.570754,0.012000,-0.004000,1.008000,192.000000,0.000000,0.000000,0.000000,0.000000,0.000000,0.000000,0.000000,0.000000,0.000000,1771496812.960176,0.000000
82.000000,18080.102572,16207.585181,-13023.601535,-25714.452650,-19010.829212,-21836.492042,-2280.168507,-25301.884151,20315.701701,37388.858186,-24395.096230,-16216.525878,2330.325822,20047.167843,-20799.393451,-1121.029391,0.008000,-0.014000,1.006000,192.000000,0.000000,32.000000,127.500000,72.000000,15.500000,56.000000,0.000000,0.000000,0.000000,1771496813.428879,0.000000
84.000000,18076.392183,16204.947675,-13036.520843,-25718.654778,-19025.670770,-21839.509528,-2284.504746,-25308.544971,20364.316745,37446.548038,-24331.840793,-16153.046924,2388.239192,20115.050091,-20737.345009,-1080.170403,0.008000,-0.014000,1.006000,192.000000,0.000000,0.000000,0.000000,0.000000,0.000000,0.000000,0.000000,0.000000,0.000000,1771496813.428955,0.000000
86.000000,18032.046322,16161.719401,-13075.077602,-25757.949145,-19072.989413,-21878.066287,-2325.341383,-25349.001628,20309.398509,37389.260517,-24398.985433,-16215.631809,2319.440522,20055.259175,-20808.043576,-1111.529900,0.008000,-0.014000,1.006000,192.000000,0.000000,0.000000,0.000000,0.000000,0.000000,0.000000,0.000000,0.000000,0.000000,1771496813.429000,0.000000
88.000000,18089.914988,16222.851422,-13010.592820,-25694.894873,-19010.560991,-21804.797268,-2260.163696,-25290.261244,20338.522832,37418.496599,-24362.216814,-16182.908855,2358.109040,20085.501085,-20771.118494,-1090.966295,0.008000,-0.014000,1.006000,192.000000,0.000000,0.000000,0.000000,0.000000,0.000000,0.000000,0.000000,0.000000,0.000000,1771496813.429048,0.000000
90.000000,18026.413682,16159.037192,-13076.932797,-25759.625525,-19067.334422,-21860.475464,-2327.151874,-25357.428236,20332.376102,37420.798829,-24371.895119,-16186.663948,2360.970063,20097.280454,-20770.894977,-1079.589257,0.008000,-0.014000,1.006000,192.000000,0.000000,0.000000,0.000000,0.000000,0.000000,0.000000,0.000000,0.000000,0.000000,1771496813.429098,0.000000
92.000000,18061.237700,16189.703785,-13037.347858,-25720.599380,-19023.033264,-21823.930362,-2290.360903,-25323.319474,20298.043823,37377.816424,-24415.391614,-16232.641486,2319.887557,20042.272811,-20807.954169,-1099.594068,0.006000,-0.012000,1.010000,192.000000,0.000000,24.000000,127.500000,80.000000,15.500000,72.000000,0.000000,0.000000,0.000000,1771496813.429143,0.000000
94.000000,18064.299889,16194.151782,-13036.006753,-25724.488583,-19023.256781,-21831.284086,-2289.645647,-25321.218410,20355.018420,37438.948445,-24348.492843,-16169.251939,2375.968084,20110.490335,-20739.602535,-1065.373548,0.006000,-0.012000,1.010000,192.000000,0.000000,0.000000,0.000000,0.000000,0.000000,0.000000,0.000000,0.000000,0.000000,1771496813.429187,0.000000
96.000000,18024.759653,16154.343325,-13075.792858,-25765.727552,-19063.691087,-21874.892339,-2330.392877,-25358.367009,20310.650207,37378.419921,-24409.736623,-16228.908745,2320.558109,20053.024000,-20803.528524,-1107.216013,0.006000,-0.012000,1.010000,192.000000,0.000000,0.000000,0.000000,0.000000,0.000000,0.000000,0.000000,0.000000,0.000000,1771496813.429204,0.000000
98.000000,18091.792535,16222.471443,-13008.692921,-25699.924016,-18998.044014,-21810.072280,-2261.661263,-25292.384659,20346.725922,37416.440239,-24368.162378,-16186.574541,2368.346139,20093.279492,-20762.468369,-1093.983781,0.006000,-0.012000,1.010000,192.000000,0.000000,0.000000,0.000000,0.000000,0.000000,0.000000,0.000000,0.000000,0.000000,1771496813.429223,0.000000
100.000000,18033.476834,16163.798113,-13069.064983,-25762.732418,-19060.494788,-21879.720316,-2326.168397,-25353.427273,20345.809501,37411.768724,-24367.357715,-16187.937997,2358.779592,20090.843152,-20764.256509,-1096.084845,0.006000,-0.012000,1.010000,192.000000,0.000000,0.000000,0.000000,0.000000,0.000000,0.000000,0.000000,0.000000,0.000000,1771496813.429237,0.000000
102.000000,18079.655538,16207.920457,-13024.853232,-25718.230095,-19014.561953,-21834.480385,-2281.308446,-25309.349633,20316.059329,37376.452968,-24406.517971,-16227.500585,2319.641688,20051.369971,-20802.992082,-1120.068266,0.008000,-0.014000,1.010000,192.000000,0.000000,32.000000,127.500000,72.000000,15.500000,72.000000,0.000000,0.000000,0.000000,1771496813.429255,0.000000
104.000000,18069.731363,16197.213971,-13033.257488,-25722.387519,-19018.831136,-21840.493004,-2288.058673,-25317.463317,20367.021306,37447.039777,-24338.143985,-16159.305413,2392.307209,20138.117091,-20733.634619,-1078.985760,0.008000,-0.014000,1.010000,192.000000,0.000000,0.000000,0.000000,0.000000,0.000000,0.000000,0.000000,0.000000,0.000000,1771496813.429270,0.000000
106.000000,18026.257220,16153.337497,-13075.055251,-25761.570127,-19063.959308,-21880.480275,-2332.024554,-25359.305782,20311.946608,37380.073950,-24407.210875,-16224.125472,2331.354002,20047.637230,-20800.622797,-1111.954583,0.008000,-0.014000,1.010000,192.000000,0.000000,0.000000,0.000000,0.000000,0.000000,0.000000,0.000000,0.000000,0.000000,1771496813.429286,0.000000
108.000000,18093.133639,16221.309152,-13006.971837,-25695.073687,-18999.273360,-21809.826411,-2261.549504,-25292.071735,20345.295411,37411.276986,-24367.625936,-16188.899122,2366.602703,20085.858713,-20762.177797,-1088.261734,0.008000,-0.014000,1.010000,192.000000,0.000000,0.000000,0.000000,0.000000,0.000000,0.000000,0.000000,0.000000,0.000000,1771496813.429301,0.000000
110.000000,18024.983171,16153.985698,-13076.441059,-25760.944278,-19064.831026,-21875.965223,-2327.621261,-25356.891794,20339.081626,37415.032079,-24367.804750,-16186.015747,2355.091555,20080.516646,-20764.591785,-1084.976028,0.008000,-0.014000,1.010000,192.000000,0.000000,0.000000,0.000000,0.000000,0.000000,0.000000,0.000000,0.000000,0.000000,1771496813.429318,0.000000
112.000000,18059.248395,16190.463744,-13035.872643,-25721.269932,-19022.094491,-21834.838013,-2288.997446,-25319.765546,20302.782393,37369.076892,-24416.308035,-16234.273164,2314.210214,20042.764550,-20808.311797,-1108.288897,0.006000,-0.010000,1.008000,192.000000,0.000000,24.000000,127.500000,88.000000,15.500000,64.000000,0.000000,0.000000,0.000000,1771496813.429346,0.000000
114.000000,18057.236738,16184.473477,-13032.989267,-25728.221324,-19022.206250,-21841.878813,-2292.596077,-25325.532296,20354.973716,37429.046622,-24346.928221,-16171.330651,2382.874773,20103.315425,-20737.948506,-1071.207353,0.006000,-0.010000,1.008000,192.000000,0.000000,0.000000,0.000000,0.000000,0.000000,0.000000,0.000000,0.000000,0.000000,1771496813.429360,0.000000
116.000000,18015.193107,16141.915756,-13072.373041,-25769.504996,-19068.072029,-21884.280072,-2335.086743,-25368.201777,20305.352843,37364.785357,-24410.854210,-16237.894146,2317.518272,20044.999724,-20798.141753,-1108.691228,0.006000,-0.010000,1.008000,192.000000,0.000000,0.000000,0.000000,0.000000,0.000000,0.000000,0.000000,0.000000,0.000000,1771496813.429372,0.000000
118.000000,18085.154067,16211.675550,-13008.737625,-25703.992033,-19005.487145,-21817.873039,-2267.428013,-25302.062965,20337.584059,37398.514139,-24372.565672,-16200.186753,2356.767935,20091.625463,-20759.383829,-1094.117891,0.006000,-0.010000,1.008000,192.000000,0.000000,0.000000,0.000000,0.000000,0.000000,0.000000,0.000000,0.000000,0.000000,1771496813.429383,0.000000
120.000000,18031.778101,16158.366639,-13069.646128,-25765.615793,-19058.639593,-21879.139171,-2330.236415,-25359.015210,20341.339152,37403.632689,-24371.671602,-16197.459840,2363.473459,20090.999614,-20761.954279,-1093.112063,0.006000,-0.010000,1.008000,192.000000,0.000000,0.000000,0.000000,0.000000,0.000000,0.000000,0.000000,0.000000,0.000000,1771496813.429394,0.000000
122.000000,18070.133694,16196.744585,-13031.223480,-25723.750976,-19022.139194,-21835.709731,-2290.360903,-25318.469145,20313.488878,37377.279982,-24409.758974,-16231.859175,2320.312240,20057.807274,-20802.075660,-1120.314136,0.010000,-0.016000,1.008000,192.000000,0.000000,40.000000,127.500000,64.000000,15.500000,64.000000,0.000000,0.000000,0.000000,1771496813.429406,0.000000
124.000000,18070.379564,16195.872867,-13033.481006,-25720.107641,-19017.557087,-21832.804004,-2288.148080,-25317.195096,20362.305088,37441.630655,-24345.095378,-16164.848645,2384.819375,20118.782832,-20737.210898,-1081.332693,0.010000,-0.016000,1.008000,192.000000,0.000000,0.000000,0.000000,0.000000,0.000000,0.000000,0.000000,0.000000,0.000000,1771496813.429417,0.000000
126.000000,18029.051188,16153.181035,-13071.188399,-25756.943316,-19064.294584,-21872.791275,-2327.956537,-25355.796558,20314.025320,37387.159453,-24404.729832,-16224.281934,2328.269461,20067.440875,-20800.354576,-1108.713580,0.010000,-0.016000,1.008000,192.000000,0.000000,0.000000,0.000000,0.000000,0.000000,0.000000,0.000000,0.000000,0.000000,1771496813.429428,0.000000
128.000000,18093.893599,16218.559887,-13007.485927,-25692.324423,-18996.345281,-21803.836143,-2261.750670,-25292.362308,20345.876556,37422.899893,-24363.423808,-16183.914683,2365.194543,20101.348472,-20762.267204,-1086.473594,0.010000,-0.016000,1.008000,192.000000,0.000000,0.000000,0.000000,0.000000,0.000000,0.000000,0.000000,0.000000,0.000000,1771496813.429440,0.000000
130.000000,18027.285400,16154.186863,-13072.551855,-25758.552642,-19057.566709,-21874.534711,-2327.911833,-25357.316477,20345.094245,37419.256558,-24370.017573,-16188.675605,2356.075031,20097.906303,-20763.541253,-1084.484289,0.010000,-0.016000,1.008000,192.000000,0.000000,0.000000,0.000000,0.000000,0.000000,0.000000,0.000000,0.000000,0.000000,1771496813.429451,0.000000
132.000000,18064.612814,16189.681433,-13032.251660,-25721.158173,-19017.892363,-21831.932286,-2288.706874,-25319.072642,20308.482088,37377.481148,-24412.374128,-16232.976762,2319.351115,20062.635250,-20803.081489,-1109.205319,0.008000,-0.018000,1.006000,192.000000,0.000000,32.000000,127.500000,56.000000,15.500000,56.000000,0.000000,0.000000,0.000000,1771496813.429466,0.000000
134.000000,18060.231872,16187.714480,-13036.230270,-25723.370996,-19021.088662,-21835.888545,-2292.104339,-25323.922971,20358.460588,37439.082556,-24349.118692,-16168.268462,2387.881564,20117.844059,-20735.579221,-1071.430870,0.008000,-0.018000,1.006000,192.000000,0.000000,0.000000,0.000000,0.000000,0.000000,0.000000,0.000000,0.000000,0.000000,1771496813.429477,0.000000
136.000000,18016.668322,16145.492035,-13076.508114,-25764.341744,-19067.133256,-21881.374345,-2333.455066,-25364.983125,20305.710471,37381.616221,-24414.765765,-16231.434492,2328.202406,20058.746047,-20798.857009,-1106.746627,0.008000,-0.018000,1.006000,192.000000,0.000000,0.000000,0.000000,0.000000,0.000000,0.000000,0.000000,0.000000,0.000000,1771496813.429489,0.000000
138.000000,18088.707994,16214.648332,-13006.971837,-25697.308862,-18999.318063,-21818.968274,-2261.929484,-25295.044517,20335.438291,37417.580177,-24372.319802,-16191.089593,2354.577464,20099.336815,-20758.646221,-1091.256868,0.008000,-0.018000,1.006000,192.000000,0.000000,0.000000,0.000000,0.000000,0.000000,0.000000,0.000000,0.000000,0.000000,1771496813.429500,0.000000
140.000000,18032.269839,16161.339421,-13067.790934,-25758.172662,-19061.299451,-21877.351031,-2321.653345,-25350.141567,20341.719132,37419.144800,-24366.150721,-16186.373375,2366.155668,20097.235751,-20760.054381,-1090.519260,0.008000,-0.018000,1.006000,192.000000,0.000000,0.000000,0.000000,0.000000,0.000000,0.000000,0.000000,0.000000,0.000000,1771496813.429512,0.000000
142.000000,18066.982098,16195.045852,-13025.926116,-25721.851077,-19020.194592,-21836.760263,-2285.421167,-25314.803459,20311.007835,37381.973849,-24406.741489,-16228.104082,2321.385124,20060.467131,-20802.634454,-1119.464769,0.007000,-0.018000,1.005000,192.000000,0.000000,24.000000,127.500000,56.000000,15.500000,48.000000,0.000000,0.000000,0.000000,1771496813.429523,0.000000
144.000000,18068.010279,16197.415137,-13026.127282,-25723.281589,-19017.780604,-21831.462900,-2286.315237,-25315.988101,20363.020344,37443.396442,-24341.273229,-16164.312203,2384.461747,20127.254144,-20733.433453,-1080.818603,0.007000,-0.018000,1.005000,192.000000,0.000000,0.000000,0.000000,0.000000,0.000000,0.000000,0.000000,0.000000,0.000000,1771496813.429536,0.000000
146.000000,18023.284438,16152.488131,-13073.065945,-25763.738246,-19064.294584,-21867.940947,-2331.018726,-25361.205681,20311.790146,37392.657982,-24405.445088,-16226.740626,2332.628051,20058.142550,-20796.063041,-1108.579470,0.007000,-0.018000,1.005000,192.000000,0.000000,0.000000,0.000000,0.000000,0.000000,0.000000,0.000000,0.000000,0.000000,1771496813.429548,0.000000
148.000000,18083.991776,16212.077881,-13009.363474,-25699.231112,-18999.630988,-21806.071318,-2264.835210,-25300.967729,20336.310010,37422.743430,-24373.951480,-16196.230495,2359.003110,20097.191047,-20760.568471,-1087.479423,0.007000,-0.018000,1.005000,192.000000,0.000000,0.000000,0.000000,0.000000,0.000000,0.000000,0.000000,0.000000,0.000000,1771496813.429559,0.000000
150.000000,18027.397159,16153.359849,-13071.635434,-25758.753807,-19064.853378,-21864.208205,-2328.649441,-25359.417541,20334.901850,37416.216721,-24372.655078,-16197.191620,2365.015729,20093.905341,-20761.507244,-1082.673798,0.007000,-0.018000,1.005000,192.000000,0.000000,0.000000,0.000000,0.000000,0.000000,0.000000,0.000000,0.000000,0.000000,1771496813.429571,0.000000
152.000000,18069.999584,16196.789288,-13033.123378,-25714.877333,-19028.352979,-21823.148051,-2288.170432,-25318.983235,20301.038957,37383.605526,-24412.821163,-16232.105044,2312.891461,20056.756742,-20806.076623,-1106.388999,0.005500,-0.017000,1.004500,192.000000,0.000000,16.000000,127.500000,64.000000,15.500000,48.000000,0.000000,0.000000,0.000000,1771496813.429582,0.000000
154.000000,18074.291119,16202.265466,-13033.525709,-25716.129031,-19021.848622,-21824.533859,-2287.231658,-25316.815116,20357.655925,37453.700597,-24343.776625,-16162.367602,2383.970008,20133.847908,-20735.579221,-1065.842934,0.005500,-0.017000,1.004500,192.000000,0.000000,0.000000,0.000000,0.000000,0.000000,0.000000,0.000000,0.000000,0.000000,1771496813.429593,0.000000
156.000000,18032.985095,16158.545453,-13075.167009,-25762.508900,-19065.255709,-21871.070191,-2333.164493,-25358.724637,20309.689082,37395.429599,-24405.936826,-16225.712445,2328.828255,20065.786846,-20800.958073,-1102.812720,0.005500,-0.017000,1.004500,192.000000,0.000000,0.000000,0.000000,0.000000,0.000000,0.000000,0.000000,0.000000,0.000000,1771496813.429605,0.000000
158.000000,18101.604951,16224.572506,-13008.648218,-25700.393403,-18994.311272,-21811.145164,-2265.125783,-25294.441020,20339.349847,37434.254579,-24366.195424,-16187.982701,2371.810659,20114.670111,-20759.428532,-1088.775824,0.005500,-0.017000,1.004500,192.000000,0.000000,0.000000,0.000000,0.000000,0.000000,0.000000,0.000000,0.000000,0.000000,1771496813.429616,0.000000
160.000000,18030.816976,16157.271404,-13071.657785,-25763.604136,-19059.511311,-21876.725182,-2329.118827,-25361.160977,20339.059274,37434.656910,-24371.045753,-16192.050718,2369.284912,20102.622521,-20759.160311,-1089.982818,0.005500,-0.017000,1.004500,192.000000,0.000000,0.000000,0.000000,0.000000,0.000000,0.000000,0.000000,0.000000,0.000000,1771496813.429628,0.000000
162.000000,18069.440790,16196.610474,-13034.598593,-25722.029891,-19025.782529,-21838.816624,-2291.880821,-25321.486631,20300.927198,37392.143892,-24416.531553,-16235.927193,2318.121769,20047.436064,-20802.768565,-1116.916670,0.004750,-0.014500,1.003250,192.000000,0.000000,16.000000,127.500000,80.000000,15.500000,40.000000,0.000000,0.000000,0.000000,1771496813.429642,0.000000
164.000000,18076.146314,16202.868963,-13035.671477,-25716.441955,-19024.083796,-21836.335580,-2287.946914,-25315.496363,20352.783245,37456.963951,-24343.687218,-16163.127561,2396.554040,20118.849888,-20736.808567,-1078.404615,0.004750,-0.014500,1.003250,192.000000,0.000000,0.000000,0.000000,0.000000,0.000000,0.000000,0.000000,0.000000,0.000000,1771496813.429654,0.000000
166.000000,18035.197918,16162.814637,-13076.776335,-25757.770331,-19066.596814,-21874.601766,-2330.683450,-25352.555555,20308.750309,37403.297413,-24402.025271,-16218.738701,2327.040115,20065.071591,-20800.019300,-1105.539633,0.004750,-0.014500,1.003250,192.000000,0.000000,0.000000,0.000000,0.000000,0.000000,0.000000,0.000000,0.000000,0.000000,1771496813.429669,0.000000
168.000000,18105.292988,16230.987457,-13008.961142,-25688.524626,-18998.915732,-21802.316225,-2260.655434,-25285.030935,20341.428559,37445.922189,-24362.976773,-16179.511390,2361.886485,20114.938332,-20760.859044,-1085.087786,0.004750,-0.014500,1.003250,192.000000,0.000000,0.000000,0.000000,0.000000,0.000000,0.000000,0.000000,0.000000,0.000000,1771496813.429682,0.000000
170.000000,18039.757674,16163.462837,-13074.652919,-25755.065770,-19061.433561,-21865.839883,-2327.308336,-25352.332038,20339.171033,37445.653969,-24364.429637,-16181.098364,2356.924398,20109.283341,-20762.200148,-1080.393920,0.004750,-0.014500,1.003250,192.000000,0.000000,0.000000,0.000000,0.000000,0.000000,0.000000,0.000000,0.000000,0.000000,1771496813.429697,0.000000
172.000000,18068.256148,16193.794154,-13035.157387,-25719.951179,-19025.469604,-21824.958542,-2290.718531,-25319.363215,20304.548181,37402.448046,-24410.585989,-16228.126434,2316.043057,20061.540015,-20804.735518,-1107.081903,0.003375,-0.012250,1.004625,192.000000,0.000000,8.000000,127.500000,88.000000,15.500000,56.000000,0.000000,0.000000,0.000000,1771496813.429716,0.000000
174.000000,18067.719706,16193.816506,-13036.565547,-25721.381691,-19025.246087,-21829.004208,-2292.439615,-25319.564381,20352.380914,37462.998922,-24345.788282,-16166.256805,2379.767880,20130.338684,-20738.082616,-1071.430870,0.003375,-0.012250,1.004625,192.000000,0.000000,0.000000,0.000000,0.000000,0.000000,0.000000,0.000000,0.000000,0.000000,1771496813.429735,0.000000
176.000000,18032.560412,16155.751485,-13079.279730,-25757.412703,-19066.283890,-21868.097409,-2335.936110,-25357.361180,20308.817364,37410.293509,-24406.696785,-16224.796024,2324.603775,20068.066724,-20801.852143,-1102.119816,0.003375,-0.012250,1.004625,192.000000,0.000000,0.000000,0.000000,0.000000,0.000000,0.000000,0.000000,0.000000,0.000000,1771496813.429749,0.000000
178.000000,18097.246360,16222.762015,-13011.039854,-25692.480885,-18995.428860,-21805.691338,-2267.562123,-25291.781162,20336.310010,37445.408099,-24366.709514,-16184.406422,2361.215933,20107.294036,-20761.529596,-1084.171365,0.003375,-0.012250,1.004625,192.000000,0.000000,0.000000,0.000000,0.000000,0.000000,0.000000,0.000000,0.000000,0.000000,1771496813.429761,0.000000
180.000000,18042.864566,16168.939015,-13070.495495,-25754.372865,-19053.163416,-21867.002173,-2327.733019,-25349.113387,20339.305143,37458.439166,-24364.653154,-16178.349099,2360.299511,20110.803260,-20759.205015,-1082.964371,0.003375,-0.012250,1.004625,192.000000,0.000000,0.000000,0.000000,0.000000,0.000000,0.000000,0.000000,0.000000,0.000000,1771496813.429774,0.000000
182.000000,18077.487418,16203.897143,-13031.849328,-25718.833592,-19012.013854,-21828.467766,-2289.891516,-25312.411822,20305.688120,37417.602529,-24407.121468,-16223.119643,2318.881729,20067.329117,-20798.924065,-1113.966240,0.004687,-0.011125,1.005313,192.000000,0.000000,24.000000,127.500000,88.000000,15.500000,56.000000,0.000000,0.000000,0.000000,1771496813.429786,0.000000
184.000000,18077.375660,16205.506468,-13031.692866,-25717.850115,-19015.523078,-21824.176231,-2288.908039,-25310.288407,20364.316745,37480.679152,-24334.768872,-16155.058581,2395.659971,20137.401836,-20730.639485,-1077.890525,0.004687,-0.011125,1.005313,192.000000,0.000000,0.000000,0.000000,0.000000,0.000000,0.000000,0.000000,0.000000,0.000000,1771496813.429797,0.000000
186.000000,18033.208613,16157.181997,-13075.502285,-25762.598307,-19062.037058,-21871.986612,-2335.332612,-25354.276640,20312.706567,37419.323614,-24400.728870,-16219.051626,2327.800075,20085.165809,-20797.962939,-1111.552252,0.004687,-0.011125,1.005313,192.000000,0.000000,0.000000,0.000000,0.000000,0.000000,0.000000,0.000000,0.000000,0.000000,1771496813.429810,0.000000
188.000000,18103.907180,16226.159480,-13004.155517,-25691.899740,-18995.987653,-21800.550437,-2264.142306,-25285.589729,20337.114672,37452.940637,-24359.624011,-16182.148896,2358.176095,20107.830478,-20759.137959,-1090.049874,0.004687,-0.011125,1.005313,192.000000,0.000000,0.000000,0.000000,0.000000,0.000000,0.000000,0.000000,0.000000,0.000000,1771496813.429822,0.000000
190.000000,18048.050171,16167.329689,-13069.288500,-25747.667342,-19056.270308,-21864.454074,-2325.296679,-25341.469090,20339.193385,37462.820108,-24356.919450,-16176.896236,2364.501639,20117.218210,-20760.724933,-1084.640751,0.004687,-0.011125,1.005313,192.000000,0.000000,0.000000,0.000000,0.000000,0.000000,0.000000,0.000000,0.000000,0.000000,1771496813.429834,0.000000
192.000000,18087.299834,16204.344178,-13027.848366,-25709.736432,-19021.960380,-21826.076129,-2287.075196,-25301.839447,20316.573419,37419.323614,-24393.129276,-16215.050663,2329.319993,20079.734335,-20803.081489,-1108.646525,0.006344,-0.011562,1.004656,192.000000,0.000000,32.000000,127.500000,80.000000,15.500000,48.000000,0.000000,0.000000,0.000000,1771496813.429847,0.000000
194.000000,18090.920817,16208.412195,-13025.255564,-25707.590664,-19014.629008,-21821.002283,-2283.409510,-25298.732555,20366.686030,37482.556699,-24325.917581,-16149.314183,2397.537517,20150.410551,-20737.032084,-1070.827373,0.006344,-0.011562,1.004656,192.000000,0.000000,0.000000,0.000000,0.000000,0.000000,0.000000,0.000000,0.000000,0.000000,1771496813.429860,0.000000
196.000000,18041.009371,16157.025535,-13070.786067,-25754.775197,-19059.332497,-21869.393810,-2332.359830,-25348.867518,20319.210925,37425.671509,-24389.508294,-16212.793137,2326.950708,20073.520550,-20796.241855,-1102.477444,0.006344,-0.011562,1.004656,192.000000,0.000000,0.000000,0.000000,0.000000,0.000000,0.000000,0.000000,0.000000,0.000000,1771496813.429872,0.000000
198.000000,18098.386299,16216.950562,-13004.982532,-25693.821990,-18993.126630,-21805.914856,-2265.796335,-25289.166008,20343.283754,37452.515954,-24357.947631,-16184.607587,2361.037119,20101.437879,-20757.260413,-1090.407502,0.006344,-0.011562,1.004656,192.000000,0.000000,0.000000,0.000000,0.000000,0.000000,0.000000,0.000000,0.000000,0.000000,1771496813.429884,0.000000
200.000000,18036.874299,16154.656250,-13067.545064,-25757.703275,-19052.805788,-21870.936080,-2330.437580,-25351.393265,20336.265306,37450.280780,-24362.529738,-16188.407384,2367.742642,20106.221152,-20756.768674,-1092.173289,0.006344,-0.011562,1.004656,192.000000,0.000000,0.000000,0.000000,0.000000,0.000000,0.000000,0.000000,0.000000,0.000000,1771496813.429897,0.000000
202.000000,18078.023860,16196.208143,-13026.507262,-25718.990054,-19004.570723,-21830.658237,-2291.724359,-25312.478878,20304.659939,37411.321689,-24402.673471,-16229.981629,2324.268499,20072.358259,-20794.833695,-1118.950679,0.006172,-0.012781,1.006328,192.000000,0.000000,24.000000,127.500000,72.000000,15.500000,64.000000,0.000000,0.000000,0.000000,1771496813.909809,0.000000
204.000000,18083.231817,16201.349044,-13026.015523,-25719.682958,-19003.006101,-21826.679626,-2291.254972,-25311.003662,20363.757952,37474.420664,-24332.913677,-16161.205311,2396.509337,20139.435844,-20726.996151,-1079.142222,0.006172,-0.012781,1.006328,192.000000,0.000000,0.000000,0.000000,0.000000,0.000000,0.000000,0.000000,0.000000,0.000000,1771496813.909871,0.000000
206.000000,18038.841252,16155.662078,-13074.988195,-25762.061866,-19044.826215,-21865.325792,-2337.232511,-25355.103654,20312.661864,37420.798829,-24397.420811,-16221.711483,2337.858360,20075.509855,-20789.826905,-1110.032333,0.006172,-0.012781,1.006328,192.000000,0.000000,0.000000,0.000000,0.000000,0.000000,0.000000,0.000000,0.000000,0.000000,1771496813.909916,0.000000
208.000000,18106.969369,16224.550155,-13003.261447,-25694.336080,-18981.213150,-21789.933358,-2266.019853,-25287.221406,20345.116597,37458.215649,-24358.618183,-16182.484172,2376.705691,20122.314408,-20753.259451,-1085.467766,0.006172,-0.012781,1.006328,192.000000,0.000000,0.000000,0.000000,0.000000,0.000000,0.000000,0.000000,0.000000,0.000000,1771496813.909966,0.000000
210.000000,18045.993810,16158.634860,-13065.488704,-25757.680924,-19041.562860,-21857.681496,-2328.895310,-25350.163919,20339.126329,37455.958123,-24359.087570,-16183.601759,2368.144973,20117.709949,-20752.119512,-1077.555248,0.006172,-0.012781,1.006328,192.000000,0.000000,0.000000,0.000000,0.000000,0.000000,0.000000,0.000000,0.000000,0.000000,1771496813.910010,0.000000
212.000000,18073.642918,16188.876771,-13035.179738,-25725.762633,-19014.249028,-21826.657275,-2294.071292,-25318.916180,20299.899018,37409.868826,-24405.087460,-16230.249850,2320.468702,20072.246501,-20797.247684,-1105.874909,0.006172,-0.012781,1.006328,192.000000,0.000000,0.000000,0.000000,0.000000,0.000000,0.000000,0.000000,0.000000,0.000000,1771496813.910049,0.000000
214.000000,18073.911139,16190.486096,-13033.905689,-25723.236885,-19018.987598,-21827.417234,-2291.947876,-25316.055157,20345.965963,37469.078597,-24338.814537,-16165.318032,2398.632753,20128.595248,-20734.349875,-1073.084900,0.006000,-0.018000,1.004000,192.000000,0.000000,24.000000,127.500000,56.000000,15.500000,48.000000,0.000000,0.000000,0.000000,1771496813.910094,0.000000
216.000000,18030.705217,16147.257822,-13075.055251,-25764.677020,-19060.852416,-21871.651336,-2336.472551,-25357.785864,20300.167239,37402.604509,-24400.795925,-16229.579297,2324.134388,20072.917053,-20798.722899,-1107.148958,0.006000,-0.018000,1.004000,192.000000,0.000000,0.000000,0.000000,0.000000,0.000000,0.000000,0.000000,0.000000,0.000000,1771496813.910110,0.000000
218.000000,18101.336730,16214.804794,-13007.038892,-25695.319557,-18991.964339,-21801.556266,-2264.566989,-25289.657747,20331.012646,37443.284684,-24361.076875,-16187.602721,2364.345177,20103.740108,-20756.701619,-1087.568830,0.006000,-0.018000,1.004000,192.000000,0.000000,0.000000,0.000000,0.000000,0.000000,0.000000,0.000000,0.000000,0.000000,1771496813.910122,0.000000
220.000000,18038.371866,16150.968212,-13074.205884,-25757.546813,-19062.238224,-21865.549310,-2330.705801,-25350.990933,20327.793995,37446.324521,-24360.518081,-16183.668814,2358.466668,20107.025815,-20757.618041,-1085.020731,0.006000,-0.018000,1.004000,192.000000,0.000000,0.000000,0.000000,0.000000,0.000000,0.000000,0.000000,0.000000,0.000000,1771496813.910134,0.000000
222.000000,18078.605006,16189.614378,-13035.403256,-25713.916208,-19020.172241,-21827.484289,-2288.885687,-25310.914255,20287.963186,37404.415000,-24405.601550,-16229.735759,2319.708743,20070.346602,-20804.310835,-1112.915708,0.006000,-0.018000,1.004000,192.000000,0.000000,0.000000,0.000000,0.000000,0.000000,0.000000,0.000000,0.000000,0.000000,1771496813.910145,0.000000
224.000000,18081.711898,16192.900085,-13037.012581,-25713.044490,-19016.685369,-21828.110138,-2286.114071,-25308.746136,20342.032056,37467.424568,-24334.388892,-16158.500750,2386.629866,20136.552469,-20734.528689,-1072.079071,0.008000,-0.014000,1.006000,192.000000,0.000000,32.000000,127.500000,72.000000,15.500000,56.000000,0.000000,0.000000,0.000000,1771496813.910156,0.000000
226.000000,18027.643028,16138.250069,-13083.884190,-25758.485586,-19064.004012,-21874.467656,-2335.332612,-25362.189157,20288.656090,37409.779419,-24402.762878,-16224.684265,2317.227699,20076.560387,-20800.041652,-1106.456054,0.008000,-0.014000,1.006000,192.000000,0.000000,0.000000,0.000000,0.000000,0.000000,0.000000,0.000000,0.000000,0.000000,1771496813.910168,0.000000
228.000000,18091.971349,16204.075957,-13012.313904,-25689.686917,-18996.389985,-21800.639844,-2264.790507,-25295.133924,20312.684216,37439.797811,-24373.035058,-16194.598817,2348.028403,20105.997635,-20763.451846,-1087.144147,0.008000,-0.014000,1.006000,192.000000,0.000000,0.000000,0.000000,0.000000,0.000000,0.000000,0.000000,0.000000,0.000000,1771496813.910179,0.000000
230.000000,18035.332028,16144.732075,-13074.407050,-25754.372865,-19055.555052,-21855.736894,-2329.990546,-25355.014247,20312.997140,37445.452803,-24369.190558,-16187.937997,2357.192619,20119.900420,-20757.282765,-1078.426966,0.008000,-0.014000,1.006000,192.000000,0.000000,0.000000,0.000000,0.000000,0.000000,0.000000,0.000000,0.000000,0.000000,1771496813.910190,0.000000
232.000000,18074.715802,16186.731003,-13032.966916,-25715.056147,-19014.293732,-21823.460975,-2289.958571,-25314.512886,20284.386907,37410.472323,-24409.222532,-16228.707579,2318.702915,20067.887910,-20800.086355,-1105.919612,0.008000,-0.014000,1.006000,192.000000,0.000000,0.000000,0.000000,0.000000,0.000000,0.000000,0.000000,0.000000,0.000000,1771496813.910201,0.000000
234.000000,18081.264863,16190.396689,-13028.653029,-25713.022138,-19008.325816,-21821.471670,-2287.969266,-25311.294235,20339.260440,37475.337085,-24338.591020,-16161.607642,2391.167270,20134.876088,-20730.371264,-1069.754490,0.004000,-0.014000,1.004000,192.000000,0.000000,16.000000,127.500000,72.000000,15.500000,48.000000,0.000000,0.000000,0.000000,1771496813.910212,0.000000
236.000000,18034.326200,16146.006125,-13078.028033,-25760.407836,-19055.353887,-21869.371458,-2336.651365,-25358.188195,20295.495724,37416.708459,-24401.622939,-16222.337332,2326.660136,20070.972451,-20790.720974,-1103.975010,0.004000,-0.014000,1.004000,192.000000,0.000000,0.000000,0.000000,0.000000,0.000000,0.000000,0.000000,0.000000,0.000000,1771496813.910222,0.000000
238.000000,18099.570942,16211.876716,-13011.352779,-25694.649004,-18989.595054,-21802.115059,-2269.529077,-25294.753944,20324.128309,37447.442108,-24367.804750,-16189.726137,2361.685319,20108.009292,-20757.282765,-1089.446376,0.004000,-0.014000,1.004000,192.000000,0.000000,0.000000,0.000000,0.000000,0.000000,0.000000,0.000000,0.000000,0.000000,1771496813.910233,0.000000
240.000000,18045.747941,16157.159645,-13074.518809,-25753.702313,-19051.911718,-21858.530862,-2329.945842,-25352.667314,20332.264344,37457.902724,-24365.122541,-16185.680471,2367.586180,20113.440766,-20756.411047,-1084.149013,0.004000,-0.014000,1.004000,192.000000,0.000000,0.000000,0.000000,0.000000,0.000000,0.000000,0.000000,0.000000,0.000000,1771496813.910246,0.000000
242.000000,18075.855741,16189.592026,-13032.184605,-25721.336987,-19009.331645,-21823.930362,-2292.596077,-25318.402090,20301.173067,37417.960157,-24408.015538,-16229.959277,2325.207272,20071.687707,-20798.432326,-1109.831167,0.004000,-0.014000,1.004000,192.000000,0.000000,0.000000,0.000000,0.000000,0.000000,0.000000,0.000000,0.000000,0.000000,1771496813.910257,0.000000
244.000000,18081.846009,16193.570637,-13033.078674,-25717.559542,-19012.505592,-21822.790423,-2289.824461,-25314.423479,20353.319687,37479.561565,-24339.887421,-16162.836988,2395.972895,20154.970307,-20731.466500,-1072.816679,0.006000,-0.008000,1.008000,192.000000,0.000000,24.000000,127.500000,96.000000,15.500000,64.000000,0.000000,0.000000,0.000000,1771496813.910268,0.000000
246.000000,18044.026857,16157.316107,-13077.089259,-25755.915136,-19057.320840,-21862.822397,-2335.533778,-25354.120178,20309.264399,37424.509218,-24398.627806,-16221.107986,2335.377316,20075.308690,-20795.683062,-1103.617382,0.006000,-0.008000,1.008000,192.000000,0.000000,0.000000,0.000000,0.000000,0.000000,0.000000,0.000000,0.000000,0.000000,1771496813.910279,0.000000
248.000000,18102.588427,16220.146861,-13008.268238,-25686.468266,-18989.662110,-21794.001376,-2265.684577,-25289.769505,20336.555879,37460.137899,-24363.289698,-16181.321881,2361.327691,20113.843097,-20758.109779,-1083.545516,0.006000,-0.008000,1.008000,192.000000,0.000000,0.000000,0.000000,0.000000,0.000000,0.000000,0.000000,0.000000,0.000000,1771496813.910290,0.000000
250.000000,18037.611906,16155.706782,-13072.283634,-25751.109511,-19058.259613,-21858.128531,-2329.275290,-25352.086169,20334.946553,37461.322541,-24363.893195,-16184.853457,2375.230476,20117.084100,-20758.221538,-1080.103347,0.006000,-0.008000,1.008000,192.000000,0.000000,0.000000,0.000000,0.000000,0.000000,0.000000,0.000000,0.000000,0.000000,1771496813.910301,0.000000
252.000000,18073.508808,16193.414175,-13033.503358,-25709.714080,-19019.635799,-21818.878867,-2289.735054,-25313.730575,20299.831963,37415.434410,-24409.222532,-16227.969972,2319.015839,20071.553596,-20800.443983,-1107.148958,0.006000,-0.008000,1.008000,192.000000,0.000000,0.000000,0.000000,0.000000,0.000000,0.000000,0.000000,0.000000,0.000000,1771496813.910330,0.000000
254.000000,18078.895578,16197.549247,-13035.179738,-25709.490563,-19018.585267,-21822.857478,-2287.254010,-25310.534276,20350.950402,37478.466329,-24341.340285,-16157.137293,2380.416081,20145.515519,-20734.618096,-1068.905123,0.008000,-0.006000,1.000000,192.000000,0.000000,32.000000,127.500000,104.000000,15.500000,32.000000,0.000000,0.000000,0.000000,1771496813.910352,0.000000
0.000000,18032.493357,16152.555186,-13077.133963,-25758.016200,-19063.333459,-21870.332583,-2332.560996,-25354.544861,20303.944684,37414.741506,-24401.444125,-16220.437434,2319.127598,20079.756687,-20798.655844,-1105.673743,0.008000,-0.006000,1.000000,192.000000,0.000000,0.000000,0.000000,0.000000,0.000000,0.000000,0.000000,0.000000,0.000000,1771496813.910363,0.000000
2.000000,18099.280369,16220.683303,-13007.955314,-25693.710231,-18994.803011,-21805.691338,-2262.153001,-25286.416744,20332.174937,37448.380881,-24363.826139,-16185.859285,2362.534685,20111.026777,-20764.189454,-1095.704865,0.008000,-0.006000,1.000000,192.000000,0.000000,0.000000,0.000000,0.000000,0.000000,0.000000,0.000000,0.000000,0.000000,1771496813.910375,0.000000
4.000000,18039.869432,16161.607642,-13071.054288,-25754.194052,-19057.276137,-21868.477388,-2325.363734,-25345.939439,20336.645286,37455.287570,-24361.099227,-16181.858323,2360.254808,20111.607923,-20760.926099,-1094.050836,0.008000,-0.006000,1.000000,192.000000,0.000000,0.000000,0.000000,0.000000,0.000000,0.000000,0.000000,0.000000,0.000000,1771496813.910386,0.000000
6.000000,18076.481590,16200.522029,-13031.603459,-25717.626598,-19014.874877,-21832.021693,-2288.773929,-25308.992005,20308.996178,37417.021384,-24400.415945,-16224.281934,2315.797188,20068.893739,-20802.656806,-1118.235423,0.008000,-0.006000,1.000000,192.000000,0.000000,0.000000,0.000000,0.000000,0.000000,0.000000,0.000000,0.000000,0.000000,1771496813.910397,0.000000
8.000000,18082.807134,16208.568657,-13028.720084,-25711.926903,-19012.505592,-21828.423062,-2283.610676,-25304.275787,20362.059219,37480.790911,-24334.970037,-16153.762180,2384.774671,20124.527231,-20731.958238,-1077.331731,0.006000,-0.012000,0.998000,192.000000,0.000000,24.000000,127.500000,80.000000,15.500000,24.000000,0.000000,0.000000,0.000000,1771496813.910408,0.000000
10.000000,18034.572069,16159.484227,-13075.591692,-25757.233889,-19057.834930,-21865.437551,-2330.437580,-25350.767416,20317.333378,37429.292492,-24396.839666,-16210.759128,2332.493941,20078.057954,-20792.151486,-1104.220880,0.006000,-0.012000,0.998000,192.000000,0.000000,0.000000,0.000000,0.000000,0.000000,0.000000,0.000000,0.000000,0.000000,1771496813.910419,0.000000
12.000000,18103.326035,16226.338294,-13006.904782,-25688.837551,-18991.494953,-21800.930417,-2260.029585,-25283.555720,20338.992219,37455.064053,-24360.920413,-16182.327709,2356.834991,20100.834382,-20759.540291,-1089.669894,0.006000,-0.012000,0.998000,192.000000,0.000000,0.000000,0.000000,0.000000,0.000000,0.000000,0.000000,0.000000,0.000000,1771496813.910429,0.000000
14.000000,18043.289249,16166.413267,-13073.133001,-25751.355380,-19058.460779,-21862.755342,-2323.173263,-25345.157128,20341.965001,37462.820108,-24357.567651,-16177.522084,2363.071127,20108.724547,-20760.166140,-1086.272429,0.006000,-0.012000,0.998000,192.000000,0.000000,0.000000,0.000000,0.000000,0.000000,0.000000,0.000000,0.000000,0.000000,1771496813.910440,0.000000
16.000000,18071.877130,16193.727099,-13033.928041,-25720.532324,-19023.748520,-21834.189812,-2289.936219,-25315.719881,20302.983559,37419.927111,-24407.702614,-16227.589992,2312.556185,20073.118219,-20807.529486,-1117.184891,0.006000,-0.012000,0.998000,192.000000,0.000000,0.000000,0.000000,0.000000,0.000000,0.000000,0.000000,0.000000,0.000000,1771496813.910452,0.000000
18.000000,18072.123000,16196.766936,-13031.245831,-25718.721833,-19018.540563,-21832.848708,-2287.701045,-25316.256322,20359.824045,37479.762731,-24341.384988,-16163.351078,2379.857287,20122.157946,-20734.171061,-1077.734062,0.008000,-0.012000,1.000000,192.000000,0.000000,32.000000,127.500000,80.000000,15.500000,32.000000,0.000000,0.000000,0.000000,1771496813.910464,0.000000
20.000000,18032.828633,16155.058581,-13076.597521,-25763.291212,-19060.070105,-21870.936080,-2334.416191,-25359.506948,20310.806669,37429.963044,-24403.366375,-16224.416044,2331.711630,20069.474884,-20793.917274,-1108.870042,0.008000,-0.012000,1.000000,192.000000,0.000000,0.000000,0.000000,0.000000,0.000000,0.000000,0.000000,0.000000,0.000000,1771496813.910474,0.000000
22.000000,18104.644788,16226.450053,-13001.026273,-25692.927920,-18985.303519,-21803.769088,-2261.750670,-25288.786028,20338.299315,37463.267143,-24366.776570,-16188.943826,2361.864133,20114.200725,-20757.193358,-1092.083882,0.008000,-0.012000,1.000000,192.000000,0.000000,0.000000,0.000000,0.000000,0.000000,0.000000,0.000000,0.000000,0.000000,1771496813.910486,0.000000
24.000000,18049.480683,16173.230549,-13061.308928,-25750.684828,-19048.536604,-21858.821435,-2322.815636,-25344.821852,20349.877518,37475.918231,-24356.740636,-16179.846666,2371.520087,20120.705083,-20751.761884,-1085.378359,0.008000,-0.012000,1.000000,192.000000,0.000000,0.000000,0.000000,0.000000,0.000000,0.000000,0.000000,0.000000,0.000000,1771496813.910496,0.000000
26.000000,18077.040383,16199.985588,-13028.496567,-25718.341853,-19007.387043,-21825.562039,-2289.667999,-25314.557590,20316.640474,37430.901817,-24401.332367,-16222.583201,2327.777723,20081.477771,-20793.894922,-1111.932231,0.008000,-0.012000,1.000000,192.000000,0.000000,0.000000,0.000000,0.000000,0.000000,0.000000,0.000000,0.000000,0.000000,1771496813.910507,0.000000
28.000000,18081.980119,16204.768861,-13027.423683,-25715.793755,-19010.069252,-21827.685455,-2287.410472,-25311.361290,20369.502350,37485.060094,-24337.875764,-16160.713573,2393.067168,20143.190937,-20730.214802,-1078.985760,0.007000,-0.009000,0.998000,192.000000,0.000000,24.000000,127.500000,104.000000,15.500000,16.000000,0.000000,0.000000,0.000000,1771496813.910518,0.000000
30.000000,18037.410741,16159.573634,-13075.010547,-25761.704238,-19057.834930,-21873.998269,-2333.410362,-25354.455454,20320.037940,37433.069936,-24395.185637,-16218.828108,2333.298604,20091.357242,-20792.866742,-1110.501720,0.007000,-0.009000,0.998000,192.000000,0.000000,0.000000,0.000000,0.000000,0.000000,0.000000,0.000000,0.000000,0.000000,1771496813.910529,0.000000
32.000000,18098.408651,16223.365512,-13004.759014,-25695.766592,-18990.600883,-21807.412423,-2264.008196,-25291.848217,20345.161300,37457.902724,-24363.289698,-16188.474439,2364.635749,20118.581667,-20760.143788,-1097.940039,0.007000,-0.009000,0.998000,192.000000,0.000000,0.000000,0.000000,0.000000,0.000000,0.000000,0.000000,0.000000,0.000000,1771496813.910540,0.000000
34.000000,18032.292191,16159.864206,-13071.926006,-25758.463235,-19059.533663,-21873.037144,-2329.744676,-25355.863614,20342.747312,37467.133995,-24366.038962,-16184.272311,2363.585217,20110.356225,-20759.003849,-1090.496908,0.007000,-0.009000,0.998000,192.000000,0.000000,0.000000,0.000000,0.000000,0.000000,0.000000,0.000000,0.000000,0.000000,1771496813.910551,0.000000
36.000000,18070.156046,16201.550210,-13033.503358,-25719.772365,-19020.954552,-21827.059606,-2291.143214,-25315.541067,20304.123498,37421.022346,-24409.826030,-16229.624001,2312.578537,20069.117256,-20805.003739,-1118.458941,0.007000,-0.009000,0.998000,192.000000,0.000000,0.000000,0.000000,0.000000,0.000000,0.000000,0.000000,0.000000,0.000000,1771496813.910562,0.000000
38.000000,18074.626395,16203.941846,-13031.670515,-25719.526496,-19013.153793,-21825.919667,-2290.070330,-25314.401128,20364.182635,37488.122283,-24337.652247,-16158.858378,2385.780500,20144.107359,-20731.131224,-1076.035330,0.005500,-0.008500,0.996000,192.000000,0.000000,16.000000,127.500000,96.000000,15.500000,8.000000,0.000000,0.000000,0.000000,1771496813.910573,0.000000
40.000000,18038.260107,16165.273328,-13071.389564,-25759.759636,-19051.755256,-21870.421990,-2331.801037,-25352.086169,20322.340169,37432.019404,-24398.270178,-16219.789233,2338.104229,20087.758611,-20791.436230,-1109.250022,0.005500,-0.008500,0.996000,192.000000,0.000000,0.000000,0.000000,0.000000,0.000000,0.000000,0.000000,0.000000,0.000000,1771496813.910584,0.000000
42.000000,18098.073375,16225.645390,-13004.066110,-25696.861827,-18990.936159,-21808.194734,-2263.650568,-25291.289424,20352.626783,37470.956143,-24358.595831,-16181.701861,2363.071127,20114.290132,-20753.862948,-1092.754435,0.005500,-0.008500,0.996000,192.000000,0.000000,0.000000,0.000000,0.000000,0.000000,0.000000,0.000000,0.000000,0.000000,1771496813.910595,0.000000
44.000000,18030.884031,16164.401610,-13074.183532,-25760.944278,-19060.740657,-21871.360763,-2329.029420,-25355.863614,20345.206004,37463.289495,-24366.262480,-16188.452087,2363.652273,20122.336760,-20759.026201,-1092.150938,0.005500,-0.008500,0.996000,192.000000,0.000000,0.000000,0.000000,0.000000,0.000000,0.000000,0.000000,0.000000,0.000000,1771496813.910606,0.000000
46.000000,18063.875206,16195.671701,-13039.001887,-25720.331159,-19026.363674,-21837.989609,-2293.020760,-25319.743195,20304.168201,37423.816314,-24412.038852,-16229.959277,2314.456083,20072.268852,-20807.216562,-1118.235423,0.005500,-0.008500,0.996000,192.000000,0.000000,0.000000,0.000000,0.000000,0.000000,0.000000,0.000000,0.000000,0.000000,1771496813.910617,0.000000
48.000000,18068.546721,16198.242152,-13039.448922,-25714.899685,-19025.603715,-21830.926458,-2288.818632,-25315.049328,20358.415885,37484.657763,-24343.821328,-16161.719401,2381.824241,20137.871222,-20740.116625,-1080.349217,0.004750,-0.010250,1.001000,192.000000,0.000000,16.000000,127.500000,80.000000,15.500000,56.000000,0.000000,0.000000,0.000000,1771496813.910629,0.000000
50.000000,18025.541964,16152.175206,-13080.799649,-25758.954973,-19066.172131,-21872.366592,-2336.472551,-25360.021038,20312.170126,37429.292492,-24406.965006,-16223.589030,2316.914775,20085.344623,-20801.427460,-1109.093560,0.004750,-0.010250,1.001000,192.000000,0.000000,0.000000,0.000000,0.000000,0.000000,0.000000,0.000000,0.000000,0.000000,1771496813.910640,0.000000
52.000000,18091.680776,16218.448129,-13012.157442,-25693.263196,-18996.524095,-21805.557228,-2268.567952,-25294.530427,20343.641382,37461.277838,-24369.659945,-16188.139163,2353.079898,20113.127841,-20764.010640,-1092.419159,0.004750,-0.010250,1.001000,192.000000,0.000000,0.000000,0.000000,0.000000,0.000000,0.000000,0.000000,0.000000,0.000000,1771496813.910651,0.000000
54.000000,18030.012313,16157.137293,-13074.049422,-25754.015238,-19054.839796,-21868.253871,-2329.387048,-25355.751855,20340.243917,37464.854117,-24368.251785,-16185.501657,2360.925360,20119.363978,-20758.199186,-1088.060568,0.004750,-0.010250,1.001000,192.000000,0.000000,0.000000,0.000000,0.000000,0.000000,0.000000,0.000000,0.000000,0.000000,1771496813.910662,0.000000
56.000000,18059.941299,16187.781535,-13040.164177,-25725.405005,-19022.407415,-21833.541612,-2294.920658,-25324.660578,20302.000082,37420.620015,-24417.358567,-16232.753245,2318.389990,20077.007422,-20803.550876,-1118.727162,0.004750,-0.010250,1.001000,192.000000,0.000000,0.000000,0.000000,0.000000,0.000000,0.000000,0.000000,0.000000,0.000000,1771496813.910672,0.000000
58.000000,18066.646822,16192.073070,-13031.894032,-25724.130955,-19019.479337,-21835.262696,-2291.299676,-25320.301988,20356.672449,37486.222385,-24348.716360,-16165.586253,2383.679436,20152.578670,-20732.047645,-1083.456109,0.005375,-0.009125,1.002500,192.000000,0.000000,24.000000,127.500000,96.000000,15.500000,48.000000,0.000000,0.000000,0.000000,1771496813.910683,0.000000
60.000000,18021.831575,16146.296697,-13081.961940,-25766.889842,-19070.038983,-21883.497761,-2341.568749,-25364.781960,20310.806669,37433.382861,-24407.501448,-16223.678437,2323.195615,20068.916091,-20795.168971,-1117.631926,0.005375,-0.009125,1.002500,192.000000,0.000000,0.000000,0.000000,0.000000,0.000000,0.000000,0.000000,0.000000,0.000000,1771496813.910694,0.000000
62.000000,18095.994663,16220.973876,-13011.710407,-25695.408964,-18994.847714,-21809.938170,-2269.953760,-25291.065906,20340.221565,37466.418739,-24372.610375,-16187.580369,2360.388918,20109.640969,-20764.591785,-1102.231574,0.005375,-0.009125,1.002500,192.000000,0.000000,0.000000,0.000000,0.000000,0.000000,0.000000,0.000000,0.000000,0.000000,1771496813.910705,0.000000
64.000000,18044.630354,16166.927358,-13071.680137,-25753.367037,-19054.504520,-21864.968165,-2330.459932,-25345.313590,20351.196271,37482.511995,-24359.154625,-16174.079916,2377.979741,20125.309542,-20756.858081,-1093.916725,0.005375,-0.009125,1.002500,192.000000,0.000000,0.000000,0.000000,0.000000,0.000000,0.000000,0.000000,0.000000,0.000000,1771496813.910716,0.000000
66.000000,18082.449506,16205.707634,-13030.105892,-25717.157211,-19007.767023,-21825.517336,-2293.736016,-25307.650901,20322.206059,37441.161268,-24402.137029,-16217.688169,2333.052735,20082.327137,-20800.600445,-1120.917633,0.005375,-0.009125,1.002500,192.000000,0.000000,0.000000,0.000000,0.000000,0.000000,0.000000,0.000000,0.000000,0.000000,1771496814.390644,0.000000
68.000000,18080.661366,16202.690149,-13025.903764,-25718.900647,-19009.622217,-21827.685455,-2292.014932,-25309.506096,20374.576196,37504.304946,-24331.349055,-16150.498825,2399.795043,20148.130673,-20728.516069,-1081.153879,0.006687,-0.012563,1.004250,192.000000,0.000000,32.000000,127.500000,64.000000,15.500000,56.000000,0.000000,0.000000,0.000000,1771496814.390709,0.000000
70.000000,18032.672171,16151.549357,-13076.575169,-25768.275651,-19062.238224,-21872.634813,-2340.942900,-25358.523471,20317.109861,37440.848343,-24399.879503,-16217.107024,2329.968194,20091.692518,-20795.012509,-1117.497816,0.006687,-0.012563,1.004250,192.000000,0.000000,0.000000,0.000000,0.000000,0.000000,0.000000,0.000000,0.000000,0.000000,1771496814.390759,0.000000
72.000000,18097.201657,16218.336370,-13009.095253,-25699.879313,-18992.724299,-21807.434774,-2270.937237,-25293.077563,20344.691914,37466.552850,-24366.620107,-16187.759183,2371.743604,20113.619580,-20761.842520,-1101.203394,0.006687,-0.012563,1.004250,192.000000,0.000000,0.000000,0.000000,0.000000,0.000000,0.000000,0.000000,0.000000,0.000000,1771496814.390804,0.000000
74.000000,18038.908307,16156.779666,-13069.959053,-25759.111435,-19056.113846,-21869.662031,-2332.292775,-25352.264983,20344.915431,37474.487719,-24364.295526,-16182.998262,2366.267427,20117.464080,-20756.031067,-1097.604763,0.006687,-0.012563,1.004250,192.000000,0.000000,0.000000,0.000000,0.000000,0.000000,0.000000,0.000000,0.000000,0.000000,1771496814.390849,0.000000
76.000000,18072.570035,16192.833029,-13034.151558,-25724.935618,-19015.970113,-21831.731121,-2295.680618,-25316.725709,20311.611332,37433.516971,-24407.188524,-16225.354818,2326.749543,20083.131800,-20798.834658,-1120.291784,0.006687,-0.012563,1.004250,192.000000,0.000000,0.000000,0.000000,0.000000,0.000000,0.000000,0.000000,0.000000,0.000000,1771496814.390895,0.000000
78.000000,18077.889750,16199.404442,-13029.591802,-25717.805412,-19011.253895,-21827.528993,-2291.880821,-25311.875381,20360.427542,37493.821978,-24342.413168,-16158.880730,2395.391750,20144.800263,-20730.773596,-1083.523164,0.005344,-0.014281,1.003125,192.000000,0.000000,16.000000,127.500000,64.000000,15.500000,40.000000,0.000000,0.000000,0.000000,1771496814.390943,0.000000
80.000000,18033.342723,16152.711648,-13074.004719,-25764.878185,-19058.460779,-21875.182912,-2338.841836,-25355.573041,20319.277980,37440.468364,-24398.717213,-16217.352893,2341.009956,20091.446649,-20790.542160,-1114.770903,0.005344,-0.014281,1.003125,192.000000,0.000000,0.000000,0.000000,0.000000,0.000000,0.000000,0.000000,0.000000,0.000000,1771496814.390978,0.000000
82.000000,18097.089898,16217.241134,-13005.116642,-25699.745202,-18996.568799,-21810.988702,-2267.271551,-25292.921101,20343.641382,37466.306980,-24362.552090,-16187.625073,2371.229514,20128.215269,-20758.087427,-1100.264621,0.005344,-0.014281,1.003125,192.000000,0.000000,0.000000,0.000000,0.000000,0.000000,0.000000,0.000000,0.000000,0.000000,1771496814.390990,0.000000
84.000000,18026.950124,16149.470645,-13073.602387,-25762.821825,-19066.641517,-21875.629947,-2331.689278,-25360.043390,20332.443158,37464.138861,-24368.721171,-16190.597855,2359.316034,20107.651664,-20759.875567,-1097.962391,0.005344,-0.014281,1.003125,192.000000,0.000000,0.000000,0.000000,0.000000,0.000000,0.000000,0.000000,0.000000,0.000000,1771496814.391002,0.000000
86.000000,18060.298927,16182.931207,-13042.980497,-25726.790813,-19031.996314,-21843.085807,-2295.993542,-25324.951151,20293.327605,37422.586968,-24415.346910,-16234.854309,2315.394856,20062.009402,-20807.395376,-1122.884586,0.005344,-0.014281,1.003125,192.000000,0.000000,0.000000,0.000000,0.000000,0.000000,0.000000,0.000000,0.000000,0.000000,1771496814.391014,0.000000
88.000000,18066.311546,16188.094460,-13039.940660,-25723.438051,-19027.973000,-21838.436644,-2292.193746,-25320.234933,20349.497539,37484.948335,-24349.208099,-16167.575558,2390.228497,20132.260934,-20741.457730,-1084.730158,0.003672,-0.017141,1.003562,192.000000,0.000000,8.000000,127.500000,48.000000,15.500000,48.000000,0.000000,0.000000,0.000000,1771496814.391026,0.000000
90.000000,18030.459348,16149.537700,-13081.000815,-25766.062828,-19066.552110,-21875.920519,-2339.199464,-25360.155149,20305.151678,37433.561675,-24407.590855,-16223.320809,2328.358868,20077.275643,-20799.818134,-1114.994420,0.003672,-0.017141,1.003562,192.000000,0.000000,0.000000,0.000000,0.000000,0.000000,0.000000,0.000000,0.000000,0.000000,1771496814.391038,0.000000
92.000000,18104.063643,16224.393693,-13003.104985,-25695.386612,-18991.182028,-21804.216123,-2265.326949,-25286.126171,20341.629725,37471.492585,-24365.502520,-16183.534704,2363.629921,20120.213344,-20757.685096,-1095.637810,0.003672,-0.017141,1.003562,192.000000,0.000000,0.000000,0.000000,0.000000,0.000000,0.000000,0.000000,0.000000,0.000000,1771496814.391050,0.000000
94.000000,18044.943278,16165.966233,-13062.493570,-25753.948182,-19059.153683,-21869.080886,-2325.654307,-25343.480747,20347.977620,37479.583917,-24354.773683,-16173.766991,2375.275180,20131.098644,-20752.387733,-1089.982818,0.003672,-0.017141,1.003562,192.000000,0.000000,0.000000,0.000000,0.000000,0.000000,0.000000,0.000000,0.000000,0.000000,1771496814.391062,0.000000
96.000000,18070.580729,16192.430698,-13030.597631,-25725.650874,-19024.664941,-21841.185908,-2294.473624,-25315.496363,20307.878591,37425.626805,-24404.260445,-16223.231402,2324.246147,20083.601187,-20800.846315,-1121.990516,0.003672,-0.017141,1.003562,192.000000,0.000000,0.000000,0.000000,0.000000,0.000000,0.000000,0.000000,0.000000,0.000000,1771496814.391073,0.000000
98.000000,18065.372773,16188.943826,-13027.960125,-25721.940484,-19025.603715,-21842.169385,-2289.802109,-25318.826773,20358.393533,37485.708295,-24340.513270,-16159.998317,2394.207107,20142.945068,-20730.952410,-1083.321999,0.003672,-0.017141,1.003562,192.000000,0.000000,0.000000,0.000000,0.000000,0.000000,0.000000,0.000000,0.000000,0.000000,1771496814.391084,0.000000
100.000000,18015.886011,16135.031418,-13081.134925,-25770.868453,-19078.018555,-21891.678499,-2342.082839,-25370.593413,20295.406317,37418.608358,-24414.408137,-16230.138091,2316.758313,20064.289279,-20796.085393,-1117.766037,0.003672,-0.017141,1.003562,192.000000,0.000000,0.000000,127.500000,64.000000,15.500000,56.000000,0.000000,0.000000,0.000000,1771496814.391096,0.000000
102.000000,18093.893599,16214.558925,-13007.932962,-25695.610129,-18997.887552,-21808.328844,-2268.255027,-25294.820999,20326.877573,37456.092233,-24376.141951,-16190.396689,2361.372395,20109.663321,-20757.215709,-1093.804967,0.003672,-0.017141,1.003562,192.000000,0.000000,0.000000,0.000000,0.000000,0.000000,0.000000,0.000000,0.000000,0.000000,1771496814.391108,0.000000
104.000000,18039.288287,16161.942919,-13070.719012,-25753.590554,-19054.839796,-21863.358839,-2331.376354,-25351.370913,20335.773568,37470.598515,-24367.536529,-16181.523047,2362.802906,20126.807109,-20750.241965,-1083.769033,0.003672,-0.017141,1.003562,192.000000,0.000000,0.000000,0.000000,0.000000,0.000000,0.000000,0.000000,0.000000,0.000000,1771496814.391120,0.000000
106.000000,18076.548645,16198.599779,-13031.357590,-25713.916208,-19013.891401,-21822.231629,-2293.087815,-25311.942436,20311.320759,37439.417832,-24407.792021,-16221.935001,2329.498807,20094.195914,-20796.979463,-1109.384133,0.003672,-0.017141,1.003562,192.000000,0.000000,0.000000,0.000000,0.000000,0.000000,0.000000,0.000000,0.000000,0.000000,1771496814.391132,0.000000
108.000000,18080.124924,16197.169268,-13032.676343,-25717.514839,-19020.418110,-21824.265638,-2291.254972,-25312.277712,20364.160283,37497.957051,-24338.322799,-16153.695125,2390.563773,20162.502845,-20730.393616,-1077.644655,0.003672,-0.017141,1.003562,192.000000,0.000000,0.000000,0.000000,0.000000,0.000000,0.000000,0.000000,0.000000,0.000000,1771496814.391145,0.000000
110.000000,18027.218345,16148.487168,-13083.168934,-25765.660496,-19072.967061,-21880.435572,-2338.171284,-25360.490425,20307.856239,37435.483925,-24406.249750,-16220.213916,2320.200481,20081.634233,-20801.650977,-1116.715505,0.003672,-0.017141,1.003562,192.000000,0.000000,0.000000,127.500000,64.000000,15.500000,80.000000,0.000000,0.000000,0.000000,1771496814.391156,0.000000
112.000000,18094.295930,16217.107024,-13009.497584,-25697.822952,-19008.415223,-21814.564981,-2266.019853,-25291.937624,20332.532565,37468.653914,-24371.515140,-16186.529837,2361.394746,20120.302751,-20769.933852,-1103.639734,0.003672,-0.017141,1.003562,192.000000,0.000000,0.000000,0.000000,0.000000,0.000000,0.000000,0.000000,0.000000,0.000000,1771496814.391171,0.000000
114.000000,18039.824729,16161.987622,-13067.500361,-25758.932621,-19056.896157,-21871.651336,-2328.850607,-25349.873346,20334.052483,37468.050416,-24362.373276,-16183.020614,2355.203313,20118.849888,-20760.657878,-1097.425949,0.003672,-0.017141,1.003562,192.000000,0.000000,0.000000,0.000000,0.000000,0.000000,0.000000,0.000000,0.000000,0.000000,1771496814.391182,0.000000
116.000000,18078.806171,16202.354873,-13032.922212,-25717.514839,-19016.752424,-21825.539687,-2295.568859,-25311.875381,20310.717262,37427.727869,-24403.746355,-16225.243059,2318.769970,20081.947158,-20802.589751,-1122.236386,0.003672,-0.017141,1.003562,192.000000,0.000000,0.000000,0.000000,0.000000,0.000000,0.000000,0.000000,0.000000,0.000000,1771496814.391194,0.000000
118.000000,18092.351328,16213.106062,-13030.798797,-25713.737394,-19008.258761,-21817.224838,-2291.076158,-25304.834581,20368.831798,37498.694658,-24332.578401,-16150.029439,2404.220689,20157.317240,-20731.712369,-1078.762243,0.003672,-0.017141,1.003562,192.000000,0.000000,0.000000,0.000000,0.000000,0.000000,0.000000,0.000000,0.000000,0.000000,1771496814.391206,0.000000
120.000000,18043.244546,16167.016765,-13070.942530,-25758.284421,-19056.873805,-21859.022601,-2336.226682,-25349.113387,20323.368349,37448.246771,-24392.123448,-16209.239210,2331.063429,20100.119126,-20790.408050,-1113.720371,0.008000,-0.014000,1.006000,192.000000,0.000000,32.000000,127.500000,72.000000,15.500000,56.000000,0.000000,0.000000,0.000000,1771496814.391217,0.000000
122.000000,18108.243419,16234.943716,-13002.076805,-25692.950272,-18988.164543,-21799.701071,-2266.198667,-25282.795761,20351.196271,37472.409007,-24357.210023,-16177.522084,2365.194543,20136.194841,-20755.919308,-1099.437606,0.008000,-0.014000,1.006000,192.000000,0.000000,0.000000,0.000000,0.000000,0.000000,0.000000,0.000000,0.000000,0.000000,1771496814.391228,0.000000
124.000000,18046.552604,16170.995375,-13065.421649,-25753.769368,-19055.465645,-21869.125589,-2327.554205,-25344.844204,20350.592774,37476.901707,-24354.036075,-16175.689241,2365.283950,20128.237620,-20754.153520,-1098.007095,0.008000,-0.014000,1.006000,192.000000,0.000000,0.000000,0.000000,0.000000,0.000000,0.000000,0.000000,0.000000,0.000000,1771496814.391240,0.000000
126.000000,18074.425229,16198.555076,-13030.821148,-25722.119298,-19028.710607,-21839.598935,-2294.384217,-25316.546895,20310.180820,37429.627768,-24400.035965,-16223.186698,2317.674734,20081.947158,-20801.203942,-1126.103237,0.008000,-0.014000,1.006000,192.000000,0.000000,0.000000,0.000000,0.000000,0.000000,0.000000,0.000000,0.000000,0.000000,1771496814.391251,0.000000
128.000000,18074.827561,16199.225628,-13024.875584,-25722.342816,-19025.670770,-21837.006132,-2291.746711,-25318.156221,20359.153492,37486.132978,-24337.808709,-16163.842817,2382.718311,20148.197728,-20734.461633,-1091.189813,0.008000,-0.014000,1.006000,192.000000,0.000000,0.000000,0.000000,0.000000,0.000000,0.000000,0.000000,0.000000,0.000000,1771496814.391263,0.000000
130.000000,18032.448653,16156.198520,-13071.009585,-25768.722685,-19070.597776,-21885.084735,-2339.110057,-25362.166806,20308.862067,37427.034965,-24401.198256,-16226.070073,2319.082894,20090.127896,-20794.006681,-1125.544444,0.008000,-0.008000,1.008000,192.000000,0.000000,32.000000,127.500000,96.000000,15.500000,64.000000,0.000000,0.000000,0.000000,1771496814.391276,0.000000
132.000000,18097.380471,16222.717312,-13002.926171,-25699.745202,-18998.267531,-21813.313283,-2268.478545,-25294.373965,20345.317763,37455.265219,-24362.529738,-16190.709614,2361.260636,20111.205591,-20755.762846,-1110.524072,0.008000,-0.008000,1.008000,192.000000,0.000000,0.000000,0.000000,0.000000,0.000000,0.000000,0.000000,0.000000,0.000000,1771496814.391287,0.000000
134.000000,18040.562337,16168.179055,-13067.925044,-25756.831557,-19059.108980,-21878.468618,-2329.431752,-25351.080340,20348.916393,37461.233134,-24360.719247,-16183.579407,2357.192619,20138.139443,-20752.074808,-1103.326810,0.008000,-0.008000,1.008000,192.000000,0.000000,0.000000,0.000000,0.000000,0.000000,0.000000,0.000000,0.000000,0.000000,1771496814.391299,0.000000
136.000000,18076.727459,16207.495774,-13033.413951,-25717.604246,-19022.228601,-21838.257830,-2292.864298,-25313.350596,20316.193440,37418.898930,-24403.902817,-16223.857251,2314.098455,20079.332004,-20800.265169,-1128.539578,0.008000,-0.008000,1.008000,192.000000,0.000000,0.000000,0.000000,0.000000,0.000000,0.000000,0.000000,0.000000,0.000000,1771496814.391311,0.000000
138.000000,18081.980119,16211.809660,-13026.462558,-25713.536228,-19016.931238,-21829.540650,-2287.432824,-25307.919122,20372.452780,37493.687867,-24333.606581,-16150.789398,2393.290686,20152.601022,-20730.661837,-1086.853574,0.008000,-0.008000,1.008000,192.000000,0.000000,0.000000,0.000000,0.000000,0.000000,0.000000,0.000000,0.000000,0.000000,1771496814.391323,0.000000
140.000000,18046.597308,16172.135314,-13067.969748,-25754.261107,-19055.398590,-21869.751438,-2329.498807,-25343.637209,20327.168146,37442.301207,-24390.603529,-16207.540477,2328.694144,20102.868390,-20793.492591,-1120.671764,0.014000,-0.010000,1.006000,192.000000,0.000000,56.000000,127.500000,88.000000,15.500000,56.000000,0.000000,0.000000,0.000000,1771496814.391335,0.000000
142.000000,18120.939210,16248.935908,-12998.701691,-25683.741353,-18980.475543,-21792.168533,-2257.950873,-25270.904633,20363.199158,37478.578088,-24349.811596,-16167.486151,2372.704729,20140.531080,-20757.305116,-1101.136339,0.014000,-0.010000,1.006000,192.000000,0.000000,0.000000,0.000000,0.000000,0.000000,0.000000,0.000000,0.000000,0.000000,1771496814.391347,0.000000
144.000000,18062.355287,16191.603683,-13063.812323,-25744.091063,-19034.387950,-21843.644600,-2323.709705,-25330.539087,20365.322574,37492.257356,-24342.234354,-16157.047886,2376.012787,20152.332801,-20747.537404,-1091.636847,0.014000,-0.010000,1.006000,192.000000,0.000000,0.000000,0.000000,0.000000,0.000000,0.000000,0.000000,0.000000,0.000000,1771496814.391360,0.000000
146.000000,18096.978140,16227.053550,-13031.223480,-25710.451688,-19000.927389,-21812.419213,-2292.126690,-25298.062002,20330.230335,37451.778347,-24391.721117,-16202.578390,2330.616394,20117.508783,-20795.258378,-1117.430761,0.014000,-0.010000,1.006000,192.000000,0.000000,0.000000,0.000000,0.000000,0.000000,0.000000,0.000000,0.000000,0.000000,1771496814.391372,0.000000
148.000000,18101.090860,16229.534594,-13026.395503,-25704.081440,-18996.278226,-21808.440603,-2287.321065,-25294.262206,20386.333214,37511.815132,-24321.827212,-16135.254936,2410.501529,20170.236548,-20725.431529,-1076.460013,0.014000,-0.010000,1.006000,192.000000,0.000000,0.000000,0.000000,0.000000,0.000000,0.000000,0.000000,0.000000,0.000000,1771496814.391384,0.000000
150.000000,18054.532177,16181.165419,-13074.563512,-25749.790758,-19046.547299,-21856.429798,-2334.080915,-25341.156166,20338.478129,37455.108756,-24382.422791,-16196.565771,2344.228607,20120.906248,-20787.010585,-1110.188795,0.012000,-0.012000,1.004000,192.000000,0.000000,48.000000,127.500000,80.000000,15.500000,48.000000,0.000000,0.000000,0.000000,1771496814.391397,0.000000
152.000000,18117.608800,16243.526786,-13008.134128,-25681.103847,-18983.895360,-21786.066507,-2264.276417,-25278.928909,20359.578175,37478.198108,-24355.377180,-16169.833084,2377.108023,20146.968382,-20754.332334,-1095.034313,0.012000,-0.012000,1.004000,192.000000,0.000000,0.000000,0.000000,0.000000,0.000000,0.000000,0.000000,0.000000,0.000000,1771496814.391408,0.000000
154.000000,18051.849967,16177.924416,-13071.523675,-25744.806319,-19048.156625,-21852.406484,-2327.822426,-25342.094939,20359.153492,37480.545042,-24353.700799,-16166.972061,2375.878677,20144.934373,-20752.477140,-1087.725292,0.012000,-0.012000,1.004000,192.000000,0.000000,0.000000,0.000000,0.000000,0.000000,0.000000,0.000000,0.000000,0.000000,1771496814.391420,0.000000
156.000000,18075.989851,16201.170230,-13035.760884,-25715.100850,-19023.592058,-21825.137356,-2295.501804,-25313.954093,20320.172050,37433.561675,-24402.293492,-16216.280009,2320.647516,20104.410661,-20800.600445,-1120.045915,0.012000,-0.012000,1.004000,192.000000,0.000000,0.000000,0.000000,0.000000,0.000000,0.000000,0.000000,0.000000,0.000000,1771496814.391432,0.000000
158.000000,18087.880980,16211.586143,-13027.915421,-25710.094060,-19020.239296,-21827.350179,-2286.225830,-25305.371023,20370.619937,37492.369114,-24335.238258,-16153.225738,2387.099253,20159.306545,-20737.233250,-1086.630057,0.012000,-0.012000,1.004000,192.000000,0.000000,0.000000,0.000000,0.000000,0.000000,0.000000,0.000000,0.000000,0.000000,1771496814.391443,0.000000
160.000000,18046.060866,16168.089648,-13070.562550,-25754.305810,-19057.164378,-21870.131418,-2332.382182,-25348.979276,20327.101091,37440.982454,-24392.369317,-16211.228515,2333.969156,20112.747861,-20795.437192,-1120.247080,0.013000,-0.012000,1.003000,192.000000,0.000000,56.000000,127.500000,80.000000,15.500000,40.000000,0.000000,0.000000,0.000000,1771496814.391456,0.000000
162.000000,18122.034445,16247.058361,-12996.645331,-25683.249615,-18977.592168,-21794.269597,-2259.381385,-25274.413857,20358.885271,37483.942507,-24352.985543,-16170.615395,2369.441374,20146.208423,-20752.119512,-1100.152862,0.013000,-0.012000,1.003000,192.000000,0.000000,0.000000,0.000000,0.000000,0.000000,0.000000,0.000000,0.000000,0.000000,1771496814.391467,0.000000
164.000000,18060.365982,16185.233436,-13061.644204,-25745.208650,-19043.798035,-21859.156711,-2324.000278,-25334.383587,20365.926071,37489.865719,-24345.274192,-16161.831160,2386.316942,20151.237565,-20746.017485,-1093.134414,0.013000,-0.012000,1.003000,192.000000,0.000000,0.000000,0.000000,0.000000,0.000000,0.000000,0.000000,0.000000,0.000000,1771496814.391479,0.000000
166.000000,18089.020918,16213.016655,-13028.138939,-25712.977435,-19007.208229,-21822.991588,-2292.864298,-25304.365194,20329.157451,37446.682149,-24393.643367,-16211.116756,2328.470627,20106.869353,-20793.134963,-1121.185854,0.013000,-0.012000,1.003000,192.000000,0.000000,0.000000,0.000000,0.000000,0.000000,0.000000,0.000000,0.000000,0.000000,1771496814.391491,0.000000
168.000000,18091.010224,16215.721216,-13023.936811,-25712.284531,-19005.733014,-21826.456109,-2287.611638,-25303.091145,20383.740411,37511.010469,-24325.850526,-16144.463854,2400.733817,20176.182112,-20722.391691,-1083.590219,0.013000,-0.012000,1.003000,192.000000,0.000000,0.000000,0.000000,0.000000,0.000000,0.000000,0.000000,0.000000,0.000000,1771496814.391503,0.000000
170.000000,18036.829595,16163.418134,-13072.507152,-25760.206671,-19056.158549,-21876.144037,-2332.650403,-25350.678009,20330.833832,37446.212762,-24389.351832,-16209.105099,2335.779647,20111.473812,-20786.272977,-1121.476426,0.013500,-0.010000,1.006500,192.000000,0.000000,56.000000,127.500000,96.000000,15.500000,72.000000,0.000000,0.000000,0.000000,1771496814.391515,0.000000
172.000000,18101.180267,16230.026332,-13008.715273,-25692.078554,-18995.965302,-21811.033405,-2261.169524,-25285.522674,20347.731751,37471.313771,-24361.747427,-16178.818486,2363.674624,20141.872184,-20760.881395,-1110.054685,0.013500,-0.010000,1.006500,192.000000,0.000000,0.000000,0.000000,0.000000,0.000000,0.000000,0.000000,0.000000,0.000000,1771496814.391526,0.000000
174.000000,18044.362133,16172.358831,-13068.282672,-25747.935563,-19058.170206,-21868.767961,-2321.630993,-25342.877250,20352.313859,37477.169928,-24358.394666,-16171.889445,2373.375281,20148.130673,-20759.070904,-1101.359856,0.013500,-0.010000,1.006500,192.000000,0.000000,0.000000,0.000000,0.000000,0.000000,0.000000,0.000000,0.000000,0.000000,1771496814.391538,0.000000
176.000000,18077.800343,16201.751375,-13038.577204,-25714.609112,-19026.475433,-21834.189812,-2291.031455,-25311.718918,20317.288675,37436.735622,-24403.031099,-16214.514221,2317.831197,20098.286283,-20806.121326,-1126.192644,0.013500,-0.010000,1.006500,192.000000,0.000000,0.000000,0.000000,0.000000,0.000000,0.000000,0.000000,0.000000,0.000000,1771496814.391551,0.000000
178.000000,18084.572921,16208.009864,-13030.865852,-25709.110583,-19017.199459,-21821.315208,-2284.348283,-25306.555665,20374.062106,37499.968708,-24336.333494,-16149.314183,2384.439395,20170.460066,-20735.333352,-1085.803042,0.013500,-0.010000,1.006500,192.000000,0.000000,0.000000,0.000000,0.000000,0.000000,0.000000,0.000000,0.000000,0.000000,1771496814.391562,0.000000
180.000000,18039.780025,16161.250014,-13081.023166,-25756.630392,-19061.232395,-21867.784484,-2333.857397,-25353.941364,20330.006818,37448.380881,-24396.750259,-16208.076919,2338.484208,20115.720643,-20794.118439,-1114.122702,0.013750,-0.010000,1.006250,192.000000,0.000000,56.000000,127.500000,88.000000,15.500000,56.000000,0.000000,0.000000,0.000000,1771496814.391574,0.000000
182.000000,18109.495116,16231.456844,-13008.312942,-25684.702478,-18994.803011,-21797.085917,-2260.074289,-25283.689831,20347.396475,37473.392483,-24367.737695,-16181.835971,2357.438488,20129.757539,-20763.876529,-1101.650429,0.013750,-0.010000,1.006250,192.000000,0.000000,0.000000,0.000000,0.000000,0.000000,0.000000,0.000000,0.000000,0.000000,1771496814.391586,0.000000
184.000000,18057.862587,16178.103230,-13065.041669,-25741.542964,-19045.385009,-21853.524071,-2320.893386,-25335.657637,20364.316745,37490.066885,-24351.018590,-16164.334555,2376.258657,20155.931432,-20753.080637,-1089.491080,0.013750,-0.010000,1.006250,192.000000,0.000000,0.000000,0.000000,0.000000,0.000000,0.000000,0.000000,0.000000,0.000000,1771496814.391597,0.000000
186.000000,18095.257055,16214.894201,-13030.955259,-25705.623711,-19009.353996,-21815.034367,-2288.662170,-25299.693680,20333.471338,37453.253562,-24391.944634,-16202.488983,2336.271386,20115.899457,-20796.666538,-1115.083827,0.013750,-0.010000,1.006250,192.000000,0.000000,0.000000,0.000000,0.000000,0.000000,0.000000,0.000000,0.000000,0.000000,1771496814.870948,0.000000
188.000000,18108.377529,16225.041893,-13024.048570,-25700.751031,-18996.233522,-21803.254998,-2282.560144,-25291.401183,20392.435240,37521.001699,-24321.961322,-16135.746674,2419.621041,20177.590272,-20725.878564,-1074.940094,0.013750,-0.010000,1.006250,192.000000,0.000000,0.000000,0.000000,0.000000,0.000000,0.000000,0.000000,0.000000,0.000000,1771496814.871010,0.000000
190.000000,18059.986002,16176.091573,-13069.713184,-25749.433130,-19044.669753,-21849.768978,-2333.455066,-25338.831584,20345.429521,37464.049454,-24381.528721,-16194.732928,2346.486133,20118.089928,-20786.541198,-1109.831167,0.012875,-0.009000,1.005125,192.000000,0.000000,48.000000,127.500000,96.000000,15.500000,48.000000,0.000000,0.000000,0.000000,1771496814.871050,0.000000
192.000000,18126.594201,16245.158463,-12996.600627,-25680.120370,-18969.523188,-21780.657384,-2260.700138,-25272.133979,20372.050449,37492.212652,-24350.102168,-16164.915701,2380.997226,20152.735132,-20748.967916,-1093.492042,0.012875,-0.009000,1.005125,192.000000,0.000000,0.000000,0.000000,0.000000,0.000000,0.000000,0.000000,0.000000,0.000000,1771496814.871091,0.000000
194.000000,18054.979212,16175.018689,-13068.349727,-25748.851985,-19041.719322,-21852.093560,-2330.661098,-25342.094939,20365.769609,37493.553757,-24350.191575,-16163.462837,2383.992360,20155.394990,-20744.229346,-1089.424025,0.012875,-0.009000,1.005125,192.000000,0.000000,0.000000,0.000000,0.000000,0.000000,0.000000,0.000000,0.000000,0.000000,1771496814.871135,0.000000
196.000000,18086.159895,16207.272256,-13031.871680,-25715.905513,-19005.733014,-21814.676740,-2294.697141,-25308.299101,20323.770681,37445.564562,-24402.405250,-16214.268352,2330.012897,20118.291094,-20795.437192,-1120.448246,0.012875,-0.009000,1.005125,192.000000,0.000000,0.000000,0.000000,0.000000,0.000000,0.000000,0.000000,0.000000,0.000000,1771496814.871174,0.000000
198.000000,18095.212352,16214.134242,-13022.551003,-25712.485696,-18998.267531,-21813.872077,-2286.829327,-25301.705337,20384.388612,37512.440981,-24329.315046,-16146.341401,2409.316887,20171.868226,-20722.123471,-1080.773900,0.012875,-0.009000,1.005125,192.000000,0.000000,0.000000,0.000000,0.000000,0.000000,0.000000,0.000000,0.000000,0.000000,1771496814.871220,0.000000
200.000000,18045.367962,16167.486151,-13071.523675,-25760.094912,-19050.928241,-21864.856406,-2333.812694,-25346.677047,20337.092321,37453.968817,-24389.977680,-16206.311131,2337.411325,20105.237675,-20784.238968,-1115.016772,0.008438,-0.010500,1.002563,192.000000,0.000000,16.000000,127.500000,80.000000,15.500000,32.000000,0.000000,0.000000,0.000000,1771496814.871251,0.000000
202.000000,18108.399881,16230.003980,-13003.619075,-25691.542112,-18984.968243,-21798.516428,-2263.695271,-25281.588767,20361.455722,37479.762731,-24356.070084,-16175.622186,2371.676549,20140.776949,-20753.035933,-1102.186871,0.008438,-0.010500,1.002563,192.000000,0.000000,0.000000,0.000000,0.000000,0.000000,0.000000,0.000000,0.000000,0.000000,1771496814.871263,0.000000
204.000000,18056.365020,16174.884579,-13063.991137,-25747.086197,-19046.681410,-21857.189757,-2321.318069,-25336.439948,20368.474170,37485.440074,-24350.795072,-16169.073125,2382.561848,20158.725400,-20749.817282,-1094.967257,0.008438,-0.010500,1.002563,192.000000,0.000000,0.000000,0.000000,0.000000,0.000000,0.000000,0.000000,0.000000,0.000000,1771496814.871275,0.000000
206.000000,18088.953863,16209.060396,-13029.681209,-25711.703385,-19012.304427,-21827.260772,-2287.030493,-25300.900674,20328.822175,37443.441146,-24392.972814,-16211.586143,2337.299566,20097.414565,-20798.521733,-1124.180987,0.008438,-0.010500,1.002563,192.000000,0.000000,0.000000,0.000000,0.000000,0.000000,0.000000,0.000000,0.000000,0.000000,1771496814.871287,0.000000
208.000000,18096.888733,16218.649294,-13020.561698,-25706.741298,-19009.778680,-21821.538725,-2278.581533,-25292.831694,20382.242844,37513.357402,-24319.972017,-16138.428883,2403.304267,20171.957633,-20726.750282,-1085.691283,0.008438,-0.010500,1.002563,192.000000,0.000000,0.000000,0.000000,0.000000,0.000000,0.000000,0.000000,0.000000,0.000000,1771496814.871305,0.000000
210.000000,18049.748903,16169.050773,-13071.367213,-25752.763540,-19056.829102,-21868.835016,-2330.258766,-25341.267924,20339.305143,37456.673379,-24381.528721,-16200.723195,2335.131447,20112.323178,-20790.229236,-1117.609575,0.006219,-0.012250,1.002281,192.000000,0.000000,16.000000,127.500000,72.000000,15.500000,40.000000,0.000000,0.000000,0.000000,1771496814.871317,0.000000
212.000000,18118.301704,16238.743512,-13001.406253,-25682.579062,-18984.342394,-21793.219065,-2258.666129,-25270.859929,20365.411981,37489.217518,-24348.582250,-16166.837951,2369.866058,20155.149121,-20757.081599,-1100.488138,0.006219,-0.012250,1.002281,192.000000,0.000000,0.000000,0.000000,0.000000,0.000000,0.000000,0.000000,0.000000,0.000000,1771496814.871329,0.000000
214.000000,18053.749866,16174.258730,-13067.410954,-25746.326237,-19047.195500,-21858.106179,-2323.217967,-25334.808270,20368.451818,37494.716048,-24344.134253,-16160.065372,2374.537572,20144.733208,-20752.566547,-1094.341409,0.006219,-0.012250,1.002281,192.000000,0.000000,0.000000,0.000000,0.000000,0.000000,0.000000,0.000000,0.000000,0.000000,1771496814.871341,0.000000
216.000000,18081.108401,16201.192582,-13033.570413,-25716.531362,-19016.551258,-21826.277295,-2289.913868,-25307.069755,20327.101091,37443.776422,-24397.666681,-16213.106062,2330.795208,20100.141478,-20799.728727,-1124.560967,0.006219,-0.012250,1.002281,192.000000,0.000000,0.000000,0.000000,0.000000,0.000000,0.000000,0.000000,0.000000,0.000000,1771496814.871352,0.000000
218.000000,18081.711898,16201.773727,-13029.748265,-25717.246618,-19009.264589,-21825.070301,-2285.421167,-25306.734479,20376.543150,37502.807379,-24330.834965,-16149.694163,2396.509337,20160.982926,-20727.666703,-1085.288952,0.006219,-0.012250,1.002281,192.000000,0.000000,0.000000,0.000000,0.000000,0.000000,0.000000,0.000000,0.000000,0.000000,1771496814.871364,0.000000
220.000000,18029.028836,16147.749561,-13080.911408,-25763.738246,-19063.624032,-21876.345202,-2339.981775,-25358.188195,20323.033073,37441.965931,-24399.521875,-16215.721216,2322.033324,20098.308635,-20792.352652,-1121.252909,0.007109,-0.014125,1.004141,192.000000,0.000000,32.000000,127.500000,64.000000,15.500000,56.000000,0.000000,0.000000,0.000000,1771496814.871376,0.000000
222.000000,18100.196791,16216.592934,-13006.703616,-25695.073687,-18986.957548,-21803.970254,-2266.891571,-25288.674270,20351.665658,37468.743321,-24367.089494,-16185.971044,2362.355871,20131.411568,-20755.494625,-1102.991534,0.007109,-0.014125,1.004141,192.000000,0.000000,0.000000,0.000000,0.000000,0.000000,0.000000,0.000000,0.000000,0.000000,1771496814.871394,0.000000
224.000000,18039.757674,16156.556148,-13064.996966,-25756.764502,-19050.280041,-21864.163502,-2329.029420,-25349.538070,20358.952327,37471.000847,-24360.160453,-16181.634805,2363.696976,20133.356170,-20746.978610,-1097.940039,0.007109,-0.014125,1.004141,192.000000,0.000000,0.000000,0.000000,0.000000,0.000000,0.000000,0.000000,0.000000,0.000000,1771496814.871406,0.000000
226.000000,18072.368869,16196.364605,-13032.989267,-25719.906476,-19019.568744,-21830.814699,-2294.250106,-25313.149430,20318.070986,37429.806582,-24409.133125,-16227.075902,2312.913813,20089.814972,-20798.857009,-1126.930252,0.007109,-0.014125,1.004141,192.000000,0.000000,0.000000,0.000000,0.000000,0.000000,0.000000,0.000000,0.000000,0.000000,1771496814.871417,0.000000
228.000000,18082.136581,16207.920457,-13031.268183,-25711.681034,-19016.998293,-21821.024635,-2287.924562,-25304.253436,20378.912434,37501.041591,-24331.349055,-16151.415247,2385.959314,20160.267670,-20729.454843,-1082.964371,0.007109,-0.014125,1.004141,192.000000,0.000000,0.000000,0.000000,0.000000,0.000000,0.000000,0.000000,0.000000,0.000000,1771496814.871429,0.000000
230.000000,18035.689656,16163.284023,-13078.430364,-25755.199880,-19058.818407,-21864.543481,-2337.187807,-25349.471015,20323.323646,37445.363396,-24397.376108,-16212.547268,2315.461912,20102.197838,-20795.571303,-1116.849615,0.007109,-0.014125,1.004141,192.000000,0.000000,0.000000,0.000000,0.000000,0.000000,0.000000,0.000000,0.000000,0.000000,1771496814.871440,0.000000
232.000000,18109.003378,16235.211937,-13005.608381,-25687.027059,-18981.123743,-21792.436754,-2267.115088,-25279.666517,20363.534434,37478.868661,-24357.925279,-16176.672718,2357.371432,20145.783740,-20755.852253,-1100.041103,0.010000,-0.014000,1.008000,192.000000,0.000000,40.000000,127.500000,72.000000,15.500000,64.000000,0.000000,0.000000,0.000000,1771496814.871452,0.000000
234.000000,18053.146369,16182.662986,-13063.879378,-25745.253354,-19036.868994,-21851.355952,-2327.084819,-25333.958904,20374.509141,37493.397295,-24347.866994,-16163.664003,2365.149840,20152.735132,-20746.509224,-1091.681551,0.010000,-0.014000,1.008000,192.000000,0.000000,0.000000,0.000000,0.000000,0.000000,0.000000,0.000000,0.000000,0.000000,1771496814.871464,0.000000
236.000000,18084.662328,16211.362626,-13031.268183,-25713.111545,-19002.804935,-21818.387129,-2294.093644,-25301.548875,20340.556841,37450.839573,-24393.151628,-16209.395672,2324.134388,20107.450498,-20792.084431,-1122.415200,0.010000,-0.014000,1.008000,192.000000,0.000000,0.000000,0.000000,0.000000,0.000000,0.000000,0.000000,0.000000,0.000000,1771496814.871502,0.000000
